Data from Location2.07152019.Energy5.Lamp.07192019.3%Agarose_HRD10591_14-57-19-358.txt Node
Date: Fri Jul 19 14:57:19 EDT 2019
User: cochatt
Spectrometer: HR+D1059
Trigger mode: 1
Integration Time (sec): 1.000000E-1
Scans to average: 1
Electric dark correction enabled: true
Nonlinearity correction enabled: false
Boxcar width: 0
XAxis mode: Wavelengths
Number of Pixels in Spectrum: 2048
>>>>>Begin Spectral Data<<<<<
223.165	-12.5
223.4	-12.5
223.635	-12.5
223.869	-18.5
224.104	-12.5
224.338	-16.5
224.573	-13.5
224.808	-5.5
225.042	-14.5
225.277	-8.5
225.511	-8.5
225.746	9.5
225.98	-5.5
226.215	13.5
226.449	9.5
226.683	20.5
226.918	42.5
227.152	20.5
227.387	37.5
227.621	34.5
227.856	56.5
228.09	54.5
228.324	46.5
228.559	63.5
228.793	64.5
229.027	50.5
229.262	67.5
229.496	67.5
229.73	71.5
229.964	74.5
230.199	71.5
230.433	65.5
230.667	82.5
230.901	69.5
231.136	71.5
231.37	90.5
231.604	66.5
231.838	90.5
232.072	89.5
232.306	85.5
232.541	72.5
232.775	95.5
233.009	85.5
233.243	70.5
233.477	75.5
233.711	78.5
233.945	100.5
234.179	96.5
234.413	76.5
234.647	98.5
234.881	90.5
235.115	77.5
235.349	79.5
235.583	86.5
235.817	78.5
236.051	83.5
236.285	75.5
236.519	72.5
236.753	71.5
236.987	67.5
237.221	66.5
237.455	78.5
237.689	64.5
237.922	79.5
238.156	83.5
238.39	74.5
238.624	75.5
238.858	78.5
239.091	75.5
239.325	84.5
239.559	75.5
239.793	76.5
240.027	71.5
240.26	87.5
240.494	95.5
240.728	82.5
240.961	71.5
241.195	56.5
241.429	89.5
241.662	77.5
241.896	56.5
242.13	67.5
242.363	71.5
242.597	79.5
242.83	79.5
243.064	67.5
243.298	73.5
243.531	80.5
243.765	76.5
243.998	74.5
244.232	78.5
244.465	83.5
244.699	76.5
244.932	68.5
245.166	66.5
245.399	72.5
245.633	79.5
245.866	90.5
246.099	68.5
246.333	86.5
246.566	76.5
246.8	71.5
247.033	68.5
247.266	72.5
247.5	79.5
247.733	92.5
247.966	85.5
248.2	77.5
248.433	81.5
248.666	83.5
248.899	89.5
249.133	82.5
249.366	74.5
249.599	85.5
249.832	73.5
250.066	83.5
250.299	85.5
250.532	69.5
250.765	78.5
250.998	72.5
251.231	71.5
251.465	68.5
251.698	70.5
251.931	76.5
252.164	83.5
252.397	70.5
252.63	72.5
252.863	81.5
253.096	88.5
253.329	78.5
253.562	85.5
253.795	75.5
254.028	55.5
254.261	94.5
254.494	79.5
254.727	78.5
254.96	67.5
255.193	71.5
255.426	83.5
255.659	84.5
255.892	95.5
256.124	79.5
256.357	89.5
256.59	77.5
256.823	80.5
257.056	75.5
257.289	79.5
257.521	70.5
257.754	82.5
257.987	81.5
258.22	77.5
258.452	83.5
258.685	81.5
258.918	79.5
259.151	73.5
259.383	79.5
259.616	89.5
259.849	72.5
260.081	88.5
260.314	91.5
260.547	82.5
260.779	68.5
261.012	82.5
261.244	78.5
261.477	90.5
261.71	89.5
261.942	86.5
262.175	89.5
262.407	78.5
262.64	74.5
262.872	83.5
263.105	87.5
263.337	68.5
263.57	66.5
263.802	76.5
264.035	89.5
264.267	79.5
264.499	81.5
264.732	67.5
264.964	81.5
265.197	84.5
265.429	88.5
265.661	83.5
265.894	76.5
266.126	89.5
266.358	76.5
266.591	82.5
266.823	77.5
267.055	73.5
267.287	81.5
267.52	77.5
267.752	85.5
267.984	83.5
268.216	89.5
268.448	72.5
268.681	84.5
268.913	75.5
269.145	97.5
269.377	80.5
269.609	82.5
269.841	83.5
270.073	66.5
270.306	80.5
270.538	68.5
270.77	72.5
271.002	86.5
271.234	70.5
271.466	73.5
271.698	86.5
271.93	77.5
272.162	77.5
272.394	87.5
272.626	80.5
272.858	67.5
273.09	72.5
273.322	69.5
273.553	81.5
273.785	71.5
274.017	75.5
274.249	79.5
274.481	88.5
274.713	69.5
274.945	82.5
275.176	70.5
275.408	83.5
275.64	80.5
275.872	90.5
276.104	96.5
276.335	88.5
276.567	83.5
276.799	80.5
277.031	91.5
277.262	90.5
277.494	85.5
277.726	71.5
277.957	62.5
278.189	89.5
278.421	67.5
278.652	80.5
278.884	78.5
279.115	73.5
279.347	79.5
279.579	85.5
279.81	71.5
280.042	79.5
280.273	84.5
280.505	73.5
280.736	74.5
280.968	83.5
281.199	90.5
281.431	77.5
281.662	76.5
281.894	89.5
282.125	97.5
282.356	76.5
282.588	68.5
282.819	100.5
283.051	77.5
283.282	81.5
283.513	86.5
283.745	81.5
283.976	66.5
284.207	84.5
284.439	92.5
284.67	82.5
284.901	90.5
285.132	82.5
285.364	73.5
285.595	76.5
285.826	78.5
286.057	78.5
286.288	69.5
286.52	90.5
286.751	92.5
286.982	83.5
287.213	98.5
287.444	86.5
287.675	92.5
287.906	84.5
288.138	83.5
288.369	82.5
288.6	79.5
288.831	78.5
289.062	91.5
289.293	82.5
289.524	87.5
289.755	82.5
289.986	80.5
290.217	87.5
290.448	86.5
290.679	80.5
290.91	82.5
291.141	81.5
291.371	77.5
291.602	95.5
291.833	95.5
292.064	82.5
292.295	80.5
292.526	100.5
292.757	83.5
292.987	75.5
293.218	84.5
293.449	78.5
293.68	85.5
293.91	78.5
294.141	81.5
294.372	71.5
294.603	87.5
294.833	76.5
295.064	80.5
295.295	85.5
295.525	70.5
295.756	80.5
295.987	81.5
296.217	91.5
296.448	88.5
296.679	97.5
296.909	87.5
297.14	83.5
297.37	86.5
297.601	90.5
297.831	83.5
298.062	96.5
298.292	82.5
298.523	82.5
298.753	95.5
298.984	83.5
299.214	101.5
299.445	86.5
299.675	88.5
299.905	86.5
300.136	80.5
300.366	88.5
300.597	93.5
300.827	90.5
301.057	88.5
301.288	91.5
301.518	86.5
301.748	90.5
301.979	79.5
302.209	86.5
302.439	71.5
302.669	93.5
302.9	83.5
303.13	84.5
303.36	82.5
303.59	89.5
303.82	83.5
304.051	92.5
304.281	93.5
304.511	86.5
304.741	81.5
304.971	80.5
305.201	88.5
305.431	79.5
305.661	88.5
305.891	85.5
306.121	95.5
306.352	85.5
306.582	80.5
306.812	82.5
307.042	85.5
307.272	93.5
307.502	78.5
307.731	86.5
307.961	81.5
308.191	82.5
308.421	76.5
308.651	87.5
308.881	91.5
309.111	91.5
309.341	91.5
309.571	76.5
309.8	79.5
310.03	88.5
310.26	81.5
310.49	85.5
310.72	82.5
310.949	97.5
311.179	98.5
311.409	92.5
311.639	78.5
311.868	83.5
312.098	83.5
312.328	77.5
312.557	82.5
312.787	87.5
313.017	94.5
313.246	95.5
313.476	77.5
313.706	82.5
313.935	84.5
314.165	84.5
314.394	86.5
314.624	77.5
314.853	87.5
315.083	79.5
315.312	84.5
315.542	80.5
315.771	90.5
316.001	89.5
316.23	76.5
316.46	80.5
316.689	86.5
316.919	83.5
317.148	86.5
317.377	84.5
317.607	92.5
317.836	81.5
318.065	86.5
318.295	72.5
318.524	80.5
318.753	92.5
318.983	85.5
319.212	75.5
319.441	81.5
319.67	84.5
319.9	77.5
320.129	62.5
320.358	76.5
320.587	93.5
320.816	86.5
321.046	78.5
321.275	81.5
321.504	75.5
321.733	90.5
321.962	90.5
322.191	103.5
322.42	92.5
322.649	76.5
322.878	81.5
323.108	83.5
323.337	90.5
323.566	97.5
323.795	79.5
324.024	81.5
324.253	84.5
324.482	79.5
324.71	84.5
324.939	87.5
325.168	84.5
325.397	90.5
325.626	84.5
325.855	71.5
326.084	95.5
326.313	82.5
326.542	82.5
326.77	78.5
326.999	78.5
327.228	96.5
327.457	81.5
327.686	80.5
327.914	74.5
328.143	88.5
328.372	72.5
328.6	81.5
328.829	82.5
329.058	94.5
329.287	83.5
329.515	83.5
329.744	87.5
329.972	92.5
330.201	83.5
330.43	95.5
330.658	94.5
330.887	88.5
331.115	86.5
331.344	91.5
331.572	91.5
331.801	82.5
332.03	82.5
332.258	87.5
332.486	89.5
332.715	83.5
332.943	79.5
333.172	77.5
333.4	79.5
333.629	64.5
333.857	98.5
334.085	76.5
334.314	88.5
334.542	86.5
334.771	85.5
334.999	99.5
335.227	103.5
335.455	85.5
335.684	105.5
335.912	76.5
336.14	94.5
336.369	94.5
336.597	88.5
336.825	91.5
337.053	81.5
337.281	93.5
337.51	87.5
337.738	83.5
337.966	85.5
338.194	81.5
338.422	87.5
338.65	83.5
338.878	94.5
339.106	100.5
339.334	84.5
339.562	85.5
339.79	85.5
340.018	84.5
340.246	68.5
340.474	91.5
340.702	80.5
340.93	87.5
341.158	83.5
341.386	82.5
341.614	84.5
341.842	87.5
342.07	73.5
342.298	94.5
342.526	77.5
342.754	74.5
342.981	85.5
343.209	92.5
343.437	91.5
343.665	95.5
343.893	82.5
344.12	81.5
344.348	82.5
344.576	86.5
344.804	83.5
345.031	79.5
345.259	72.5
345.487	98.5
345.714	86.5
345.942	72.5
346.17	77.5
346.397	74.5
346.625	79.5
346.853	91.5
347.08	78.5
347.308	75.5
347.535	86.5
347.763	87.5
347.99	85.5
348.218	73.5
348.445	73.5
348.673	88.5
348.9	94.5
349.128	79.5
349.355	90.5
349.583	76.5
349.81	83.5
350.037	89.5
350.265	82.5
350.492	74.5
350.72	88.5
350.947	81.5
351.174	91.5
351.402	79.5
351.629	85.5
351.856	80.5
352.083	76.5
352.311	79.5
352.538	86.5
352.765	95.5
352.992	78.5
353.22	87.5
353.447	86.5
353.674	73.5
353.901	84.5
354.128	84.5
354.355	76.5
354.583	84.5
354.81	87.5
355.037	77.5
355.264	95.5
355.491	71.5
355.718	70.5
355.945	83.5
356.172	72.5
356.399	68.5
356.626	67.5
356.853	91.5
357.08	81.5
357.307	81.5
357.534	83.5
357.761	80.5
357.988	86.5
358.215	84.5
358.441	96.5
358.668	81.5
358.895	80.5
359.122	93.5
359.349	87.5
359.576	85.5
359.802	85.5
360.029	84.5
360.256	94.5
360.483	93.5
360.709	83.5
360.936	76.5
361.163	80.5
361.39	81.5
361.616	85.5
361.843	85.5
362.07	91.5
362.296	86.5
362.523	82.5
362.749	88.5
362.976	87.5
363.203	98.5
363.429	78.5
363.656	90.5
363.882	75.5
364.109	94.5
364.335	90.5
364.562	79.5
364.788	74.5
365.015	86.5
365.241	104.5
365.468	89.5
365.694	88.5
365.92	93.5
366.147	95.5
366.373	91.5
366.599	91.5
366.826	104.5
367.052	89.5
367.278	84.5
367.505	86.5
367.731	91.5
367.957	60.5
368.184	71.5
368.41	92.5
368.636	87.5
368.862	91.5
369.089	85.5
369.315	97.5
369.541	87.5
369.767	92.5
369.993	87.5
370.219	94.5
370.445	95.5
370.672	90.5
370.898	100.5
371.124	93.5
371.35	96.5
371.576	88.5
371.802	86.5
372.028	92.5
372.254	88.5
372.48	86.5
372.706	92.5
372.932	97.5
373.158	73.5
373.384	90.5
373.61	89.5
373.835	96.5
374.061	84.5
374.287	85.5
374.513	84.5
374.739	96.5
374.965	80.5
375.191	68.5
375.416	82.5
375.642	99.5
375.868	106.5
376.094	80.5
376.319	92.5
376.545	78.5
376.771	91.5
376.997	92.5
377.222	89.5
377.448	85.5
377.674	97.5
377.899	92.5
378.125	98.5
378.35	99.5
378.576	96.5
378.802	114.5
379.027	105.5
379.253	107.5
379.478	96.5
379.704	99.5
379.929	103.5
380.155	89.5
380.38	95.5
380.606	92.5
380.831	86.5
381.057	86.5
381.282	84.5
381.507	101.5
381.733	98.5
381.958	94.5
382.184	96.5
382.409	101.5
382.634	94.5
382.86	101.5
383.085	98.5
383.31	101.5
383.535	99.5
383.761	109.5
383.986	101.5
384.211	102.5
384.436	92.5
384.662	89.5
384.887	95.5
385.112	99.5
385.337	103.5
385.562	95.5
385.787	91.5
386.013	104.5
386.238	104.5
386.463	84.5
386.688	112.5
386.913	100.5
387.138	104.5
387.363	101.5
387.588	101.5
387.813	112.5
388.038	96.5
388.263	88.5
388.488	99.5
388.713	104.5
388.938	94.5
389.163	100.5
389.387	103.5
389.612	109.5
389.837	91.5
390.062	90.5
390.287	88.5
390.512	86.5
390.736	103.5
390.961	116.5
391.186	98.5
391.411	107.5
391.636	99.5
391.86	103.5
392.085	96.5
392.31	90.5
392.534	100.5
392.759	92.5
392.984	105.5
393.208	100.5
393.433	99.5
393.658	97.5
393.882	119.5
394.107	111.5
394.331	109.5
394.556	101.5
394.78	95.5
395.005	93.5
395.229	119.5
395.454	107.5
395.678	104.5
395.903	98.5
396.127	111.5
396.352	110.5
396.576	97.5
396.801	110.5
397.025	102.5
397.249	108.5
397.474	105.5
397.698	112.5
397.922	93.5
398.147	100.5
398.371	106.5
398.595	106.5
398.82	104.5
399.044	110.5
399.268	113.5
399.492	88.5
399.717	94.5
399.941	103.5
400.165	111.5
400.389	110.5
400.613	108.5
400.837	110.5
401.062	118.5
401.286	103.5
401.51	112.5
401.734	99.5
401.958	103.5
402.182	122.5
402.406	120.5
402.63	103.5
402.854	125.5
403.078	89.5
403.302	128.5
403.526	113.5
403.75	113.5
403.974	123.5
404.198	120.5
404.422	122.5
404.645	121.5
404.869	102.5
405.093	123.5
405.317	115.5
405.541	99.5
405.765	117.5
405.988	105.5
406.212	118.5
406.436	122.5
406.66	128.5
406.883	114.5
407.107	124.5
407.331	111.5
407.555	117.5
407.778	127.5
408.002	126.5
408.226	123.5
408.449	132.5
408.673	125.5
408.896	115.5
409.12	113.5
409.344	120.5
409.567	108.5
409.791	108.5
410.014	117.5
410.238	124.5
410.461	117.5
410.685	127.5
410.908	126.5
411.132	131.5
411.355	110.5
411.578	122.5
411.802	107.5
412.025	120.5
412.249	116.5
412.472	118.5
412.695	120.5
412.919	121.5
413.142	108.5
413.365	117.5
413.589	129.5
413.812	131.5
414.035	132.5
414.258	122.5
414.482	116.5
414.705	121.5
414.928	116.5
415.151	131.5
415.374	119.5
415.597	115.5
415.821	116.5
416.044	132.5
416.267	126.5
416.49	118.5
416.713	128.5
416.936	141.5
417.159	134.5
417.382	124.5
417.605	144.5
417.828	128.5
418.051	117.5
418.274	129.5
418.497	134.5
418.72	129.5
418.943	114.5
419.166	135.5
419.389	138.5
419.611	138.5
419.834	145.5
420.057	123.5
420.28	137.5
420.503	138.5
420.726	139.5
420.948	131.5
421.171	143.5
421.394	127.5
421.617	157.5
421.839	142.5
422.062	140.5
422.285	140.5
422.507	118.5
422.73	126.5
422.953	126.5
423.175	130.5
423.398	115.5
423.621	131.5
423.843	133.5
424.066	143.5
424.288	138.5
424.511	142.5
424.733	138.5
424.956	149.5
425.178	144.5
425.401	135.5
425.623	140.5
425.846	140.5
426.068	149.5
426.291	119.5
426.513	138.5
426.735	132.5
426.958	132.5
427.18	135.5
427.402	128.5
427.625	131.5
427.847	129.5
428.069	118.5
428.292	127.5
428.514	122.5
428.736	141.5
428.958	132.5
429.181	138.5
429.403	142.5
429.625	135.5
429.847	114.5
430.069	113.5
430.292	125.5
430.514	137.5
430.736	132.5
430.958	127.5
431.18	118.5
431.402	124.5
431.624	113.5
431.846	111.5
432.068	107.5
432.29	99.5
432.512	109.5
432.734	128.5
432.956	150.5
433.178	139.5
433.4	135.5
433.622	150.5
433.844	151.5
434.066	133.5
434.287	106.5
434.509	102.5
434.731	95.5
434.953	113.5
435.175	117.5
435.397	126.5
435.618	97.5
435.84	115.5
436.062	126.5
436.284	131.5
436.505	134.5
436.727	114.5
436.949	117.5
437.17	123.5
437.392	140.5
437.614	138.5
437.835	107.5
438.057	111.5
438.278	119.5
438.5	134.5
438.721	141.5
438.943	153.5
439.165	142.5
439.386	150.5
439.608	146.5
439.829	159.5
440.05	141.5
440.272	147.5
440.493	146.5
440.715	125.5
440.936	141.5
441.158	136.5
441.379	141.5
441.6	152.5
441.822	148.5
442.043	140.5
442.264	132.5
442.486	137.5
442.707	143.5
442.928	144.5
443.149	145.5
443.371	136.5
443.592	128.5
443.813	136.5
444.034	141.5
444.255	151.5
444.476	141.5
444.698	135.5
444.919	155.5
445.14	279.5
445.361	199.5
445.582	150.5
445.803	160.5
446.024	154.5
446.245	144.5
446.466	141.5
446.687	140.5
446.908	151.5
447.129	148.5
447.35	157.5
447.571	140.5
447.792	151.5
448.013	147.5
448.234	140.5
448.455	122.5
448.675	140.5
448.896	144.5
449.117	116.5
449.338	134.5
449.559	128.5
449.779	139.5
450	124.5
450.221	141.5
450.442	152.5
450.662	144.5
450.883	141.5
451.104	137.5
451.324	150.5
451.545	132.5
451.766	130.5
451.986	124.5
452.207	131.5
452.428	124.5
452.648	130.5
452.869	120.5
453.089	120.5
453.31	124.5
453.53	126.5
453.751	104.5
453.971	105.5
454.192	104.5
454.412	114.5
454.633	106.5
454.853	112.5
455.073	138.5
455.294	103.5
455.514	108.5
455.734	118.5
455.955	130.5
456.175	107.5
456.395	116.5
456.616	115.5
456.836	114.5
457.056	105.5
457.276	101.5
457.497	120.5
457.717	108.5
457.937	103.5
458.157	118.5
458.377	111.5
458.598	110.5
458.818	98.5
459.038	98.5
459.258	98.5
459.478	93.5
459.698	92.5
459.918	107.5
460.138	99.5
460.358	115.5
460.578	110.5
460.798	111.5
461.018	111.5
461.238	98.5
461.458	118.5
461.678	95.5
461.898	122.5
462.118	118.5
462.338	103.5
462.558	112.5
462.777	115.5
462.997	121.5
463.217	120.5
463.437	115.5
463.657	111.5
463.876	111.5
464.096	114.5
464.316	102.5
464.536	95.5
464.755	111.5
464.975	124.5
465.195	108.5
465.414	125.5
465.634	114.5
465.854	121.5
466.073	115.5
466.293	122.5
466.512	136.5
466.732	122.5
466.951	132.5
467.171	144.5
467.391	135.5
467.61	134.5
467.829	138.5
468.049	145.5
468.268	130.5
468.488	141.5
468.707	126.5
468.927	132.5
469.146	138.5
469.365	135.5
469.585	158.5
469.804	131.5
470.023	122.5
470.243	137.5
470.462	142.5
470.681	150.5
470.901	151.5
471.12	133.5
471.339	138.5
471.558	129.5
471.777	142.5
471.997	146.5
472.216	132.5
472.435	119.5
472.654	96.5
472.873	102.5
473.092	107.5
473.311	118.5
473.53	115.5
473.749	115.5
473.968	136.5
474.187	132.5
474.406	116.5
474.625	119.5
474.844	124.5
475.063	133.5
475.282	117.5
475.501	108.5
475.72	126.5
475.939	120.5
476.158	119.5
476.377	132.5
476.596	117.5
476.814	116.5
477.033	116.5
477.252	105.5
477.471	124.5
477.69	131.5
477.908	128.5
478.127	137.5
478.346	123.5
478.564	139.5
478.783	127.5
479.002	123.5
479.22	140.5
479.439	130.5
479.658	123.5
479.876	114.5
480.095	115.5
480.313	113.5
480.532	119.5
480.751	129.5
480.969	84.5
481.188	97.5
481.406	92.5
481.624	97.5
481.843	103.5
482.061	97.5
482.28	105.5
482.498	126.5
482.717	111.5
482.935	120.5
483.153	136.5
483.372	146.5
483.59	131.5
483.808	140.5
484.027	138.5
484.245	125.5
484.463	138.5
484.681	156.5
484.9	131.5
485.118	141.5
485.336	123.5
485.554	112.5
485.772	111.5
485.99	90.5
486.209	108.5
486.427	120.5
486.645	138.5
486.863	140.5
487.081	130.5
487.299	132.5
487.517	132.5
487.735	158.5
487.953	199.5
488.171	182.5
488.389	177.5
488.607	160.5
488.825	137.5
489.043	123.5
489.261	128.5
489.479	110.5
489.696	137.5
489.914	126.5
490.132	138.5
490.35	149.5
490.568	162.5
490.786	176.5
491.003	179.5
491.221	188.5
491.439	179.5
491.657	188.5
491.874	196.5
492.092	206.5
492.31	240.5
492.527	218.5
492.745	185.5
492.963	208.5
493.18	212.5
493.398	187.5
493.615	171.5
493.833	166.5
494.05	176.5
494.268	168.5
494.485	173.5
494.703	171.5
494.92	167.5
495.138	172.5
495.355	165.5
495.573	175.5
495.79	178.5
496.008	168.5
496.225	175.5
496.442	154.5
496.66	183.5
496.877	156.5
497.094	160.5
497.312	152.5
497.529	157.5
497.746	152.5
497.963	144.5
498.181	138.5
498.398	121.5
498.615	105.5
498.832	120.5
499.049	118.5
499.267	115.5
499.484	138.5
499.701	129.5
499.918	121.5
500.135	145.5
500.352	138.5
500.569	146.5
500.786	140.5
501.003	144.5
501.22	142.5
501.437	129.5
501.654	136.5
501.871	130.5
502.088	128.5
502.305	131.5
502.522	126.5
502.739	120.5
502.956	123.5
503.172	110.5
503.389	126.5
503.606	106.5
503.823	129.5
504.04	120.5
504.256	126.5
504.473	119.5
504.69	117.5
504.907	130.5
505.123	105.5
505.34	126.5
505.557	122.5
505.773	120.5
505.99	141.5
506.207	136.5
506.423	125.5
506.64	123.5
506.856	123.5
507.073	135.5
507.289	100.5
507.506	112.5
507.722	121.5
507.939	121.5
508.155	129.5
508.372	102.5
508.588	111.5
508.805	107.5
509.021	107.5
509.238	108.5
509.454	92.5
509.67	102.5
509.887	101.5
510.103	91.5
510.319	90.5
510.536	97.5
510.752	90.5
510.968	93.5
511.184	90.5
511.401	90.5
511.617	88.5
511.833	80.5
512.049	101.5
512.265	75.5
512.481	98.5
512.698	95.5
512.914	91.5
513.13	97.5
513.346	86.5
513.562	84.5
513.778	98.5
513.994	104.5
514.21	82.5
514.426	99.5
514.642	87.5
514.858	83.5
515.074	78.5
515.29	92.5
515.506	73.5
515.721	81.5
515.937	78.5
516.153	93.5
516.369	81.5
516.585	77.5
516.801	82.5
517.016	90.5
517.232	90.5
517.448	89.5
517.664	107.5
517.879	98.5
518.095	104.5
518.311	104.5
518.527	80.5
518.742	88.5
518.958	86.5
519.173	112.5
519.389	108.5
519.605	107.5
519.82	116.5
520.036	101.5
520.251	98.5
520.467	100.5
520.682	116.5
520.898	102.5
521.113	86.5
521.329	92.5
521.544	85.5
521.76	96.5
521.975	103.5
522.19	91.5
522.406	102.5
522.621	100.5
522.836	98.5
523.052	111.5
523.267	110.5
523.482	102.5
523.698	111.5
523.913	124.5
524.128	111.5
524.343	127.5
524.559	98.5
524.774	132.5
524.989	116.5
525.204	114.5
525.419	111.5
525.634	111.5
525.849	111.5
526.064	116.5
526.28	107.5
526.495	90.5
526.71	86.5
526.925	79.5
527.14	74.5
527.355	80.5
527.57	84.5
527.785	96.5
527.999	73.5
528.214	96.5
528.429	116.5
528.644	118.5
528.859	138.5
529.074	153.5
529.289	156.5
529.503	144.5
529.718	133.5
529.933	110.5
530.148	111.5
530.363	92.5
530.577	94.5
530.792	87.5
531.007	76.5
