Data from Location2.07152019.Energy5.Lamp.07192019.3%Agarose_HRD10591_14-57-56-358.txt Node
Date: Fri Jul 19 14:57:56 EDT 2019
User: cochatt
Spectrometer: HR+D1059
Trigger mode: 1
Integration Time (sec): 1.000000E-1
Scans to average: 1
Electric dark correction enabled: true
Nonlinearity correction enabled: false
Boxcar width: 0
XAxis mode: Wavelengths
Number of Pixels in Spectrum: 2048
>>>>>Begin Spectral Data<<<<<
223.165	-10.44
223.4	-10.44
223.635	-10.44
223.869	-8.44
224.104	-17.44
224.338	-25.44
224.573	-12.44
224.808	-22.44
225.042	-6.44
225.277	-1.44
225.511	0.56
225.746	-8.44
225.98	-5.44
226.215	14.56
226.449	13.56
226.683	29.56
226.918	32.56
227.152	27.56
227.387	28.56
227.621	32.56
227.856	56.56
228.09	34.56
228.324	39.56
228.559	46.56
228.793	65.56
229.027	43.56
229.262	76.56
229.496	72.56
229.73	64.56
229.964	74.56
230.199	73.56
230.433	63.56
230.667	84.56
230.901	79.56
231.136	88.56
231.37	81.56
231.604	72.56
231.838	80.56
232.072	74.56
232.306	88.56
232.541	76.56
232.775	85.56
233.009	60.56
233.243	90.56
233.477	87.56
233.711	81.56
233.945	72.56
234.179	102.56
234.413	83.56
234.647	79.56
234.881	68.56
235.115	81.56
235.349	74.56
235.583	73.56
235.817	78.56
236.051	79.56
236.285	77.56
236.519	83.56
236.753	102.56
236.987	74.56
237.221	74.56
237.455	89.56
237.689	72.56
237.922	74.56
238.156	76.56
238.39	83.56
238.624	75.56
238.858	69.56
239.091	86.56
239.325	88.56
239.559	84.56
239.793	77.56
240.027	75.56
240.26	70.56
240.494	82.56
240.728	69.56
240.961	78.56
241.195	73.56
241.429	81.56
241.662	76.56
241.896	80.56
242.13	71.56
242.363	53.56
242.597	84.56
242.83	80.56
243.064	73.56
243.298	61.56
243.531	82.56
243.765	73.56
243.998	86.56
244.232	76.56
244.465	76.56
244.699	78.56
244.932	75.56
245.166	75.56
245.399	77.56
245.633	70.56
245.866	89.56
246.099	79.56
246.333	66.56
246.566	71.56
246.8	77.56
247.033	83.56
247.266	84.56
247.5	83.56
247.733	87.56
247.966	66.56
248.2	80.56
248.433	86.56
248.666	73.56
248.899	82.56
249.133	79.56
249.366	85.56
249.599	98.56
249.832	84.56
250.066	85.56
250.299	75.56
250.532	101.56
250.765	78.56
250.998	65.56
251.231	68.56
251.465	96.56
251.698	95.56
251.931	76.56
252.164	73.56
252.397	77.56
252.63	72.56
252.863	85.56
253.096	86.56
253.329	81.56
253.562	75.56
253.795	85.56
254.028	91.56
254.261	82.56
254.494	83.56
254.727	68.56
254.96	78.56
255.193	92.56
255.426	83.56
255.659	66.56
255.892	61.56
256.124	68.56
256.357	78.56
256.59	77.56
256.823	80.56
257.056	74.56
257.289	87.56
257.521	76.56
257.754	73.56
257.987	69.56
258.22	75.56
258.452	78.56
258.685	88.56
258.918	86.56
259.151	85.56
259.383	79.56
259.616	81.56
259.849	65.56
260.081	83.56
260.314	74.56
260.547	79.56
260.779	73.56
261.012	69.56
261.244	74.56
261.477	70.56
261.71	85.56
261.942	75.56
262.175	81.56
262.407	57.56
262.64	84.56
262.872	90.56
263.105	89.56
263.337	87.56
263.57	85.56
263.802	75.56
264.035	69.56
264.267	84.56
264.499	80.56
264.732	69.56
264.964	70.56
265.197	83.56
265.429	90.56
265.661	92.56
265.894	88.56
266.126	86.56
266.358	89.56
266.591	80.56
266.823	82.56
267.055	89.56
267.287	82.56
267.52	83.56
267.752	70.56
267.984	69.56
268.216	75.56
268.448	85.56
268.681	92.56
268.913	86.56
269.145	81.56
269.377	72.56
269.609	80.56
269.841	75.56
270.073	78.56
270.306	78.56
270.538	95.56
270.77	83.56
271.002	72.56
271.234	93.56
271.466	83.56
271.698	81.56
271.93	81.56
272.162	95.56
272.394	75.56
272.626	89.56
272.858	91.56
273.09	69.56
273.322	81.56
273.553	92.56
273.785	87.56
274.017	95.56
274.249	70.56
274.481	66.56
274.713	95.56
274.945	79.56
275.176	95.56
275.408	71.56
275.64	90.56
275.872	73.56
276.104	85.56
276.335	88.56
276.567	72.56
276.799	85.56
277.031	89.56
277.262	83.56
277.494	94.56
277.726	89.56
277.957	90.56
278.189	85.56
278.421	92.56
278.652	86.56
278.884	72.56
279.115	72.56
279.347	86.56
279.579	84.56
279.81	86.56
280.042	95.56
280.273	93.56
280.505	74.56
280.736	92.56
280.968	82.56
281.199	95.56
281.431	94.56
281.662	77.56
281.894	108.56
282.125	86.56
282.356	84.56
282.588	73.56
282.819	99.56
283.051	85.56
283.282	86.56
283.513	72.56
283.745	76.56
283.976	79.56
284.207	92.56
284.439	102.56
284.67	92.56
284.901	103.56
285.132	80.56
285.364	78.56
285.595	86.56
285.826	73.56
286.057	93.56
286.288	89.56
286.52	79.56
286.751	84.56
286.982	77.56
287.213	99.56
287.444	84.56
287.675	90.56
287.906	88.56
288.138	75.56
288.369	86.56
288.6	93.56
288.831	89.56
289.062	74.56
289.293	93.56
289.524	77.56
289.755	81.56
289.986	85.56
290.217	85.56
290.448	78.56
290.679	89.56
290.91	91.56
291.141	91.56
291.371	91.56
291.602	95.56
291.833	84.56
292.064	86.56
292.295	86.56
292.526	77.56
292.757	83.56
292.987	81.56
293.218	83.56
293.449	74.56
293.68	84.56
293.91	95.56
294.141	78.56
294.372	88.56
294.603	83.56
294.833	77.56
295.064	85.56
295.295	91.56
295.525	84.56
295.756	73.56
295.987	88.56
296.217	91.56
296.448	82.56
296.679	91.56
296.909	94.56
297.14	84.56
297.37	97.56
297.601	93.56
297.831	73.56
298.062	81.56
298.292	88.56
298.523	83.56
298.753	81.56
298.984	90.56
299.214	83.56
299.445	76.56
299.675	70.56
299.905	88.56
300.136	82.56
300.366	85.56
300.597	90.56
300.827	93.56
301.057	83.56
301.288	80.56
301.518	98.56
301.748	91.56
301.979	82.56
302.209	88.56
302.439	99.56
302.669	98.56
302.9	79.56
303.13	81.56
303.36	88.56
303.59	84.56
303.82	79.56
304.051	88.56
304.281	85.56
304.511	86.56
304.741	73.56
304.971	90.56
305.201	90.56
305.431	110.56
305.661	87.56
305.891	79.56
306.121	78.56
306.352	88.56
306.582	89.56
306.812	81.56
307.042	85.56
307.272	78.56
307.502	92.56
307.731	79.56
307.961	73.56
308.191	88.56
308.421	91.56
308.651	81.56
308.881	78.56
309.111	79.56
309.341	75.56
309.571	79.56
309.8	78.56
310.03	91.56
310.26	86.56
310.49	85.56
310.72	77.56
310.949	81.56
311.179	82.56
311.409	89.56
311.639	84.56
311.868	89.56
312.098	88.56
312.328	85.56
312.557	103.56
312.787	93.56
313.017	76.56
313.246	93.56
313.476	90.56
313.706	86.56
313.935	90.56
314.165	77.56
314.394	76.56
314.624	75.56
314.853	89.56
315.083	93.56
315.312	97.56
315.542	76.56
315.771	83.56
316.001	87.56
316.23	80.56
316.46	79.56
316.689	83.56
316.919	77.56
317.148	92.56
317.377	77.56
317.607	81.56
317.836	74.56
318.065	78.56
318.295	86.56
318.524	76.56
318.753	77.56
318.983	89.56
319.212	71.56
319.441	77.56
319.67	77.56
319.9	74.56
320.129	76.56
320.358	86.56
320.587	80.56
320.816	80.56
321.046	103.56
321.275	105.56
321.504	92.56
321.733	91.56
321.962	96.56
322.191	77.56
322.42	86.56
322.649	84.56
322.878	91.56
323.108	92.56
323.337	90.56
323.566	89.56
323.795	96.56
324.024	78.56
324.253	77.56
324.482	77.56
324.71	69.56
324.939	82.56
325.168	75.56
325.397	84.56
325.626	79.56
325.855	88.56
326.084	92.56
326.313	91.56
326.542	96.56
326.77	85.56
326.999	84.56
327.228	98.56
327.457	78.56
327.686	96.56
327.914	78.56
328.143	94.56
328.372	81.56
328.6	80.56
328.829	84.56
329.058	77.56
329.287	73.56
329.515	87.56
329.744	81.56
329.972	72.56
330.201	81.56
330.43	77.56
330.658	80.56
330.887	88.56
331.115	86.56
331.344	68.56
331.572	79.56
331.801	86.56
332.03	88.56
332.258	86.56
332.486	82.56
332.715	72.56
332.943	84.56
333.172	97.56
333.4	83.56
333.629	86.56
333.857	93.56
334.085	70.56
334.314	91.56
334.542	82.56
334.771	98.56
334.999	93.56
335.227	72.56
335.455	97.56
335.684	70.56
335.912	95.56
336.14	85.56
336.369	85.56
336.597	85.56
336.825	72.56
337.053	78.56
337.281	75.56
337.51	82.56
337.738	83.56
337.966	81.56
338.194	88.56
338.422	83.56
338.65	82.56
338.878	101.56
339.106	75.56
339.334	78.56
339.562	98.56
339.79	73.56
340.018	87.56
340.246	82.56
340.474	84.56
340.702	92.56
340.93	92.56
341.158	89.56
341.386	88.56
341.614	85.56
341.842	89.56
342.07	94.56
342.298	81.56
342.526	75.56
342.754	84.56
342.981	84.56
343.209	85.56
343.437	104.56
343.665	97.56
343.893	104.56
344.12	80.56
344.348	90.56
344.576	94.56
344.804	88.56
345.031	84.56
345.259	85.56
345.487	88.56
345.714	78.56
345.942	93.56
346.17	73.56
346.397	88.56
346.625	89.56
346.853	92.56
347.08	79.56
347.308	108.56
347.535	78.56
347.763	88.56
347.99	98.56
348.218	91.56
348.445	84.56
348.673	91.56
348.9	89.56
349.128	87.56
349.355	80.56
349.583	98.56
349.81	91.56
350.037	91.56
350.265	89.56
350.492	81.56
350.72	93.56
350.947	78.56
351.174	84.56
351.402	83.56
351.629	71.56
351.856	86.56
352.083	86.56
352.311	97.56
352.538	85.56
352.765	79.56
352.992	90.56
353.22	93.56
353.447	90.56
353.674	76.56
353.901	85.56
354.128	96.56
354.355	82.56
354.583	80.56
354.81	78.56
355.037	88.56
355.264	93.56
355.491	94.56
355.718	80.56
355.945	84.56
356.172	79.56
356.399	82.56
356.626	71.56
356.853	78.56
357.08	90.56
357.307	86.56
357.534	72.56
357.761	82.56
357.988	86.56
358.215	99.56
358.441	78.56
358.668	102.56
358.895	75.56
359.122	75.56
359.349	82.56
359.576	85.56
359.802	89.56
360.029	77.56
360.256	89.56
360.483	83.56
360.709	89.56
360.936	94.56
361.163	84.56
361.39	81.56
361.616	83.56
361.843	80.56
362.07	82.56
362.296	80.56
362.523	81.56
362.749	70.56
362.976	80.56
363.203	77.56
363.429	88.56
363.656	99.56
363.882	89.56
364.109	75.56
364.335	66.56
364.562	78.56
364.788	82.56
365.015	103.56
365.241	75.56
365.468	95.56
365.694	78.56
365.92	86.56
366.147	100.56
366.373	91.56
366.599	90.56
366.826	81.56
367.052	79.56
367.278	88.56
367.505	90.56
367.731	104.56
367.957	84.56
368.184	94.56
368.41	92.56
368.636	97.56
368.862	93.56
369.089	84.56
369.315	84.56
369.541	81.56
369.767	88.56
369.993	88.56
370.219	70.56
370.445	81.56
370.672	88.56
370.898	100.56
371.124	97.56
371.35	74.56
371.576	78.56
371.802	85.56
372.028	104.56
372.254	86.56
372.48	99.56
372.706	104.56
372.932	90.56
373.158	93.56
373.384	91.56
373.61	91.56
373.835	88.56
374.061	97.56
374.287	85.56
374.513	96.56
374.739	96.56
374.965	85.56
375.191	89.56
375.416	102.56
375.642	105.56
375.868	98.56
376.094	88.56
376.319	89.56
376.545	101.56
376.771	112.56
376.997	87.56
377.222	95.56
377.448	96.56
377.674	108.56
377.899	86.56
378.125	103.56
378.35	112.56
378.576	92.56
378.802	90.56
379.027	102.56
379.253	103.56
379.478	94.56
379.704	88.56
379.929	91.56
380.155	99.56
380.38	88.56
380.606	90.56
380.831	100.56
381.057	106.56
381.282	89.56
381.507	108.56
381.733	101.56
381.958	107.56
382.184	89.56
382.409	93.56
382.634	76.56
382.86	98.56
383.085	111.56
383.31	96.56
383.535	86.56
383.761	104.56
383.986	98.56
384.211	92.56
384.436	98.56
384.662	117.56
384.887	94.56
385.112	84.56
385.337	85.56
385.562	90.56
385.787	88.56
386.013	106.56
386.238	101.56
386.463	104.56
386.688	113.56
386.913	100.56
387.138	105.56
387.363	92.56
387.588	106.56
387.813	105.56
388.038	116.56
388.263	116.56
388.488	103.56
388.713	96.56
388.938	100.56
389.163	108.56
389.387	100.56
389.612	96.56
389.837	89.56
390.062	78.56
390.287	101.56
390.512	103.56
390.736	109.56
390.961	106.56
391.186	101.56
391.411	110.56
391.636	101.56
391.86	101.56
392.085	99.56
392.31	97.56
392.534	98.56
392.759	115.56
392.984	114.56
393.208	100.56
393.433	117.56
393.658	101.56
393.882	94.56
394.107	105.56
394.331	103.56
394.556	106.56
394.78	94.56
395.005	104.56
395.229	104.56
395.454	122.56
395.678	115.56
395.903	112.56
396.127	103.56
396.352	102.56
396.576	107.56
396.801	108.56
397.025	107.56
397.249	98.56
397.474	112.56
397.698	118.56
397.922	112.56
398.147	96.56
398.371	103.56
398.595	108.56
398.82	110.56
399.044	91.56
399.268	116.56
399.492	106.56
399.717	104.56
399.941	120.56
400.165	112.56
400.389	106.56
400.613	118.56
400.837	122.56
401.062	116.56
401.286	132.56
401.51	117.56
401.734	115.56
401.958	118.56
402.182	119.56
402.406	123.56
402.63	115.56
402.854	110.56
403.078	100.56
403.302	101.56
403.526	116.56
403.75	117.56
403.974	124.56
404.198	114.56
404.422	110.56
404.645	115.56
404.869	116.56
405.093	117.56
405.317	124.56
405.541	120.56
405.765	104.56
405.988	120.56
406.212	129.56
406.436	120.56
406.66	123.56
406.883	115.56
407.107	122.56
407.331	109.56
407.555	128.56
407.778	124.56
408.002	125.56
408.226	124.56
408.449	125.56
408.673	118.56
408.896	107.56
409.12	130.56
409.344	123.56
409.567	122.56
409.791	114.56
410.014	129.56
410.238	110.56
410.461	128.56
410.685	120.56
410.908	107.56
411.132	120.56
411.355	123.56
411.578	126.56
411.802	106.56
412.025	122.56
412.249	117.56
412.472	126.56
412.695	128.56
412.919	120.56
413.142	117.56
413.365	108.56
413.589	126.56
413.812	130.56
414.035	121.56
414.258	116.56
414.482	113.56
414.705	115.56
414.928	117.56
415.151	126.56
415.374	142.56
415.597	133.56
415.821	128.56
416.044	124.56
416.267	129.56
416.49	125.56
416.713	120.56
416.936	122.56
417.159	139.56
417.382	127.56
417.605	128.56
417.828	125.56
418.051	124.56
418.274	125.56
418.497	123.56
418.72	135.56
418.943	136.56
419.166	122.56
419.389	125.56
419.611	130.56
419.834	140.56
420.057	132.56
420.28	131.56
420.503	117.56
420.726	132.56
420.948	126.56
421.171	121.56
421.394	138.56
421.617	148.56
421.839	145.56
422.062	141.56
422.285	138.56
422.507	130.56
422.73	124.56
422.953	109.56
423.175	123.56
423.398	124.56
423.621	134.56
423.843	126.56
424.066	128.56
424.288	147.56
424.511	142.56
424.733	132.56
424.956	148.56
425.178	124.56
425.401	139.56
425.623	140.56
425.846	146.56
426.068	125.56
426.291	120.56
426.513	131.56
426.735	133.56
426.958	129.56
427.18	122.56
427.402	136.56
427.625	138.56
427.847	132.56
428.069	112.56
428.292	117.56
428.514	134.56
428.736	121.56
428.958	132.56
429.181	128.56
429.403	128.56
429.625	129.56
429.847	132.56
430.069	128.56
430.292	132.56
430.514	136.56
430.736	120.56
430.958	122.56
431.18	125.56
431.402	142.56
431.624	121.56
431.846	100.56
432.068	96.56
432.29	96.56
432.512	103.56
432.734	122.56
432.956	130.56
433.178	146.56
433.4	128.56
433.622	127.56
433.844	125.56
434.066	116.56
434.287	104.56
434.509	103.56
434.731	103.56
434.953	109.56
435.175	132.56
435.397	114.56
435.618	105.56
435.84	110.56
436.062	118.56
436.284	113.56
436.505	134.56
436.727	121.56
436.949	116.56
437.17	126.56
437.392	128.56
437.614	114.56
437.835	108.56
438.057	104.56
438.278	102.56
438.5	110.56
438.721	133.56
438.943	132.56
439.165	133.56
439.386	141.56
439.608	144.56
439.829	141.56
440.05	132.56
440.272	150.56
440.493	133.56
440.715	147.56
440.936	142.56
441.158	143.56
441.379	147.56
441.6	148.56
441.822	139.56
442.043	138.56
442.264	150.56
442.486	131.56
442.707	137.56
442.928	129.56
443.149	134.56
443.371	117.56
443.592	126.56
443.813	127.56
444.034	144.56
444.255	132.56
444.476	138.56
444.698	133.56
444.919	138.56
445.14	236.56
445.361	180.56
445.582	147.56
445.803	145.56
446.024	143.56
446.245	155.56
446.466	155.56
446.687	142.56
446.908	165.56
447.129	145.56
447.35	155.56
447.571	153.56
447.792	143.56
448.013	141.56
448.234	157.56
448.455	140.56
448.675	128.56
448.896	130.56
449.117	143.56
449.338	128.56
449.559	146.56
449.779	135.56
450	132.56
450.221	125.56
450.442	132.56
450.662	140.56
450.883	116.56
451.104	133.56
451.324	122.56
451.545	118.56
451.766	144.56
451.986	125.56
452.207	133.56
452.428	130.56
452.648	135.56
452.869	119.56
453.089	115.56
453.31	107.56
453.53	105.56
453.751	109.56
453.971	100.56
454.192	115.56
454.412	117.56
454.633	114.56
454.853	126.56
455.073	117.56
455.294	112.56
455.514	121.56
455.734	114.56
455.955	124.56
456.175	116.56
456.395	114.56
456.616	109.56
456.836	110.56
457.056	117.56
457.276	120.56
457.497	116.56
457.717	120.56
457.937	113.56
458.157	102.56
458.377	107.56
458.598	106.56
458.818	97.56
459.038	97.56
459.258	86.56
459.478	90.56
459.698	91.56
459.918	96.56
460.138	106.56
460.358	107.56
460.578	131.56
460.798	112.56
461.018	128.56
461.238	124.56
461.458	95.56
461.678	115.56
461.898	97.56
462.118	110.56
462.338	121.56
462.558	122.56
462.777	100.56
462.997	104.56
463.217	114.56
463.437	124.56
463.657	110.56
463.876	88.56
464.096	98.56
464.316	125.56
464.536	113.56
464.755	122.56
464.975	120.56
465.195	132.56
465.414	113.56
465.634	124.56
465.854	113.56
466.073	128.56
466.293	132.56
466.512	134.56
466.732	132.56
466.951	137.56
467.171	135.56
467.391	141.56
467.61	138.56
467.829	126.56
468.049	133.56
468.268	129.56
468.488	141.56
468.707	132.56
468.927	148.56
469.146	150.56
469.365	133.56
469.585	138.56
469.804	140.56
470.023	137.56
470.243	139.56
470.462	154.56
470.681	154.56
470.901	150.56
471.12	146.56
471.339	151.56
471.558	131.56
471.777	152.56
471.997	134.56
472.216	132.56
472.435	137.56
472.654	116.56
472.873	104.56
473.092	112.56
473.311	130.56
473.53	123.56
473.749	136.56
473.968	121.56
474.187	119.56
474.406	121.56
474.625	118.56
474.844	137.56
475.063	130.56
475.282	125.56
475.501	119.56
475.72	116.56
475.939	142.56
476.158	124.56
476.377	129.56
476.596	130.56
476.814	105.56
477.033	110.56
477.252	123.56
477.471	136.56
477.69	126.56
477.908	139.56
478.127	143.56
478.346	139.56
478.564	140.56
478.783	149.56
479.002	138.56
479.22	129.56
479.439	134.56
479.658	127.56
479.876	107.56
480.095	110.56
480.313	107.56
480.532	118.56
480.751	113.56
480.969	102.56
481.188	99.56
481.406	91.56
481.624	83.56
481.843	77.56
482.061	94.56
482.28	96.56
482.498	123.56
482.717	119.56
482.935	129.56
483.153	139.56
483.372	149.56
483.59	150.56
483.808	155.56
484.027	140.56
484.245	142.56
484.463	130.56
484.681	159.56
484.9	154.56
485.118	134.56
485.336	118.56
485.554	127.56
485.772	120.56
485.99	105.56
486.209	105.56
486.427	101.56
486.645	107.56
486.863	148.56
487.081	151.56
487.299	128.56
487.517	126.56
487.735	160.56
487.953	166.56
488.171	167.56
488.389	184.56
488.607	158.56
488.825	126.56
489.043	119.56
489.261	140.56
489.479	144.56
489.696	146.56
489.914	132.56
490.132	151.56
490.35	148.56
490.568	157.56
490.786	168.56
491.003	186.56
491.221	175.56
491.439	194.56
491.657	196.56
491.874	213.56
492.092	210.56
492.31	222.56
492.527	220.56
492.745	201.56
492.963	187.56
493.18	199.56
493.398	182.56
493.615	190.56
493.833	187.56
494.05	164.56
494.268	161.56
494.485	166.56
494.703	176.56
494.92	180.56
495.138	174.56
495.355	174.56
495.573	152.56
495.79	155.56
496.008	173.56
496.225	162.56
496.442	162.56
496.66	169.56
496.877	154.56
497.094	156.56
497.312	172.56
497.529	160.56
497.746	158.56
497.963	148.56
498.181	140.56
498.398	123.56
498.615	117.56
498.832	122.56
499.049	98.56
499.267	132.56
499.484	128.56
499.701	135.56
499.918	129.56
500.135	149.56
500.352	142.56
500.569	134.56
500.786	136.56
501.003	140.56
501.22	124.56
501.437	159.56
501.654	126.56
501.871	143.56
502.088	122.56
502.305	144.56
502.522	143.56
502.739	126.56
502.956	146.56
503.172	129.56
503.389	117.56
503.606	111.56
503.823	114.56
504.04	128.56
504.256	130.56
504.473	120.56
504.69	119.56
504.907	129.56
505.123	112.56
505.34	121.56
505.557	96.56
505.773	124.56
505.99	125.56
506.207	121.56
506.423	109.56
506.64	125.56
506.856	116.56
507.073	123.56
507.289	111.56
507.506	115.56
507.722	107.56
507.939	112.56
508.155	114.56
508.372	115.56
508.588	122.56
508.805	107.56
509.021	95.56
509.238	104.56
509.454	97.56
509.67	100.56
509.887	99.56
510.103	104.56
510.319	104.56
510.536	88.56
510.752	83.56
510.968	81.56
511.184	89.56
511.401	100.56
