Data from Location2.07152019.Energy5.Lamp.07192019.3%Agarose_HRD10591_14-57-55-358.txt Node
Date: Fri Jul 19 14:57:55 EDT 2019
User: cochatt
Spectrometer: HR+D1059
Trigger mode: 1
Integration Time (sec): 1.000000E-1
Scans to average: 1
Electric dark correction enabled: true
Nonlinearity correction enabled: false
Boxcar width: 0
XAxis mode: Wavelengths
Number of Pixels in Spectrum: 2048
>>>>>Begin Spectral Data<<<<<
223.165	-22.38
223.4	-22.38
223.635	-22.38
223.869	-30.38
224.104	-15.38
224.338	-23.38
224.573	-13.38
224.808	-9.38
225.042	4.62
225.277	4.62
225.511	2.62
225.746	-5.38
225.98	7.62
226.215	14.62
226.449	15.62
226.683	16.62
226.918	27.62
227.152	25.62
227.387	32.62
227.621	36.62
227.856	37.62
228.09	46.62
228.324	52.62
228.559	50.62
228.793	59.62
229.027	67.62
229.262	54.62
229.496	62.62
229.73	74.62
229.964	76.62
230.199	78.62
230.433	80.62
230.667	73.62
230.901	83.62
231.136	74.62
231.37	84.62
231.604	92.62
231.838	68.62
232.072	74.62
232.306	76.62
232.541	76.62
232.775	95.62
233.009	77.62
233.243	80.62
233.477	68.62
233.711	78.62
233.945	87.62
234.179	89.62
234.413	88.62
234.647	67.62
234.881	79.62
235.115	86.62
235.349	67.62
235.583	82.62
235.817	77.62
236.051	70.62
236.285	72.62
236.519	74.62
236.753	77.62
236.987	78.62
237.221	73.62
237.455	76.62
237.689	75.62
237.922	73.62
238.156	87.62
238.39	84.62
238.624	69.62
238.858	70.62
239.091	77.62
239.325	81.62
239.559	69.62
239.793	79.62
240.027	90.62
240.26	77.62
240.494	68.62
240.728	55.62
240.961	77.62
241.195	86.62
241.429	78.62
241.662	72.62
241.896	72.62
242.13	72.62
242.363	66.62
242.597	82.62
242.83	79.62
243.064	81.62
243.298	85.62
243.531	68.62
243.765	71.62
243.998	70.62
244.232	81.62
244.465	93.62
244.699	83.62
244.932	82.62
245.166	72.62
245.399	84.62
245.633	73.62
245.866	80.62
246.099	83.62
246.333	74.62
246.566	86.62
246.8	81.62
247.033	64.62
247.266	88.62
247.5	79.62
247.733	75.62
247.966	81.62
248.2	90.62
248.433	82.62
248.666	83.62
248.899	77.62
249.133	81.62
249.366	82.62
249.599	74.62
249.832	72.62
250.066	69.62
250.299	78.62
250.532	72.62
250.765	74.62
250.998	62.62
251.231	73.62
251.465	71.62
251.698	88.62
251.931	69.62
252.164	86.62
252.397	85.62
252.63	79.62
252.863	84.62
253.096	85.62
253.329	87.62
253.562	77.62
253.795	87.62
254.028	93.62
254.261	80.62
254.494	87.62
254.727	83.62
254.96	83.62
255.193	90.62
255.426	84.62
255.659	74.62
255.892	78.62
256.124	72.62
256.357	86.62
256.59	89.62
256.823	76.62
257.056	89.62
257.289	99.62
257.521	77.62
257.754	91.62
257.987	74.62
258.22	78.62
258.452	76.62
258.685	70.62
258.918	68.62
259.151	86.62
259.383	92.62
259.616	78.62
259.849	88.62
260.081	72.62
260.314	76.62
260.547	73.62
260.779	72.62
261.012	87.62
261.244	75.62
261.477	78.62
261.71	71.62
261.942	91.62
262.175	87.62
262.407	76.62
262.64	91.62
262.872	80.62
263.105	75.62
263.337	90.62
263.57	86.62
263.802	94.62
264.035	91.62
264.267	63.62
264.499	85.62
264.732	84.62
264.964	86.62
265.197	93.62
265.429	74.62
265.661	89.62
265.894	86.62
266.126	83.62
266.358	63.62
266.591	86.62
266.823	83.62
267.055	88.62
267.287	77.62
267.52	88.62
267.752	80.62
267.984	92.62
268.216	65.62
268.448	81.62
268.681	85.62
268.913	72.62
269.145	82.62
269.377	92.62
269.609	85.62
269.841	80.62
270.073	78.62
270.306	79.62
270.538	86.62
270.77	77.62
271.002	84.62
271.234	87.62
271.466	82.62
271.698	96.62
271.93	75.62
272.162	72.62
272.394	90.62
272.626	75.62
272.858	89.62
273.09	84.62
273.322	74.62
273.553	81.62
273.785	79.62
274.017	78.62
274.249	90.62
274.481	84.62
274.713	90.62
274.945	77.62
275.176	78.62
275.408	83.62
275.64	96.62
275.872	83.62
276.104	85.62
276.335	88.62
276.567	86.62
276.799	79.62
277.031	73.62
277.262	83.62
277.494	87.62
277.726	85.62
277.957	87.62
278.189	97.62
278.421	80.62
278.652	87.62
278.884	90.62
279.115	82.62
279.347	96.62
279.579	76.62
279.81	90.62
280.042	79.62
280.273	72.62
280.505	75.62
280.736	76.62
280.968	88.62
281.199	84.62
281.431	82.62
281.662	92.62
281.894	83.62
282.125	93.62
282.356	89.62
282.588	92.62
282.819	87.62
283.051	82.62
283.282	83.62
283.513	92.62
283.745	84.62
283.976	94.62
284.207	80.62
284.439	83.62
284.67	82.62
284.901	92.62
285.132	82.62
285.364	68.62
285.595	84.62
285.826	82.62
286.057	84.62
286.288	86.62
286.52	89.62
286.751	75.62
286.982	89.62
287.213	82.62
287.444	97.62
287.675	86.62
287.906	87.62
288.138	77.62
288.369	71.62
288.6	72.62
288.831	87.62
289.062	112.62
289.293	80.62
289.524	76.62
289.755	80.62
289.986	71.62
290.217	77.62
290.448	89.62
290.679	79.62
290.91	99.62
291.141	97.62
291.371	74.62
291.602	85.62
291.833	74.62
292.064	84.62
292.295	77.62
292.526	92.62
292.757	103.62
292.987	70.62
293.218	91.62
293.449	82.62
293.68	85.62
293.91	83.62
294.141	88.62
294.372	99.62
294.603	93.62
294.833	92.62
295.064	92.62
295.295	77.62
295.525	80.62
295.756	97.62
295.987	81.62
296.217	95.62
296.448	78.62
296.679	78.62
296.909	92.62
297.14	83.62
297.37	91.62
297.601	98.62
297.831	82.62
298.062	84.62
298.292	78.62
298.523	76.62
298.753	81.62
298.984	78.62
299.214	72.62
299.445	83.62
299.675	91.62
299.905	93.62
300.136	81.62
300.366	80.62
300.597	90.62
300.827	91.62
301.057	96.62
301.288	85.62
301.518	78.62
301.748	78.62
301.979	83.62
302.209	74.62
302.439	99.62
302.669	95.62
302.9	83.62
303.13	86.62
303.36	77.62
303.59	77.62
303.82	82.62
304.051	77.62
304.281	100.62
304.511	94.62
304.741	91.62
304.971	70.62
305.201	80.62
305.431	90.62
305.661	86.62
305.891	71.62
306.121	90.62
306.352	89.62
306.582	86.62
306.812	86.62
307.042	91.62
307.272	90.62
307.502	80.62
307.731	84.62
307.961	80.62
308.191	75.62
308.421	84.62
308.651	101.62
308.881	73.62
309.111	87.62
309.341	93.62
309.571	83.62
309.8	86.62
310.03	72.62
310.26	82.62
310.49	69.62
310.72	86.62
310.949	93.62
311.179	97.62
311.409	80.62
311.639	91.62
311.868	92.62
312.098	75.62
312.328	87.62
312.557	103.62
312.787	83.62
313.017	83.62
313.246	77.62
313.476	105.62
313.706	81.62
313.935	88.62
314.165	98.62
314.394	85.62
314.624	85.62
314.853	80.62
315.083	88.62
315.312	84.62
315.542	94.62
315.771	77.62
316.001	81.62
316.23	86.62
316.46	86.62
316.689	89.62
316.919	90.62
317.148	75.62
317.377	84.62
317.607	94.62
317.836	93.62
318.065	81.62
318.295	95.62
318.524	95.62
318.753	82.62
318.983	85.62
319.212	82.62
319.441	81.62
319.67	79.62
319.9	95.62
320.129	82.62
320.358	100.62
320.587	87.62
320.816	85.62
321.046	84.62
321.275	83.62
321.504	83.62
321.733	97.62
321.962	100.62
322.191	71.62
322.42	82.62
322.649	82.62
322.878	79.62
323.108	91.62
323.337	79.62
323.566	92.62
323.795	92.62
324.024	80.62
324.253	91.62
324.482	78.62
324.71	94.62
324.939	80.62
325.168	82.62
325.397	80.62
325.626	87.62
325.855	81.62
326.084	83.62
326.313	83.62
326.542	71.62
326.77	86.62
326.999	80.62
327.228	73.62
327.457	88.62
327.686	68.62
327.914	78.62
328.143	80.62
328.372	85.62
328.6	81.62
328.829	93.62
329.058	86.62
329.287	83.62
329.515	83.62
329.744	92.62
329.972	89.62
330.201	72.62
330.43	76.62
330.658	78.62
330.887	77.62
331.115	85.62
331.344	94.62
331.572	86.62
331.801	76.62
332.03	72.62
332.258	76.62
332.486	93.62
332.715	82.62
332.943	84.62
333.172	81.62
333.4	83.62
333.629	74.62
333.857	79.62
334.085	65.62
334.314	78.62
334.542	91.62
334.771	88.62
334.999	76.62
335.227	87.62
335.455	73.62
335.684	86.62
335.912	99.62
336.14	82.62
336.369	90.62
336.597	81.62
336.825	87.62
337.053	85.62
337.281	93.62
337.51	78.62
337.738	88.62
337.966	80.62
338.194	76.62
338.422	86.62
338.65	89.62
338.878	73.62
339.106	93.62
339.334	87.62
339.562	78.62
339.79	84.62
340.018	85.62
340.246	77.62
340.474	81.62
340.702	89.62
340.93	69.62
341.158	84.62
341.386	86.62
341.614	90.62
341.842	93.62
342.07	73.62
342.298	80.62
342.526	84.62
342.754	92.62
342.981	87.62
343.209	77.62
343.437	77.62
343.665	85.62
343.893	97.62
344.12	83.62
344.348	78.62
344.576	70.62
344.804	86.62
345.031	83.62
345.259	82.62
345.487	84.62
345.714	83.62
345.942	70.62
346.17	67.62
346.397	80.62
346.625	99.62
346.853	84.62
347.08	83.62
347.308	76.62
347.535	77.62
347.763	83.62
347.99	88.62
348.218	82.62
348.445	90.62
348.673	75.62
348.9	62.62
349.128	85.62
349.355	77.62
349.583	89.62
349.81	86.62
350.037	85.62
350.265	80.62
350.492	76.62
350.72	85.62
350.947	94.62
351.174	90.62
351.402	90.62
351.629	85.62
351.856	69.62
352.083	81.62
352.311	96.62
352.538	93.62
352.765	83.62
352.992	81.62
353.22	83.62
353.447	90.62
353.674	72.62
353.901	96.62
354.128	90.62
354.355	85.62
354.583	95.62
354.81	86.62
355.037	82.62
355.264	86.62
355.491	80.62
355.718	93.62
355.945	101.62
356.172	84.62
356.399	72.62
356.626	77.62
356.853	92.62
357.08	96.62
357.307	80.62
357.534	92.62
357.761	83.62
357.988	81.62
358.215	86.62
358.441	82.62
358.668	70.62
358.895	83.62
359.122	63.62
359.349	87.62
359.576	93.62
359.802	81.62
360.029	73.62
360.256	75.62
360.483	83.62
360.709	72.62
360.936	78.62
361.163	89.62
361.39	81.62
361.616	84.62
361.843	85.62
362.07	81.62
362.296	79.62
362.523	91.62
362.749	77.62
362.976	91.62
363.203	88.62
363.429	85.62
363.656	103.62
363.882	71.62
364.109	88.62
364.335	78.62
364.562	75.62
364.788	92.62
365.015	85.62
365.241	88.62
365.468	101.62
365.694	84.62
365.92	82.62
366.147	88.62
366.373	73.62
366.599	91.62
366.826	76.62
367.052	89.62
367.278	73.62
367.505	87.62
367.731	91.62
367.957	95.62
368.184	85.62
368.41	71.62
368.636	90.62
368.862	100.62
369.089	79.62
369.315	87.62
369.541	95.62
369.767	86.62
369.993	80.62
370.219	88.62
370.445	93.62
370.672	96.62
370.898	93.62
371.124	102.62
371.35	84.62
371.576	112.62
371.802	106.62
372.028	93.62
372.254	96.62
372.48	96.62
372.706	76.62
372.932	98.62
373.158	88.62
373.384	93.62
373.61	102.62
373.835	90.62
374.061	82.62
374.287	88.62
374.513	89.62
374.739	80.62
374.965	106.62
375.191	76.62
375.416	100.62
375.642	80.62
375.868	96.62
376.094	90.62
376.319	90.62
376.545	80.62
376.771	90.62
376.997	93.62
377.222	93.62
377.448	93.62
377.674	85.62
377.899	89.62
378.125	99.62
378.35	96.62
378.576	92.62
378.802	94.62
379.027	100.62
379.253	99.62
379.478	77.62
379.704	92.62
379.929	80.62
380.155	84.62
380.38	88.62
380.606	91.62
380.831	89.62
381.057	93.62
381.282	79.62
381.507	103.62
381.733	87.62
381.958	93.62
382.184	97.62
382.409	91.62
382.634	103.62
382.86	91.62
383.085	92.62
383.31	85.62
383.535	112.62
383.761	91.62
383.986	97.62
384.211	100.62
384.436	81.62
384.662	98.62
384.887	96.62
385.112	89.62
385.337	99.62
385.562	85.62
385.787	102.62
386.013	107.62
386.238	96.62
386.463	94.62
386.688	107.62
386.913	92.62
387.138	88.62
387.363	91.62
387.588	89.62
387.813	113.62
388.038	94.62
388.263	92.62
388.488	99.62
388.713	86.62
388.938	86.62
389.163	108.62
389.387	106.62
389.612	107.62
389.837	93.62
390.062	110.62
390.287	100.62
390.512	101.62
390.736	101.62
390.961	108.62
391.186	114.62
391.411	108.62
391.636	99.62
391.86	104.62
392.085	97.62
392.31	107.62
392.534	103.62
392.759	97.62
392.984	120.62
393.208	104.62
393.433	110.62
393.658	108.62
393.882	98.62
394.107	101.62
394.331	97.62
394.556	96.62
394.78	91.62
395.005	112.62
395.229	94.62
395.454	100.62
395.678	102.62
395.903	107.62
396.127	109.62
396.352	93.62
396.576	109.62
396.801	98.62
397.025	114.62
397.249	107.62
397.474	119.62
397.698	115.62
397.922	114.62
398.147	105.62
398.371	112.62
398.595	105.62
398.82	117.62
399.044	108.62
399.268	105.62
399.492	108.62
399.717	109.62
399.941	101.62
400.165	110.62
400.389	119.62
400.613	114.62
400.837	116.62
401.062	124.62
401.286	101.62
401.51	103.62
401.734	106.62
401.958	104.62
402.182	110.62
402.406	105.62
402.63	115.62
402.854	120.62
403.078	96.62
403.302	104.62
403.526	100.62
403.75	112.62
403.974	109.62
404.198	120.62
404.422	115.62
404.645	113.62
404.869	115.62
405.093	101.62
405.317	122.62
405.541	116.62
405.765	118.62
405.988	130.62
406.212	132.62
406.436	116.62
406.66	120.62
406.883	102.62
407.107	102.62
407.331	121.62
407.555	107.62
407.778	114.62
408.002	120.62
408.226	125.62
408.449	120.62
408.673	112.62
408.896	116.62
409.12	105.62
409.344	128.62
409.567	115.62
409.791	122.62
410.014	113.62
410.238	121.62
410.461	113.62
410.685	122.62
410.908	103.62
411.132	124.62
411.355	130.62
411.578	120.62
411.802	107.62
412.025	114.62
412.249	126.62
412.472	123.62
412.695	113.62
412.919	106.62
413.142	120.62
413.365	117.62
413.589	110.62
413.812	106.62
414.035	116.62
414.258	121.62
414.482	130.62
414.705	125.62
414.928	122.62
415.151	114.62
415.374	132.62
415.597	132.62
415.821	113.62
416.044	126.62
416.267	122.62
416.49	141.62
416.713	118.62
416.936	133.62
417.159	122.62
417.382	111.62
417.605	112.62
417.828	132.62
418.051	125.62
418.274	128.62
418.497	133.62
418.72	126.62
418.943	123.62
419.166	132.62
419.389	132.62
419.611	137.62
419.834	132.62
420.057	123.62
420.28	132.62
420.503	129.62
420.726	139.62
420.948	122.62
421.171	130.62
421.394	131.62
421.617	136.62
421.839	128.62
422.062	138.62
422.285	121.62
422.507	142.62
422.73	139.62
422.953	124.62
423.175	122.62
423.398	126.62
423.621	128.62
423.843	122.62
424.066	140.62
424.288	136.62
424.511	137.62
424.733	149.62
424.956	136.62
425.178	123.62
425.401	137.62
425.623	130.62
425.846	116.62
426.068	117.62
426.291	111.62
426.513	128.62
426.735	128.62
426.958	134.62
427.18	126.62
427.402	125.62
427.625	135.62
427.847	119.62
428.069	128.62
428.292	124.62
428.514	118.62
428.736	134.62
428.958	124.62
429.181	117.62
429.403	121.62
429.625	139.62
429.847	128.62
430.069	125.62
430.292	128.62
430.514	138.62
430.736	124.62
430.958	122.62
431.18	120.62
431.402	123.62
431.624	117.62
431.846	105.62
432.068	94.62
432.29	96.62
432.512	99.62
432.734	128.62
432.956	144.62
433.178	122.62
433.4	134.62
433.622	142.62
433.844	132.62
434.066	127.62
434.287	111.62
434.509	97.62
434.731	88.62
434.953	112.62
435.175	109.62
435.397	121.62
435.618	111.62
435.84	117.62
436.062	114.62
436.284	129.62
436.505	135.62
436.727	126.62
436.949	133.62
437.17	120.62
437.392	125.62
437.614	111.62
437.835	110.62
438.057	101.62
438.278	113.62
438.5	113.62
438.721	133.62
438.943	141.62
439.165	112.62
439.386	128.62
439.608	138.62
439.829	140.62
440.05	136.62
440.272	132.62
440.493	142.62
440.715	120.62
440.936	149.62
441.158	135.62
441.379	156.62
441.6	119.62
441.822	132.62
442.043	141.62
442.264	152.62
442.486	143.62
442.707	132.62
442.928	148.62
443.149	138.62
443.371	148.62
443.592	130.62
443.813	126.62
444.034	125.62
444.255	128.62
444.476	142.62
444.698	150.62
444.919	151.62
445.14	218.62
445.361	187.62
445.582	139.62
445.803	163.62
446.024	138.62
446.245	153.62
446.466	152.62
446.687	147.62
446.908	157.62
447.129	160.62
447.35	144.62
447.571	163.62
447.792	132.62
448.013	125.62
448.234	133.62
448.455	144.62
448.675	130.62
448.896	143.62
449.117	123.62
449.338	146.62
449.559	146.62
449.779	121.62
450	141.62
450.221	142.62
450.442	156.62
450.662	139.62
450.883	137.62
451.104	140.62
451.324	115.62
451.545	130.62
451.766	133.62
451.986	132.62
452.207	124.62
452.428	144.62
452.648	130.62
452.869	119.62
453.089	123.62
453.31	124.62
453.53	106.62
453.751	109.62
453.971	89.62
454.192	114.62
454.412	87.62
454.633	106.62
454.853	126.62
455.073	124.62
455.294	119.62
455.514	116.62
455.734	123.62
455.955	121.62
456.175	122.62
456.395	126.62
456.616	104.62
456.836	115.62
457.056	106.62
457.276	104.62
457.497	90.62
457.717	101.62
457.937	106.62
458.157	103.62
458.377	99.62
458.598	90.62
458.818	97.62
459.038	77.62
459.258	90.62
459.478	67.62
459.698	100.62
459.918	102.62
460.138	105.62
460.358	113.62
460.578	104.62
460.798	114.62
461.018	102.62
461.238	109.62
461.458	126.62
461.678	117.62
461.898	105.62
462.118	102.62
462.338	109.62
462.558	118.62
462.777	108.62
462.997	98.62
463.217	106.62
463.437	123.62
463.657	102.62
463.876	104.62
464.096	102.62
464.316	112.62
464.536	107.62
464.755	130.62
464.975	115.62
465.195	128.62
465.414	121.62
465.634	116.62
465.854	118.62
466.073	113.62
466.293	131.62
466.512	114.62
466.732	129.62
466.951	123.62
467.171	119.62
467.391	137.62
467.61	129.62
467.829	140.62
468.049	131.62
468.268	130.62
468.488	155.62
468.707	147.62
468.927	138.62
469.146	138.62
469.365	139.62
469.585	130.62
469.804	158.62
470.023	130.62
470.243	153.62
470.462	146.62
470.681	137.62
470.901	146.62
471.12	142.62
471.339	132.62
471.558	142.62
471.777	142.62
471.997	125.62
472.216	136.62
472.435	124.62
472.654	101.62
472.873	116.62
473.092	112.62
473.311	133.62
473.53	137.62
473.749	137.62
473.968	124.62
474.187	123.62
474.406	117.62
474.625	126.62
474.844	134.62
475.063	124.62
475.282	122.62
475.501	124.62
475.72	129.62
475.939	132.62
476.158	141.62
476.377	135.62
476.596	124.62
476.814	110.62
477.033	107.62
477.252	121.62
477.471	132.62
477.69	121.62
477.908	134.62
478.127	149.62
478.346	138.62
478.564	142.62
478.783	136.62
479.002	140.62
479.22	138.62
479.439	138.62
479.658	124.62
479.876	127.62
480.095	114.62
480.313	115.62
480.532	110.62
480.751	100.62
480.969	102.62
481.188	89.62
481.406	103.62
481.624	84.62
481.843	85.62
482.061	79.62
482.28	106.62
482.498	124.62
482.717	92.62
482.935	105.62
483.153	132.62
483.372	148.62
483.59	150.62
483.808	140.62
484.027	132.62
484.245	131.62
484.463	128.62
484.681	168.62
484.9	150.62
485.118	141.62
485.336	125.62
485.554	115.62
485.772	101.62
485.99	100.62
486.209	115.62
486.427	114.62
486.645	127.62
486.863	144.62
487.081	129.62
487.299	133.62
487.517	142.62
487.735	156.62
487.953	181.62
488.171	162.62
488.389	180.62
488.607	166.62
488.825	128.62
489.043	125.62
489.261	119.62
489.479	140.62
489.696	148.62
489.914	132.62
490.132	145.62
490.35	147.62
490.568	153.62
490.786	174.62
491.003	179.62
491.221	171.62
491.439	204.62
491.657	185.62
491.874	205.62
492.092	228.62
492.31	228.62
492.527	224.62
492.745	199.62
492.963	195.62
493.18	178.62
493.398	170.62
493.615	170.62
493.833	180.62
494.05	176.62
494.268	167.62
494.485	184.62
494.703	177.62
494.92	172.62
495.138	161.62
495.355	182.62
495.573	172.62
495.79	180.62
496.008	160.62
496.225	165.62
496.442	167.62
496.66	183.62
496.877	157.62
497.094	168.62
497.312	157.62
497.529	159.62
497.746	162.62
497.963	132.62
498.181	139.62
498.398	123.62
498.615	122.62
498.832	109.62
499.049	128.62
499.267	124.62
499.484	111.62
499.701	130.62
499.918	121.62
500.135	143.62
500.352	143.62
500.569	125.62
500.786	140.62
501.003	130.62
501.22	148.62
501.437	139.62
501.654	136.62
501.871	131.62
502.088	130.62
502.305	136.62
502.522	124.62
502.739	139.62
502.956	130.62
503.172	132.62
503.389	104.62
503.606	115.62
503.823	120.62
504.04	118.62
504.256	116.62
504.473	123.62
504.69	105.62
504.907	126.62
505.123	113.62
505.34	136.62
505.557	134.62
505.773	127.62
505.99	128.62
506.207	122.62
506.423	114.62
506.64	117.62
506.856	119.62
507.073	118.62
507.289	118.62
507.506	133.62
507.722	105.62
507.939	100.62
508.155	105.62
508.372	129.62
508.588	115.62
508.805	114.62
509.021	113.62
509.238	122.62
509.454	93.62
509.67	99.62
509.887	104.62
510.103	93.62
510.319	100.62
510.536	86.62
510.752	80.62
510.968	89.62
511.184	91.62
511.401	69.62
511.617	94.62
511.833	85.62
