Data from Location2.07152019.Energy5.Lamp.07192019.3%Agarose_HRD10591_14-58-52-359.txt Node
Date: Fri Jul 19 14:58:52 EDT 2019
User: cochatt
Spectrometer: HR+D1059
Trigger mode: 1
Integration Time (sec): 1.000000E-1
Scans to average: 1
Electric dark correction enabled: true
Nonlinearity correction enabled: false
Boxcar width: 0
XAxis mode: Wavelengths
Number of Pixels in Spectrum: 2048
>>>>>Begin Spectral Data<<<<<
223.165	-25.31
223.4	-25.31
223.635	-25.31
223.869	-22.31
224.104	-21.31
224.338	-10.31
224.573	-22.31
224.808	-9.31
225.042	-3.31
225.277	-1.31
225.511	-6.31
225.746	13.69
225.98	-6.31
226.215	13.69
226.449	9.69
226.683	27.69
226.918	24.69
227.152	38.69
227.387	38.69
227.621	38.69
227.856	41.69
228.09	53.69
228.324	61.69
228.559	38.69
228.793	58.69
229.027	55.69
229.262	73.69
229.496	64.69
229.73	80.69
229.964	75.69
230.199	58.69
230.433	72.69
230.667	74.69
230.901	65.69
231.136	77.69
231.37	68.69
231.604	74.69
231.838	73.69
232.072	80.69
232.306	84.69
232.541	87.69
232.775	74.69
233.009	88.69
233.243	80.69
233.477	84.69
233.711	89.69
233.945	68.69
234.179	81.69
234.413	75.69
234.647	75.69
234.881	92.69
235.115	88.69
235.349	65.69
235.583	71.69
235.817	76.69
236.051	59.69
236.285	85.69
236.519	88.69
236.753	78.69
236.987	75.69
237.221	80.69
237.455	81.69
237.689	70.69
237.922	81.69
238.156	74.69
238.39	64.69
238.624	72.69
238.858	77.69
239.091	82.69
239.325	74.69
239.559	80.69
239.793	74.69
240.027	73.69
240.26	80.69
240.494	83.69
240.728	76.69
240.961	63.69
241.195	71.69
241.429	84.69
241.662	63.69
241.896	72.69
242.13	69.69
242.363	85.69
242.597	74.69
242.83	69.69
243.064	89.69
243.298	75.69
243.531	73.69
243.765	73.69
243.998	69.69
244.232	87.69
244.465	79.69
244.699	73.69
244.932	79.69
245.166	82.69
245.399	64.69
245.633	80.69
245.866	74.69
246.099	87.69
246.333	89.69
246.566	78.69
246.8	70.69
247.033	75.69
247.266	77.69
247.5	80.69
247.733	77.69
247.966	77.69
248.2	81.69
248.433	81.69
248.666	83.69
248.899	84.69
249.133	75.69
249.366	79.69
249.599	70.69
249.832	68.69
250.066	77.69
250.299	88.69
250.532	79.69
250.765	80.69
250.998	74.69
251.231	75.69
251.465	85.69
251.698	84.69
251.931	81.69
252.164	69.69
252.397	86.69
252.63	82.69
252.863	83.69
253.096	77.69
253.329	64.69
253.562	71.69
253.795	80.69
254.028	77.69
254.261	77.69
254.494	78.69
254.727	79.69
254.96	86.69
255.193	75.69
255.426	77.69
255.659	88.69
255.892	81.69
256.124	75.69
256.357	85.69
256.59	77.69
256.823	74.69
257.056	77.69
257.289	67.69
257.521	81.69
257.754	79.69
257.987	92.69
258.22	81.69
258.452	88.69
258.685	102.69
258.918	76.69
259.151	74.69
259.383	91.69
259.616	77.69
259.849	76.69
260.081	76.69
260.314	63.69
260.547	86.69
260.779	81.69
261.012	72.69
261.244	88.69
261.477	68.69
261.71	77.69
261.942	87.69
262.175	87.69
262.407	81.69
262.64	85.69
262.872	86.69
263.105	89.69
263.337	81.69
263.57	71.69
263.802	69.69
264.035	83.69
264.267	76.69
264.499	77.69
264.732	85.69
264.964	78.69
265.197	82.69
265.429	82.69
265.661	77.69
265.894	100.69
266.126	78.69
266.358	80.69
266.591	79.69
266.823	93.69
267.055	81.69
267.287	76.69
267.52	74.69
267.752	86.69
267.984	90.69
268.216	81.69
268.448	93.69
268.681	74.69
268.913	87.69
269.145	73.69
269.377	96.69
269.609	85.69
269.841	94.69
270.073	77.69
270.306	84.69
270.538	89.69
270.77	76.69
271.002	87.69
271.234	89.69
271.466	89.69
271.698	91.69
271.93	96.69
272.162	80.69
272.394	96.69
272.626	77.69
272.858	76.69
273.09	72.69
273.322	87.69
273.553	83.69
273.785	92.69
274.017	80.69
274.249	87.69
274.481	86.69
274.713	76.69
274.945	83.69
275.176	87.69
275.408	82.69
275.64	83.69
275.872	88.69
276.104	90.69
276.335	71.69
276.567	86.69
276.799	84.69
277.031	92.69
277.262	79.69
277.494	87.69
277.726	91.69
277.957	84.69
278.189	88.69
278.421	88.69
278.652	80.69
278.884	86.69
279.115	99.69
279.347	89.69
279.579	84.69
279.81	89.69
280.042	105.69
280.273	84.69
280.505	79.69
280.736	79.69
280.968	94.69
281.199	79.69
281.431	82.69
281.662	89.69
281.894	96.69
282.125	70.69
282.356	82.69
282.588	85.69
282.819	86.69
283.051	84.69
283.282	85.69
283.513	82.69
283.745	74.69
283.976	83.69
284.207	62.69
284.439	75.69
284.67	72.69
284.901	83.69
285.132	70.69
285.364	74.69
285.595	88.69
285.826	81.69
286.057	72.69
286.288	93.69
286.52	95.69
286.751	74.69
286.982	87.69
287.213	71.69
287.444	75.69
287.675	92.69
287.906	87.69
288.138	81.69
288.369	85.69
288.6	79.69
288.831	80.69
289.062	105.69
289.293	89.69
289.524	84.69
289.755	71.69
289.986	81.69
290.217	91.69
290.448	83.69
290.679	80.69
290.91	89.69
291.141	90.69
291.371	65.69
291.602	74.69
291.833	86.69
292.064	92.69
292.295	81.69
292.526	90.69
292.757	76.69
292.987	80.69
293.218	91.69
293.449	87.69
293.68	76.69
293.91	89.69
294.141	83.69
294.372	87.69
294.603	91.69
294.833	77.69
295.064	82.69
295.295	90.69
295.525	88.69
295.756	89.69
295.987	95.69
296.217	90.69
296.448	83.69
296.679	93.69
296.909	101.69
297.14	104.69
297.37	92.69
297.601	92.69
297.831	70.69
298.062	92.69
298.292	80.69
298.523	82.69
298.753	79.69
298.984	97.69
299.214	84.69
299.445	88.69
299.675	96.69
299.905	85.69
300.136	81.69
300.366	83.69
300.597	86.69
300.827	78.69
301.057	80.69
301.288	91.69
301.518	97.69
301.748	87.69
301.979	75.69
302.209	97.69
302.439	83.69
302.669	72.69
302.9	83.69
303.13	87.69
303.36	89.69
303.59	81.69
303.82	94.69
304.051	83.69
304.281	87.69
304.511	86.69
304.741	85.69
304.971	66.69
305.201	88.69
305.431	90.69
305.661	75.69
305.891	81.69
306.121	90.69
306.352	81.69
306.582	88.69
306.812	81.69
307.042	67.69
307.272	72.69
307.502	77.69
307.731	85.69
307.961	85.69
308.191	95.69
308.421	78.69
308.651	73.69
308.881	88.69
309.111	89.69
309.341	76.69
309.571	81.69
309.8	92.69
310.03	89.69
310.26	74.69
310.49	72.69
310.72	86.69
310.949	83.69
311.179	99.69
311.409	66.69
311.639	75.69
311.868	85.69
312.098	84.69
312.328	81.69
312.557	87.69
312.787	81.69
313.017	83.69
313.246	102.69
313.476	96.69
313.706	79.69
313.935	82.69
314.165	76.69
314.394	93.69
314.624	92.69
314.853	79.69
315.083	91.69
315.312	80.69
315.542	87.69
315.771	95.69
316.001	78.69
316.23	90.69
316.46	97.69
316.689	82.69
316.919	71.69
317.148	91.69
317.377	83.69
317.607	90.69
317.836	79.69
318.065	81.69
318.295	95.69
318.524	82.69
318.753	80.69
318.983	74.69
319.212	87.69
319.441	98.69
319.67	93.69
319.9	92.69
320.129	74.69
320.358	96.69
320.587	88.69
320.816	103.69
321.046	76.69
321.275	96.69
321.504	90.69
321.733	78.69
321.962	87.69
322.191	80.69
322.42	89.69
322.649	90.69
322.878	85.69
323.108	100.69
323.337	70.69
323.566	79.69
323.795	88.69
324.024	81.69
324.253	92.69
324.482	68.69
324.71	85.69
324.939	89.69
325.168	96.69
325.397	98.69
325.626	84.69
325.855	72.69
326.084	85.69
326.313	72.69
326.542	88.69
326.77	69.69
326.999	72.69
327.228	87.69
327.457	83.69
327.686	77.69
327.914	81.69
328.143	89.69
328.372	82.69
328.6	89.69
328.829	89.69
329.058	86.69
329.287	96.69
329.515	74.69
329.744	91.69
329.972	87.69
330.201	81.69
330.43	84.69
330.658	72.69
330.887	86.69
331.115	82.69
331.344	76.69
331.572	84.69
331.801	82.69
332.03	74.69
332.258	80.69
332.486	83.69
332.715	78.69
332.943	72.69
333.172	82.69
333.4	77.69
333.629	89.69
333.857	92.69
334.085	83.69
334.314	89.69
334.542	74.69
334.771	84.69
334.999	85.69
335.227	80.69
335.455	67.69
335.684	95.69
335.912	93.69
336.14	82.69
336.369	90.69
336.597	81.69
336.825	85.69
337.053	77.69
337.281	91.69
337.51	84.69
337.738	81.69
337.966	100.69
338.194	70.69
338.422	88.69
338.65	77.69
338.878	100.69
339.106	70.69
339.334	85.69
339.562	72.69
339.79	71.69
340.018	96.69
340.246	69.69
340.474	79.69
340.702	92.69
340.93	80.69
341.158	101.69
341.386	82.69
341.614	90.69
341.842	87.69
342.07	77.69
342.298	95.69
342.526	91.69
342.754	85.69
342.981	89.69
343.209	77.69
343.437	88.69
343.665	89.69
343.893	96.69
344.12	78.69
344.348	73.69
344.576	81.69
344.804	92.69
345.031	79.69
345.259	77.69
345.487	84.69
345.714	75.69
345.942	89.69
346.17	93.69
346.397	82.69
346.625	75.69
346.853	84.69
347.08	95.69
347.308	87.69
347.535	89.69
347.763	77.69
347.99	87.69
348.218	90.69
348.445	83.69
348.673	87.69
348.9	95.69
349.128	96.69
349.355	81.69
349.583	98.69
349.81	86.69
350.037	73.69
350.265	72.69
350.492	77.69
350.72	87.69
350.947	98.69
351.174	80.69
351.402	70.69
351.629	85.69
351.856	83.69
352.083	76.69
352.311	88.69
352.538	82.69
352.765	93.69
352.992	90.69
353.22	80.69
353.447	87.69
353.674	76.69
353.901	86.69
354.128	85.69
354.355	83.69
354.583	82.69
354.81	88.69
355.037	88.69
355.264	73.69
355.491	83.69
355.718	95.69
355.945	75.69
356.172	83.69
356.399	69.69
356.626	79.69
356.853	101.69
357.08	73.69
357.307	90.69
357.534	76.69
357.761	91.69
357.988	84.69
358.215	85.69
358.441	80.69
358.668	83.69
358.895	80.69
359.122	77.69
359.349	90.69
359.576	92.69
359.802	77.69
360.029	74.69
360.256	80.69
360.483	80.69
360.709	74.69
360.936	90.69
361.163	74.69
361.39	90.69
361.616	76.69
361.843	84.69
362.07	78.69
362.296	83.69
362.523	83.69
362.749	89.69
362.976	75.69
363.203	88.69
363.429	84.69
363.656	92.69
363.882	104.69
364.109	80.69
364.335	75.69
364.562	93.69
364.788	85.69
365.015	80.69
365.241	92.69
365.468	97.69
365.694	77.69
365.92	92.69
366.147	80.69
366.373	100.69
366.599	94.69
366.826	86.69
367.052	86.69
367.278	81.69
367.505	92.69
367.731	84.69
367.957	99.69
368.184	111.69
368.41	89.69
368.636	92.69
368.862	86.69
369.089	100.69
369.315	89.69
369.541	93.69
369.767	96.69
369.993	87.69
370.219	95.69
370.445	90.69
370.672	95.69
370.898	104.69
371.124	98.69
371.35	85.69
371.576	88.69
371.802	97.69
372.028	92.69
372.254	91.69
372.48	96.69
372.706	92.69
372.932	113.69
373.158	96.69
373.384	93.69
373.61	101.69
373.835	81.69
374.061	92.69
374.287	78.69
374.513	97.69
374.739	83.69
374.965	90.69
375.191	96.69
375.416	92.69
375.642	82.69
375.868	91.69
376.094	95.69
376.319	77.69
376.545	82.69
376.771	83.69
376.997	94.69
377.222	88.69
377.448	100.69
377.674	92.69
377.899	110.69
378.125	105.69
378.35	94.69
378.576	92.69
378.802	105.69
379.027	101.69
379.253	84.69
379.478	93.69
379.704	89.69
379.929	89.69
380.155	100.69
380.38	91.69
380.606	88.69
380.831	96.69
381.057	92.69
381.282	105.69
381.507	95.69
381.733	89.69
381.958	87.69
382.184	89.69
382.409	84.69
382.634	99.69
382.86	114.69
383.085	111.69
383.31	80.69
383.535	93.69
383.761	101.69
383.986	100.69
384.211	88.69
384.436	106.69
384.662	93.69
384.887	107.69
385.112	104.69
385.337	100.69
385.562	89.69
385.787	103.69
386.013	99.69
386.238	96.69
386.463	101.69
386.688	111.69
386.913	104.69
387.138	100.69
387.363	102.69
387.588	106.69
387.813	87.69
388.038	104.69
388.263	96.69
388.488	91.69
388.713	98.69
388.938	107.69
389.163	101.69
389.387	92.69
389.612	96.69
389.837	99.69
390.062	101.69
390.287	115.69
390.512	94.69
390.736	85.69
390.961	93.69
391.186	106.69
391.411	101.69
391.636	97.69
391.86	101.69
392.085	106.69
392.31	94.69
392.534	111.69
392.759	103.69
392.984	95.69
393.208	106.69
393.433	100.69
393.658	124.69
393.882	126.69
394.107	110.69
394.331	109.69
394.556	99.69
394.78	98.69
395.005	111.69
395.229	95.69
395.454	100.69
395.678	119.69
395.903	115.69
396.127	112.69
396.352	114.69
396.576	92.69
396.801	96.69
397.025	101.69
397.249	102.69
397.474	120.69
397.698	117.69
397.922	104.69
398.147	107.69
398.371	117.69
398.595	114.69
398.82	108.69
399.044	97.69
399.268	111.69
399.492	114.69
399.717	115.69
399.941	106.69
400.165	107.69
400.389	114.69
400.613	119.69
400.837	114.69
401.062	111.69
401.286	120.69
401.51	104.69
401.734	100.69
401.958	111.69
402.182	115.69
402.406	108.69
402.63	112.69
402.854	112.69
403.078	114.69
403.302	114.69
403.526	103.69
403.75	99.69
403.974	115.69
404.198	113.69
404.422	116.69
404.645	123.69
404.869	123.69
405.093	117.69
405.317	123.69
405.541	120.69
405.765	109.69
405.988	119.69
406.212	119.69
406.436	120.69
406.66	116.69
406.883	113.69
407.107	123.69
407.331	113.69
407.555	114.69
407.778	129.69
408.002	115.69
408.226	104.69
408.449	122.69
408.673	112.69
408.896	112.69
409.12	127.69
409.344	116.69
409.567	113.69
409.791	124.69
410.014	120.69
410.238	127.69
410.461	111.69
410.685	128.69
410.908	121.69
411.132	131.69
411.355	104.69
411.578	107.69
411.802	135.69
412.025	112.69
412.249	115.69
412.472	117.69
412.695	115.69
412.919	116.69
413.142	117.69
413.365	124.69
413.589	112.69
413.812	120.69
414.035	138.69
414.258	114.69
414.482	128.69
414.705	111.69
414.928	124.69
415.151	110.69
415.374	127.69
415.597	120.69
415.821	124.69
416.044	133.69
416.267	133.69
416.49	126.69
416.713	135.69
416.936	123.69
417.159	124.69
417.382	130.69
417.605	117.69
417.828	111.69
418.051	131.69
418.274	120.69
418.497	123.69
418.72	123.69
418.943	119.69
419.166	121.69
419.389	151.69
419.611	122.69
419.834	154.69
420.057	149.69
420.28	104.69
420.503	138.69
420.726	135.69
420.948	124.69
421.171	123.69
421.394	132.69
421.617	129.69
421.839	137.69
422.062	131.69
422.285	132.69
422.507	135.69
422.73	123.69
422.953	131.69
423.175	133.69
423.398	128.69
423.621	141.69
423.843	139.69
424.066	136.69
424.288	138.69
424.511	131.69
424.733	153.69
424.956	139.69
425.178	140.69
425.401	131.69
425.623	131.69
425.846	119.69
426.068	145.69
426.291	135.69
426.513	128.69
426.735	137.69
426.958	146.69
427.18	131.69
427.402	123.69
427.625	124.69
427.847	122.69
428.069	122.69
428.292	127.69
428.514	143.69
428.736	111.69
428.958	121.69
429.181	108.69
429.403	117.69
429.625	123.69
429.847	128.69
430.069	145.69
430.292	129.69
430.514	123.69
430.736	121.69
430.958	125.69
431.18	117.69
431.402	124.69
431.624	145.69
431.846	101.69
432.068	88.69
432.29	85.69
432.512	104.69
432.734	119.69
432.956	131.69
433.178	135.69
433.4	130.69
433.622	132.69
433.844	125.69
434.066	119.69
434.287	104.69
434.509	94.69
434.731	110.69
434.953	122.69
435.175	122.69
435.397	122.69
435.618	124.69
435.84	103.69
436.062	119.69
436.284	132.69
436.505	117.69
436.727	125.69
436.949	115.69
437.17	131.69
437.392	127.69
437.614	106.69
437.835	111.69
438.057	115.69
438.278	107.69
438.5	123.69
438.721	123.69
438.943	135.69
439.165	135.69
439.386	128.69
439.608	141.69
439.829	129.69
440.05	150.69
440.272	149.69
440.493	140.69
440.715	148.69
440.936	153.69
441.158	129.69
441.379	127.69
441.6	140.69
441.822	146.69
442.043	129.69
442.264	130.69
442.486	136.69
442.707	145.69
442.928	143.69
443.149	130.69
443.371	137.69
443.592	134.69
443.813	143.69
444.034	137.69
444.255	137.69
444.476	131.69
444.698	148.69
444.919	137.69
445.14	245.69
445.361	198.69
445.582	145.69
445.803	122.69
446.024	139.69
446.245	129.69
446.466	159.69
446.687	131.69
446.908	157.69
447.129	144.69
447.35	150.69
447.571	154.69
447.792	136.69
448.013	156.69
448.234	137.69
448.455	145.69
448.675	145.69
448.896	132.69
449.117	147.69
449.338	129.69
449.559	138.69
449.779	140.69
450	155.69
450.221	124.69
450.442	129.69
450.662	131.69
450.883	133.69
451.104	142.69
451.324	131.69
451.545	125.69
451.766	120.69
451.986	133.69
452.207	125.69
452.428	121.69
452.648	136.69
452.869	125.69
453.089	123.69
453.31	101.69
453.53	105.69
453.751	96.69
453.971	90.69
454.192	103.69
454.412	120.69
454.633	119.69
454.853	113.69
455.073	125.69
455.294	128.69
455.514	121.69
455.734	119.69
455.955	128.69
456.175	111.69
456.395	106.69
456.616	108.69
456.836	116.69
457.056	113.69
457.276	115.69
457.497	116.69
457.717	102.69
457.937	115.69
458.157	107.69
458.377	92.69
458.598	91.69
458.818	90.69
459.038	90.69
459.258	97.69
459.478	102.69
459.698	92.69
459.918	102.69
460.138	104.69
460.358	120.69
460.578	108.69
460.798	118.69
461.018	99.69
461.238	123.69
461.458	121.69
461.678	109.69
461.898	108.69
462.118	107.69
462.338	112.69
462.558	112.69
462.777	99.69
462.997	107.69
463.217	109.69
463.437	113.69
463.657	109.69
463.876	115.69
464.096	106.69
464.316	106.69
464.536	121.69
464.755	135.69
464.975	118.69
465.195	124.69
465.414	115.69
465.634	116.69
465.854	133.69
466.073	112.69
466.293	137.69
466.512	132.69
466.732	134.69
466.951	149.69
467.171	121.69
467.391	128.69
467.61	127.69
467.829	124.69
468.049	148.69
468.268	133.69
468.488	130.69
468.707	135.69
468.927	138.69
469.146	142.69
469.365	130.69
469.585	137.69
469.804	124.69
470.023	135.69
470.243	161.69
470.462	138.69
470.681	132.69
470.901	132.69
471.12	146.69
471.339	145.69
471.558	141.69
471.777	142.69
471.997	130.69
472.216	129.69
472.435	118.69
472.654	107.69
472.873	109.69
473.092	119.69
473.311	131.69
473.53	120.69
473.749	118.69
473.968	139.69
474.187	120.69
474.406	111.69
474.625	122.69
474.844	130.69
475.063	128.69
475.282	128.69
475.501	125.69
475.72	117.69
475.939	118.69
476.158	125.69
476.377	128.69
476.596	126.69
476.814	124.69
477.033	113.69
477.252	119.69
477.471	124.69
477.69	129.69
477.908	131.69
478.127	143.69
478.346	137.69
478.564	132.69
478.783	150.69
479.002	133.69
479.22	137.69
479.439	129.69
479.658	134.69
479.876	115.69
480.095	118.69
480.313	128.69
480.532	104.69
480.751	108.69
480.969	94.69
481.188	88.69
481.406	102.69
481.624	103.69
481.843	77.69
482.061	100.69
482.28	125.69
482.498	111.69
482.717	111.69
482.935	136.69
483.153	149.69
483.372	147.69
483.59	131.69
483.808	142.69
484.027	145.69
484.245	138.69
484.463	147.69
484.681	145.69
484.9	135.69
485.118	139.69
485.336	109.69
485.554	106.69
485.772	99.69
485.99	95.69
486.209	103.69
486.427	113.69
486.645	117.69
486.863	144.69
487.081	145.69
487.299	127.69
487.517	138.69
487.735	160.69
487.953	167.69
488.171	175.69
488.389	188.69
488.607	153.69
488.825	142.69
489.043	122.69
489.261	124.69
489.479	148.69
489.696	137.69
489.914	131.69
490.132	129.69
490.35	153.69
490.568	164.69
490.786	182.69
491.003	155.69
491.221	175.69
491.439	172.69
491.657	171.69
491.874	197.69
492.092	204.69
492.31	240.69
492.527	214.69
492.745	214.69
492.963	191.69
493.18	170.69
493.398	172.69
493.615	165.69
493.833	176.69
494.05	168.69
494.268	175.69
494.485	177.69
494.703	184.69
494.92	182.69
495.138	179.69
495.355	168.69
495.573	177.69
495.79	170.69
496.008	170.69
496.225	172.69
496.442	164.69
496.66	166.69
496.877	171.69
497.094	156.69
497.312	148.69
497.529	157.69
497.746	131.69
497.963	135.69
498.181	131.69
498.398	115.69
498.615	127.69
498.832	134.69
499.049	124.69
499.267	126.69
499.484	126.69
499.701	132.69
499.918	124.69
500.135	121.69
500.352	140.69
500.569	148.69
500.786	142.69
501.003	139.69
501.22	136.69
501.437	135.69
501.654	124.69
501.871	129.69
502.088	140.69
502.305	121.69
502.522	130.69
502.739	131.69
502.956	132.69
503.172	129.69
503.389	129.69
503.606	121.69
503.823	119.69
504.04	125.69
504.256	119.69
504.473	120.69
504.69	111.69
504.907	129.69
505.123	114.69
505.34	121.69
505.557	122.69
505.773	125.69
505.99	111.69
506.207	106.69
506.423	111.69
506.64	112.69
506.856	118.69
507.073	121.69
507.289	119.69
507.506	129.69
507.722	104.69
507.939	118.69
508.155	117.69
508.372	111.69
508.588	109.69
508.805	105.69
509.021	107.69
509.238	127.69
509.454	115.69
509.67	108.69
509.887	97.69
510.103	91.69
510.319	110.69
510.536	96.69
510.752	70.69
510.968	83.69
511.184	83.69
511.401	90.69
