Data from Location2.07152019.Energy5.Lamp.07192019.3%Agarose_HRD10591_14-56-26-359.txt Node
Date: Fri Jul 19 14:56:26 EDT 2019
User: cochatt
Spectrometer: HR+D1059
Trigger mode: 1
Integration Time (sec): 1.000000E-1
Scans to average: 1
Electric dark correction enabled: true
Nonlinearity correction enabled: false
Boxcar width: 0
XAxis mode: Wavelengths
Number of Pixels in Spectrum: 2048
>>>>>Begin Spectral Data<<<<<
223.165	-9.62
223.4	-9.62
223.635	-9.62
223.869	2.38
224.104	-22.62
224.338	-20.62
224.573	-29.62
224.808	-33.62
225.042	4.38
225.277	-7.62
225.511	7.38
225.746	11.38
225.98	5.38
226.215	19.38
226.449	12.38
226.683	9.38
226.918	20.38
227.152	31.38
227.387	26.38
227.621	26.38
227.856	35.38
228.09	39.38
228.324	45.38
228.559	42.38
228.793	47.38
229.027	45.38
229.262	60.38
229.496	60.38
229.73	62.38
229.964	64.38
230.199	65.38
230.433	70.38
230.667	69.38
230.901	76.38
231.136	85.38
231.37	88.38
231.604	64.38
231.838	70.38
232.072	83.38
232.306	70.38
232.541	68.38
232.775	65.38
233.009	80.38
233.243	73.38
233.477	74.38
233.711	70.38
233.945	84.38
234.179	83.38
234.413	81.38
234.647	88.38
234.881	77.38
235.115	80.38
235.349	79.38
235.583	65.38
235.817	71.38
236.051	75.38
236.285	76.38
236.519	58.38
236.753	68.38
236.987	77.38
237.221	72.38
237.455	71.38
237.689	63.38
237.922	70.38
238.156	70.38
238.39	68.38
238.624	74.38
238.858	81.38
239.091	69.38
239.325	70.38
239.559	59.38
239.793	71.38
240.027	60.38
240.26	75.38
240.494	91.38
240.728	61.38
240.961	65.38
241.195	71.38
241.429	64.38
241.662	62.38
241.896	62.38
242.13	64.38
242.363	75.38
242.597	69.38
242.83	68.38
243.064	70.38
243.298	78.38
243.531	68.38
243.765	68.38
243.998	81.38
244.232	72.38
244.465	65.38
244.699	71.38
244.932	89.38
245.166	68.38
245.399	76.38
245.633	80.38
245.866	74.38
246.099	72.38
246.333	89.38
246.566	76.38
246.8	69.38
247.033	75.38
247.266	95.38
247.5	79.38
247.733	66.38
247.966	67.38
248.2	75.38
248.433	81.38
248.666	60.38
248.899	72.38
249.133	70.38
249.366	70.38
249.599	82.38
249.832	72.38
250.066	74.38
250.299	72.38
250.532	67.38
250.765	83.38
250.998	72.38
251.231	79.38
251.465	67.38
251.698	71.38
251.931	76.38
252.164	89.38
252.397	74.38
252.63	81.38
252.863	80.38
253.096	70.38
253.329	77.38
253.562	60.38
253.795	78.38
254.028	92.38
254.261	76.38
254.494	66.38
254.727	74.38
254.96	79.38
255.193	55.38
255.426	79.38
255.659	87.38
255.892	83.38
256.124	66.38
256.357	84.38
256.59	95.38
256.823	85.38
257.056	72.38
257.289	76.38
257.521	104.38
257.754	63.38
257.987	74.38
258.22	83.38
258.452	78.38
258.685	85.38
258.918	86.38
259.151	82.38
259.383	85.38
259.616	78.38
259.849	59.38
260.081	85.38
260.314	81.38
260.547	64.38
260.779	70.38
261.012	88.38
261.244	74.38
261.477	75.38
261.71	71.38
261.942	80.38
262.175	88.38
262.407	68.38
262.64	73.38
262.872	89.38
263.105	76.38
263.337	84.38
263.57	70.38
263.802	79.38
264.035	70.38
264.267	97.38
264.499	82.38
264.732	87.38
264.964	81.38
265.197	67.38
265.429	85.38
265.661	77.38
265.894	72.38
266.126	79.38
266.358	76.38
266.591	76.38
266.823	91.38
267.055	80.38
267.287	88.38
267.52	72.38
267.752	67.38
267.984	67.38
268.216	89.38
268.448	78.38
268.681	79.38
268.913	70.38
269.145	67.38
269.377	73.38
269.609	60.38
269.841	90.38
270.073	75.38
270.306	62.38
270.538	85.38
270.77	70.38
271.002	79.38
271.234	80.38
271.466	84.38
271.698	77.38
271.93	78.38
272.162	79.38
272.394	76.38
272.626	91.38
272.858	85.38
273.09	92.38
273.322	75.38
273.553	70.38
273.785	60.38
274.017	84.38
274.249	77.38
274.481	83.38
274.713	70.38
274.945	81.38
275.176	84.38
275.408	85.38
275.64	71.38
275.872	80.38
276.104	84.38
276.335	73.38
276.567	91.38
276.799	74.38
277.031	77.38
277.262	78.38
277.494	87.38
277.726	82.38
277.957	67.38
278.189	66.38
278.421	80.38
278.652	89.38
278.884	83.38
279.115	80.38
279.347	77.38
279.579	75.38
279.81	72.38
280.042	70.38
280.273	62.38
280.505	72.38
280.736	76.38
280.968	82.38
281.199	71.38
281.431	77.38
281.662	68.38
281.894	84.38
282.125	76.38
282.356	72.38
282.588	77.38
282.819	69.38
283.051	78.38
283.282	86.38
283.513	81.38
283.745	70.38
283.976	83.38
284.207	85.38
284.439	83.38
284.67	70.38
284.901	75.38
285.132	75.38
285.364	77.38
285.595	71.38
285.826	80.38
286.057	68.38
286.288	74.38
286.52	87.38
286.751	81.38
286.982	84.38
287.213	64.38
287.444	83.38
287.675	70.38
287.906	79.38
288.138	67.38
288.369	87.38
288.6	82.38
288.831	78.38
289.062	87.38
289.293	83.38
289.524	79.38
289.755	73.38
289.986	68.38
290.217	84.38
290.448	76.38
290.679	73.38
290.91	85.38
291.141	80.38
291.371	82.38
291.602	84.38
291.833	68.38
292.064	83.38
292.295	87.38
292.526	82.38
292.757	88.38
292.987	85.38
293.218	91.38
293.449	86.38
293.68	80.38
293.91	84.38
294.141	91.38
294.372	89.38
294.603	83.38
294.833	82.38
295.064	91.38
295.295	98.38
295.525	83.38
295.756	76.38
295.987	77.38
296.217	69.38
296.448	80.38
296.679	83.38
296.909	74.38
297.14	83.38
297.37	85.38
297.601	85.38
297.831	87.38
298.062	78.38
298.292	83.38
298.523	82.38
298.753	79.38
298.984	66.38
299.214	65.38
299.445	89.38
299.675	79.38
299.905	68.38
300.136	79.38
300.366	87.38
300.597	81.38
300.827	80.38
301.057	70.38
301.288	96.38
301.518	83.38
301.748	83.38
301.979	76.38
302.209	81.38
302.439	81.38
302.669	98.38
302.9	73.38
303.13	94.38
303.36	74.38
303.59	85.38
303.82	86.38
304.051	74.38
304.281	80.38
304.511	77.38
304.741	84.38
304.971	87.38
305.201	84.38
305.431	73.38
305.661	76.38
305.891	77.38
306.121	90.38
306.352	83.38
306.582	90.38
306.812	88.38
307.042	93.38
307.272	83.38
307.502	70.38
307.731	73.38
307.961	94.38
308.191	91.38
308.421	71.38
308.651	77.38
308.881	85.38
309.111	81.38
309.341	84.38
309.571	83.38
309.8	63.38
310.03	85.38
310.26	74.38
310.49	77.38
310.72	74.38
310.949	71.38
311.179	72.38
311.409	65.38
311.639	79.38
311.868	70.38
312.098	76.38
312.328	90.38
312.557	75.38
312.787	79.38
313.017	92.38
313.246	80.38
313.476	76.38
313.706	89.38
313.935	84.38
314.165	72.38
314.394	83.38
314.624	81.38
314.853	88.38
315.083	82.38
315.312	89.38
315.542	80.38
315.771	83.38
316.001	83.38
316.23	92.38
316.46	70.38
316.689	69.38
316.919	73.38
317.148	81.38
317.377	87.38
317.607	91.38
317.836	79.38
318.065	82.38
318.295	84.38
318.524	88.38
318.753	84.38
318.983	76.38
319.212	76.38
319.441	74.38
319.67	87.38
319.9	79.38
320.129	87.38
320.358	80.38
320.587	73.38
320.816	81.38
321.046	86.38
321.275	75.38
321.504	87.38
321.733	78.38
321.962	86.38
322.191	87.38
322.42	68.38
322.649	89.38
322.878	79.38
323.108	79.38
323.337	83.38
323.566	87.38
323.795	81.38
324.024	77.38
324.253	75.38
324.482	73.38
324.71	85.38
324.939	85.38
325.168	84.38
325.397	73.38
325.626	80.38
325.855	97.38
326.084	83.38
326.313	72.38
326.542	65.38
326.77	69.38
326.999	74.38
327.228	73.38
327.457	80.38
327.686	80.38
327.914	83.38
328.143	89.38
328.372	80.38
328.6	84.38
328.829	74.38
329.058	67.38
329.287	86.38
329.515	79.38
329.744	68.38
329.972	88.38
330.201	83.38
330.43	77.38
330.658	65.38
330.887	77.38
331.115	79.38
331.344	80.38
331.572	87.38
331.801	59.38
332.03	71.38
332.258	78.38
332.486	73.38
332.715	86.38
332.943	89.38
333.172	80.38
333.4	75.38
333.629	65.38
333.857	87.38
334.085	77.38
334.314	83.38
334.542	80.38
334.771	79.38
334.999	91.38
335.227	76.38
335.455	68.38
335.684	71.38
335.912	97.38
336.14	97.38
336.369	66.38
336.597	85.38
336.825	75.38
337.053	80.38
337.281	83.38
337.51	97.38
337.738	74.38
337.966	78.38
338.194	73.38
338.422	70.38
338.65	80.38
338.878	83.38
339.106	84.38
339.334	80.38
339.562	85.38
339.79	80.38
340.018	84.38
340.246	94.38
340.474	85.38
340.702	75.38
340.93	79.38
341.158	87.38
341.386	93.38
341.614	70.38
341.842	84.38
342.07	71.38
342.298	73.38
342.526	81.38
342.754	79.38
342.981	82.38
343.209	78.38
343.437	80.38
343.665	82.38
343.893	96.38
344.12	79.38
344.348	79.38
344.576	75.38
344.804	80.38
345.031	84.38
345.259	74.38
345.487	78.38
345.714	74.38
345.942	80.38
346.17	91.38
346.397	80.38
346.625	74.38
346.853	89.38
347.08	88.38
347.308	88.38
347.535	86.38
347.763	85.38
347.99	92.38
348.218	83.38
348.445	78.38
348.673	76.38
348.9	97.38
349.128	85.38
349.355	88.38
349.583	76.38
349.81	77.38
350.037	76.38
350.265	74.38
350.492	69.38
350.72	92.38
350.947	63.38
351.174	77.38
351.402	73.38
351.629	90.38
351.856	79.38
352.083	71.38
352.311	88.38
352.538	83.38
352.765	74.38
352.992	82.38
353.22	88.38
353.447	88.38
353.674	75.38
353.901	88.38
354.128	93.38
354.355	90.38
354.583	93.38
354.81	77.38
355.037	78.38
355.264	76.38
355.491	89.38
355.718	75.38
355.945	85.38
356.172	87.38
356.399	86.38
356.626	75.38
356.853	82.38
357.08	56.38
357.307	84.38
357.534	67.38
357.761	77.38
357.988	85.38
358.215	73.38
358.441	83.38
358.668	78.38
358.895	68.38
359.122	79.38
359.349	62.38
359.576	77.38
359.802	70.38
360.029	81.38
360.256	97.38
360.483	74.38
360.709	97.38
360.936	86.38
361.163	76.38
361.39	71.38
361.616	74.38
361.843	79.38
362.07	81.38
362.296	93.38
362.523	81.38
362.749	70.38
362.976	73.38
363.203	82.38
363.429	73.38
363.656	78.38
363.882	84.38
364.109	83.38
364.335	84.38
364.562	80.38
364.788	78.38
365.015	81.38
365.241	92.38
365.468	78.38
365.694	82.38
365.92	78.38
366.147	69.38
366.373	70.38
366.599	78.38
366.826	95.38
367.052	100.38
367.278	79.38
367.505	83.38
367.731	104.38
367.957	82.38
368.184	78.38
368.41	83.38
368.636	71.38
368.862	81.38
369.089	79.38
369.315	96.38
369.541	80.38
369.767	83.38
369.993	98.38
370.219	76.38
370.445	80.38
370.672	89.38
370.898	87.38
371.124	86.38
371.35	68.38
371.576	91.38
371.802	82.38
372.028	94.38
372.254	104.38
372.48	79.38
372.706	93.38
372.932	91.38
373.158	85.38
373.384	92.38
373.61	81.38
373.835	92.38
374.061	84.38
374.287	90.38
374.513	87.38
374.739	86.38
374.965	100.38
375.191	85.38
375.416	102.38
375.642	102.38
375.868	89.38
376.094	92.38
376.319	88.38
376.545	98.38
376.771	101.38
376.997	81.38
377.222	99.38
377.448	84.38
377.674	85.38
377.899	80.38
378.125	97.38
378.35	86.38
378.576	95.38
378.802	84.38
379.027	87.38
379.253	88.38
379.478	85.38
379.704	84.38
379.929	83.38
380.155	73.38
380.38	85.38
380.606	104.38
380.831	94.38
381.057	97.38
381.282	91.38
381.507	104.38
381.733	81.38
381.958	81.38
382.184	70.38
382.409	87.38
382.634	95.38
382.86	97.38
383.085	93.38
383.31	88.38
383.535	90.38
383.761	95.38
383.986	102.38
384.211	73.38
384.436	96.38
384.662	93.38
384.887	88.38
385.112	91.38
385.337	96.38
385.562	87.38
385.787	89.38
386.013	101.38
386.238	103.38
386.463	83.38
386.688	95.38
386.913	92.38
387.138	88.38
387.363	104.38
387.588	99.38
387.813	112.38
388.038	93.38
388.263	95.38
388.488	85.38
388.713	78.38
388.938	95.38
389.163	103.38
389.387	97.38
389.612	104.38
389.837	94.38
390.062	100.38
390.287	114.38
390.512	98.38
390.736	94.38
390.961	89.38
391.186	94.38
391.411	90.38
391.636	97.38
391.86	100.38
392.085	100.38
392.31	84.38
392.534	99.38
392.759	99.38
392.984	111.38
393.208	103.38
393.433	96.38
393.658	101.38
393.882	98.38
394.107	110.38
394.331	87.38
394.556	84.38
394.78	102.38
395.005	101.38
395.229	102.38
395.454	101.38
395.678	103.38
395.903	111.38
396.127	97.38
396.352	85.38
396.576	94.38
396.801	107.38
397.025	103.38
397.249	92.38
397.474	113.38
397.698	95.38
397.922	105.38
398.147	95.38
398.371	101.38
398.595	107.38
398.82	103.38
399.044	97.38
399.268	92.38
399.492	115.38
399.717	102.38
399.941	119.38
400.165	112.38
400.389	101.38
400.613	110.38
400.837	114.38
401.062	109.38
401.286	95.38
401.51	99.38
401.734	103.38
401.958	120.38
402.182	104.38
402.406	103.38
402.63	115.38
402.854	114.38
403.078	119.38
403.302	104.38
403.526	93.38
403.75	101.38
403.974	115.38
404.198	116.38
404.422	110.38
404.645	107.38
404.869	116.38
405.093	109.38
405.317	112.38
405.541	120.38
405.765	115.38
405.988	111.38
406.212	105.38
406.436	127.38
406.66	112.38
406.883	104.38
407.107	112.38
407.331	117.38
407.555	93.38
407.778	116.38
408.002	110.38
408.226	122.38
408.449	119.38
408.673	113.38
408.896	130.38
409.12	113.38
409.344	118.38
409.567	103.38
409.791	129.38
410.014	129.38
410.238	115.38
410.461	107.38
410.685	116.38
410.908	109.38
411.132	108.38
411.355	120.38
411.578	127.38
411.802	121.38
412.025	116.38
412.249	117.38
412.472	123.38
412.695	120.38
412.919	122.38
413.142	125.38
413.365	122.38
413.589	112.38
413.812	123.38
414.035	123.38
414.258	119.38
414.482	117.38
414.705	117.38
414.928	117.38
415.151	117.38
415.374	127.38
415.597	119.38
415.821	115.38
416.044	126.38
416.267	127.38
416.49	130.38
416.713	125.38
416.936	114.38
417.159	117.38
417.382	123.38
417.605	121.38
417.828	136.38
418.051	126.38
418.274	129.38
418.497	147.38
418.72	116.38
418.943	135.38
419.166	134.38
419.389	135.38
419.611	120.38
419.834	118.38
420.057	121.38
420.28	126.38
420.503	134.38
420.726	133.38
420.948	123.38
421.171	120.38
421.394	128.38
421.617	127.38
421.839	147.38
422.062	125.38
422.285	134.38
422.507	117.38
422.73	136.38
422.953	123.38
423.175	126.38
423.398	115.38
423.621	128.38
423.843	131.38
424.066	140.38
424.288	143.38
424.511	120.38
424.733	137.38
424.956	133.38
425.178	136.38
425.401	134.38
425.623	153.38
425.846	133.38
426.068	124.38
426.291	133.38
426.513	133.38
426.735	119.38
426.958	127.38
427.18	126.38
427.402	124.38
427.625	122.38
427.847	125.38
428.069	119.38
428.292	136.38
428.514	131.38
428.736	125.38
428.958	131.38
429.181	133.38
429.403	132.38
429.625	130.38
429.847	121.38
430.069	128.38
430.292	130.38
430.514	127.38
430.736	127.38
430.958	130.38
431.18	117.38
431.402	132.38
431.624	112.38
431.846	101.38
432.068	91.38
432.29	90.38
432.512	112.38
432.734	117.38
432.956	122.38
433.178	137.38
433.4	131.38
433.622	129.38
433.844	128.38
434.066	119.38
434.287	120.38
434.509	88.38
434.731	101.38
434.953	107.38
435.175	111.38
435.397	129.38
435.618	109.38
435.84	96.38
436.062	117.38
436.284	131.38
436.505	123.38
436.727	115.38
436.949	115.38
437.17	124.38
437.392	119.38
437.614	112.38
437.835	120.38
438.057	103.38
438.278	107.38
438.5	114.38
438.721	124.38
438.943	118.38
439.165	123.38
439.386	131.38
439.608	144.38
439.829	150.38
440.05	147.38
440.272	144.38
440.493	133.38
440.715	133.38
440.936	135.38
441.158	124.38
441.379	126.38
441.6	143.38
441.822	143.38
442.043	130.38
442.264	131.38
442.486	132.38
442.707	119.38
442.928	137.38
443.149	137.38
443.371	133.38
443.592	130.38
443.813	131.38
444.034	136.38
444.255	129.38
444.476	146.38
444.698	137.38
444.919	146.38
445.14	277.38
445.361	197.38
445.582	148.38
445.803	157.38
446.024	144.38
446.245	141.38
446.466	141.38
446.687	163.38
446.908	141.38
447.129	149.38
447.35	153.38
447.571	143.38
447.792	142.38
448.013	127.38
448.234	127.38
448.455	138.38
448.675	131.38
448.896	126.38
449.117	120.38
449.338	124.38
449.559	141.38
449.779	127.38
450	135.38
450.221	132.38
450.442	123.38
450.662	128.38
450.883	125.38
451.104	145.38
451.324	135.38
451.545	131.38
451.766	143.38
451.986	115.38
452.207	130.38
452.428	129.38
452.648	126.38
452.869	124.38
453.089	115.38
453.31	115.38
453.53	90.38
453.751	94.38
453.971	99.38
454.192	111.38
454.412	109.38
454.633	116.38
454.853	129.38
455.073	118.38
455.294	117.38
455.514	117.38
455.734	119.38
455.955	109.38
456.175	115.38
456.395	107.38
456.616	123.38
456.836	110.38
457.056	101.38
457.276	102.38
457.497	104.38
457.717	110.38
457.937	91.38
458.157	108.38
458.377	107.38
458.598	99.38
458.818	91.38
459.038	78.38
459.258	72.38
459.478	80.38
459.698	96.38
459.918	104.38
460.138	93.38
460.358	115.38
460.578	103.38
460.798	109.38
461.018	100.38
461.238	96.38
461.458	115.38
461.678	110.38
461.898	116.38
462.118	95.38
462.338	95.38
462.558	99.38
462.777	116.38
462.997	111.38
463.217	100.38
463.437	109.38
463.657	118.38
463.876	100.38
464.096	98.38
464.316	102.38
464.536	96.38
464.755	121.38
464.975	116.38
465.195	118.38
465.414	103.38
465.634	120.38
465.854	115.38
466.073	127.38
466.293	131.38
466.512	126.38
466.732	114.38
466.951	133.38
467.171	126.38
467.391	128.38
467.61	124.38
467.829	131.38
468.049	120.38
468.268	136.38
468.488	134.38
468.707	134.38
468.927	124.38
469.146	130.38
469.365	131.38
469.585	140.38
469.804	126.38
470.023	153.38
470.243	137.38
470.462	149.38
470.681	147.38
470.901	144.38
471.12	147.38
471.339	146.38
471.558	132.38
471.777	128.38
471.997	117.38
472.216	119.38
472.435	120.38
472.654	113.38
472.873	99.38
473.092	103.38
473.311	125.38
473.53	132.38
473.749	129.38
473.968	115.38
474.187	118.38
474.406	107.38
474.625	103.38
474.844	115.38
475.063	117.38
475.282	121.38
475.501	115.38
475.72	120.38
475.939	116.38
476.158	121.38
476.377	119.38
476.596	127.38
476.814	105.38
477.033	101.38
477.252	118.38
477.471	119.38
477.69	136.38
477.908	129.38
478.127	140.38
478.346	137.38
478.564	125.38
478.783	132.38
479.002	142.38
479.22	143.38
479.439	125.38
479.658	123.38
479.876	114.38
480.095	112.38
480.313	120.38
480.532	116.38
480.751	111.38
480.969	90.38
481.188	91.38
481.406	94.38
481.624	86.38
481.843	76.38
482.061	86.38
482.28	96.38
482.498	110.38
482.717	94.38
482.935	117.38
483.153	128.38
483.372	145.38
483.59	150.38
483.808	137.38
484.027	126.38
484.245	123.38
484.463	141.38
484.681	156.38
484.9	136.38
485.118	120.38
485.336	129.38
485.554	106.38
485.772	109.38
485.99	88.38
486.209	110.38
486.427	116.38
486.645	126.38
486.863	133.38
487.081	132.38
487.299	140.38
487.517	143.38
487.735	175.38
487.953	191.38
488.171	179.38
488.389	150.38
488.607	147.38
488.825	142.38
489.043	120.38
489.261	122.38
489.479	133.38
489.696	134.38
489.914	137.38
490.132	137.38
490.35	151.38
490.568	159.38
490.786	179.38
491.003	170.38
491.221	171.38
491.439	177.38
491.657	182.38
491.874	184.38
492.092	196.38
492.31	239.38
492.527	216.38
492.745	198.38
492.963	176.38
493.18	189.38
493.398	171.38
493.615	179.38
493.833	173.38
494.05	176.38
494.268	173.38
494.485	189.38
494.703	185.38
494.92	163.38
495.138	168.38
495.355	177.38
495.573	173.38
495.79	161.38
496.008	172.38
496.225	171.38
496.442	163.38
496.66	154.38
496.877	150.38
497.094	159.38
497.312	160.38
497.529	153.38
497.746	128.38
497.963	111.38
498.181	133.38
498.398	130.38
498.615	115.38
498.832	111.38
499.049	116.38
499.267	119.38
499.484	110.38
499.701	123.38
499.918	127.38
500.135	142.38
500.352	151.38
500.569	135.38
500.786	161.38
501.003	150.38
501.22	138.38
501.437	136.38
501.654	125.38
501.871	123.38
502.088	117.38
502.305	128.38
502.522	121.38
502.739	133.38
502.956	118.38
503.172	121.38
503.389	114.38
503.606	114.38
503.823	132.38
504.04	107.38
504.256	116.38
504.473	111.38
504.69	117.38
504.907	107.38
505.123	120.38
505.34	115.38
505.557	119.38
505.773	131.38
505.99	120.38
506.207	99.38
506.423	104.38
506.64	96.38
506.856	116.38
507.073	111.38
507.289	115.38
507.506	117.38
507.722	128.38
507.939	118.38
508.155	119.38
508.372	127.38
508.588	95.38
508.805	100.38
509.021	107.38
509.238	106.38
509.454	111.38
509.67	93.38
509.887	88.38
510.103	90.38
510.319	83.38
510.536	89.38
510.752	87.38
510.968	79.38
511.184	74.38
511.401	60.38
511.617	79.38
511.833	89.38
512.049	93.38
512.265	93.38
512.481	81.38
