Data from Location2.07152019.Energy5.Lamp.07192019.3%Agarose_HRD10591_14-57-22-358.txt Node
Date: Fri Jul 19 14:57:22 EDT 2019
User: cochatt
Spectrometer: HR+D1059
Trigger mode: 1
Integration Time (sec): 1.000000E-1
Scans to average: 1
Electric dark correction enabled: true
Nonlinearity correction enabled: false
Boxcar width: 0
XAxis mode: Wavelengths
Number of Pixels in Spectrum: 2048
>>>>>Begin Spectral Data<<<<<
223.165	-2.38
223.4	-2.38
223.635	-2.38
223.869	-21.38
224.104	-16.38
224.338	-14.38
224.573	-12.38
224.808	-8.38
225.042	-6.38
225.277	-1.38
225.511	-7.38
225.746	1.62
225.98	11.62
226.215	-2.38
226.449	13.62
226.683	8.62
226.918	31.62
227.152	25.62
227.387	32.62
227.621	47.62
227.856	32.62
228.09	31.62
228.324	44.62
228.559	60.62
228.793	45.62
229.027	50.62
229.262	62.62
229.496	63.62
229.73	71.62
229.964	71.62
230.199	64.62
230.433	88.62
230.667	87.62
230.901	77.62
231.136	66.62
231.37	76.62
231.604	84.62
231.838	66.62
232.072	85.62
232.306	67.62
232.541	90.62
232.775	86.62
233.009	93.62
233.243	65.62
233.477	77.62
233.711	81.62
233.945	66.62
234.179	64.62
234.413	77.62
234.647	86.62
234.881	79.62
235.115	86.62
235.349	78.62
235.583	83.62
235.817	83.62
236.051	79.62
236.285	71.62
236.519	71.62
236.753	86.62
236.987	63.62
237.221	75.62
237.455	75.62
237.689	80.62
237.922	84.62
238.156	78.62
238.39	64.62
238.624	72.62
238.858	81.62
239.091	74.62
239.325	90.62
239.559	65.62
239.793	84.62
240.027	66.62
240.26	79.62
240.494	82.62
240.728	81.62
240.961	72.62
241.195	81.62
241.429	83.62
241.662	71.62
241.896	69.62
242.13	78.62
242.363	63.62
242.597	61.62
242.83	88.62
243.064	73.62
243.298	73.62
243.531	78.62
243.765	81.62
243.998	71.62
244.232	90.62
244.465	84.62
244.699	59.62
244.932	81.62
245.166	72.62
245.399	75.62
245.633	68.62
245.866	66.62
246.099	70.62
246.333	72.62
246.566	86.62
246.8	80.62
247.033	75.62
247.266	85.62
247.5	80.62
247.733	60.62
247.966	67.62
248.2	85.62
248.433	77.62
248.666	79.62
248.899	74.62
249.133	72.62
249.366	84.62
249.599	83.62
249.832	89.62
250.066	80.62
250.299	79.62
250.532	71.62
250.765	79.62
250.998	82.62
251.231	72.62
251.465	58.62
251.698	80.62
251.931	81.62
252.164	82.62
252.397	74.62
252.63	76.62
252.863	79.62
253.096	56.62
253.329	75.62
253.562	67.62
253.795	91.62
254.028	75.62
254.261	85.62
254.494	77.62
254.727	86.62
254.96	74.62
255.193	74.62
255.426	82.62
255.659	83.62
255.892	87.62
256.124	81.62
256.357	82.62
256.59	82.62
256.823	90.62
257.056	64.62
257.289	73.62
257.521	88.62
257.754	68.62
257.987	75.62
258.22	70.62
258.452	82.62
258.685	80.62
258.918	86.62
259.151	88.62
259.383	88.62
259.616	80.62
259.849	70.62
260.081	84.62
260.314	73.62
260.547	70.62
260.779	76.62
261.012	79.62
261.244	85.62
261.477	80.62
261.71	83.62
261.942	81.62
262.175	81.62
262.407	79.62
262.64	79.62
262.872	75.62
263.105	82.62
263.337	75.62
263.57	74.62
263.802	82.62
264.035	77.62
264.267	86.62
264.499	76.62
264.732	87.62
264.964	74.62
265.197	86.62
265.429	90.62
265.661	96.62
265.894	95.62
266.126	80.62
266.358	80.62
266.591	84.62
266.823	77.62
267.055	78.62
267.287	79.62
267.52	84.62
267.752	89.62
267.984	68.62
268.216	66.62
268.448	72.62
268.681	88.62
268.913	77.62
269.145	71.62
269.377	89.62
269.609	79.62
269.841	67.62
270.073	79.62
270.306	71.62
270.538	87.62
270.77	80.62
271.002	74.62
271.234	96.62
271.466	75.62
271.698	84.62
271.93	88.62
272.162	84.62
272.394	93.62
272.626	93.62
272.858	71.62
273.09	82.62
273.322	85.62
273.553	73.62
273.785	76.62
274.017	64.62
274.249	72.62
274.481	79.62
274.713	86.62
274.945	88.62
275.176	77.62
275.408	86.62
275.64	83.62
275.872	82.62
276.104	79.62
276.335	88.62
276.567	68.62
276.799	76.62
277.031	82.62
277.262	93.62
277.494	85.62
277.726	83.62
277.957	82.62
278.189	72.62
278.421	68.62
278.652	92.62
278.884	95.62
279.115	85.62
279.347	95.62
279.579	93.62
279.81	90.62
280.042	72.62
280.273	84.62
280.505	84.62
280.736	70.62
280.968	89.62
281.199	83.62
281.431	96.62
281.662	85.62
281.894	80.62
282.125	78.62
282.356	75.62
282.588	83.62
282.819	79.62
283.051	81.62
283.282	85.62
283.513	83.62
283.745	76.62
283.976	79.62
284.207	95.62
284.439	85.62
284.67	86.62
284.901	95.62
285.132	81.62
285.364	73.62
285.595	93.62
285.826	85.62
286.057	87.62
286.288	76.62
286.52	67.62
286.751	81.62
286.982	75.62
287.213	84.62
287.444	76.62
287.675	85.62
287.906	81.62
288.138	75.62
288.369	77.62
288.6	77.62
288.831	87.62
289.062	85.62
289.293	93.62
289.524	98.62
289.755	96.62
289.986	84.62
290.217	75.62
290.448	85.62
290.679	77.62
290.91	81.62
291.141	75.62
291.371	88.62
291.602	87.62
291.833	79.62
292.064	85.62
292.295	74.62
292.526	67.62
292.757	72.62
292.987	89.62
293.218	74.62
293.449	97.62
293.68	103.62
293.91	67.62
294.141	86.62
294.372	78.62
294.603	97.62
294.833	86.62
295.064	84.62
295.295	93.62
295.525	65.62
295.756	84.62
295.987	71.62
296.217	81.62
296.448	75.62
296.679	74.62
296.909	72.62
297.14	77.62
297.37	87.62
297.601	88.62
297.831	80.62
298.062	83.62
298.292	78.62
298.523	75.62
298.753	85.62
298.984	87.62
299.214	86.62
299.445	84.62
299.675	85.62
299.905	84.62
300.136	84.62
300.366	73.62
300.597	85.62
300.827	93.62
301.057	67.62
301.288	75.62
301.518	81.62
301.748	71.62
301.979	74.62
302.209	85.62
302.439	84.62
302.669	84.62
302.9	78.62
303.13	98.62
303.36	90.62
303.59	78.62
303.82	78.62
304.051	82.62
304.281	85.62
304.511	98.62
304.741	76.62
304.971	93.62
305.201	103.62
305.431	89.62
305.661	93.62
305.891	90.62
306.121	79.62
306.352	80.62
306.582	77.62
306.812	95.62
307.042	85.62
307.272	83.62
307.502	79.62
307.731	91.62
307.961	81.62
308.191	94.62
308.421	90.62
308.651	84.62
308.881	87.62
309.111	85.62
309.341	94.62
309.571	85.62
309.8	96.62
310.03	77.62
310.26	75.62
310.49	75.62
310.72	73.62
310.949	84.62
311.179	92.62
311.409	79.62
311.639	83.62
311.868	72.62
312.098	91.62
312.328	78.62
312.557	87.62
312.787	81.62
313.017	83.62
313.246	94.62
313.476	87.62
313.706	86.62
313.935	94.62
314.165	79.62
314.394	81.62
314.624	98.62
314.853	87.62
315.083	82.62
315.312	97.62
315.542	79.62
315.771	81.62
316.001	86.62
316.23	87.62
316.46	81.62
316.689	79.62
316.919	64.62
317.148	79.62
317.377	88.62
317.607	86.62
317.836	72.62
318.065	83.62
318.295	85.62
318.524	88.62
318.753	85.62
318.983	89.62
319.212	89.62
319.441	67.62
319.67	86.62
319.9	75.62
320.129	75.62
320.358	73.62
320.587	93.62
320.816	85.62
321.046	82.62
321.275	98.62
321.504	74.62
321.733	96.62
321.962	73.62
322.191	97.62
322.42	70.62
322.649	88.62
322.878	76.62
323.108	93.62
323.337	73.62
323.566	88.62
323.795	73.62
324.024	86.62
324.253	81.62
324.482	94.62
324.71	82.62
324.939	72.62
325.168	89.62
325.397	78.62
325.626	82.62
325.855	81.62
326.084	78.62
326.313	78.62
326.542	98.62
326.77	82.62
326.999	85.62
327.228	93.62
327.457	70.62
327.686	86.62
327.914	81.62
328.143	81.62
328.372	68.62
328.6	80.62
328.829	79.62
329.058	82.62
329.287	82.62
329.515	89.62
329.744	82.62
329.972	75.62
330.201	75.62
330.43	89.62
330.658	85.62
330.887	90.62
331.115	86.62
331.344	86.62
331.572	86.62
331.801	83.62
332.03	96.62
332.258	78.62
332.486	84.62
332.715	67.62
332.943	72.62
333.172	79.62
333.4	80.62
333.629	75.62
333.857	96.62
334.085	77.62
334.314	96.62
334.542	87.62
334.771	79.62
334.999	83.62
335.227	91.62
335.455	85.62
335.684	74.62
335.912	88.62
336.14	95.62
336.369	80.62
336.597	89.62
336.825	91.62
337.053	74.62
337.281	81.62
337.51	93.62
337.738	80.62
337.966	83.62
338.194	97.62
338.422	81.62
338.65	79.62
338.878	87.62
339.106	73.62
339.334	90.62
339.562	86.62
339.79	82.62
340.018	82.62
340.246	92.62
340.474	85.62
340.702	74.62
340.93	87.62
341.158	92.62
341.386	83.62
341.614	74.62
341.842	65.62
342.07	70.62
342.298	80.62
342.526	83.62
342.754	82.62
342.981	86.62
343.209	80.62
343.437	81.62
343.665	74.62
343.893	83.62
344.12	88.62
344.348	78.62
344.576	79.62
344.804	81.62
345.031	88.62
345.259	89.62
345.487	84.62
345.714	83.62
345.942	77.62
346.17	86.62
346.397	94.62
346.625	81.62
346.853	87.62
347.08	85.62
347.308	75.62
347.535	80.62
347.763	77.62
347.99	89.62
348.218	84.62
348.445	79.62
348.673	93.62
348.9	69.62
349.128	86.62
349.355	83.62
349.583	78.62
349.81	75.62
350.037	82.62
350.265	86.62
350.492	86.62
350.72	84.62
350.947	80.62
351.174	92.62
351.402	95.62
351.629	81.62
351.856	85.62
352.083	93.62
352.311	67.62
352.538	74.62
352.765	93.62
352.992	80.62
353.22	83.62
353.447	93.62
353.674	84.62
353.901	67.62
354.128	83.62
354.355	87.62
354.583	94.62
354.81	90.62
355.037	85.62
355.264	78.62
355.491	86.62
355.718	82.62
355.945	77.62
356.172	71.62
356.399	91.62
356.626	84.62
356.853	70.62
357.08	77.62
357.307	78.62
357.534	75.62
357.761	86.62
357.988	90.62
358.215	78.62
358.441	85.62
358.668	92.62
358.895	76.62
359.122	87.62
359.349	75.62
359.576	73.62
359.802	90.62
360.029	71.62
360.256	82.62
360.483	64.62
360.709	86.62
360.936	89.62
361.163	87.62
361.39	70.62
361.616	72.62
361.843	82.62
362.07	80.62
362.296	84.62
362.523	89.62
362.749	82.62
362.976	89.62
363.203	95.62
363.429	80.62
363.656	78.62
363.882	78.62
364.109	80.62
364.335	89.62
364.562	76.62
364.788	75.62
365.015	83.62
365.241	98.62
365.468	86.62
365.694	79.62
365.92	89.62
366.147	87.62
366.373	99.62
366.599	94.62
366.826	93.62
367.052	94.62
367.278	90.62
367.505	79.62
367.731	89.62
367.957	88.62
368.184	87.62
368.41	95.62
368.636	91.62
368.862	94.62
369.089	91.62
369.315	76.62
369.541	85.62
369.767	79.62
369.993	97.62
370.219	77.62
370.445	75.62
370.672	76.62
370.898	80.62
371.124	84.62
371.35	81.62
371.576	104.62
371.802	83.62
372.028	88.62
372.254	78.62
372.48	88.62
372.706	76.62
372.932	88.62
373.158	83.62
373.384	90.62
373.61	93.62
373.835	101.62
374.061	93.62
374.287	106.62
374.513	97.62
374.739	92.62
374.965	90.62
375.191	91.62
375.416	106.62
375.642	89.62
375.868	99.62
376.094	91.62
376.319	81.62
376.545	90.62
376.771	102.62
376.997	89.62
377.222	102.62
377.448	99.62
377.674	92.62
377.899	86.62
378.125	72.62
378.35	104.62
378.576	85.62
378.802	93.62
379.027	89.62
379.253	105.62
379.478	88.62
379.704	94.62
379.929	84.62
380.155	94.62
380.38	92.62
380.606	102.62
380.831	102.62
381.057	96.62
381.282	110.62
381.507	96.62
381.733	91.62
381.958	93.62
382.184	93.62
382.409	84.62
382.634	98.62
382.86	99.62
383.085	99.62
383.31	104.62
383.535	96.62
383.761	103.62
383.986	98.62
384.211	95.62
384.436	88.62
384.662	88.62
384.887	84.62
385.112	93.62
385.337	91.62
385.562	111.62
385.787	110.62
386.013	89.62
386.238	97.62
386.463	77.62
386.688	102.62
386.913	102.62
387.138	103.62
387.363	95.62
387.588	109.62
387.813	97.62
388.038	100.62
388.263	100.62
388.488	110.62
388.713	97.62
388.938	104.62
389.163	100.62
389.387	105.62
389.612	98.62
389.837	105.62
390.062	99.62
390.287	97.62
390.512	92.62
390.736	107.62
390.961	97.62
391.186	98.62
391.411	100.62
391.636	113.62
391.86	98.62
392.085	104.62
392.31	103.62
392.534	113.62
392.759	111.62
392.984	114.62
393.208	120.62
393.433	103.62
393.658	111.62
393.882	112.62
394.107	100.62
394.331	115.62
394.556	91.62
394.78	106.62
395.005	104.62
395.229	92.62
395.454	107.62
395.678	101.62
395.903	117.62
396.127	96.62
396.352	117.62
396.576	93.62
396.801	101.62
397.025	116.62
397.249	105.62
397.474	99.62
397.698	98.62
397.922	121.62
398.147	105.62
398.371	98.62
398.595	102.62
398.82	99.62
399.044	110.62
399.268	98.62
399.492	102.62
399.717	110.62
399.941	104.62
400.165	123.62
400.389	99.62
400.613	122.62
400.837	112.62
401.062	111.62
401.286	113.62
401.51	110.62
401.734	98.62
401.958	112.62
402.182	103.62
402.406	113.62
402.63	112.62
402.854	103.62
403.078	127.62
403.302	108.62
403.526	133.62
403.75	125.62
403.974	106.62
404.198	115.62
404.422	116.62
404.645	111.62
404.869	121.62
405.093	106.62
405.317	121.62
405.541	123.62
405.765	122.62
405.988	119.62
406.212	116.62
406.436	127.62
406.66	132.62
406.883	124.62
407.107	114.62
407.331	115.62
407.555	106.62
407.778	127.62
408.002	104.62
408.226	109.62
408.449	119.62
408.673	109.62
408.896	122.62
409.12	114.62
409.344	137.62
409.567	124.62
409.791	109.62
410.014	107.62
410.238	116.62
410.461	119.62
410.685	114.62
410.908	131.62
411.132	121.62
411.355	112.62
411.578	127.62
411.802	111.62
412.025	117.62
412.249	115.62
412.472	120.62
412.695	107.62
412.919	128.62
413.142	118.62
413.365	114.62
413.589	126.62
413.812	125.62
414.035	132.62
414.258	118.62
414.482	129.62
414.705	129.62
414.928	121.62
415.151	131.62
415.374	111.62
415.597	129.62
415.821	114.62
416.044	117.62
416.267	126.62
416.49	124.62
416.713	128.62
416.936	118.62
417.159	117.62
417.382	115.62
417.605	122.62
417.828	118.62
418.051	128.62
418.274	116.62
418.497	119.62
418.72	132.62
418.943	126.62
419.166	133.62
419.389	146.62
419.611	125.62
419.834	141.62
420.057	130.62
420.28	133.62
420.503	118.62
420.726	129.62
420.948	121.62
421.171	140.62
421.394	125.62
421.617	133.62
421.839	147.62
422.062	141.62
422.285	105.62
422.507	121.62
422.73	129.62
422.953	132.62
423.175	129.62
423.398	130.62
423.621	118.62
423.843	127.62
424.066	127.62
424.288	146.62
424.511	147.62
424.733	128.62
424.956	151.62
425.178	140.62
425.401	137.62
425.623	138.62
425.846	135.62
426.068	121.62
426.291	123.62
426.513	116.62
426.735	131.62
426.958	134.62
427.18	129.62
427.402	121.62
427.625	122.62
427.847	116.62
428.069	130.62
428.292	128.62
428.514	131.62
428.736	129.62
428.958	130.62
429.181	131.62
429.403	130.62
429.625	122.62
429.847	122.62
430.069	111.62
430.292	133.62
430.514	113.62
430.736	132.62
430.958	137.62
431.18	121.62
431.402	135.62
431.624	123.62
431.846	110.62
432.068	97.62
432.29	98.62
432.512	103.62
432.734	119.62
432.956	144.62
433.178	133.62
433.4	131.62
433.622	134.62
433.844	126.62
434.066	129.62
434.287	93.62
434.509	98.62
434.731	93.62
434.953	104.62
435.175	118.62
435.397	129.62
435.618	135.62
435.84	115.62
436.062	121.62
436.284	131.62
436.505	117.62
436.727	135.62
436.949	123.62
437.17	134.62
437.392	133.62
437.614	122.62
437.835	101.62
438.057	121.62
438.278	116.62
438.5	115.62
438.721	123.62
438.943	127.62
439.165	139.62
439.386	139.62
439.608	141.62
439.829	131.62
440.05	157.62
440.272	142.62
440.493	132.62
440.715	159.62
440.936	149.62
441.158	140.62
441.379	145.62
441.6	147.62
441.822	138.62
442.043	158.62
442.264	148.62
442.486	148.62
442.707	127.62
442.928	157.62
443.149	129.62
443.371	136.62
443.592	148.62
443.813	147.62
444.034	128.62
444.255	137.62
444.476	148.62
444.698	135.62
444.919	133.62
445.14	267.62
445.361	203.62
445.582	161.62
445.803	130.62
446.024	130.62
446.245	131.62
446.466	151.62
446.687	156.62
446.908	161.62
447.129	144.62
447.35	156.62
447.571	160.62
447.792	148.62
448.013	149.62
448.234	146.62
448.455	145.62
448.675	151.62
448.896	139.62
449.117	132.62
449.338	145.62
449.559	121.62
449.779	140.62
450	145.62
450.221	118.62
450.442	129.62
450.662	123.62
450.883	148.62
451.104	122.62
451.324	119.62
451.545	121.62
451.766	121.62
451.986	127.62
452.207	125.62
452.428	132.62
452.648	129.62
452.869	109.62
453.089	109.62
453.31	105.62
453.53	95.62
453.751	97.62
453.971	105.62
454.192	98.62
454.412	103.62
454.633	112.62
454.853	125.62
455.073	137.62
455.294	111.62
455.514	121.62
455.734	119.62
455.955	125.62
456.175	109.62
456.395	114.62
456.616	101.62
456.836	107.62
457.056	121.62
457.276	110.62
457.497	116.62
457.717	112.62
457.937	110.62
458.157	99.62
458.377	104.62
458.598	107.62
458.818	104.62
459.038	93.62
459.258	91.62
459.478	98.62
459.698	104.62
459.918	105.62
460.138	102.62
460.358	114.62
460.578	100.62
460.798	100.62
461.018	119.62
461.238	115.62
461.458	122.62
461.678	113.62
461.898	136.62
462.118	122.62
462.338	114.62
462.558	119.62
462.777	108.62
462.997	118.62
463.217	107.62
463.437	119.62
463.657	108.62
463.876	114.62
464.096	111.62
464.316	97.62
464.536	115.62
464.755	129.62
464.975	125.62
465.195	128.62
465.414	105.62
465.634	111.62
465.854	129.62
466.073	121.62
466.293	111.62
466.512	122.62
466.732	136.62
466.951	141.62
467.171	141.62
467.391	135.62
467.61	134.62
467.829	122.62
468.049	123.62
468.268	126.62
468.488	135.62
468.707	125.62
468.927	132.62
469.146	133.62
469.365	134.62
469.585	149.62
469.804	136.62
470.023	157.62
470.243	143.62
470.462	146.62
470.681	137.62
470.901	131.62
471.12	148.62
471.339	139.62
471.558	134.62
471.777	138.62
471.997	120.62
472.216	125.62
472.435	112.62
472.654	102.62
472.873	102.62
473.092	103.62
473.311	131.62
473.53	121.62
473.749	130.62
473.968	137.62
474.187	126.62
474.406	120.62
474.625	127.62
474.844	122.62
475.063	129.62
475.282	128.62
475.501	118.62
475.72	123.62
475.939	125.62
476.158	146.62
476.377	118.62
476.596	125.62
476.814	122.62
477.033	114.62
477.252	121.62
477.471	128.62
477.69	135.62
477.908	127.62
478.127	153.62
478.346	135.62
478.564	137.62
478.783	135.62
479.002	140.62
479.22	132.62
479.439	130.62
479.658	121.62
479.876	110.62
480.095	105.62
480.313	106.62
480.532	111.62
480.751	119.62
480.969	106.62
481.188	86.62
481.406	96.62
481.624	95.62
481.843	93.62
482.061	106.62
482.28	130.62
482.498	113.62
482.717	106.62
482.935	121.62
483.153	131.62
483.372	147.62
483.59	145.62
483.808	130.62
484.027	125.62
484.245	136.62
484.463	129.62
484.681	155.62
484.9	138.62
485.118	143.62
485.336	129.62
485.554	111.62
485.772	93.62
485.99	91.62
486.209	109.62
486.427	106.62
486.645	113.62
486.863	126.62
487.081	144.62
487.299	138.62
487.517	130.62
487.735	171.62
487.953	184.62
488.171	171.62
488.389	169.62
488.607	158.62
488.825	131.62
489.043	127.62
489.261	135.62
489.479	141.62
489.696	145.62
489.914	134.62
490.132	149.62
490.35	145.62
490.568	161.62
490.786	175.62
491.003	177.62
491.221	188.62
491.439	182.62
491.657	179.62
491.874	201.62
492.092	220.62
492.31	247.62
492.527	211.62
492.745	210.62
492.963	193.62
493.18	172.62
493.398	190.62
493.615	179.62
493.833	189.62
494.05	180.62
494.268	171.62
494.485	178.62
494.703	168.62
494.92	192.62
495.138	178.62
495.355	186.62
495.573	179.62
495.79	162.62
496.008	161.62
496.225	151.62
496.442	169.62
496.66	162.62
496.877	148.62
497.094	182.62
497.312	166.62
497.529	143.62
497.746	153.62
497.963	131.62
498.181	129.62
498.398	109.62
498.615	110.62
498.832	110.62
499.049	126.62
499.267	145.62
499.484	121.62
499.701	117.62
499.918	131.62
500.135	138.62
500.352	146.62
500.569	142.62
500.786	147.62
501.003	129.62
501.22	141.62
501.437	133.62
501.654	144.62
501.871	120.62
502.088	137.62
502.305	127.62
502.522	117.62
502.739	124.62
502.956	119.62
503.172	113.62
503.389	122.62
503.606	105.62
503.823	120.62
504.04	114.62
504.256	102.62
504.473	123.62
504.69	114.62
504.907	124.62
505.123	118.62
505.34	133.62
505.557	127.62
505.773	123.62
505.99	136.62
506.207	121.62
506.423	129.62
506.64	118.62
506.856	106.62
507.073	119.62
507.289	128.62
507.506	116.62
507.722	118.62
507.939	108.62
508.155	114.62
508.372	115.62
508.588	104.62
508.805	112.62
509.021	102.62
509.238	109.62
509.454	93.62
509.67	106.62
509.887	106.62
510.103	99.62
510.319	99.62
510.536	71.62
510.752	87.62
510.968	95.62
511.184	79.62
511.401	91.62
511.617	81.62
511.833	89.62
