Data from Location2.07152019.Energy5.Lamp.07192019.3%Agarose_HRD10591_14-57-26-360.txt Node
Date: Fri Jul 19 14:57:26 EDT 2019
User: cochatt
Spectrometer: HR+D1059
Trigger mode: 1
Integration Time (sec): 1.000000E-1
Scans to average: 1
Electric dark correction enabled: true
Nonlinearity correction enabled: false
Boxcar width: 0
XAxis mode: Wavelengths
Number of Pixels in Spectrum: 2048
>>>>>Begin Spectral Data<<<<<
223.165	-5.06
223.4	-5.06
223.635	-5.06
223.869	-24.06
224.104	-24.06
224.338	-17.06
224.573	-4.06
224.808	-5.06
225.042	-10.06
225.277	-11.06
225.511	-2.06
225.746	6.94
225.98	2.94
226.215	16.94
226.449	9.94
226.683	19.94
226.918	23.94
227.152	21.94
227.387	55.94
227.621	35.94
227.856	33.94
228.09	43.94
228.324	54.94
228.559	58.94
228.793	56.94
229.027	51.94
229.262	58.94
229.496	67.94
229.73	78.94
229.964	70.94
230.199	73.94
230.433	72.94
230.667	81.94
230.901	69.94
231.136	91.94
231.37	86.94
231.604	92.94
231.838	83.94
232.072	78.94
232.306	89.94
232.541	92.94
232.775	87.94
233.009	97.94
233.243	79.94
233.477	86.94
233.711	89.94
233.945	88.94
234.179	85.94
234.413	74.94
234.647	79.94
234.881	94.94
235.115	73.94
235.349	75.94
235.583	82.94
235.817	68.94
236.051	77.94
236.285	73.94
236.519	79.94
236.753	69.94
236.987	91.94
237.221	78.94
237.455	85.94
237.689	72.94
237.922	82.94
238.156	62.94
238.39	77.94
238.624	83.94
238.858	82.94
239.091	66.94
239.325	83.94
239.559	73.94
239.793	77.94
240.027	84.94
240.26	82.94
240.494	78.94
240.728	68.94
240.961	83.94
241.195	94.94
241.429	78.94
241.662	75.94
241.896	82.94
242.13	73.94
242.363	71.94
242.597	87.94
242.83	80.94
243.064	92.94
243.298	81.94
243.531	74.94
243.765	91.94
243.998	79.94
244.232	71.94
244.465	62.94
244.699	90.94
244.932	78.94
245.166	67.94
245.399	74.94
245.633	71.94
245.866	83.94
246.099	76.94
246.333	72.94
246.566	80.94
246.8	94.94
247.033	74.94
247.266	80.94
247.5	88.94
247.733	82.94
247.966	83.94
248.2	90.94
248.433	87.94
248.666	75.94
248.899	85.94
249.133	91.94
249.366	94.94
249.599	105.94
249.832	97.94
250.066	90.94
250.299	89.94
250.532	94.94
250.765	82.94
250.998	79.94
251.231	81.94
251.465	84.94
251.698	71.94
251.931	85.94
252.164	97.94
252.397	89.94
252.63	88.94
252.863	83.94
253.096	96.94
253.329	77.94
253.562	75.94
253.795	70.94
254.028	77.94
254.261	67.94
254.494	76.94
254.727	91.94
254.96	86.94
255.193	94.94
255.426	88.94
255.659	79.94
255.892	77.94
256.124	95.94
256.357	91.94
256.59	87.94
256.823	86.94
257.056	76.94
257.289	86.94
257.521	82.94
257.754	86.94
257.987	67.94
258.22	82.94
258.452	80.94
258.685	85.94
258.918	95.94
259.151	75.94
259.383	68.94
259.616	89.94
259.849	95.94
260.081	83.94
260.314	99.94
260.547	80.94
260.779	84.94
261.012	78.94
261.244	66.94
261.477	83.94
261.71	76.94
261.942	93.94
262.175	76.94
262.407	85.94
262.64	73.94
262.872	94.94
263.105	78.94
263.337	77.94
263.57	100.94
263.802	89.94
264.035	79.94
264.267	76.94
264.499	68.94
264.732	78.94
264.964	80.94
265.197	72.94
265.429	61.94
265.661	82.94
265.894	85.94
266.126	90.94
266.358	84.94
266.591	71.94
266.823	102.94
267.055	84.94
267.287	76.94
267.52	92.94
267.752	71.94
267.984	87.94
268.216	87.94
268.448	80.94
268.681	88.94
268.913	82.94
269.145	82.94
269.377	86.94
269.609	94.94
269.841	89.94
270.073	87.94
270.306	88.94
270.538	77.94
270.77	91.94
271.002	91.94
271.234	85.94
271.466	85.94
271.698	88.94
271.93	89.94
272.162	91.94
272.394	82.94
272.626	101.94
272.858	88.94
273.09	73.94
273.322	90.94
273.553	105.94
273.785	85.94
274.017	79.94
274.249	87.94
274.481	88.94
274.713	74.94
274.945	103.94
275.176	86.94
275.408	95.94
275.64	97.94
275.872	84.94
276.104	75.94
276.335	77.94
276.567	66.94
276.799	93.94
277.031	77.94
277.262	89.94
277.494	86.94
277.726	77.94
277.957	89.94
278.189	80.94
278.421	67.94
278.652	81.94
278.884	79.94
279.115	75.94
279.347	86.94
279.579	85.94
279.81	92.94
280.042	83.94
280.273	84.94
280.505	77.94
280.736	80.94
280.968	79.94
281.199	74.94
281.431	77.94
281.662	95.94
281.894	80.94
282.125	101.94
282.356	73.94
282.588	90.94
282.819	85.94
283.051	83.94
283.282	91.94
283.513	80.94
283.745	75.94
283.976	83.94
284.207	84.94
284.439	92.94
284.67	78.94
284.901	82.94
285.132	89.94
285.364	71.94
285.595	95.94
285.826	99.94
286.057	85.94
286.288	90.94
286.52	89.94
286.751	92.94
286.982	70.94
287.213	82.94
287.444	100.94
287.675	82.94
287.906	86.94
288.138	79.94
288.369	72.94
288.6	73.94
288.831	87.94
289.062	75.94
289.293	86.94
289.524	86.94
289.755	73.94
289.986	90.94
290.217	81.94
290.448	90.94
290.679	85.94
290.91	81.94
291.141	82.94
291.371	86.94
291.602	74.94
291.833	97.94
292.064	94.94
292.295	86.94
292.526	68.94
292.757	98.94
292.987	89.94
293.218	84.94
293.449	85.94
293.68	97.94
293.91	86.94
294.141	93.94
294.372	84.94
294.603	85.94
294.833	80.94
295.064	73.94
295.295	95.94
295.525	87.94
295.756	99.94
295.987	79.94
296.217	73.94
296.448	75.94
296.679	88.94
296.909	81.94
297.14	70.94
297.37	78.94
297.601	81.94
297.831	98.94
298.062	87.94
298.292	80.94
298.523	85.94
298.753	84.94
298.984	81.94
299.214	90.94
299.445	82.94
299.675	79.94
299.905	86.94
300.136	73.94
300.366	72.94
300.597	94.94
300.827	87.94
301.057	79.94
301.288	92.94
301.518	79.94
301.748	93.94
301.979	84.94
302.209	88.94
302.439	100.94
302.669	74.94
302.9	90.94
303.13	93.94
303.36	83.94
303.59	83.94
303.82	103.94
304.051	87.94
304.281	86.94
304.511	86.94
304.741	86.94
304.971	92.94
305.201	79.94
305.431	92.94
305.661	83.94
305.891	81.94
306.121	84.94
306.352	86.94
306.582	89.94
306.812	96.94
307.042	80.94
307.272	91.94
307.502	95.94
307.731	95.94
307.961	82.94
308.191	74.94
308.421	90.94
308.651	79.94
308.881	63.94
309.111	83.94
309.341	100.94
309.571	88.94
309.8	81.94
310.03	84.94
310.26	84.94
310.49	71.94
310.72	86.94
310.949	75.94
311.179	84.94
311.409	77.94
311.639	90.94
311.868	103.94
312.098	99.94
312.328	75.94
312.557	78.94
312.787	77.94
313.017	90.94
313.246	88.94
313.476	91.94
313.706	102.94
313.935	94.94
314.165	88.94
314.394	86.94
314.624	99.94
314.853	92.94
315.083	90.94
315.312	91.94
315.542	80.94
315.771	89.94
316.001	92.94
316.23	78.94
316.46	90.94
316.689	87.94
316.919	88.94
317.148	84.94
317.377	90.94
317.607	77.94
317.836	82.94
318.065	88.94
318.295	88.94
318.524	94.94
318.753	87.94
318.983	80.94
319.212	100.94
319.441	76.94
319.67	108.94
319.9	83.94
320.129	83.94
320.358	100.94
320.587	88.94
320.816	83.94
321.046	79.94
321.275	86.94
321.504	92.94
321.733	71.94
321.962	94.94
322.191	78.94
322.42	93.94
322.649	85.94
322.878	85.94
323.108	97.94
323.337	94.94
323.566	85.94
323.795	103.94
324.024	98.94
324.253	89.94
324.482	84.94
324.71	81.94
324.939	95.94
325.168	74.94
325.397	100.94
325.626	78.94
325.855	88.94
326.084	77.94
326.313	90.94
326.542	96.94
326.77	86.94
326.999	87.94
327.228	94.94
327.457	91.94
327.686	91.94
327.914	84.94
328.143	75.94
328.372	79.94
328.6	88.94
328.829	89.94
329.058	83.94
329.287	74.94
329.515	84.94
329.744	79.94
329.972	81.94
330.201	80.94
330.43	93.94
330.658	74.94
330.887	90.94
331.115	87.94
331.344	85.94
331.572	80.94
331.801	80.94
332.03	89.94
332.258	91.94
332.486	83.94
332.715	85.94
332.943	90.94
333.172	91.94
333.4	81.94
333.629	90.94
333.857	86.94
334.085	85.94
334.314	93.94
334.542	79.94
334.771	78.94
334.999	74.94
335.227	86.94
335.455	95.94
335.684	83.94
335.912	83.94
336.14	91.94
336.369	104.94
336.597	79.94
336.825	82.94
337.053	89.94
337.281	88.94
337.51	84.94
337.738	77.94
337.966	83.94
338.194	103.94
338.422	86.94
338.65	86.94
338.878	90.94
339.106	94.94
339.334	82.94
339.562	76.94
339.79	86.94
340.018	76.94
340.246	77.94
340.474	91.94
340.702	92.94
340.93	91.94
341.158	88.94
341.386	86.94
341.614	79.94
341.842	89.94
342.07	81.94
342.298	72.94
342.526	86.94
342.754	88.94
342.981	94.94
343.209	83.94
343.437	91.94
343.665	88.94
343.893	93.94
344.12	80.94
344.348	102.94
344.576	96.94
344.804	94.94
345.031	92.94
345.259	95.94
345.487	77.94
345.714	94.94
345.942	75.94
346.17	86.94
346.397	90.94
346.625	78.94
346.853	87.94
347.08	79.94
347.308	77.94
347.535	70.94
347.763	86.94
347.99	81.94
348.218	97.94
348.445	96.94
348.673	94.94
348.9	77.94
349.128	100.94
349.355	77.94
349.583	81.94
349.81	93.94
350.037	88.94
350.265	84.94
350.492	87.94
350.72	84.94
350.947	87.94
351.174	83.94
351.402	89.94
351.629	82.94
351.856	90.94
352.083	91.94
352.311	94.94
352.538	88.94
352.765	74.94
352.992	79.94
353.22	86.94
353.447	84.94
353.674	86.94
353.901	82.94
354.128	60.94
354.355	81.94
354.583	95.94
354.81	93.94
355.037	82.94
355.264	91.94
355.491	92.94
355.718	83.94
355.945	92.94
356.172	87.94
356.399	90.94
356.626	90.94
356.853	85.94
357.08	92.94
357.307	78.94
357.534	75.94
357.761	89.94
357.988	93.94
358.215	83.94
358.441	90.94
358.668	84.94
358.895	89.94
359.122	97.94
359.349	89.94
359.576	74.94
359.802	77.94
360.029	102.94
360.256	91.94
360.483	93.94
360.709	83.94
360.936	84.94
361.163	78.94
361.39	88.94
361.616	79.94
361.843	88.94
362.07	81.94
362.296	87.94
362.523	94.94
362.749	78.94
362.976	85.94
363.203	96.94
363.429	79.94
363.656	80.94
363.882	89.94
364.109	98.94
364.335	99.94
364.562	87.94
364.788	74.94
365.015	71.94
365.241	86.94
365.468	95.94
365.694	94.94
365.92	83.94
366.147	92.94
366.373	89.94
366.599	82.94
366.826	84.94
367.052	82.94
367.278	78.94
367.505	92.94
367.731	94.94
367.957	86.94
368.184	89.94
368.41	89.94
368.636	90.94
368.862	103.94
369.089	88.94
369.315	86.94
369.541	98.94
369.767	90.94
369.993	77.94
370.219	86.94
370.445	92.94
370.672	96.94
370.898	89.94
371.124	85.94
371.35	95.94
371.576	93.94
371.802	97.94
372.028	92.94
372.254	83.94
372.48	91.94
372.706	105.94
372.932	97.94
373.158	98.94
373.384	119.94
373.61	97.94
373.835	105.94
374.061	86.94
374.287	76.94
374.513	96.94
374.739	97.94
374.965	86.94
375.191	102.94
375.416	98.94
375.642	99.94
375.868	120.94
376.094	100.94
376.319	83.94
376.545	93.94
376.771	104.94
376.997	113.94
377.222	89.94
377.448	108.94
377.674	91.94
377.899	96.94
378.125	93.94
378.35	87.94
378.576	94.94
378.802	87.94
379.027	95.94
379.253	89.94
379.478	110.94
379.704	96.94
379.929	95.94
380.155	85.94
380.38	96.94
380.606	101.94
380.831	93.94
381.057	100.94
381.282	97.94
381.507	102.94
381.733	101.94
381.958	80.94
382.184	89.94
382.409	86.94
382.634	97.94
382.86	86.94
383.085	107.94
383.31	94.94
383.535	88.94
383.761	107.94
383.986	104.94
384.211	107.94
384.436	98.94
384.662	90.94
384.887	91.94
385.112	98.94
385.337	86.94
385.562	90.94
385.787	81.94
386.013	116.94
386.238	103.94
386.463	109.94
386.688	94.94
386.913	91.94
387.138	96.94
387.363	88.94
387.588	102.94
387.813	93.94
388.038	84.94
388.263	99.94
388.488	104.94
388.713	106.94
388.938	106.94
389.163	84.94
389.387	87.94
389.612	100.94
389.837	103.94
390.062	110.94
390.287	92.94
390.512	95.94
390.736	94.94
390.961	105.94
391.186	102.94
391.411	108.94
391.636	94.94
391.86	104.94
392.085	110.94
392.31	119.94
392.534	98.94
392.759	116.94
392.984	104.94
393.208	109.94
393.433	115.94
393.658	101.94
393.882	97.94
394.107	94.94
394.331	115.94
394.556	114.94
394.78	105.94
395.005	101.94
395.229	111.94
395.454	105.94
395.678	109.94
395.903	99.94
396.127	105.94
396.352	103.94
396.576	107.94
396.801	117.94
397.025	101.94
397.249	111.94
397.474	123.94
397.698	109.94
397.922	111.94
398.147	116.94
398.371	92.94
398.595	110.94
398.82	105.94
399.044	109.94
399.268	130.94
399.492	112.94
399.717	104.94
399.941	123.94
400.165	108.94
400.389	101.94
400.613	107.94
400.837	117.94
401.062	108.94
401.286	111.94
401.51	103.94
401.734	109.94
401.958	118.94
402.182	107.94
402.406	124.94
402.63	126.94
402.854	109.94
403.078	125.94
403.302	106.94
403.526	97.94
403.75	126.94
403.974	121.94
404.198	115.94
404.422	125.94
404.645	105.94
404.869	121.94
405.093	113.94
405.317	129.94
405.541	122.94
405.765	115.94
405.988	110.94
406.212	120.94
406.436	127.94
406.66	113.94
406.883	128.94
407.107	121.94
407.331	102.94
407.555	119.94
407.778	131.94
408.002	113.94
408.226	125.94
408.449	118.94
408.673	127.94
408.896	120.94
409.12	119.94
409.344	126.94
409.567	119.94
409.791	120.94
410.014	123.94
410.238	131.94
410.461	120.94
410.685	110.94
410.908	119.94
411.132	132.94
411.355	137.94
411.578	110.94
411.802	110.94
412.025	122.94
412.249	124.94
412.472	125.94
412.695	124.94
412.919	125.94
413.142	135.94
413.365	114.94
413.589	130.94
413.812	125.94
414.035	123.94
414.258	122.94
414.482	134.94
414.705	121.94
414.928	125.94
415.151	120.94
415.374	133.94
415.597	129.94
415.821	120.94
416.044	122.94
416.267	118.94
416.49	122.94
416.713	122.94
416.936	126.94
417.159	122.94
417.382	122.94
417.605	130.94
417.828	129.94
418.051	136.94
418.274	132.94
418.497	128.94
418.72	138.94
418.943	133.94
419.166	122.94
419.389	161.94
419.611	147.94
419.834	143.94
420.057	138.94
420.28	138.94
420.503	134.94
420.726	124.94
420.948	119.94
421.171	135.94
421.394	126.94
421.617	142.94
421.839	145.94
422.062	137.94
422.285	122.94
422.507	131.94
422.73	139.94
422.953	129.94
423.175	128.94
423.398	127.94
423.621	149.94
423.843	134.94
424.066	125.94
424.288	133.94
424.511	149.94
424.733	125.94
424.956	149.94
425.178	140.94
425.401	130.94
425.623	135.94
425.846	145.94
426.068	136.94
426.291	138.94
426.513	126.94
426.735	125.94
426.958	135.94
427.18	131.94
427.402	134.94
427.625	125.94
427.847	127.94
428.069	130.94
428.292	127.94
428.514	125.94
428.736	134.94
428.958	129.94
429.181	123.94
429.403	124.94
429.625	133.94
429.847	137.94
430.069	126.94
430.292	125.94
430.514	135.94
430.736	141.94
430.958	142.94
431.18	140.94
431.402	148.94
431.624	124.94
431.846	107.94
432.068	91.94
432.29	106.94
432.512	108.94
432.734	121.94
432.956	142.94
433.178	135.94
433.4	125.94
433.622	139.94
433.844	140.94
434.066	116.94
434.287	104.94
434.509	99.94
434.731	92.94
434.953	120.94
435.175	111.94
435.397	125.94
435.618	119.94
435.84	122.94
436.062	102.94
436.284	133.94
436.505	127.94
436.727	127.94
436.949	131.94
437.17	129.94
437.392	132.94
437.614	125.94
437.835	119.94
438.057	104.94
438.278	108.94
438.5	115.94
438.721	135.94
438.943	151.94
439.165	148.94
439.386	131.94
439.608	162.94
439.829	148.94
440.05	141.94
440.272	142.94
440.493	139.94
440.715	140.94
440.936	142.94
441.158	145.94
441.379	137.94
441.6	140.94
441.822	137.94
442.043	131.94
442.264	156.94
442.486	145.94
442.707	133.94
442.928	134.94
443.149	155.94
443.371	151.94
443.592	135.94
443.813	144.94
444.034	152.94
444.255	140.94
444.476	142.94
444.698	126.94
444.919	145.94
445.14	276.94
445.361	208.94
445.582	158.94
445.803	154.94
446.024	163.94
446.245	143.94
446.466	141.94
446.687	151.94
446.908	163.94
447.129	135.94
447.35	156.94
447.571	157.94
447.792	146.94
448.013	150.94
448.234	141.94
448.455	150.94
448.675	153.94
448.896	140.94
449.117	139.94
449.338	134.94
449.559	142.94
449.779	153.94
450	135.94
450.221	148.94
450.442	138.94
450.662	143.94
450.883	142.94
451.104	130.94
451.324	117.94
451.545	127.94
451.766	131.94
451.986	131.94
452.207	119.94
452.428	137.94
452.648	140.94
452.869	136.94
453.089	133.94
453.31	119.94
453.53	97.94
453.751	102.94
453.971	121.94
454.192	113.94
454.412	99.94
454.633	117.94
454.853	115.94
455.073	115.94
455.294	137.94
455.514	138.94
455.734	142.94
455.955	127.94
456.175	124.94
456.395	118.94
456.616	125.94
456.836	118.94
457.056	126.94
457.276	114.94
457.497	123.94
457.717	119.94
457.937	118.94
458.157	129.94
458.377	115.94
458.598	110.94
458.818	93.94
459.038	92.94
459.258	94.94
459.478	86.94
459.698	84.94
459.918	81.94
460.138	97.94
460.358	110.94
460.578	131.94
460.798	121.94
461.018	110.94
461.238	115.94
461.458	106.94
461.678	133.94
461.898	111.94
462.118	113.94
462.338	115.94
462.558	114.94
462.777	104.94
462.997	115.94
463.217	114.94
463.437	107.94
463.657	119.94
463.876	101.94
464.096	110.94
464.316	130.94
464.536	122.94
464.755	122.94
464.975	130.94
465.195	120.94
465.414	111.94
465.634	119.94
465.854	109.94
466.073	115.94
466.293	131.94
466.512	131.94
466.732	136.94
466.951	133.94
467.171	140.94
467.391	126.94
467.61	139.94
467.829	134.94
468.049	135.94
468.268	123.94
468.488	127.94
468.707	140.94
468.927	139.94
469.146	152.94
469.365	139.94
469.585	138.94
469.804	136.94
470.023	143.94
470.243	158.94
470.462	154.94
470.681	148.94
470.901	138.94
471.12	136.94
471.339	147.94
471.558	152.94
471.777	135.94
471.997	153.94
472.216	124.94
472.435	125.94
472.654	104.94
472.873	103.94
473.092	111.94
473.311	137.94
473.53	115.94
473.749	127.94
473.968	131.94
474.187	117.94
474.406	120.94
474.625	132.94
474.844	129.94
475.063	125.94
475.282	126.94
475.501	114.94
475.72	121.94
475.939	131.94
476.158	124.94
476.377	118.94
476.596	131.94
476.814	117.94
477.033	107.94
477.252	115.94
477.471	129.94
477.69	129.94
477.908	136.94
478.127	151.94
478.346	137.94
478.564	140.94
478.783	137.94
479.002	137.94
479.22	126.94
479.439	132.94
479.658	123.94
479.876	119.94
480.095	120.94
480.313	117.94
480.532	127.94
480.751	106.94
480.969	105.94
481.188	103.94
481.406	95.94
481.624	77.94
481.843	83.94
482.061	108.94
482.28	107.94
482.498	109.94
482.717	123.94
482.935	136.94
483.153	146.94
483.372	153.94
483.59	147.94
483.808	157.94
484.027	131.94
484.245	141.94
484.463	139.94
484.681	156.94
484.9	133.94
485.118	148.94
485.336	140.94
485.554	113.94
485.772	122.94
485.99	105.94
486.209	98.94
486.427	109.94
486.645	129.94
486.863	149.94
487.081	136.94
487.299	150.94
487.517	137.94
487.735	170.94
487.953	164.94
488.171	184.94
488.389	186.94
488.607	160.94
488.825	143.94
489.043	141.94
489.261	132.94
489.479	150.94
489.696	144.94
489.914	139.94
490.132	161.94
490.35	153.94
490.568	171.94
490.786	174.94
491.003	181.94
491.221	174.94
491.439	181.94
491.657	188.94
491.874	183.94
492.092	212.94
492.31	226.94
492.527	225.94
492.745	205.94
492.963	195.94
493.18	191.94
493.398	179.94
493.615	189.94
493.833	175.94
494.05	173.94
494.268	182.94
494.485	167.94
494.703	169.94
494.92	169.94
495.138	169.94
495.355	177.94
495.573	173.94
495.79	173.94
496.008	174.94
496.225	188.94
496.442	179.94
496.66	175.94
496.877	166.94
497.094	174.94
497.312	163.94
497.529	153.94
497.746	162.94
497.963	137.94
498.181	134.94
498.398	119.94
498.615	107.94
498.832	126.94
499.049	121.94
499.267	125.94
499.484	126.94
499.701	127.94
499.918	139.94
500.135	154.94
500.352	150.94
500.569	135.94
500.786	148.94
501.003	138.94
501.22	142.94
501.437	151.94
501.654	138.94
501.871	131.94
502.088	129.94
502.305	133.94
502.522	132.94
502.739	123.94
502.956	111.94
503.172	131.94
503.389	127.94
503.606	123.94
503.823	134.94
504.04	118.94
504.256	121.94
504.473	129.94
504.69	118.94
504.907	118.94
505.123	124.94
505.34	125.94
505.557	131.94
505.773	120.94
505.99	142.94
506.207	139.94
506.423	110.94
506.64	130.94
506.856	122.94
507.073	116.94
507.289	105.94
507.506	94.94
507.722	111.94
507.939	116.94
508.155	123.94
508.372	105.94
508.588	96.94
508.805	105.94
509.021	107.94
509.238	105.94
509.454	114.94
509.67	94.94
509.887	102.94
510.103	107.94
510.319	98.94
510.536	88.94
510.752	100.94
510.968	87.94
511.184	83.94
511.401	85.94
