Data from Location2.07152019.Energy5.Lamp.07192019.3%Agarose_HRD10591_14-57-35-359.txt Node
Date: Fri Jul 19 14:57:35 EDT 2019
User: cochatt
Spectrometer: HR+D1059
Trigger mode: 1
Integration Time (sec): 1.000000E-1
Scans to average: 1
Electric dark correction enabled: true
Nonlinearity correction enabled: false
Boxcar width: 0
XAxis mode: Wavelengths
Number of Pixels in Spectrum: 2048
>>>>>Begin Spectral Data<<<<<
223.165	-20.62
223.4	-20.62
223.635	-20.62
223.869	-19.62
224.104	-5.62
224.338	-10.62
224.573	-12.62
224.808	1.38
225.042	-12.62
225.277	5.38
225.511	4.38
225.746	-5.62
225.98	-1.62
226.215	3.38
226.449	16.38
226.683	12.38
226.918	17.38
227.152	28.38
227.387	28.38
227.621	45.38
227.856	44.38
228.09	43.38
228.324	29.38
228.559	68.38
228.793	55.38
229.027	69.38
229.262	58.38
229.496	61.38
229.73	65.38
229.964	74.38
230.199	65.38
230.433	74.38
230.667	76.38
230.901	76.38
231.136	70.38
231.37	78.38
231.604	82.38
231.838	86.38
232.072	80.38
232.306	79.38
232.541	77.38
232.775	98.38
233.009	78.38
233.243	83.38
233.477	87.38
233.711	77.38
233.945	83.38
234.179	91.38
234.413	79.38
234.647	77.38
234.881	83.38
235.115	89.38
235.349	77.38
235.583	76.38
235.817	85.38
236.051	82.38
236.285	86.38
236.519	77.38
236.753	74.38
236.987	77.38
237.221	65.38
237.455	85.38
237.689	78.38
237.922	71.38
238.156	67.38
238.39	75.38
238.624	78.38
238.858	91.38
239.091	73.38
239.325	79.38
239.559	81.38
239.793	87.38
240.027	70.38
240.26	79.38
240.494	67.38
240.728	75.38
240.961	76.38
241.195	77.38
241.429	75.38
241.662	82.38
241.896	82.38
242.13	70.38
242.363	84.38
242.597	87.38
242.83	82.38
243.064	83.38
243.298	84.38
243.531	77.38
243.765	81.38
243.998	82.38
244.232	79.38
244.465	75.38
244.699	88.38
244.932	89.38
245.166	78.38
245.399	87.38
245.633	92.38
245.866	78.38
246.099	68.38
246.333	84.38
246.566	72.38
246.8	79.38
247.033	69.38
247.266	83.38
247.5	74.38
247.733	82.38
247.966	75.38
248.2	83.38
248.433	71.38
248.666	79.38
248.899	76.38
249.133	83.38
249.366	80.38
249.599	75.38
249.832	76.38
250.066	84.38
250.299	69.38
250.532	80.38
250.765	66.38
250.998	87.38
251.231	88.38
251.465	83.38
251.698	77.38
251.931	87.38
252.164	95.38
252.397	95.38
252.63	82.38
252.863	79.38
253.096	87.38
253.329	70.38
253.562	83.38
253.795	78.38
254.028	75.38
254.261	79.38
254.494	103.38
254.727	92.38
254.96	86.38
255.193	81.38
255.426	84.38
255.659	85.38
255.892	79.38
256.124	81.38
256.357	78.38
256.59	82.38
256.823	88.38
257.056	76.38
257.289	92.38
257.521	91.38
257.754	85.38
257.987	83.38
258.22	78.38
258.452	86.38
258.685	85.38
258.918	84.38
259.151	79.38
259.383	92.38
259.616	79.38
259.849	83.38
260.081	85.38
260.314	77.38
260.547	81.38
260.779	75.38
261.012	83.38
261.244	71.38
261.477	82.38
261.71	84.38
261.942	84.38
262.175	77.38
262.407	73.38
262.64	88.38
262.872	90.38
263.105	87.38
263.337	92.38
263.57	83.38
263.802	88.38
264.035	96.38
264.267	72.38
264.499	79.38
264.732	79.38
264.964	96.38
265.197	81.38
265.429	76.38
265.661	69.38
265.894	82.38
266.126	84.38
266.358	88.38
266.591	95.38
266.823	85.38
267.055	73.38
267.287	77.38
267.52	97.38
267.752	89.38
267.984	82.38
268.216	63.38
268.448	80.38
268.681	79.38
268.913	70.38
269.145	89.38
269.377	78.38
269.609	81.38
269.841	77.38
270.073	88.38
270.306	94.38
270.538	79.38
270.77	89.38
271.002	83.38
271.234	97.38
271.466	74.38
271.698	86.38
271.93	90.38
272.162	78.38
272.394	87.38
272.626	80.38
272.858	83.38
273.09	89.38
273.322	92.38
273.553	92.38
273.785	87.38
274.017	85.38
274.249	78.38
274.481	85.38
274.713	76.38
274.945	81.38
275.176	86.38
275.408	95.38
275.64	70.38
275.872	77.38
276.104	92.38
276.335	84.38
276.567	84.38
276.799	88.38
277.031	82.38
277.262	77.38
277.494	84.38
277.726	74.38
277.957	84.38
278.189	95.38
278.421	98.38
278.652	83.38
278.884	90.38
279.115	84.38
279.347	82.38
279.579	85.38
279.81	86.38
280.042	93.38
280.273	81.38
280.505	89.38
280.736	81.38
280.968	71.38
281.199	84.38
281.431	93.38
281.662	89.38
281.894	94.38
282.125	86.38
282.356	87.38
282.588	71.38
282.819	82.38
283.051	86.38
283.282	77.38
283.513	100.38
283.745	89.38
283.976	80.38
284.207	81.38
284.439	95.38
284.67	93.38
284.901	91.38
285.132	77.38
285.364	77.38
285.595	86.38
285.826	98.38
286.057	95.38
286.288	94.38
286.52	100.38
286.751	87.38
286.982	80.38
287.213	82.38
287.444	89.38
287.675	85.38
287.906	78.38
288.138	94.38
288.369	84.38
288.6	73.38
288.831	78.38
289.062	88.38
289.293	70.38
289.524	93.38
289.755	89.38
289.986	77.38
290.217	81.38
290.448	71.38
290.679	107.38
290.91	82.38
291.141	79.38
291.371	94.38
291.602	96.38
291.833	81.38
292.064	89.38
292.295	82.38
292.526	94.38
292.757	86.38
292.987	75.38
293.218	83.38
293.449	83.38
293.68	83.38
293.91	87.38
294.141	92.38
294.372	83.38
294.603	83.38
294.833	83.38
295.064	78.38
295.295	86.38
295.525	77.38
295.756	87.38
295.987	82.38
296.217	87.38
296.448	94.38
296.679	92.38
296.909	88.38
297.14	95.38
297.37	91.38
297.601	90.38
297.831	67.38
298.062	90.38
298.292	85.38
298.523	82.38
298.753	85.38
298.984	85.38
299.214	77.38
299.445	92.38
299.675	80.38
299.905	96.38
300.136	94.38
300.366	76.38
300.597	97.38
300.827	86.38
301.057	75.38
301.288	92.38
301.518	95.38
301.748	92.38
301.979	100.38
302.209	88.38
302.439	81.38
302.669	81.38
302.9	92.38
303.13	95.38
303.36	85.38
303.59	76.38
303.82	89.38
304.051	85.38
304.281	101.38
304.511	78.38
304.741	88.38
304.971	86.38
305.201	85.38
305.431	93.38
305.661	84.38
305.891	92.38
306.121	75.38
306.352	84.38
306.582	97.38
306.812	93.38
307.042	99.38
307.272	93.38
307.502	85.38
307.731	98.38
307.961	86.38
308.191	89.38
308.421	85.38
308.651	82.38
308.881	83.38
309.111	90.38
309.341	92.38
309.571	91.38
309.8	73.38
310.03	88.38
310.26	86.38
310.49	86.38
310.72	83.38
310.949	75.38
311.179	92.38
311.409	75.38
311.639	81.38
311.868	87.38
312.098	83.38
312.328	82.38
312.557	87.38
312.787	81.38
313.017	89.38
313.246	89.38
313.476	87.38
313.706	92.38
313.935	80.38
314.165	88.38
314.394	88.38
314.624	82.38
314.853	77.38
315.083	89.38
315.312	80.38
315.542	89.38
315.771	84.38
316.001	91.38
316.23	87.38
316.46	89.38
316.689	89.38
316.919	86.38
317.148	96.38
317.377	89.38
317.607	71.38
317.836	81.38
318.065	90.38
318.295	84.38
318.524	84.38
318.753	92.38
318.983	87.38
319.212	87.38
319.441	78.38
319.67	92.38
319.9	81.38
320.129	79.38
320.358	86.38
320.587	88.38
320.816	85.38
321.046	77.38
321.275	102.38
321.504	72.38
321.733	107.38
321.962	73.38
322.191	99.38
322.42	91.38
322.649	84.38
322.878	87.38
323.108	97.38
323.337	90.38
323.566	85.38
323.795	77.38
324.024	88.38
324.253	104.38
324.482	104.38
324.71	92.38
324.939	90.38
325.168	85.38
325.397	84.38
325.626	89.38
325.855	88.38
326.084	74.38
326.313	81.38
326.542	78.38
326.77	90.38
326.999	89.38
327.228	82.38
327.457	91.38
327.686	84.38
327.914	78.38
328.143	82.38
328.372	107.38
328.6	91.38
328.829	98.38
329.058	98.38
329.287	100.38
329.515	75.38
329.744	98.38
329.972	89.38
330.201	93.38
330.43	86.38
330.658	77.38
330.887	86.38
331.115	87.38
331.344	88.38
331.572	94.38
331.801	84.38
332.03	76.38
332.258	78.38
332.486	89.38
332.715	90.38
332.943	75.38
333.172	101.38
333.4	79.38
333.629	100.38
333.857	80.38
334.085	90.38
334.314	82.38
334.542	80.38
334.771	75.38
334.999	81.38
335.227	82.38
335.455	85.38
335.684	91.38
335.912	86.38
336.14	92.38
336.369	76.38
336.597	93.38
336.825	95.38
337.053	92.38
337.281	80.38
337.51	83.38
337.738	90.38
337.966	90.38
338.194	81.38
338.422	90.38
338.65	84.38
338.878	85.38
339.106	93.38
339.334	95.38
339.562	89.38
339.79	84.38
340.018	78.38
340.246	90.38
340.474	102.38
340.702	86.38
340.93	87.38
341.158	82.38
341.386	82.38
341.614	87.38
341.842	78.38
342.07	85.38
342.298	93.38
342.526	87.38
342.754	89.38
342.981	84.38
343.209	91.38
343.437	88.38
343.665	83.38
343.893	84.38
344.12	76.38
344.348	98.38
344.576	91.38
344.804	77.38
345.031	86.38
345.259	91.38
345.487	93.38
345.714	87.38
345.942	82.38
346.17	92.38
346.397	71.38
346.625	80.38
346.853	87.38
347.08	73.38
347.308	83.38
347.535	84.38
347.763	75.38
347.99	74.38
348.218	93.38
348.445	81.38
348.673	89.38
348.9	76.38
349.128	86.38
349.355	85.38
349.583	95.38
349.81	88.38
350.037	69.38
350.265	77.38
350.492	85.38
350.72	82.38
350.947	76.38
351.174	83.38
351.402	93.38
351.629	84.38
351.856	97.38
352.083	91.38
352.311	89.38
352.538	83.38
352.765	74.38
352.992	86.38
353.22	96.38
353.447	89.38
353.674	83.38
353.901	87.38
354.128	87.38
354.355	86.38
354.583	77.38
354.81	91.38
355.037	80.38
355.264	101.38
355.491	91.38
355.718	77.38
355.945	83.38
356.172	87.38
356.399	74.38
356.626	90.38
356.853	80.38
357.08	76.38
357.307	88.38
357.534	85.38
357.761	97.38
357.988	95.38
358.215	84.38
358.441	89.38
358.668	86.38
358.895	99.38
359.122	90.38
359.349	83.38
359.576	85.38
359.802	94.38
360.029	82.38
360.256	91.38
360.483	88.38
360.709	86.38
360.936	95.38
361.163	100.38
361.39	85.38
361.616	102.38
361.843	94.38
362.07	88.38
362.296	78.38
362.523	77.38
362.749	88.38
362.976	83.38
363.203	86.38
363.429	76.38
363.656	81.38
363.882	83.38
364.109	83.38
364.335	90.38
364.562	78.38
364.788	96.38
365.015	93.38
365.241	89.38
365.468	97.38
365.694	80.38
365.92	68.38
366.147	93.38
366.373	89.38
366.599	87.38
366.826	83.38
367.052	93.38
367.278	83.38
367.505	105.38
367.731	97.38
367.957	92.38
368.184	98.38
368.41	82.38
368.636	83.38
368.862	106.38
369.089	86.38
369.315	94.38
369.541	99.38
369.767	95.38
369.993	87.38
370.219	88.38
370.445	85.38
370.672	79.38
370.898	95.38
371.124	86.38
371.35	77.38
371.576	83.38
371.802	94.38
372.028	89.38
372.254	94.38
372.48	93.38
372.706	79.38
372.932	82.38
373.158	92.38
373.384	102.38
373.61	102.38
373.835	94.38
374.061	98.38
374.287	96.38
374.513	88.38
374.739	101.38
374.965	91.38
375.191	91.38
375.416	88.38
375.642	94.38
375.868	98.38
376.094	95.38
376.319	94.38
376.545	94.38
376.771	98.38
376.997	93.38
377.222	93.38
377.448	81.38
377.674	96.38
377.899	105.38
378.125	102.38
378.35	88.38
378.576	94.38
378.802	95.38
379.027	97.38
379.253	91.38
379.478	107.38
379.704	108.38
379.929	103.38
380.155	91.38
380.38	82.38
380.606	93.38
380.831	106.38
381.057	107.38
381.282	96.38
381.507	103.38
381.733	88.38
381.958	90.38
382.184	89.38
382.409	100.38
382.634	101.38
382.86	97.38
383.085	105.38
383.31	98.38
383.535	111.38
383.761	101.38
383.986	106.38
384.211	92.38
384.436	106.38
384.662	111.38
384.887	102.38
385.112	101.38
385.337	95.38
385.562	114.38
385.787	109.38
386.013	100.38
386.238	91.38
386.463	97.38
386.688	79.38
386.913	101.38
387.138	103.38
387.363	92.38
387.588	84.38
387.813	98.38
388.038	98.38
388.263	103.38
388.488	106.38
388.713	106.38
388.938	101.38
389.163	108.38
389.387	99.38
389.612	95.38
389.837	103.38
390.062	109.38
390.287	102.38
390.512	119.38
390.736	97.38
390.961	105.38
391.186	105.38
391.411	101.38
391.636	99.38
391.86	103.38
392.085	102.38
392.31	117.38
392.534	89.38
392.759	88.38
392.984	103.38
393.208	102.38
393.433	96.38
393.658	99.38
393.882	113.38
394.107	108.38
394.331	118.38
394.556	96.38
394.78	99.38
395.005	117.38
395.229	100.38
395.454	113.38
395.678	103.38
395.903	103.38
396.127	117.38
396.352	116.38
396.576	129.38
396.801	113.38
397.025	81.38
397.249	116.38
397.474	116.38
397.698	116.38
397.922	107.38
398.147	123.38
398.371	110.38
398.595	120.38
398.82	129.38
399.044	117.38
399.268	109.38
399.492	104.38
399.717	116.38
399.941	117.38
400.165	116.38
400.389	121.38
400.613	103.38
400.837	133.38
401.062	117.38
401.286	98.38
401.51	114.38
401.734	119.38
401.958	119.38
402.182	102.38
402.406	93.38
402.63	102.38
402.854	125.38
403.078	122.38
403.302	123.38
403.526	112.38
403.75	120.38
403.974	130.38
404.198	105.38
404.422	115.38
404.645	124.38
404.869	105.38
405.093	117.38
405.317	116.38
405.541	120.38
405.765	123.38
405.988	119.38
406.212	118.38
406.436	113.38
406.66	126.38
406.883	126.38
407.107	147.38
407.331	118.38
407.555	101.38
407.778	123.38
408.002	119.38
408.226	125.38
408.449	122.38
408.673	123.38
408.896	125.38
409.12	121.38
409.344	111.38
409.567	120.38
409.791	121.38
410.014	119.38
410.238	130.38
410.461	125.38
410.685	123.38
410.908	119.38
411.132	118.38
411.355	122.38
411.578	118.38
411.802	113.38
412.025	134.38
412.249	120.38
412.472	117.38
412.695	128.38
412.919	138.38
413.142	113.38
413.365	117.38
413.589	131.38
413.812	121.38
414.035	134.38
414.258	120.38
414.482	119.38
414.705	129.38
414.928	134.38
415.151	139.38
415.374	129.38
415.597	120.38
415.821	130.38
416.044	138.38
416.267	117.38
416.49	126.38
416.713	122.38
416.936	124.38
417.159	128.38
417.382	126.38
417.605	118.38
417.828	124.38
418.051	135.38
418.274	123.38
418.497	133.38
418.72	142.38
418.943	132.38
419.166	134.38
419.389	129.38
419.611	136.38
419.834	126.38
420.057	139.38
420.28	132.38
420.503	135.38
420.726	124.38
420.948	149.38
421.171	130.38
421.394	137.38
421.617	126.38
421.839	132.38
422.062	136.38
422.285	128.38
422.507	121.38
422.73	115.38
422.953	135.38
423.175	141.38
423.398	140.38
423.621	130.38
423.843	135.38
424.066	141.38
424.288	126.38
424.511	136.38
424.733	138.38
424.956	147.38
425.178	145.38
425.401	133.38
425.623	143.38
425.846	134.38
426.068	130.38
426.291	141.38
426.513	129.38
426.735	141.38
426.958	120.38
427.18	139.38
427.402	128.38
427.625	121.38
427.847	111.38
428.069	133.38
428.292	146.38
428.514	139.38
428.736	142.38
428.958	140.38
429.181	126.38
429.403	137.38
429.625	131.38
429.847	129.38
430.069	129.38
430.292	141.38
430.514	140.38
430.736	133.38
430.958	117.38
431.18	135.38
431.402	124.38
431.624	114.38
431.846	99.38
432.068	103.38
432.29	110.38
432.512	120.38
432.734	139.38
432.956	140.38
433.178	140.38
433.4	144.38
433.622	125.38
433.844	118.38
434.066	144.38
434.287	103.38
434.509	92.38
434.731	95.38
434.953	120.38
435.175	122.38
435.397	120.38
435.618	117.38
435.84	103.38
436.062	117.38
436.284	111.38
436.505	133.38
436.727	139.38
436.949	136.38
437.17	127.38
437.392	131.38
437.614	125.38
437.835	115.38
438.057	117.38
438.278	120.38
438.5	122.38
438.721	130.38
438.943	136.38
439.165	143.38
439.386	146.38
439.608	137.38
439.829	144.38
440.05	167.38
440.272	149.38
440.493	161.38
440.715	153.38
440.936	150.38
441.158	134.38
441.379	146.38
441.6	144.38
441.822	153.38
442.043	146.38
442.264	140.38
442.486	140.38
442.707	142.38
442.928	152.38
443.149	168.38
443.371	160.38
443.592	151.38
443.813	141.38
444.034	133.38
444.255	147.38
444.476	149.38
444.698	149.38
444.919	153.38
445.14	209.38
445.361	179.38
445.582	143.38
445.803	141.38
446.024	144.38
446.245	145.38
446.466	154.38
446.687	158.38
446.908	162.38
447.129	157.38
447.35	169.38
447.571	144.38
447.792	156.38
448.013	150.38
448.234	155.38
448.455	131.38
448.675	139.38
448.896	146.38
449.117	135.38
449.338	131.38
449.559	142.38
449.779	144.38
450	153.38
450.221	130.38
450.442	136.38
450.662	134.38
450.883	133.38
451.104	132.38
451.324	130.38
451.545	134.38
451.766	127.38
451.986	129.38
452.207	133.38
452.428	129.38
452.648	140.38
452.869	114.38
453.089	108.38
453.31	100.38
453.53	110.38
453.751	105.38
453.971	94.38
454.192	117.38
454.412	119.38
454.633	124.38
454.853	123.38
455.073	119.38
455.294	128.38
455.514	125.38
455.734	113.38
455.955	118.38
456.175	121.38
456.395	119.38
456.616	106.38
456.836	109.38
457.056	98.38
457.276	105.38
457.497	102.38
457.717	105.38
457.937	109.38
458.157	104.38
458.377	108.38
458.598	105.38
458.818	88.38
459.038	86.38
459.258	72.38
459.478	87.38
459.698	97.38
459.918	100.38
460.138	109.38
460.358	117.38
460.578	109.38
460.798	121.38
461.018	114.38
461.238	107.38
461.458	116.38
461.678	114.38
461.898	114.38
462.118	109.38
462.338	125.38
462.558	116.38
462.777	125.38
462.997	119.38
463.217	117.38
463.437	105.38
463.657	103.38
463.876	112.38
464.096	103.38
464.316	117.38
464.536	129.38
464.755	116.38
464.975	127.38
465.195	124.38
465.414	122.38
465.634	115.38
465.854	105.38
466.073	123.38
466.293	124.38
466.512	116.38
466.732	136.38
466.951	143.38
467.171	141.38
467.391	136.38
467.61	135.38
467.829	133.38
468.049	131.38
468.268	141.38
468.488	134.38
468.707	133.38
468.927	140.38
469.146	141.38
469.365	135.38
469.585	135.38
469.804	141.38
470.023	140.38
470.243	149.38
470.462	126.38
470.681	141.38
470.901	153.38
471.12	129.38
471.339	140.38
471.558	148.38
471.777	128.38
471.997	140.38
472.216	135.38
472.435	117.38
472.654	112.38
472.873	127.38
473.092	124.38
473.311	123.38
473.53	123.38
473.749	140.38
473.968	139.38
474.187	107.38
474.406	131.38
474.625	110.38
474.844	125.38
475.063	135.38
475.282	133.38
475.501	119.38
475.72	131.38
475.939	126.38
476.158	123.38
476.377	127.38
476.596	127.38
476.814	106.38
477.033	116.38
477.252	122.38
477.471	131.38
477.69	116.38
477.908	147.38
478.127	128.38
478.346	133.38
478.564	127.38
478.783	129.38
479.002	144.38
479.22	136.38
479.439	149.38
479.658	127.38
479.876	121.38
480.095	113.38
480.313	114.38
480.532	116.38
480.751	116.38
480.969	100.38
481.188	104.38
481.406	80.38
481.624	105.38
481.843	99.38
482.061	98.38
482.28	125.38
482.498	117.38
482.717	98.38
482.935	121.38
483.153	144.38
483.372	143.38
483.59	135.38
483.808	149.38
484.027	143.38
484.245	135.38
484.463	140.38
484.681	161.38
484.9	154.38
485.118	127.38
485.336	136.38
485.554	118.38
485.772	107.38
485.99	127.38
486.209	111.38
486.427	117.38
486.645	125.38
486.863	134.38
487.081	141.38
487.299	131.38
487.517	140.38
487.735	166.38
487.953	193.38
488.171	170.38
488.389	163.38
488.607	179.38
488.825	133.38
489.043	122.38
489.261	124.38
489.479	144.38
489.696	155.38
489.914	151.38
490.132	142.38
490.35	149.38
490.568	155.38
490.786	168.38
491.003	157.38
491.221	194.38
491.439	189.38
491.657	191.38
491.874	192.38
492.092	214.38
492.31	233.38
492.527	242.38
492.745	197.38
492.963	192.38
493.18	182.38
493.398	190.38
493.615	164.38
493.833	176.38
494.05	173.38
494.268	166.38
494.485	174.38
494.703	169.38
494.92	166.38
495.138	173.38
495.355	180.38
495.573	179.38
495.79	166.38
496.008	171.38
496.225	183.38
496.442	163.38
496.66	168.38
496.877	168.38
497.094	161.38
497.312	158.38
497.529	164.38
497.746	165.38
497.963	132.38
498.181	130.38
498.398	126.38
498.615	139.38
498.832	126.38
499.049	124.38
499.267	129.38
499.484	137.38
499.701	133.38
499.918	142.38
500.135	147.38
500.352	144.38
500.569	134.38
500.786	150.38
501.003	135.38
501.22	136.38
501.437	142.38
501.654	129.38
501.871	123.38
502.088	137.38
502.305	119.38
502.522	133.38
502.739	133.38
502.956	147.38
503.172	137.38
503.389	126.38
503.606	102.38
503.823	127.38
504.04	130.38
504.256	121.38
504.473	120.38
504.69	118.38
504.907	116.38
505.123	128.38
505.34	123.38
505.557	125.38
505.773	123.38
505.99	126.38
506.207	134.38
506.423	150.38
506.64	126.38
506.856	120.38
507.073	120.38
507.289	113.38
507.506	127.38
507.722	107.38
507.939	117.38
508.155	119.38
508.372	116.38
508.588	109.38
508.805	113.38
509.021	108.38
509.238	106.38
509.454	113.38
509.67	106.38
509.887	97.38
510.103	103.38
510.319	99.38
510.536	101.38
510.752	84.38
510.968	83.38
511.184	88.38
511.401	97.38
