Data from Location2.07152019.Energy5.Lamp.07192019.3%Agarose_HRD10591_14-57-16-359.txt Node
Date: Fri Jul 19 14:57:16 EDT 2019
User: cochatt
Spectrometer: HR+D1059
Trigger mode: 1
Integration Time (sec): 1.000000E-1
Scans to average: 1
Electric dark correction enabled: true
Nonlinearity correction enabled: false
Boxcar width: 0
XAxis mode: Wavelengths
Number of Pixels in Spectrum: 2048
>>>>>Begin Spectral Data<<<<<
223.165	-18.44
223.4	-18.44
223.635	-18.44
223.869	-26.44
224.104	-10.44
224.338	-24.44
224.573	-14.44
224.808	-10.44
225.042	6.56
225.277	-5.44
225.511	2.56
225.746	-3.44
225.98	13.56
226.215	17.56
226.449	4.56
226.683	14.56
226.918	20.56
227.152	33.56
227.387	37.56
227.621	38.56
227.856	49.56
228.09	53.56
228.324	55.56
228.559	54.56
228.793	75.56
229.027	64.56
229.262	66.56
229.496	62.56
229.73	65.56
229.964	62.56
230.199	73.56
230.433	62.56
230.667	68.56
230.901	88.56
231.136	86.56
231.37	87.56
231.604	91.56
231.838	86.56
232.072	75.56
232.306	78.56
232.541	86.56
232.775	109.56
233.009	81.56
233.243	87.56
233.477	81.56
233.711	84.56
233.945	86.56
234.179	95.56
234.413	85.56
234.647	97.56
234.881	102.56
235.115	84.56
235.349	91.56
235.583	91.56
235.817	79.56
236.051	73.56
236.285	85.56
236.519	83.56
236.753	81.56
236.987	65.56
237.221	81.56
237.455	66.56
237.689	57.56
237.922	69.56
238.156	78.56
238.39	76.56
238.624	68.56
238.858	72.56
239.091	72.56
239.325	88.56
239.559	88.56
239.793	89.56
240.027	78.56
240.26	76.56
240.494	84.56
240.728	74.56
240.961	69.56
241.195	75.56
241.429	91.56
241.662	69.56
241.896	79.56
242.13	67.56
242.363	78.56
242.597	86.56
242.83	81.56
243.064	82.56
243.298	78.56
243.531	85.56
243.765	65.56
243.998	79.56
244.232	78.56
244.465	84.56
244.699	73.56
244.932	69.56
245.166	83.56
245.399	82.56
245.633	87.56
245.866	86.56
246.099	79.56
246.333	92.56
246.566	78.56
246.8	78.56
247.033	76.56
247.266	85.56
247.5	88.56
247.733	83.56
247.966	83.56
248.2	89.56
248.433	83.56
248.666	85.56
248.899	78.56
249.133	83.56
249.366	72.56
249.599	75.56
249.832	69.56
250.066	84.56
250.299	96.56
250.532	79.56
250.765	75.56
250.998	74.56
251.231	86.56
251.465	91.56
251.698	79.56
251.931	75.56
252.164	82.56
252.397	74.56
252.63	86.56
252.863	85.56
253.096	62.56
253.329	88.56
253.562	88.56
253.795	90.56
254.028	78.56
254.261	84.56
254.494	83.56
254.727	78.56
254.96	78.56
255.193	80.56
255.426	83.56
255.659	87.56
255.892	82.56
256.124	79.56
256.357	85.56
256.59	84.56
256.823	77.56
257.056	89.56
257.289	88.56
257.521	82.56
257.754	86.56
257.987	66.56
258.22	89.56
258.452	92.56
258.685	97.56
258.918	93.56
259.151	82.56
259.383	95.56
259.616	82.56
259.849	78.56
260.081	99.56
260.314	88.56
260.547	90.56
260.779	87.56
261.012	77.56
261.244	79.56
261.477	83.56
261.71	75.56
261.942	87.56
262.175	79.56
262.407	88.56
262.64	85.56
262.872	97.56
263.105	83.56
263.337	92.56
263.57	89.56
263.802	85.56
264.035	83.56
264.267	94.56
264.499	79.56
264.732	95.56
264.964	84.56
265.197	86.56
265.429	68.56
265.661	83.56
265.894	90.56
266.126	86.56
266.358	73.56
266.591	80.56
266.823	86.56
267.055	80.56
267.287	77.56
267.52	87.56
267.752	87.56
267.984	83.56
268.216	89.56
268.448	88.56
268.681	87.56
268.913	73.56
269.145	98.56
269.377	89.56
269.609	85.56
269.841	89.56
270.073	85.56
270.306	97.56
270.538	84.56
270.77	88.56
271.002	84.56
271.234	92.56
271.466	83.56
271.698	87.56
271.93	87.56
272.162	89.56
272.394	90.56
272.626	79.56
272.858	101.56
273.09	83.56
273.322	72.56
273.553	81.56
273.785	87.56
274.017	100.56
274.249	84.56
274.481	91.56
274.713	74.56
274.945	84.56
275.176	91.56
275.408	90.56
275.64	97.56
275.872	83.56
276.104	78.56
276.335	81.56
276.567	78.56
276.799	88.56
277.031	95.56
277.262	67.56
277.494	81.56
277.726	85.56
277.957	95.56
278.189	86.56
278.421	87.56
278.652	77.56
278.884	94.56
279.115	95.56
279.347	76.56
279.579	92.56
279.81	93.56
280.042	83.56
280.273	94.56
280.505	90.56
280.736	81.56
280.968	97.56
281.199	82.56
281.431	90.56
281.662	84.56
281.894	95.56
282.125	86.56
282.356	88.56
282.588	86.56
282.819	88.56
283.051	100.56
283.282	87.56
283.513	87.56
283.745	82.56
283.976	78.56
284.207	82.56
284.439	96.56
284.67	91.56
284.901	103.56
285.132	92.56
285.364	88.56
285.595	92.56
285.826	87.56
286.057	86.56
286.288	88.56
286.52	88.56
286.751	77.56
286.982	86.56
287.213	94.56
287.444	84.56
287.675	87.56
287.906	88.56
288.138	95.56
288.369	90.56
288.6	76.56
288.831	80.56
289.062	85.56
289.293	81.56
289.524	84.56
289.755	86.56
289.986	78.56
290.217	100.56
290.448	95.56
290.679	82.56
290.91	105.56
291.141	82.56
291.371	85.56
291.602	91.56
291.833	84.56
292.064	89.56
292.295	85.56
292.526	73.56
292.757	91.56
292.987	83.56
293.218	78.56
293.449	84.56
293.68	85.56
293.91	67.56
294.141	86.56
294.372	94.56
294.603	79.56
294.833	83.56
295.064	77.56
295.295	85.56
295.525	73.56
295.756	85.56
295.987	106.56
296.217	94.56
296.448	88.56
296.679	99.56
296.909	86.56
297.14	83.56
297.37	94.56
297.601	94.56
297.831	73.56
298.062	90.56
298.292	83.56
298.523	89.56
298.753	71.56
298.984	101.56
299.214	89.56
299.445	91.56
299.675	92.56
299.905	81.56
300.136	80.56
300.366	97.56
300.597	83.56
300.827	94.56
301.057	69.56
301.288	93.56
301.518	86.56
301.748	93.56
301.979	78.56
302.209	75.56
302.439	81.56
302.669	84.56
302.9	81.56
303.13	86.56
303.36	92.56
303.59	94.56
303.82	90.56
304.051	89.56
304.281	85.56
304.511	84.56
304.741	79.56
304.971	85.56
305.201	103.56
305.431	90.56
305.661	85.56
305.891	85.56
306.121	104.56
306.352	83.56
306.582	89.56
306.812	92.56
307.042	75.56
307.272	75.56
307.502	72.56
307.731	86.56
307.961	95.56
308.191	73.56
308.421	95.56
308.651	84.56
308.881	93.56
309.111	93.56
309.341	86.56
309.571	82.56
309.8	91.56
310.03	93.56
310.26	76.56
310.49	94.56
310.72	83.56
310.949	86.56
311.179	101.56
311.409	80.56
311.639	91.56
311.868	95.56
312.098	92.56
312.328	83.56
312.557	86.56
312.787	84.56
313.017	87.56
313.246	89.56
313.476	85.56
313.706	99.56
313.935	76.56
314.165	83.56
314.394	98.56
314.624	84.56
314.853	84.56
315.083	81.56
315.312	91.56
315.542	88.56
315.771	77.56
316.001	81.56
316.23	103.56
316.46	88.56
316.689	85.56
316.919	83.56
317.148	72.56
317.377	92.56
317.607	101.56
317.836	87.56
318.065	83.56
318.295	69.56
318.524	90.56
318.753	74.56
318.983	85.56
319.212	89.56
319.441	85.56
319.67	94.56
319.9	101.56
320.129	86.56
320.358	91.56
320.587	86.56
320.816	83.56
321.046	74.56
321.275	102.56
321.504	78.56
321.733	88.56
321.962	91.56
322.191	94.56
322.42	88.56
322.649	85.56
322.878	69.56
323.108	87.56
323.337	81.56
323.566	90.56
323.795	85.56
324.024	90.56
324.253	83.56
324.482	89.56
324.71	89.56
324.939	84.56
325.168	74.56
325.397	77.56
325.626	95.56
325.855	104.56
326.084	90.56
326.313	76.56
326.542	93.56
326.77	92.56
326.999	75.56
327.228	75.56
327.457	78.56
327.686	92.56
327.914	83.56
328.143	88.56
328.372	82.56
328.6	86.56
328.829	83.56
329.058	80.56
329.287	79.56
329.515	101.56
329.744	93.56
329.972	69.56
330.201	74.56
330.43	88.56
330.658	99.56
330.887	85.56
331.115	84.56
331.344	92.56
331.572	86.56
331.801	79.56
332.03	92.56
332.258	84.56
332.486	85.56
332.715	93.56
332.943	88.56
333.172	89.56
333.4	87.56
333.629	84.56
333.857	98.56
334.085	93.56
334.314	90.56
334.542	95.56
334.771	79.56
334.999	87.56
335.227	85.56
335.455	80.56
335.684	76.56
335.912	88.56
336.14	74.56
336.369	93.56
336.597	88.56
336.825	82.56
337.053	109.56
337.281	84.56
337.51	82.56
337.738	88.56
337.966	84.56
338.194	91.56
338.422	79.56
338.65	78.56
338.878	90.56
339.106	94.56
339.334	92.56
339.562	76.56
339.79	76.56
340.018	97.56
340.246	75.56
340.474	99.56
340.702	70.56
340.93	91.56
341.158	93.56
341.386	89.56
341.614	86.56
341.842	101.56
342.07	78.56
342.298	86.56
342.526	89.56
342.754	84.56
342.981	85.56
343.209	83.56
343.437	100.56
343.665	101.56
343.893	89.56
344.12	89.56
344.348	94.56
344.576	87.56
344.804	97.56
345.031	77.56
345.259	88.56
345.487	78.56
345.714	87.56
345.942	81.56
346.17	90.56
346.397	82.56
346.625	90.56
346.853	90.56
347.08	83.56
347.308	71.56
347.535	88.56
347.763	86.56
347.99	100.56
348.218	89.56
348.445	86.56
348.673	78.56
348.9	84.56
349.128	89.56
349.355	93.56
349.583	89.56
349.81	78.56
350.037	86.56
350.265	97.56
350.492	91.56
350.72	80.56
350.947	83.56
351.174	104.56
351.402	77.56
351.629	88.56
351.856	91.56
352.083	87.56
352.311	73.56
352.538	89.56
352.765	92.56
352.992	100.56
353.22	92.56
353.447	87.56
353.674	92.56
353.901	93.56
354.128	85.56
354.355	94.56
354.583	95.56
354.81	81.56
355.037	95.56
355.264	80.56
355.491	74.56
355.718	68.56
355.945	82.56
356.172	86.56
356.399	76.56
356.626	86.56
356.853	88.56
357.08	85.56
357.307	71.56
357.534	72.56
357.761	74.56
357.988	100.56
358.215	84.56
358.441	91.56
358.668	98.56
358.895	94.56
359.122	93.56
359.349	95.56
359.576	77.56
359.802	87.56
360.029	82.56
360.256	88.56
360.483	85.56
360.709	94.56
360.936	81.56
361.163	87.56
361.39	86.56
361.616	81.56
361.843	92.56
362.07	86.56
362.296	106.56
362.523	94.56
362.749	84.56
362.976	70.56
363.203	89.56
363.429	94.56
363.656	86.56
363.882	105.56
364.109	77.56
364.335	67.56
364.562	84.56
364.788	81.56
365.015	75.56
365.241	99.56
365.468	86.56
365.694	91.56
365.92	94.56
366.147	75.56
366.373	84.56
366.599	105.56
366.826	94.56
367.052	91.56
367.278	92.56
367.505	95.56
367.731	79.56
367.957	93.56
368.184	85.56
368.41	105.56
368.636	91.56
368.862	93.56
369.089	85.56
369.315	84.56
369.541	82.56
369.767	95.56
369.993	108.56
370.219	114.56
370.445	83.56
370.672	103.56
370.898	83.56
371.124	104.56
371.35	91.56
371.576	86.56
371.802	81.56
372.028	96.56
372.254	89.56
372.48	90.56
372.706	98.56
372.932	91.56
373.158	98.56
373.384	94.56
373.61	101.56
373.835	82.56
374.061	84.56
374.287	102.56
374.513	91.56
374.739	90.56
374.965	100.56
375.191	98.56
375.416	89.56
375.642	99.56
375.868	97.56
376.094	100.56
376.319	90.56
376.545	97.56
376.771	91.56
376.997	100.56
377.222	90.56
377.448	94.56
377.674	82.56
377.899	92.56
378.125	111.56
378.35	99.56
378.576	85.56
378.802	85.56
379.027	105.56
379.253	101.56
379.478	92.56
379.704	106.56
379.929	87.56
380.155	114.56
380.38	105.56
380.606	83.56
380.831	109.56
381.057	86.56
381.282	106.56
381.507	106.56
381.733	110.56
381.958	94.56
382.184	98.56
382.409	96.56
382.634	109.56
382.86	93.56
383.085	93.56
383.31	94.56
383.535	98.56
383.761	104.56
383.986	98.56
384.211	95.56
384.436	95.56
384.662	110.56
384.887	91.56
385.112	82.56
385.337	88.56
385.562	108.56
385.787	104.56
386.013	102.56
386.238	97.56
386.463	121.56
386.688	87.56
386.913	105.56
387.138	87.56
387.363	117.56
387.588	117.56
387.813	94.56
388.038	109.56
388.263	94.56
388.488	95.56
388.713	81.56
388.938	82.56
389.163	105.56
389.387	105.56
389.612	104.56
389.837	105.56
390.062	101.56
390.287	97.56
390.512	92.56
390.736	117.56
390.961	106.56
391.186	110.56
391.411	109.56
391.636	99.56
391.86	111.56
392.085	101.56
392.31	88.56
392.534	99.56
392.759	92.56
392.984	103.56
393.208	106.56
393.433	111.56
393.658	112.56
393.882	107.56
394.107	104.56
394.331	96.56
394.556	101.56
394.78	119.56
395.005	107.56
395.229	99.56
395.454	104.56
395.678	94.56
395.903	99.56
396.127	115.56
396.352	91.56
396.576	110.56
396.801	114.56
397.025	105.56
397.249	102.56
397.474	114.56
397.698	101.56
397.922	107.56
398.147	122.56
398.371	106.56
398.595	121.56
398.82	117.56
399.044	115.56
399.268	104.56
399.492	102.56
399.717	124.56
399.941	109.56
400.165	107.56
400.389	94.56
400.613	120.56
400.837	107.56
401.062	117.56
401.286	116.56
401.51	130.56
401.734	118.56
401.958	115.56
402.182	116.56
402.406	119.56
402.63	122.56
402.854	121.56
403.078	115.56
403.302	126.56
403.526	127.56
403.75	121.56
403.974	112.56
404.198	113.56
404.422	116.56
404.645	118.56
404.869	125.56
405.093	110.56
405.317	109.56
405.541	121.56
405.765	122.56
405.988	124.56
406.212	125.56
406.436	119.56
406.66	138.56
406.883	130.56
407.107	108.56
407.331	113.56
407.555	119.56
407.778	110.56
408.002	116.56
408.226	109.56
408.449	105.56
408.673	109.56
408.896	120.56
409.12	116.56
409.344	111.56
409.567	129.56
409.791	117.56
410.014	131.56
410.238	121.56
410.461	122.56
410.685	106.56
410.908	124.56
411.132	128.56
411.355	111.56
411.578	125.56
411.802	131.56
412.025	107.56
412.249	137.56
412.472	117.56
412.695	121.56
412.919	129.56
413.142	124.56
413.365	131.56
413.589	110.56
413.812	125.56
414.035	137.56
414.258	124.56
414.482	119.56
414.705	124.56
414.928	120.56
415.151	129.56
415.374	123.56
415.597	127.56
415.821	124.56
416.044	121.56
416.267	123.56
416.49	116.56
416.713	130.56
416.936	131.56
417.159	123.56
417.382	133.56
417.605	126.56
417.828	131.56
418.051	131.56
418.274	130.56
418.497	130.56
418.72	121.56
418.943	140.56
419.166	142.56
419.389	142.56
419.611	129.56
419.834	123.56
420.057	134.56
420.28	145.56
420.503	135.56
420.726	138.56
420.948	131.56
421.171	143.56
421.394	130.56
421.617	150.56
421.839	133.56
422.062	141.56
422.285	140.56
422.507	118.56
422.73	120.56
422.953	125.56
423.175	137.56
423.398	143.56
423.621	137.56
423.843	126.56
424.066	135.56
424.288	149.56
424.511	162.56
424.733	143.56
424.956	147.56
425.178	152.56
425.401	133.56
425.623	143.56
425.846	136.56
426.068	127.56
426.291	141.56
426.513	133.56
426.735	135.56
426.958	141.56
427.18	131.56
427.402	118.56
427.625	141.56
427.847	137.56
428.069	137.56
428.292	121.56
428.514	133.56
428.736	139.56
428.958	118.56
429.181	135.56
429.403	117.56
429.625	118.56
429.847	134.56
430.069	133.56
430.292	136.56
430.514	134.56
430.736	133.56
430.958	129.56
431.18	123.56
431.402	123.56
431.624	130.56
431.846	114.56
432.068	94.56
432.29	95.56
432.512	116.56
432.734	133.56
432.956	125.56
433.178	147.56
433.4	148.56
433.622	155.56
433.844	143.56
434.066	145.56
434.287	110.56
434.509	97.56
434.731	93.56
434.953	107.56
435.175	151.56
435.397	121.56
435.618	106.56
435.84	121.56
436.062	117.56
436.284	116.56
436.505	132.56
436.727	135.56
436.949	132.56
437.17	133.56
437.392	127.56
437.614	116.56
437.835	106.56
438.057	108.56
438.278	113.56
438.5	115.56
438.721	139.56
438.943	135.56
439.165	133.56
439.386	135.56
439.608	142.56
439.829	132.56
440.05	143.56
440.272	154.56
440.493	154.56
440.715	136.56
440.936	154.56
441.158	150.56
441.379	139.56
441.6	147.56
441.822	144.56
442.043	151.56
442.264	144.56
442.486	142.56
442.707	156.56
442.928	148.56
443.149	139.56
443.371	135.56
443.592	142.56
443.813	138.56
444.034	136.56
444.255	136.56
444.476	137.56
444.698	148.56
444.919	142.56
445.14	265.56
445.361	201.56
445.582	161.56
445.803	152.56
446.024	152.56
446.245	156.56
446.466	152.56
446.687	145.56
446.908	169.56
447.129	150.56
447.35	165.56
447.571	156.56
447.792	139.56
448.013	161.56
448.234	145.56
448.455	137.56
448.675	144.56
448.896	156.56
449.117	139.56
449.338	141.56
449.559	140.56
449.779	132.56
450	132.56
450.221	140.56
450.442	135.56
450.662	130.56
450.883	139.56
451.104	136.56
451.324	136.56
451.545	129.56
451.766	136.56
451.986	130.56
452.207	126.56
452.428	129.56
452.648	128.56
452.869	120.56
453.089	127.56
453.31	126.56
453.53	113.56
453.751	131.56
453.971	113.56
454.192	103.56
454.412	114.56
454.633	119.56
454.853	134.56
455.073	136.56
455.294	124.56
455.514	121.56
455.734	103.56
455.955	115.56
456.175	115.56
456.395	107.56
456.616	102.56
456.836	120.56
457.056	115.56
457.276	110.56
457.497	113.56
457.717	110.56
457.937	125.56
458.157	106.56
458.377	115.56
458.598	101.56
458.818	92.56
459.038	91.56
459.258	95.56
459.478	106.56
459.698	99.56
459.918	105.56
460.138	111.56
460.358	122.56
460.578	123.56
460.798	123.56
461.018	142.56
461.238	139.56
461.458	109.56
461.678	114.56
461.898	121.56
462.118	109.56
462.338	120.56
462.558	113.56
462.777	123.56
462.997	120.56
463.217	125.56
463.437	122.56
463.657	119.56
463.876	101.56
464.096	113.56
464.316	107.56
464.536	123.56
464.755	111.56
464.975	121.56
465.195	123.56
465.414	119.56
465.634	116.56
465.854	122.56
466.073	129.56
466.293	145.56
466.512	125.56
466.732	106.56
466.951	132.56
467.171	121.56
467.391	141.56
467.61	135.56
467.829	132.56
468.049	139.56
468.268	151.56
468.488	132.56
468.707	154.56
468.927	139.56
469.146	126.56
469.365	152.56
469.585	137.56
469.804	122.56
470.023	150.56
470.243	137.56
470.462	151.56
470.681	146.56
470.901	154.56
471.12	151.56
471.339	136.56
471.558	131.56
471.777	137.56
471.997	137.56
472.216	140.56
472.435	133.56
472.654	110.56
472.873	116.56
473.092	124.56
473.311	125.56
473.53	121.56
473.749	124.56
473.968	121.56
474.187	121.56
474.406	122.56
474.625	137.56
474.844	137.56
475.063	126.56
475.282	142.56
475.501	107.56
475.72	117.56
475.939	131.56
476.158	132.56
476.377	140.56
476.596	124.56
476.814	117.56
477.033	120.56
477.252	122.56
477.471	130.56
477.69	138.56
477.908	133.56
478.127	133.56
478.346	148.56
478.564	151.56
478.783	126.56
479.002	138.56
479.22	144.56
479.439	150.56
479.658	135.56
479.876	120.56
480.095	119.56
480.313	99.56
480.532	123.56
480.751	109.56
480.969	108.56
481.188	98.56
481.406	93.56
481.624	76.56
481.843	78.56
482.061	105.56
482.28	123.56
482.498	106.56
482.717	103.56
482.935	129.56
483.153	129.56
483.372	149.56
483.59	168.56
483.808	155.56
484.027	140.56
484.245	134.56
484.463	154.56
484.681	174.56
484.9	145.56
485.118	144.56
485.336	126.56
485.554	110.56
485.772	108.56
485.99	107.56
486.209	106.56
486.427	113.56
486.645	134.56
486.863	131.56
487.081	153.56
487.299	143.56
487.517	149.56
487.735	158.56
487.953	174.56
488.171	189.56
488.389	177.56
488.607	166.56
488.825	150.56
489.043	123.56
489.261	143.56
489.479	136.56
489.696	136.56
489.914	138.56
490.132	139.56
490.35	163.56
490.568	162.56
490.786	168.56
491.003	179.56
491.221	185.56
491.439	193.56
491.657	205.56
491.874	207.56
492.092	224.56
492.31	237.56
492.527	226.56
492.745	207.56
492.963	195.56
493.18	188.56
493.398	203.56
493.615	198.56
493.833	190.56
494.05	179.56
494.268	173.56
494.485	184.56
494.703	192.56
494.92	192.56
495.138	180.56
495.355	171.56
495.573	167.56
495.79	166.56
496.008	165.56
496.225	180.56
496.442	175.56
496.66	185.56
496.877	161.56
497.094	177.56
497.312	167.56
497.529	166.56
497.746	151.56
497.963	134.56
498.181	127.56
498.398	136.56
498.615	134.56
498.832	119.56
499.049	117.56
499.267	132.56
499.484	141.56
499.701	153.56
499.918	136.56
500.135	142.56
500.352	148.56
500.569	133.56
500.786	158.56
501.003	155.56
501.22	159.56
501.437	150.56
501.654	138.56
501.871	136.56
502.088	133.56
502.305	133.56
502.522	130.56
502.739	134.56
502.956	126.56
503.172	120.56
503.389	143.56
503.606	135.56
503.823	122.56
504.04	109.56
504.256	105.56
504.473	116.56
504.69	119.56
504.907	124.56
505.123	130.56
505.34	121.56
505.557	125.56
505.773	134.56
505.99	113.56
506.207	122.56
506.423	118.56
506.64	117.56
506.856	117.56
507.073	128.56
507.289	122.56
507.506	121.56
507.722	119.56
507.939	118.56
508.155	115.56
508.372	110.56
508.588	121.56
508.805	121.56
509.021	107.56
509.238	116.56
509.454	113.56
509.67	102.56
509.887	103.56
510.103	110.56
510.319	93.56
510.536	87.56
510.752	106.56
510.968	98.56
