Data from Location2.07152019.Energy5.Lamp.07192019.3%Agarose_HRD10591_14-56-41-359.txt Node
Date: Fri Jul 19 14:56:41 EDT 2019
User: cochatt
Spectrometer: HR+D1059
Trigger mode: 1
Integration Time (sec): 1.000000E-1
Scans to average: 1
Electric dark correction enabled: true
Nonlinearity correction enabled: false
Boxcar width: 0
XAxis mode: Wavelengths
Number of Pixels in Spectrum: 2048
>>>>>Begin Spectral Data<<<<<
223.165	-18.44
223.4	-18.44
223.635	-18.44
223.869	-9.44
224.104	-21.44
224.338	-15.44
224.573	-6.44
224.808	-5.44
225.042	-16.44
225.277	-2.44
225.511	-1.44
225.746	-5.44
225.98	7.56
226.215	-4.44
226.449	12.56
226.683	17.56
226.918	28.56
227.152	40.56
227.387	37.56
227.621	23.56
227.856	45.56
228.09	52.56
228.324	48.56
228.559	44.56
228.793	57.56
229.027	60.56
229.262	58.56
229.496	58.56
229.73	77.56
229.964	72.56
230.199	72.56
230.433	74.56
230.667	85.56
230.901	61.56
231.136	80.56
231.37	82.56
231.604	86.56
231.838	84.56
232.072	81.56
232.306	82.56
232.541	85.56
232.775	87.56
233.009	80.56
233.243	82.56
233.477	75.56
233.711	74.56
233.945	80.56
234.179	73.56
234.413	82.56
234.647	75.56
234.881	74.56
235.115	82.56
235.349	74.56
235.583	67.56
235.817	78.56
236.051	67.56
236.285	68.56
236.519	77.56
236.753	77.56
236.987	65.56
237.221	62.56
237.455	85.56
237.689	76.56
237.922	63.56
238.156	60.56
238.39	77.56
238.624	76.56
238.858	67.56
239.091	84.56
239.325	68.56
239.559	80.56
239.793	71.56
240.027	81.56
240.26	69.56
240.494	69.56
240.728	66.56
240.961	61.56
241.195	68.56
241.429	64.56
241.662	66.56
241.896	65.56
242.13	72.56
242.363	66.56
242.597	80.56
242.83	78.56
243.064	73.56
243.298	82.56
243.531	86.56
243.765	81.56
243.998	67.56
244.232	78.56
244.465	72.56
244.699	79.56
244.932	69.56
245.166	86.56
245.399	72.56
245.633	77.56
245.866	82.56
246.099	69.56
246.333	66.56
246.566	61.56
246.8	78.56
247.033	77.56
247.266	66.56
247.5	68.56
247.733	53.56
247.966	79.56
248.2	77.56
248.433	81.56
248.666	85.56
248.899	92.56
249.133	79.56
249.366	81.56
249.599	77.56
249.832	74.56
250.066	80.56
250.299	86.56
250.532	70.56
250.765	81.56
250.998	66.56
251.231	65.56
251.465	68.56
251.698	72.56
251.931	76.56
252.164	88.56
252.397	78.56
252.63	90.56
252.863	81.56
253.096	72.56
253.329	85.56
253.562	72.56
253.795	79.56
254.028	73.56
254.261	77.56
254.494	66.56
254.727	75.56
254.96	78.56
255.193	66.56
255.426	82.56
255.659	79.56
255.892	97.56
256.124	65.56
256.357	74.56
256.59	87.56
256.823	72.56
257.056	68.56
257.289	61.56
257.521	61.56
257.754	78.56
257.987	67.56
258.22	80.56
258.452	72.56
258.685	71.56
258.918	77.56
259.151	85.56
259.383	92.56
259.616	72.56
259.849	83.56
260.081	82.56
260.314	94.56
260.547	81.56
260.779	80.56
261.012	69.56
261.244	82.56
261.477	97.56
261.71	74.56
261.942	84.56
262.175	66.56
262.407	70.56
262.64	79.56
262.872	74.56
263.105	74.56
263.337	78.56
263.57	77.56
263.802	92.56
264.035	98.56
264.267	83.56
264.499	86.56
264.732	89.56
264.964	82.56
265.197	89.56
265.429	77.56
265.661	70.56
265.894	74.56
266.126	75.56
266.358	79.56
266.591	81.56
266.823	96.56
267.055	78.56
267.287	68.56
267.52	81.56
267.752	84.56
267.984	85.56
268.216	85.56
268.448	88.56
268.681	95.56
268.913	74.56
269.145	83.56
269.377	76.56
269.609	82.56
269.841	81.56
270.073	77.56
270.306	79.56
270.538	89.56
270.77	89.56
271.002	83.56
271.234	87.56
271.466	74.56
271.698	80.56
271.93	80.56
272.162	86.56
272.394	86.56
272.626	90.56
272.858	83.56
273.09	93.56
273.322	82.56
273.553	69.56
273.785	73.56
274.017	81.56
274.249	81.56
274.481	79.56
274.713	71.56
274.945	74.56
275.176	70.56
275.408	85.56
275.64	90.56
275.872	86.56
276.104	85.56
276.335	83.56
276.567	86.56
276.799	68.56
277.031	90.56
277.262	82.56
277.494	67.56
277.726	83.56
277.957	100.56
278.189	88.56
278.421	76.56
278.652	85.56
278.884	83.56
279.115	80.56
279.347	71.56
279.579	77.56
279.81	71.56
280.042	87.56
280.273	72.56
280.505	73.56
280.736	81.56
280.968	77.56
281.199	77.56
281.431	74.56
281.662	85.56
281.894	77.56
282.125	95.56
282.356	85.56
282.588	80.56
282.819	83.56
283.051	82.56
283.282	83.56
283.513	88.56
283.745	88.56
283.976	77.56
284.207	78.56
284.439	79.56
284.67	81.56
284.901	75.56
285.132	78.56
285.364	74.56
285.595	72.56
285.826	82.56
286.057	79.56
286.288	86.56
286.52	87.56
286.751	77.56
286.982	66.56
287.213	84.56
287.444	90.56
287.675	89.56
287.906	81.56
288.138	68.56
288.369	73.56
288.6	79.56
288.831	64.56
289.062	80.56
289.293	84.56
289.524	71.56
289.755	92.56
289.986	80.56
290.217	89.56
290.448	80.56
290.679	74.56
290.91	82.56
291.141	63.56
291.371	82.56
291.602	89.56
291.833	78.56
292.064	80.56
292.295	86.56
292.526	88.56
292.757	88.56
292.987	78.56
293.218	83.56
293.449	83.56
293.68	88.56
293.91	84.56
294.141	62.56
294.372	86.56
294.603	78.56
294.833	73.56
295.064	87.56
295.295	85.56
295.525	74.56
295.756	88.56
295.987	84.56
296.217	90.56
296.448	87.56
296.679	87.56
296.909	79.56
297.14	86.56
297.37	82.56
297.601	83.56
297.831	89.56
298.062	80.56
298.292	70.56
298.523	85.56
298.753	65.56
298.984	95.56
299.214	87.56
299.445	82.56
299.675	67.56
299.905	73.56
300.136	97.56
300.366	84.56
300.597	73.56
300.827	80.56
301.057	77.56
301.288	84.56
301.518	67.56
301.748	81.56
301.979	79.56
302.209	72.56
302.439	93.56
302.669	87.56
302.9	66.56
303.13	74.56
303.36	69.56
303.59	72.56
303.82	90.56
304.051	85.56
304.281	71.56
304.511	88.56
304.741	82.56
304.971	81.56
305.201	81.56
305.431	71.56
305.661	94.56
305.891	86.56
306.121	83.56
306.352	63.56
306.582	96.56
306.812	82.56
307.042	91.56
307.272	87.56
307.502	81.56
307.731	73.56
307.961	78.56
308.191	85.56
308.421	82.56
308.651	82.56
308.881	79.56
309.111	89.56
309.341	73.56
309.571	87.56
309.8	90.56
310.03	86.56
310.26	88.56
310.49	77.56
310.72	68.56
310.949	72.56
311.179	63.56
311.409	79.56
311.639	84.56
311.868	90.56
312.098	85.56
312.328	92.56
312.557	85.56
312.787	89.56
313.017	91.56
313.246	83.56
313.476	87.56
313.706	90.56
313.935	89.56
314.165	87.56
314.394	70.56
314.624	81.56
314.853	98.56
315.083	80.56
315.312	72.56
315.542	68.56
315.771	73.56
316.001	73.56
316.23	91.56
316.46	84.56
316.689	90.56
316.919	94.56
317.148	82.56
317.377	72.56
317.607	91.56
317.836	87.56
318.065	88.56
318.295	83.56
318.524	75.56
318.753	72.56
318.983	88.56
319.212	95.56
319.441	79.56
319.67	85.56
319.9	85.56
320.129	70.56
320.358	80.56
320.587	80.56
320.816	89.56
321.046	93.56
321.275	80.56
321.504	80.56
321.733	89.56
321.962	76.56
322.191	77.56
322.42	79.56
322.649	88.56
322.878	77.56
323.108	89.56
323.337	86.56
323.566	87.56
323.795	73.56
324.024	79.56
324.253	81.56
324.482	83.56
324.71	80.56
324.939	88.56
325.168	73.56
325.397	80.56
325.626	80.56
325.855	83.56
326.084	90.56
326.313	77.56
326.542	75.56
326.77	86.56
326.999	90.56
327.228	84.56
327.457	84.56
327.686	89.56
327.914	73.56
328.143	75.56
328.372	86.56
328.6	72.56
328.829	78.56
329.058	85.56
329.287	76.56
329.515	70.56
329.744	91.56
329.972	80.56
330.201	88.56
330.43	90.56
330.658	76.56
330.887	71.56
331.115	73.56
331.344	80.56
331.572	97.56
331.801	74.56
332.03	77.56
332.258	82.56
332.486	90.56
332.715	71.56
332.943	74.56
333.172	72.56
333.4	79.56
333.629	88.56
333.857	69.56
334.085	80.56
334.314	85.56
334.542	74.56
334.771	76.56
334.999	81.56
335.227	80.56
335.455	84.56
335.684	82.56
335.912	88.56
336.14	79.56
336.369	86.56
336.597	83.56
336.825	92.56
337.053	86.56
337.281	88.56
337.51	82.56
337.738	96.56
337.966	89.56
338.194	86.56
338.422	96.56
338.65	88.56
338.878	82.56
339.106	84.56
339.334	84.56
339.562	76.56
339.79	81.56
340.018	83.56
340.246	82.56
340.474	78.56
340.702	74.56
340.93	73.56
341.158	86.56
341.386	72.56
341.614	80.56
341.842	70.56
342.07	70.56
342.298	84.56
342.526	81.56
342.754	90.56
342.981	88.56
343.209	78.56
343.437	95.56
343.665	83.56
343.893	90.56
344.12	80.56
344.348	91.56
344.576	94.56
344.804	76.56
345.031	83.56
345.259	93.56
345.487	87.56
345.714	82.56
345.942	87.56
346.17	84.56
346.397	78.56
346.625	89.56
346.853	79.56
347.08	70.56
347.308	89.56
347.535	87.56
347.763	77.56
347.99	89.56
348.218	74.56
348.445	82.56
348.673	71.56
348.9	88.56
349.128	95.56
349.355	84.56
349.583	81.56
349.81	72.56
350.037	79.56
350.265	82.56
350.492	76.56
350.72	80.56
350.947	96.56
351.174	87.56
351.402	81.56
351.629	82.56
351.856	76.56
352.083	78.56
352.311	93.56
352.538	84.56
352.765	83.56
352.992	81.56
353.22	86.56
353.447	83.56
353.674	81.56
353.901	79.56
354.128	71.56
354.355	78.56
354.583	67.56
354.81	75.56
355.037	85.56
355.264	95.56
355.491	74.56
355.718	73.56
355.945	67.56
356.172	74.56
356.399	95.56
356.626	72.56
356.853	82.56
357.08	78.56
357.307	67.56
357.534	69.56
357.761	78.56
357.988	79.56
358.215	84.56
358.441	86.56
358.668	80.56
358.895	67.56
359.122	84.56
359.349	82.56
359.576	85.56
359.802	69.56
360.029	92.56
360.256	75.56
360.483	85.56
360.709	73.56
360.936	70.56
361.163	73.56
361.39	68.56
361.616	80.56
361.843	81.56
362.07	72.56
362.296	82.56
362.523	84.56
362.749	67.56
362.976	81.56
363.203	90.56
363.429	80.56
363.656	77.56
363.882	75.56
364.109	83.56
364.335	76.56
364.562	74.56
364.788	77.56
365.015	90.56
365.241	90.56
365.468	79.56
365.694	87.56
365.92	81.56
366.147	81.56
366.373	92.56
366.599	73.56
366.826	84.56
367.052	94.56
367.278	73.56
367.505	95.56
367.731	82.56
367.957	73.56
368.184	70.56
368.41	94.56
368.636	96.56
368.862	101.56
369.089	84.56
369.315	80.56
369.541	92.56
369.767	88.56
369.993	78.56
370.219	97.56
370.445	95.56
370.672	94.56
370.898	99.56
371.124	79.56
371.35	102.56
371.576	88.56
371.802	84.56
372.028	93.56
372.254	84.56
372.48	81.56
372.706	104.56
372.932	98.56
373.158	92.56
373.384	100.56
373.61	84.56
373.835	80.56
374.061	98.56
374.287	86.56
374.513	77.56
374.739	82.56
374.965	88.56
375.191	88.56
375.416	96.56
375.642	74.56
375.868	77.56
376.094	97.56
376.319	99.56
376.545	90.56
376.771	83.56
376.997	109.56
377.222	92.56
377.448	85.56
377.674	88.56
377.899	88.56
378.125	93.56
378.35	84.56
378.576	85.56
378.802	82.56
379.027	92.56
379.253	93.56
379.478	96.56
379.704	84.56
379.929	75.56
380.155	84.56
380.38	92.56
380.606	100.56
380.831	94.56
381.057	105.56
381.282	90.56
381.507	93.56
381.733	104.56
381.958	81.56
382.184	92.56
382.409	89.56
382.634	91.56
382.86	90.56
383.085	83.56
383.31	94.56
383.535	89.56
383.761	88.56
383.986	103.56
384.211	85.56
384.436	99.56
384.662	100.56
384.887	95.56
385.112	97.56
385.337	89.56
385.562	102.56
385.787	102.56
386.013	82.56
386.238	99.56
386.463	90.56
386.688	93.56
386.913	97.56
387.138	105.56
387.363	92.56
387.588	85.56
387.813	90.56
388.038	95.56
388.263	95.56
388.488	94.56
388.713	82.56
388.938	94.56
389.163	95.56
389.387	97.56
389.612	99.56
389.837	103.56
390.062	103.56
390.287	108.56
390.512	94.56
390.736	93.56
390.961	95.56
391.186	103.56
391.411	93.56
391.636	100.56
391.86	96.56
392.085	104.56
392.31	90.56
392.534	91.56
392.759	105.56
392.984	110.56
393.208	99.56
393.433	124.56
393.658	110.56
393.882	79.56
394.107	104.56
394.331	95.56
394.556	103.56
394.78	103.56
395.005	107.56
395.229	90.56
395.454	98.56
395.678	89.56
395.903	102.56
396.127	91.56
396.352	106.56
396.576	112.56
396.801	102.56
397.025	96.56
397.249	106.56
397.474	112.56
397.698	98.56
397.922	106.56
398.147	106.56
398.371	109.56
398.595	95.56
398.82	111.56
399.044	99.56
399.268	112.56
399.492	117.56
399.717	94.56
399.941	119.56
400.165	118.56
400.389	113.56
400.613	112.56
400.837	101.56
401.062	108.56
401.286	116.56
401.51	115.56
401.734	107.56
401.958	106.56
402.182	108.56
402.406	105.56
402.63	98.56
402.854	100.56
403.078	111.56
403.302	112.56
403.526	118.56
403.75	109.56
403.974	123.56
404.198	93.56
404.422	113.56
404.645	104.56
404.869	91.56
405.093	104.56
405.317	96.56
405.541	114.56
405.765	116.56
405.988	103.56
406.212	120.56
406.436	110.56
406.66	115.56
406.883	108.56
407.107	113.56
407.331	112.56
407.555	120.56
407.778	109.56
408.002	119.56
408.226	124.56
408.449	100.56
408.673	103.56
408.896	113.56
409.12	108.56
409.344	102.56
409.567	116.56
409.791	116.56
410.014	115.56
410.238	121.56
410.461	112.56
410.685	98.56
410.908	113.56
411.132	116.56
411.355	99.56
411.578	125.56
411.802	125.56
412.025	115.56
412.249	106.56
412.472	117.56
412.695	119.56
412.919	112.56
413.142	104.56
413.365	118.56
413.589	129.56
413.812	117.56
414.035	116.56
414.258	115.56
414.482	120.56
414.705	117.56
414.928	124.56
415.151	125.56
415.374	125.56
415.597	116.56
415.821	132.56
416.044	120.56
416.267	130.56
416.49	121.56
416.713	116.56
416.936	129.56
417.159	116.56
417.382	120.56
417.605	118.56
417.828	132.56
418.051	118.56
418.274	118.56
418.497	120.56
418.72	124.56
418.943	120.56
419.166	111.56
419.389	125.56
419.611	112.56
419.834	129.56
420.057	131.56
420.28	126.56
420.503	126.56
420.726	120.56
420.948	128.56
421.171	133.56
421.394	122.56
421.617	141.56
421.839	140.56
422.062	136.56
422.285	118.56
422.507	135.56
422.73	114.56
422.953	123.56
423.175	126.56
423.398	120.56
423.621	136.56
423.843	127.56
424.066	143.56
424.288	138.56
424.511	144.56
424.733	131.56
424.956	142.56
425.178	137.56
425.401	139.56
425.623	126.56
425.846	121.56
426.068	125.56
426.291	126.56
426.513	121.56
426.735	123.56
426.958	120.56
427.18	128.56
427.402	126.56
427.625	133.56
427.847	120.56
428.069	130.56
428.292	124.56
428.514	106.56
428.736	124.56
428.958	130.56
429.181	116.56
429.403	122.56
429.625	118.56
429.847	137.56
430.069	126.56
430.292	128.56
430.514	112.56
430.736	141.56
430.958	119.56
431.18	128.56
431.402	127.56
431.624	110.56
431.846	113.56
432.068	99.56
432.29	93.56
432.512	106.56
432.734	124.56
432.956	128.56
433.178	133.56
433.4	138.56
433.622	117.56
433.844	129.56
434.066	121.56
434.287	109.56
434.509	96.56
434.731	89.56
434.953	103.56
435.175	127.56
435.397	123.56
435.618	122.56
435.84	115.56
436.062	106.56
436.284	119.56
436.505	128.56
436.727	142.56
436.949	131.56
437.17	130.56
437.392	121.56
437.614	118.56
437.835	119.56
438.057	112.56
438.278	113.56
438.5	120.56
438.721	130.56
438.943	139.56
439.165	130.56
439.386	130.56
439.608	131.56
439.829	141.56
440.05	152.56
440.272	132.56
440.493	130.56
440.715	133.56
440.936	137.56
441.158	148.56
441.379	149.56
441.6	137.56
441.822	162.56
442.043	127.56
442.264	133.56
442.486	134.56
442.707	133.56
442.928	124.56
443.149	144.56
443.371	145.56
443.592	133.56
443.813	125.56
444.034	141.56
444.255	122.56
444.476	138.56
444.698	138.56
444.919	142.56
445.14	264.56
445.361	200.56
445.582	150.56
445.803	150.56
446.024	144.56
446.245	158.56
446.466	130.56
446.687	153.56
446.908	155.56
447.129	146.56
447.35	161.56
447.571	151.56
447.792	153.56
448.013	137.56
448.234	144.56
448.455	132.56
448.675	152.56
448.896	121.56
449.117	131.56
449.338	132.56
449.559	147.56
449.779	148.56
450	140.56
450.221	125.56
450.442	120.56
450.662	128.56
450.883	141.56
451.104	144.56
451.324	123.56
451.545	121.56
451.766	135.56
451.986	122.56
452.207	123.56
452.428	125.56
452.648	116.56
452.869	126.56
453.089	91.56
453.31	97.56
453.53	96.56
453.751	97.56
453.971	104.56
454.192	88.56
454.412	112.56
454.633	121.56
454.853	114.56
455.073	120.56
455.294	104.56
455.514	113.56
455.734	115.56
455.955	120.56
456.175	111.56
456.395	104.56
456.616	111.56
456.836	117.56
457.056	92.56
457.276	98.56
457.497	102.56
457.717	108.56
457.937	103.56
458.157	99.56
458.377	109.56
458.598	94.56
458.818	95.56
459.038	79.56
459.258	90.56
459.478	73.56
459.698	88.56
459.918	83.56
460.138	102.56
460.358	102.56
460.578	114.56
460.798	112.56
461.018	112.56
461.238	111.56
461.458	110.56
461.678	108.56
461.898	104.56
462.118	97.56
462.338	101.56
462.558	113.56
462.777	114.56
462.997	100.56
463.217	104.56
463.437	108.56
463.657	106.56
463.876	106.56
464.096	88.56
464.316	112.56
464.536	109.56
464.755	104.56
464.975	119.56
465.195	116.56
465.414	117.56
465.634	109.56
465.854	126.56
466.073	117.56
466.293	128.56
466.512	132.56
466.732	135.56
466.951	132.56
467.171	132.56
467.391	122.56
467.61	124.56
467.829	118.56
468.049	133.56
468.268	121.56
468.488	129.56
468.707	137.56
468.927	136.56
469.146	137.56
469.365	128.56
469.585	145.56
469.804	144.56
470.023	133.56
470.243	133.56
470.462	143.56
470.681	148.56
470.901	131.56
471.12	124.56
471.339	134.56
471.558	125.56
471.777	143.56
471.997	122.56
472.216	137.56
472.435	109.56
472.654	121.56
472.873	106.56
473.092	104.56
473.311	106.56
473.53	124.56
473.749	122.56
473.968	128.56
474.187	102.56
474.406	120.56
474.625	126.56
474.844	125.56
475.063	123.56
475.282	132.56
475.501	119.56
475.72	124.56
475.939	124.56
476.158	140.56
476.377	133.56
476.596	113.56
476.814	126.56
477.033	109.56
477.252	115.56
477.471	113.56
477.69	128.56
477.908	129.56
478.127	134.56
478.346	153.56
478.564	126.56
478.783	129.56
479.002	121.56
479.22	111.56
479.439	132.56
479.658	120.56
479.876	113.56
480.095	103.56
480.313	115.56
480.532	110.56
480.751	117.56
480.969	93.56
481.188	94.56
481.406	95.56
481.624	87.56
481.843	85.56
482.061	94.56
482.28	113.56
482.498	110.56
482.717	102.56
482.935	110.56
483.153	125.56
483.372	135.56
483.59	142.56
483.808	126.56
484.027	131.56
484.245	135.56
484.463	143.56
484.681	152.56
484.9	156.56
485.118	164.56
485.336	126.56
485.554	108.56
485.772	107.56
485.99	106.56
486.209	111.56
486.427	124.56
486.645	115.56
486.863	130.56
487.081	138.56
487.299	131.56
487.517	125.56
487.735	150.56
487.953	174.56
488.171	173.56
488.389	157.56
488.607	180.56
488.825	148.56
489.043	132.56
489.261	120.56
489.479	133.56
489.696	145.56
489.914	153.56
490.132	147.56
490.35	146.56
490.568	160.56
490.786	159.56
491.003	160.56
491.221	173.56
491.439	163.56
491.657	208.56
491.874	188.56
492.092	215.56
492.31	227.56
492.527	220.56
492.745	205.56
492.963	186.56
493.18	157.56
493.398	192.56
493.615	166.56
493.833	180.56
494.05	174.56
494.268	166.56
494.485	166.56
494.703	180.56
494.92	165.56
495.138	157.56
495.355	161.56
495.573	163.56
495.79	167.56
496.008	190.56
496.225	169.56
496.442	178.56
496.66	169.56
496.877	152.56
497.094	149.56
497.312	147.56
497.529	150.56
497.746	145.56
497.963	128.56
498.181	132.56
498.398	123.56
498.615	127.56
498.832	99.56
499.049	129.56
499.267	120.56
499.484	121.56
499.701	121.56
499.918	137.56
500.135	145.56
500.352	122.56
500.569	131.56
500.786	130.56
501.003	136.56
501.22	129.56
501.437	138.56
501.654	145.56
501.871	132.56
502.088	130.56
502.305	142.56
502.522	119.56
502.739	125.56
502.956	119.56
503.172	120.56
503.389	134.56
503.606	141.56
503.823	122.56
504.04	119.56
504.256	120.56
504.473	120.56
504.69	109.56
504.907	139.56
505.123	124.56
505.34	121.56
505.557	122.56
505.773	139.56
505.99	123.56
506.207	129.56
506.423	117.56
506.64	117.56
506.856	112.56
507.073	118.56
507.289	122.56
507.506	133.56
507.722	106.56
507.939	118.56
508.155	113.56
508.372	108.56
508.588	120.56
508.805	121.56
509.021	104.56
509.238	83.56
509.454	105.56
509.67	81.56
509.887	92.56
510.103	88.56
510.319	88.56
510.536	82.56
510.752	84.56
510.968	93.56
511.184	85.56
511.401	83.56
511.617	82.56
511.833	80.56
512.049	96.56
512.265	103.56
