Data from Location2.07152019.Energy5.Lamp.07192019.3%Agarose_HRD10591_14-57-46-358.txt Node
Date: Fri Jul 19 14:57:46 EDT 2019
User: cochatt
Spectrometer: HR+D1059
Trigger mode: 1
Integration Time (sec): 1.000000E-1
Scans to average: 1
Electric dark correction enabled: true
Nonlinearity correction enabled: false
Boxcar width: 0
XAxis mode: Wavelengths
Number of Pixels in Spectrum: 2048
>>>>>Begin Spectral Data<<<<<
223.165	-18.69
223.4	-18.69
223.635	-18.69
223.869	-21.69
224.104	-12.69
224.338	-14.69
224.573	-4.69
224.808	-8.69
225.042	-4.69
225.277	-11.69
225.511	-6.69
225.746	-1.69
225.98	8.31
226.215	13.31
226.449	17.31
226.683	14.31
226.918	27.31
227.152	25.31
227.387	53.31
227.621	39.31
227.856	44.31
228.09	47.31
228.324	59.31
228.559	56.31
228.793	49.31
229.027	52.31
229.262	67.31
229.496	69.31
229.73	63.31
229.964	67.31
230.199	67.31
230.433	72.31
230.667	80.31
230.901	80.31
231.136	75.31
231.37	76.31
231.604	75.31
231.838	78.31
232.072	77.31
232.306	86.31
232.541	87.31
232.775	81.31
233.009	88.31
233.243	87.31
233.477	74.31
233.711	83.31
233.945	91.31
234.179	83.31
234.413	76.31
234.647	93.31
234.881	78.31
235.115	93.31
235.349	83.31
235.583	87.31
235.817	72.31
236.051	83.31
236.285	89.31
236.519	81.31
236.753	71.31
236.987	95.31
237.221	81.31
237.455	86.31
237.689	79.31
237.922	78.31
238.156	83.31
238.39	72.31
238.624	71.31
238.858	60.31
239.091	79.31
239.325	82.31
239.559	85.31
239.793	86.31
240.027	77.31
240.26	76.31
240.494	77.31
240.728	79.31
240.961	77.31
241.195	89.31
241.429	67.31
241.662	84.31
241.896	85.31
242.13	65.31
242.363	86.31
242.597	81.31
242.83	71.31
243.064	75.31
243.298	65.31
243.531	76.31
243.765	79.31
243.998	84.31
244.232	73.31
244.465	77.31
244.699	88.31
244.932	76.31
245.166	82.31
245.399	72.31
245.633	69.31
245.866	84.31
246.099	69.31
246.333	83.31
246.566	88.31
246.8	74.31
247.033	63.31
247.266	72.31
247.5	94.31
247.733	86.31
247.966	84.31
248.2	77.31
248.433	64.31
248.666	68.31
248.899	70.31
249.133	85.31
249.366	79.31
249.599	69.31
249.832	84.31
250.066	71.31
250.299	77.31
250.532	81.31
250.765	76.31
250.998	98.31
251.231	83.31
251.465	75.31
251.698	83.31
251.931	81.31
252.164	84.31
252.397	88.31
252.63	80.31
252.863	75.31
253.096	87.31
253.329	62.31
253.562	98.31
253.795	86.31
254.028	78.31
254.261	71.31
254.494	89.31
254.727	76.31
254.96	83.31
255.193	83.31
255.426	75.31
255.659	85.31
255.892	85.31
256.124	76.31
256.357	90.31
256.59	85.31
256.823	82.31
257.056	83.31
257.289	79.31
257.521	87.31
257.754	76.31
257.987	79.31
258.22	91.31
258.452	78.31
258.685	82.31
258.918	79.31
259.151	84.31
259.383	65.31
259.616	73.31
259.849	81.31
260.081	88.31
260.314	90.31
260.547	87.31
260.779	89.31
261.012	90.31
261.244	91.31
261.477	82.31
261.71	74.31
261.942	87.31
262.175	85.31
262.407	78.31
262.64	81.31
262.872	68.31
263.105	101.31
263.337	90.31
263.57	88.31
263.802	73.31
264.035	71.31
264.267	93.31
264.499	77.31
264.732	76.31
264.964	76.31
265.197	83.31
265.429	90.31
265.661	80.31
265.894	80.31
266.126	83.31
266.358	76.31
266.591	83.31
266.823	89.31
267.055	92.31
267.287	92.31
267.52	93.31
267.752	91.31
267.984	71.31
268.216	92.31
268.448	92.31
268.681	69.31
268.913	84.31
269.145	87.31
269.377	74.31
269.609	80.31
269.841	98.31
270.073	75.31
270.306	88.31
270.538	90.31
270.77	70.31
271.002	77.31
271.234	83.31
271.466	77.31
271.698	81.31
271.93	82.31
272.162	72.31
272.394	73.31
272.626	77.31
272.858	80.31
273.09	74.31
273.322	81.31
273.553	65.31
273.785	81.31
274.017	95.31
274.249	79.31
274.481	89.31
274.713	78.31
274.945	84.31
275.176	76.31
275.408	89.31
275.64	72.31
275.872	96.31
276.104	75.31
276.335	82.31
276.567	88.31
276.799	80.31
277.031	83.31
277.262	86.31
277.494	83.31
277.726	81.31
277.957	97.31
278.189	71.31
278.421	91.31
278.652	72.31
278.884	74.31
279.115	88.31
279.347	80.31
279.579	103.31
279.81	86.31
280.042	79.31
280.273	88.31
280.505	74.31
280.736	89.31
280.968	84.31
281.199	82.31
281.431	86.31
281.662	87.31
281.894	93.31
282.125	82.31
282.356	77.31
282.588	91.31
282.819	78.31
283.051	96.31
283.282	89.31
283.513	68.31
283.745	81.31
283.976	87.31
284.207	79.31
284.439	71.31
284.67	101.31
284.901	84.31
285.132	90.31
285.364	67.31
285.595	81.31
285.826	81.31
286.057	83.31
286.288	87.31
286.52	76.31
286.751	79.31
286.982	92.31
287.213	81.31
287.444	83.31
287.675	92.31
287.906	93.31
288.138	77.31
288.369	88.31
288.6	86.31
288.831	82.31
289.062	88.31
289.293	78.31
289.524	88.31
289.755	100.31
289.986	84.31
290.217	82.31
290.448	80.31
290.679	82.31
290.91	88.31
291.141	92.31
291.371	83.31
291.602	77.31
291.833	86.31
292.064	84.31
292.295	85.31
292.526	76.31
292.757	92.31
292.987	82.31
293.218	70.31
293.449	75.31
293.68	92.31
293.91	72.31
294.141	82.31
294.372	82.31
294.603	86.31
294.833	92.31
295.064	78.31
295.295	90.31
295.525	88.31
295.756	92.31
295.987	84.31
296.217	92.31
296.448	80.31
296.679	83.31
296.909	73.31
297.14	65.31
297.37	89.31
297.601	71.31
297.831	77.31
298.062	102.31
298.292	94.31
298.523	84.31
298.753	82.31
298.984	81.31
299.214	93.31
299.445	85.31
299.675	77.31
299.905	92.31
300.136	74.31
300.366	84.31
300.597	95.31
300.827	84.31
301.057	80.31
301.288	80.31
301.518	66.31
301.748	81.31
301.979	78.31
302.209	74.31
302.439	85.31
302.669	66.31
302.9	77.31
303.13	93.31
303.36	82.31
303.59	78.31
303.82	82.31
304.051	80.31
304.281	75.31
304.511	91.31
304.741	81.31
304.971	89.31
305.201	80.31
305.431	77.31
305.661	88.31
305.891	90.31
306.121	96.31
306.352	89.31
306.582	95.31
306.812	99.31
307.042	77.31
307.272	75.31
307.502	91.31
307.731	85.31
307.961	86.31
308.191	85.31
308.421	82.31
308.651	91.31
308.881	85.31
309.111	97.31
309.341	82.31
309.571	78.31
309.8	98.31
310.03	85.31
310.26	87.31
310.49	88.31
310.72	95.31
310.949	102.31
311.179	82.31
311.409	97.31
311.639	77.31
311.868	76.31
312.098	79.31
312.328	70.31
312.557	93.31
312.787	81.31
313.017	84.31
313.246	72.31
313.476	75.31
313.706	87.31
313.935	80.31
314.165	75.31
314.394	81.31
314.624	70.31
314.853	96.31
315.083	84.31
315.312	80.31
315.542	89.31
315.771	87.31
316.001	106.31
316.23	87.31
316.46	76.31
316.689	85.31
316.919	71.31
317.148	74.31
317.377	66.31
317.607	73.31
317.836	68.31
318.065	88.31
318.295	100.31
318.524	76.31
318.753	93.31
318.983	81.31
319.212	90.31
319.441	84.31
319.67	81.31
319.9	85.31
320.129	79.31
320.358	86.31
320.587	68.31
320.816	92.31
321.046	89.31
321.275	99.31
321.504	92.31
321.733	73.31
321.962	95.31
322.191	95.31
322.42	81.31
322.649	80.31
322.878	80.31
323.108	88.31
323.337	99.31
323.566	87.31
323.795	99.31
324.024	81.31
324.253	87.31
324.482	95.31
324.71	81.31
324.939	79.31
325.168	91.31
325.397	91.31
325.626	82.31
325.855	83.31
326.084	91.31
326.313	77.31
326.542	74.31
326.77	96.31
326.999	87.31
327.228	76.31
327.457	88.31
327.686	84.31
327.914	91.31
328.143	77.31
328.372	86.31
328.6	84.31
328.829	72.31
329.058	87.31
329.287	87.31
329.515	88.31
329.744	95.31
329.972	87.31
330.201	93.31
330.43	89.31
330.658	84.31
330.887	92.31
331.115	78.31
331.344	82.31
331.572	83.31
331.801	84.31
332.03	73.31
332.258	83.31
332.486	89.31
332.715	90.31
332.943	83.31
333.172	90.31
333.4	84.31
333.629	92.31
333.857	80.31
334.085	83.31
334.314	88.31
334.542	80.31
334.771	79.31
334.999	91.31
335.227	93.31
335.455	94.31
335.684	93.31
335.912	87.31
336.14	84.31
336.369	81.31
336.597	88.31
336.825	80.31
337.053	95.31
337.281	77.31
337.51	94.31
337.738	93.31
337.966	89.31
338.194	79.31
338.422	85.31
338.65	84.31
338.878	81.31
339.106	76.31
339.334	91.31
339.562	95.31
339.79	92.31
340.018	81.31
340.246	76.31
340.474	86.31
340.702	82.31
340.93	71.31
341.158	95.31
341.386	77.31
341.614	75.31
341.842	88.31
342.07	84.31
342.298	87.31
342.526	84.31
342.754	83.31
342.981	72.31
343.209	82.31
343.437	83.31
343.665	93.31
343.893	92.31
344.12	88.31
344.348	87.31
344.576	102.31
344.804	90.31
345.031	81.31
345.259	91.31
345.487	72.31
345.714	91.31
345.942	104.31
346.17	78.31
346.397	103.31
346.625	88.31
346.853	85.31
347.08	79.31
347.308	84.31
347.535	83.31
347.763	81.31
347.99	80.31
348.218	92.31
348.445	91.31
348.673	88.31
348.9	85.31
349.128	87.31
349.355	84.31
349.583	88.31
349.81	87.31
350.037	68.31
350.265	76.31
350.492	84.31
350.72	82.31
350.947	80.31
351.174	85.31
351.402	84.31
351.629	76.31
351.856	82.31
352.083	83.31
352.311	71.31
352.538	81.31
352.765	68.31
352.992	87.31
353.22	96.31
353.447	101.31
353.674	90.31
353.901	87.31
354.128	82.31
354.355	87.31
354.583	75.31
354.81	73.31
355.037	85.31
355.264	92.31
355.491	91.31
355.718	92.31
355.945	96.31
356.172	100.31
356.399	84.31
356.626	81.31
356.853	82.31
357.08	89.31
357.307	90.31
357.534	92.31
357.761	80.31
357.988	82.31
358.215	101.31
358.441	87.31
358.668	79.31
358.895	84.31
359.122	69.31
359.349	86.31
359.576	84.31
359.802	88.31
360.029	87.31
360.256	87.31
360.483	76.31
360.709	77.31
360.936	92.31
361.163	68.31
361.39	84.31
361.616	90.31
361.843	84.31
362.07	94.31
362.296	78.31
362.523	80.31
362.749	93.31
362.976	80.31
363.203	84.31
363.429	78.31
363.656	88.31
363.882	83.31
364.109	94.31
364.335	76.31
364.562	88.31
364.788	84.31
365.015	81.31
365.241	69.31
365.468	83.31
365.694	80.31
365.92	81.31
366.147	86.31
366.373	89.31
366.599	100.31
366.826	76.31
367.052	72.31
367.278	83.31
367.505	90.31
367.731	89.31
367.957	88.31
368.184	80.31
368.41	101.31
368.636	88.31
368.862	89.31
369.089	88.31
369.315	91.31
369.541	96.31
369.767	83.31
369.993	94.31
370.219	89.31
370.445	95.31
370.672	81.31
370.898	81.31
371.124	96.31
371.35	88.31
371.576	93.31
371.802	90.31
372.028	108.31
372.254	86.31
372.48	86.31
372.706	95.31
372.932	95.31
373.158	98.31
373.384	108.31
373.61	101.31
373.835	84.31
374.061	78.31
374.287	100.31
374.513	97.31
374.739	95.31
374.965	87.31
375.191	102.31
375.416	100.31
375.642	102.31
375.868	85.31
376.094	112.31
376.319	99.31
376.545	97.31
376.771	84.31
376.997	93.31
377.222	88.31
377.448	75.31
377.674	100.31
377.899	91.31
378.125	88.31
378.35	105.31
378.576	96.31
378.802	86.31
379.027	96.31
379.253	103.31
379.478	101.31
379.704	99.31
379.929	97.31
380.155	90.31
380.38	98.31
380.606	74.31
380.831	100.31
381.057	95.31
381.282	91.31
381.507	87.31
381.733	108.31
381.958	96.31
382.184	79.31
382.409	94.31
382.634	116.31
382.86	106.31
383.085	120.31
383.31	97.31
383.535	94.31
383.761	99.31
383.986	97.31
384.211	92.31
384.436	89.31
384.662	93.31
384.887	89.31
385.112	107.31
385.337	111.31
385.562	96.31
385.787	114.31
386.013	119.31
386.238	115.31
386.463	91.31
386.688	111.31
386.913	100.31
387.138	91.31
387.363	97.31
387.588	100.31
387.813	100.31
388.038	103.31
388.263	97.31
388.488	96.31
388.713	108.31
388.938	95.31
389.163	115.31
389.387	99.31
389.612	111.31
389.837	99.31
390.062	96.31
390.287	95.31
390.512	111.31
390.736	91.31
390.961	96.31
391.186	106.31
391.411	100.31
391.636	105.31
391.86	113.31
392.085	109.31
392.31	111.31
392.534	94.31
392.759	105.31
392.984	108.31
393.208	114.31
393.433	103.31
393.658	109.31
393.882	102.31
394.107	98.31
394.331	98.31
394.556	106.31
394.78	112.31
395.005	119.31
395.229	116.31
395.454	103.31
395.678	105.31
395.903	106.31
396.127	115.31
396.352	114.31
396.576	101.31
396.801	100.31
397.025	100.31
397.249	111.31
397.474	117.31
397.698	115.31
397.922	114.31
398.147	92.31
398.371	114.31
398.595	119.31
398.82	112.31
399.044	104.31
399.268	107.31
399.492	107.31
399.717	111.31
399.941	98.31
400.165	125.31
400.389	102.31
400.613	105.31
400.837	117.31
401.062	133.31
401.286	115.31
401.51	94.31
401.734	115.31
401.958	96.31
402.182	118.31
402.406	115.31
402.63	106.31
402.854	104.31
403.078	113.31
403.302	103.31
403.526	119.31
403.75	114.31
403.974	127.31
404.198	121.31
404.422	109.31
404.645	115.31
404.869	106.31
405.093	113.31
405.317	106.31
405.541	131.31
405.765	109.31
405.988	113.31
406.212	114.31
406.436	119.31
406.66	116.31
406.883	127.31
407.107	115.31
407.331	116.31
407.555	137.31
407.778	107.31
408.002	105.31
408.226	133.31
408.449	119.31
408.673	133.31
408.896	127.31
409.12	118.31
409.344	123.31
409.567	133.31
409.791	116.31
410.014	121.31
410.238	133.31
410.461	128.31
410.685	122.31
410.908	133.31
411.132	120.31
411.355	116.31
411.578	125.31
411.802	107.31
412.025	120.31
412.249	113.31
412.472	123.31
412.695	122.31
412.919	120.31
413.142	114.31
413.365	112.31
413.589	145.31
413.812	132.31
414.035	128.31
414.258	112.31
414.482	138.31
414.705	121.31
414.928	117.31
415.151	131.31
415.374	136.31
415.597	120.31
415.821	132.31
416.044	117.31
416.267	140.31
416.49	122.31
416.713	123.31
416.936	128.31
417.159	139.31
417.382	123.31
417.605	132.31
417.828	131.31
418.051	120.31
418.274	142.31
418.497	140.31
418.72	127.31
418.943	143.31
419.166	129.31
419.389	125.31
419.611	163.31
419.834	127.31
420.057	136.31
420.28	140.31
420.503	119.31
420.726	125.31
420.948	139.31
421.171	117.31
421.394	137.31
421.617	138.31
421.839	131.31
422.062	140.31
422.285	136.31
422.507	128.31
422.73	124.31
422.953	123.31
423.175	132.31
423.398	149.31
423.621	138.31
423.843	123.31
424.066	126.31
424.288	132.31
424.511	148.31
424.733	138.31
424.956	140.31
425.178	138.31
425.401	139.31
425.623	133.31
425.846	144.31
426.068	121.31
426.291	121.31
426.513	128.31
426.735	134.31
426.958	135.31
427.18	137.31
427.402	124.31
427.625	127.31
427.847	127.31
428.069	121.31
428.292	124.31
428.514	121.31
428.736	137.31
428.958	118.31
429.181	133.31
429.403	132.31
429.625	124.31
429.847	123.31
430.069	127.31
430.292	122.31
430.514	131.31
430.736	128.31
430.958	139.31
431.18	120.31
431.402	112.31
431.624	114.31
431.846	102.31
432.068	101.31
432.29	95.31
432.512	100.31
432.734	120.31
432.956	135.31
433.178	135.31
433.4	135.31
433.622	141.31
433.844	128.31
434.066	113.31
434.287	102.31
434.509	103.31
434.731	103.31
434.953	112.31
435.175	125.31
435.397	133.31
435.618	120.31
435.84	109.31
436.062	103.31
436.284	121.31
436.505	129.31
436.727	123.31
436.949	137.31
437.17	129.31
437.392	133.31
437.614	122.31
437.835	111.31
438.057	111.31
438.278	118.31
438.5	122.31
438.721	115.31
438.943	129.31
439.165	133.31
439.386	152.31
439.608	149.31
439.829	139.31
440.05	145.31
440.272	153.31
440.493	130.31
440.715	147.31
440.936	147.31
441.158	152.31
441.379	164.31
441.6	148.31
441.822	146.31
442.043	144.31
442.264	151.31
442.486	148.31
442.707	138.31
442.928	154.31
443.149	131.31
443.371	127.31
443.592	144.31
443.813	133.31
444.034	143.31
444.255	134.31
444.476	133.31
444.698	143.31
444.919	133.31
445.14	227.31
445.361	170.31
445.582	151.31
445.803	132.31
446.024	145.31
446.245	145.31
446.466	146.31
446.687	168.31
446.908	135.31
447.129	156.31
447.35	142.31
447.571	145.31
447.792	139.31
448.013	145.31
448.234	147.31
448.455	148.31
448.675	127.31
448.896	149.31
449.117	139.31
449.338	127.31
449.559	137.31
449.779	151.31
450	142.31
450.221	135.31
450.442	121.31
450.662	132.31
450.883	135.31
451.104	152.31
451.324	140.31
451.545	135.31
451.766	120.31
451.986	127.31
452.207	127.31
452.428	119.31
452.648	127.31
452.869	126.31
453.089	115.31
453.31	125.31
453.53	113.31
453.751	93.31
453.971	104.31
454.192	98.31
454.412	122.31
454.633	117.31
454.853	120.31
455.073	134.31
455.294	121.31
455.514	129.31
455.734	113.31
455.955	110.31
456.175	106.31
456.395	103.31
456.616	110.31
456.836	108.31
457.056	101.31
457.276	97.31
457.497	108.31
457.717	97.31
457.937	120.31
458.157	115.31
458.377	104.31
458.598	101.31
458.818	92.31
459.038	78.31
459.258	95.31
459.478	87.31
459.698	86.31
459.918	109.31
460.138	116.31
460.358	109.31
460.578	129.31
460.798	120.31
461.018	114.31
461.238	135.31
461.458	119.31
461.678	109.31
461.898	111.31
462.118	103.31
462.338	116.31
462.558	107.31
462.777	124.31
462.997	119.31
463.217	111.31
463.437	107.31
463.657	118.31
463.876	117.31
464.096	113.31
464.316	131.31
464.536	99.31
464.755	121.31
464.975	109.31
465.195	124.31
465.414	130.31
465.634	112.31
465.854	96.31
466.073	118.31
466.293	129.31
466.512	132.31
466.732	135.31
466.951	122.31
467.171	128.31
467.391	123.31
467.61	139.31
467.829	130.31
468.049	137.31
468.268	126.31
468.488	139.31
468.707	124.31
468.927	134.31
469.146	127.31
469.365	135.31
469.585	148.31
469.804	148.31
470.023	148.31
470.243	142.31
470.462	151.31
470.681	129.31
470.901	133.31
471.12	155.31
471.339	135.31
471.558	140.31
471.777	133.31
471.997	140.31
472.216	129.31
472.435	117.31
472.654	112.31
472.873	106.31
473.092	117.31
473.311	108.31
473.53	137.31
473.749	129.31
473.968	145.31
474.187	129.31
474.406	124.31
474.625	135.31
474.844	128.31
475.063	124.31
475.282	119.31
475.501	117.31
475.72	125.31
475.939	124.31
476.158	134.31
476.377	133.31
476.596	128.31
476.814	128.31
477.033	110.31
477.252	102.31
477.471	136.31
477.69	140.31
477.908	135.31
478.127	147.31
478.346	133.31
478.564	127.31
478.783	137.31
479.002	157.31
479.22	141.31
479.439	140.31
479.658	124.31
479.876	115.31
480.095	113.31
480.313	118.31
480.532	123.31
480.751	105.31
480.969	91.31
481.188	90.31
481.406	85.31
481.624	93.31
481.843	92.31
482.061	79.31
482.28	104.31
482.498	118.31
482.717	102.31
482.935	127.31
483.153	143.31
483.372	161.31
483.59	159.31
483.808	136.31
484.027	124.31
484.245	137.31
484.463	145.31
484.681	156.31
484.9	151.31
485.118	141.31
485.336	138.31
485.554	117.31
485.772	118.31
485.99	111.31
486.209	120.31
486.427	111.31
486.645	135.31
486.863	146.31
487.081	137.31
487.299	134.31
487.517	143.31
487.735	163.31
487.953	179.31
488.171	175.31
488.389	172.31
488.607	157.31
488.825	148.31
489.043	130.31
489.261	130.31
489.479	140.31
489.696	126.31
489.914	138.31
490.132	157.31
490.35	151.31
490.568	161.31
490.786	169.31
491.003	171.31
491.221	178.31
491.439	189.31
491.657	187.31
491.874	198.31
492.092	199.31
492.31	242.31
492.527	225.31
492.745	202.31
492.963	182.31
493.18	187.31
493.398	182.31
493.615	175.31
493.833	168.31
494.05	168.31
494.268	187.31
494.485	181.31
494.703	162.31
494.92	164.31
495.138	171.31
495.355	170.31
495.573	178.31
495.79	163.31
496.008	167.31
496.225	167.31
496.442	154.31
496.66	153.31
496.877	164.31
497.094	167.31
497.312	157.31
497.529	159.31
497.746	154.31
497.963	146.31
498.181	132.31
498.398	120.31
498.615	139.31
498.832	133.31
499.049	125.31
499.267	129.31
499.484	137.31
499.701	118.31
499.918	134.31
500.135	136.31
500.352	139.31
500.569	146.31
500.786	127.31
501.003	144.31
501.22	155.31
501.437	142.31
501.654	134.31
501.871	138.31
502.088	136.31
502.305	141.31
502.522	134.31
502.739	127.31
502.956	140.31
503.172	137.31
503.389	120.31
503.606	116.31
503.823	117.31
504.04	133.31
504.256	115.31
504.473	111.31
504.69	113.31
504.907	122.31
505.123	124.31
505.34	133.31
505.557	129.31
505.773	121.31
505.99	109.31
506.207	115.31
506.423	117.31
506.64	124.31
506.856	116.31
507.073	115.31
507.289	121.31
507.506	102.31
507.722	121.31
507.939	107.31
508.155	125.31
508.372	112.31
508.588	118.31
508.805	124.31
509.021	112.31
509.238	117.31
509.454	113.31
509.67	95.31
509.887	95.31
510.103	105.31
510.319	101.31
510.536	88.31
510.752	82.31
510.968	93.31
511.184	95.31
511.401	89.31
