Data from Location2.07152019.Energy5.Lamp.07192019.3%Agarose_HRD10591_14-58-54-359.txt Node
Date: Fri Jul 19 14:58:54 EDT 2019
User: cochatt
Spectrometer: HR+D1059
Trigger mode: 1
Integration Time (sec): 1.000000E-1
Scans to average: 1
Electric dark correction enabled: true
Nonlinearity correction enabled: false
Boxcar width: 0
XAxis mode: Wavelengths
Number of Pixels in Spectrum: 2048
>>>>>Begin Spectral Data<<<<<
223.165	-26.12
223.4	-26.12
223.635	-26.12
223.869	-13.12
224.104	-6.12
224.338	-6.12
224.573	-21.12
224.808	-20.12
225.042	-2.12
225.277	-6.12
225.511	16.88
225.746	-1.12
225.98	12.88
226.215	8.88
226.449	-7.12
226.683	7.88
226.918	30.88
227.152	31.88
227.387	33.88
227.621	31.88
227.856	48.88
228.09	47.88
228.324	45.88
228.559	69.88
228.793	45.88
229.027	63.88
229.262	59.88
229.496	43.88
229.73	62.88
229.964	89.88
230.199	83.88
230.433	63.88
230.667	89.88
230.901	73.88
231.136	78.88
231.37	95.88
231.604	73.88
231.838	82.88
232.072	81.88
232.306	75.88
232.541	76.88
232.775	88.88
233.009	97.88
233.243	91.88
233.477	82.88
233.711	84.88
233.945	76.88
234.179	71.88
234.413	73.88
234.647	81.88
234.881	73.88
235.115	72.88
235.349	90.88
235.583	69.88
235.817	80.88
236.051	78.88
236.285	74.88
236.519	73.88
236.753	60.88
236.987	84.88
237.221	79.88
237.455	73.88
237.689	73.88
237.922	77.88
238.156	68.88
238.39	85.88
238.624	72.88
238.858	76.88
239.091	71.88
239.325	75.88
239.559	64.88
239.793	68.88
240.027	84.88
240.26	65.88
240.494	89.88
240.728	69.88
240.961	82.88
241.195	71.88
241.429	89.88
241.662	67.88
241.896	79.88
242.13	82.88
242.363	80.88
242.597	71.88
242.83	74.88
243.064	67.88
243.298	72.88
243.531	78.88
243.765	83.88
243.998	84.88
244.232	67.88
244.465	83.88
244.699	81.88
244.932	86.88
245.166	85.88
245.399	73.88
245.633	76.88
245.866	73.88
246.099	78.88
246.333	74.88
246.566	80.88
246.8	84.88
247.033	64.88
247.266	77.88
247.5	70.88
247.733	81.88
247.966	69.88
248.2	77.88
248.433	73.88
248.666	73.88
248.899	74.88
249.133	79.88
249.366	75.88
249.599	75.88
249.832	72.88
250.066	88.88
250.299	77.88
250.532	71.88
250.765	83.88
250.998	77.88
251.231	81.88
251.465	81.88
251.698	70.88
251.931	83.88
252.164	76.88
252.397	82.88
252.63	84.88
252.863	89.88
253.096	74.88
253.329	80.88
253.562	70.88
253.795	79.88
254.028	74.88
254.261	69.88
254.494	80.88
254.727	74.88
254.96	81.88
255.193	79.88
255.426	77.88
255.659	85.88
255.892	81.88
256.124	83.88
256.357	75.88
256.59	72.88
256.823	73.88
257.056	70.88
257.289	63.88
257.521	83.88
257.754	74.88
257.987	80.88
258.22	91.88
258.452	66.88
258.685	83.88
258.918	74.88
259.151	82.88
259.383	75.88
259.616	72.88
259.849	90.88
260.081	82.88
260.314	77.88
260.547	92.88
260.779	89.88
261.012	78.88
261.244	74.88
261.477	84.88
261.71	72.88
261.942	64.88
262.175	82.88
262.407	85.88
262.64	78.88
262.872	82.88
263.105	84.88
263.337	83.88
263.57	73.88
263.802	91.88
264.035	82.88
264.267	89.88
264.499	83.88
264.732	79.88
264.964	80.88
265.197	70.88
265.429	87.88
265.661	75.88
265.894	87.88
266.126	78.88
266.358	72.88
266.591	87.88
266.823	78.88
267.055	68.88
267.287	89.88
267.52	84.88
267.752	100.88
267.984	78.88
268.216	70.88
268.448	87.88
268.681	92.88
268.913	87.88
269.145	90.88
269.377	77.88
269.609	84.88
269.841	86.88
270.073	85.88
270.306	79.88
270.538	91.88
270.77	77.88
271.002	66.88
271.234	79.88
271.466	97.88
271.698	76.88
271.93	84.88
272.162	85.88
272.394	83.88
272.626	74.88
272.858	69.88
273.09	72.88
273.322	70.88
273.553	82.88
273.785	81.88
274.017	87.88
274.249	76.88
274.481	79.88
274.713	95.88
274.945	68.88
275.176	77.88
275.408	71.88
275.64	59.88
275.872	85.88
276.104	86.88
276.335	85.88
276.567	84.88
276.799	86.88
277.031	71.88
277.262	77.88
277.494	82.88
277.726	77.88
277.957	80.88
278.189	84.88
278.421	78.88
278.652	101.88
278.884	74.88
279.115	81.88
279.347	94.88
279.579	81.88
279.81	90.88
280.042	83.88
280.273	76.88
280.505	71.88
280.736	80.88
280.968	70.88
281.199	77.88
281.431	97.88
281.662	85.88
281.894	89.88
282.125	97.88
282.356	83.88
282.588	88.88
282.819	74.88
283.051	92.88
283.282	79.88
283.513	86.88
283.745	78.88
283.976	80.88
284.207	79.88
284.439	83.88
284.67	97.88
284.901	77.88
285.132	89.88
285.364	74.88
285.595	91.88
285.826	92.88
286.057	84.88
286.288	84.88
286.52	70.88
286.751	86.88
286.982	89.88
287.213	67.88
287.444	89.88
287.675	91.88
287.906	87.88
288.138	87.88
288.369	75.88
288.6	88.88
288.831	75.88
289.062	77.88
289.293	74.88
289.524	70.88
289.755	95.88
289.986	91.88
290.217	88.88
290.448	72.88
290.679	96.88
290.91	94.88
291.141	96.88
291.371	89.88
291.602	79.88
291.833	80.88
292.064	74.88
292.295	88.88
292.526	84.88
292.757	76.88
292.987	81.88
293.218	82.88
293.449	77.88
293.68	90.88
293.91	75.88
294.141	77.88
294.372	84.88
294.603	86.88
294.833	99.88
295.064	84.88
295.295	89.88
295.525	78.88
295.756	80.88
295.987	75.88
296.217	82.88
296.448	89.88
296.679	89.88
296.909	79.88
297.14	100.88
297.37	87.88
297.601	72.88
297.831	95.88
298.062	103.88
298.292	92.88
298.523	83.88
298.753	82.88
298.984	83.88
299.214	86.88
299.445	92.88
299.675	80.88
299.905	95.88
300.136	82.88
300.366	88.88
300.597	96.88
300.827	78.88
301.057	85.88
301.288	99.88
301.518	103.88
301.748	95.88
301.979	89.88
302.209	75.88
302.439	100.88
302.669	81.88
302.9	77.88
303.13	101.88
303.36	92.88
303.59	85.88
303.82	73.88
304.051	99.88
304.281	87.88
304.511	68.88
304.741	92.88
304.971	84.88
305.201	88.88
305.431	95.88
305.661	85.88
305.891	75.88
306.121	79.88
306.352	80.88
306.582	82.88
306.812	91.88
307.042	88.88
307.272	96.88
307.502	90.88
307.731	82.88
307.961	78.88
308.191	91.88
308.421	91.88
308.651	99.88
308.881	93.88
309.111	78.88
309.341	82.88
309.571	78.88
309.8	80.88
310.03	87.88
310.26	97.88
310.49	89.88
310.72	79.88
310.949	85.88
311.179	89.88
311.409	83.88
311.639	86.88
311.868	91.88
312.098	95.88
312.328	82.88
312.557	86.88
312.787	81.88
313.017	96.88
313.246	98.88
313.476	91.88
313.706	84.88
313.935	92.88
314.165	77.88
314.394	75.88
314.624	80.88
314.853	94.88
315.083	92.88
315.312	78.88
315.542	88.88
315.771	85.88
316.001	87.88
316.23	85.88
316.46	84.88
316.689	80.88
316.919	77.88
317.148	97.88
317.377	83.88
317.607	75.88
317.836	76.88
318.065	91.88
318.295	94.88
318.524	93.88
318.753	69.88
318.983	96.88
319.212	74.88
319.441	83.88
319.67	82.88
319.9	88.88
320.129	95.88
320.358	84.88
320.587	73.88
320.816	85.88
321.046	84.88
321.275	82.88
321.504	87.88
321.733	91.88
321.962	80.88
322.191	83.88
322.42	79.88
322.649	68.88
322.878	92.88
323.108	82.88
323.337	95.88
323.566	90.88
323.795	82.88
324.024	77.88
324.253	88.88
324.482	87.88
324.71	84.88
324.939	81.88
325.168	88.88
325.397	84.88
325.626	88.88
325.855	70.88
326.084	76.88
326.313	89.88
326.542	93.88
326.77	80.88
326.999	88.88
327.228	74.88
327.457	80.88
327.686	84.88
327.914	88.88
328.143	88.88
328.372	84.88
328.6	85.88
328.829	84.88
329.058	90.88
329.287	70.88
329.515	84.88
329.744	76.88
329.972	77.88
330.201	95.88
330.43	86.88
330.658	71.88
330.887	78.88
331.115	84.88
331.344	83.88
331.572	91.88
331.801	95.88
332.03	91.88
332.258	77.88
332.486	94.88
332.715	79.88
332.943	83.88
333.172	92.88
333.4	77.88
333.629	68.88
333.857	90.88
334.085	85.88
334.314	81.88
334.542	83.88
334.771	88.88
334.999	77.88
335.227	87.88
335.455	87.88
335.684	75.88
335.912	94.88
336.14	94.88
336.369	94.88
336.597	77.88
336.825	79.88
337.053	89.88
337.281	77.88
337.51	88.88
337.738	87.88
337.966	93.88
338.194	81.88
338.422	85.88
338.65	75.88
338.878	89.88
339.106	86.88
339.334	81.88
339.562	91.88
339.79	91.88
340.018	87.88
340.246	80.88
340.474	79.88
340.702	82.88
340.93	70.88
341.158	69.88
341.386	100.88
341.614	65.88
341.842	96.88
342.07	87.88
342.298	84.88
342.526	75.88
342.754	89.88
342.981	96.88
343.209	100.88
343.437	77.88
343.665	89.88
343.893	86.88
344.12	90.88
344.348	72.88
344.576	84.88
344.804	87.88
345.031	83.88
345.259	81.88
345.487	81.88
345.714	83.88
345.942	86.88
346.17	89.88
346.397	80.88
346.625	90.88
346.853	71.88
347.08	81.88
347.308	91.88
347.535	68.88
347.763	98.88
347.99	88.88
348.218	80.88
348.445	79.88
348.673	92.88
348.9	86.88
349.128	73.88
349.355	76.88
349.583	83.88
349.81	80.88
350.037	70.88
350.265	80.88
350.492	97.88
350.72	73.88
350.947	78.88
351.174	85.88
351.402	74.88
351.629	81.88
351.856	92.88
352.083	78.88
352.311	76.88
352.538	75.88
352.765	87.88
352.992	87.88
353.22	74.88
353.447	75.88
353.674	84.88
353.901	84.88
354.128	85.88
354.355	98.88
354.583	73.88
354.81	83.88
355.037	87.88
355.264	89.88
355.491	88.88
355.718	87.88
355.945	78.88
356.172	77.88
356.399	91.88
356.626	82.88
356.853	80.88
357.08	81.88
357.307	70.88
357.534	98.88
357.761	107.88
357.988	80.88
358.215	96.88
358.441	96.88
358.668	77.88
358.895	74.88
359.122	101.88
359.349	85.88
359.576	77.88
359.802	69.88
360.029	76.88
360.256	86.88
360.483	84.88
360.709	101.88
360.936	92.88
361.163	84.88
361.39	74.88
361.616	86.88
361.843	79.88
362.07	86.88
362.296	79.88
362.523	90.88
362.749	72.88
362.976	85.88
363.203	80.88
363.429	83.88
363.656	83.88
363.882	64.88
364.109	79.88
364.335	78.88
364.562	94.88
364.788	88.88
365.015	86.88
365.241	73.88
365.468	87.88
365.694	90.88
365.92	85.88
366.147	79.88
366.373	71.88
366.599	87.88
366.826	89.88
367.052	84.88
367.278	90.88
367.505	83.88
367.731	80.88
367.957	77.88
368.184	84.88
368.41	81.88
368.636	88.88
368.862	82.88
369.089	76.88
369.315	80.88
369.541	83.88
369.767	71.88
369.993	88.88
370.219	92.88
370.445	85.88
370.672	85.88
370.898	95.88
371.124	100.88
371.35	94.88
371.576	95.88
371.802	75.88
372.028	91.88
372.254	93.88
372.48	86.88
372.706	78.88
372.932	81.88
373.158	90.88
373.384	91.88
373.61	99.88
373.835	90.88
374.061	90.88
374.287	87.88
374.513	81.88
374.739	84.88
374.965	91.88
375.191	88.88
375.416	76.88
375.642	90.88
375.868	89.88
376.094	88.88
376.319	96.88
376.545	99.88
376.771	113.88
376.997	97.88
377.222	103.88
377.448	83.88
377.674	91.88
377.899	99.88
378.125	92.88
378.35	103.88
378.576	91.88
378.802	92.88
379.027	94.88
379.253	102.88
379.478	88.88
379.704	85.88
379.929	95.88
380.155	90.88
380.38	85.88
380.606	95.88
380.831	97.88
381.057	102.88
381.282	99.88
381.507	103.88
381.733	99.88
381.958	91.88
382.184	89.88
382.409	119.88
382.634	101.88
382.86	101.88
383.085	103.88
383.31	101.88
383.535	106.88
383.761	89.88
383.986	90.88
384.211	86.88
384.436	83.88
384.662	106.88
384.887	99.88
385.112	96.88
385.337	96.88
385.562	103.88
385.787	101.88
386.013	94.88
386.238	120.88
386.463	102.88
386.688	94.88
386.913	113.88
387.138	98.88
387.363	101.88
387.588	109.88
387.813	105.88
388.038	88.88
388.263	113.88
388.488	93.88
388.713	103.88
388.938	105.88
389.163	103.88
389.387	104.88
389.612	109.88
389.837	100.88
390.062	102.88
390.287	100.88
390.512	99.88
390.736	95.88
390.961	83.88
391.186	88.88
391.411	85.88
391.636	109.88
391.86	108.88
392.085	92.88
392.31	106.88
392.534	113.88
392.759	107.88
392.984	117.88
393.208	98.88
393.433	105.88
393.658	99.88
393.882	100.88
394.107	108.88
394.331	97.88
394.556	96.88
394.78	101.88
395.005	114.88
395.229	113.88
395.454	108.88
395.678	97.88
395.903	116.88
396.127	113.88
396.352	121.88
396.576	112.88
396.801	127.88
397.025	113.88
397.249	101.88
397.474	107.88
397.698	115.88
397.922	118.88
398.147	113.88
398.371	107.88
398.595	107.88
398.82	117.88
399.044	112.88
399.268	121.88
399.492	86.88
399.717	97.88
399.941	105.88
400.165	104.88
400.389	109.88
400.613	113.88
400.837	107.88
401.062	111.88
401.286	105.88
401.51	103.88
401.734	108.88
401.958	118.88
402.182	131.88
402.406	113.88
402.63	118.88
402.854	115.88
403.078	117.88
403.302	120.88
403.526	113.88
403.75	109.88
403.974	111.88
404.198	113.88
404.422	119.88
404.645	117.88
404.869	115.88
405.093	119.88
405.317	123.88
405.541	115.88
405.765	106.88
405.988	93.88
406.212	107.88
406.436	105.88
406.66	130.88
406.883	106.88
407.107	106.88
407.331	116.88
407.555	116.88
407.778	121.88
408.002	121.88
408.226	114.88
408.449	111.88
408.673	121.88
408.896	104.88
409.12	121.88
409.344	130.88
409.567	125.88
409.791	127.88
410.014	130.88
410.238	118.88
410.461	110.88
410.685	120.88
410.908	120.88
411.132	113.88
411.355	131.88
411.578	121.88
411.802	119.88
412.025	117.88
412.249	131.88
412.472	124.88
412.695	119.88
412.919	114.88
413.142	119.88
413.365	132.88
413.589	109.88
413.812	120.88
414.035	114.88
414.258	121.88
414.482	123.88
414.705	134.88
414.928	120.88
415.151	131.88
415.374	112.88
415.597	111.88
415.821	128.88
416.044	107.88
416.267	104.88
416.49	124.88
416.713	121.88
416.936	126.88
417.159	127.88
417.382	103.88
417.605	116.88
417.828	135.88
418.051	127.88
418.274	136.88
418.497	147.88
418.72	127.88
418.943	141.88
419.166	142.88
419.389	135.88
419.611	125.88
419.834	132.88
420.057	126.88
420.28	124.88
420.503	118.88
420.726	113.88
420.948	138.88
421.171	127.88
421.394	141.88
421.617	135.88
421.839	149.88
422.062	123.88
422.285	135.88
422.507	127.88
422.73	132.88
422.953	132.88
423.175	128.88
423.398	134.88
423.621	130.88
423.843	131.88
424.066	151.88
424.288	127.88
424.511	132.88
424.733	133.88
424.956	163.88
425.178	151.88
425.401	127.88
425.623	134.88
425.846	123.88
426.068	133.88
426.291	142.88
426.513	131.88
426.735	129.88
426.958	142.88
427.18	136.88
427.402	131.88
427.625	128.88
427.847	122.88
428.069	125.88
428.292	117.88
428.514	126.88
428.736	119.88
428.958	118.88
429.181	131.88
429.403	114.88
429.625	106.88
429.847	121.88
430.069	120.88
430.292	128.88
430.514	120.88
430.736	115.88
430.958	135.88
431.18	124.88
431.402	128.88
431.624	118.88
431.846	109.88
432.068	98.88
432.29	96.88
432.512	114.88
432.734	129.88
432.956	122.88
433.178	125.88
433.4	132.88
433.622	149.88
433.844	134.88
434.066	113.88
434.287	124.88
434.509	88.88
434.731	108.88
434.953	104.88
435.175	122.88
435.397	126.88
435.618	114.88
435.84	112.88
436.062	125.88
436.284	115.88
436.505	129.88
436.727	128.88
436.949	131.88
437.17	118.88
437.392	131.88
437.614	121.88
437.835	119.88
438.057	106.88
438.278	103.88
438.5	124.88
438.721	125.88
438.943	114.88
439.165	137.88
439.386	151.88
439.608	145.88
439.829	130.88
440.05	130.88
440.272	142.88
440.493	139.88
440.715	133.88
440.936	152.88
441.158	151.88
441.379	163.88
441.6	133.88
441.822	147.88
442.043	127.88
442.264	148.88
442.486	135.88
442.707	132.88
442.928	128.88
443.149	137.88
443.371	147.88
443.592	125.88
443.813	130.88
444.034	137.88
444.255	135.88
444.476	139.88
444.698	145.88
444.919	136.88
445.14	269.88
445.361	205.88
445.582	159.88
445.803	146.88
446.024	133.88
446.245	156.88
446.466	157.88
446.687	142.88
446.908	153.88
447.129	158.88
447.35	136.88
447.571	140.88
447.792	136.88
448.013	146.88
448.234	141.88
448.455	139.88
448.675	126.88
448.896	133.88
449.117	135.88
449.338	137.88
449.559	144.88
449.779	126.88
450	134.88
450.221	120.88
450.442	121.88
450.662	141.88
450.883	123.88
451.104	127.88
451.324	123.88
451.545	129.88
451.766	141.88
451.986	131.88
452.207	137.88
452.428	130.88
452.648	118.88
452.869	119.88
453.089	123.88
453.31	97.88
453.53	106.88
453.751	108.88
453.971	112.88
454.192	111.88
454.412	95.88
454.633	121.88
454.853	110.88
455.073	117.88
455.294	119.88
455.514	102.88
455.734	117.88
455.955	114.88
456.175	97.88
456.395	109.88
456.616	121.88
456.836	111.88
457.056	93.88
457.276	116.88
457.497	98.88
457.717	102.88
457.937	113.88
458.157	107.88
458.377	93.88
458.598	95.88
458.818	104.88
459.038	88.88
459.258	89.88
459.478	91.88
459.698	87.88
459.918	112.88
460.138	112.88
460.358	127.88
460.578	119.88
460.798	115.88
461.018	110.88
461.238	109.88
461.458	123.88
461.678	111.88
461.898	110.88
462.118	121.88
462.338	114.88
462.558	113.88
462.777	114.88
462.997	111.88
463.217	116.88
463.437	120.88
463.657	88.88
463.876	108.88
464.096	107.88
464.316	112.88
464.536	118.88
464.755	112.88
464.975	121.88
465.195	103.88
465.414	124.88
465.634	115.88
465.854	125.88
466.073	125.88
466.293	135.88
466.512	117.88
466.732	126.88
466.951	134.88
467.171	140.88
467.391	128.88
467.61	137.88
467.829	139.88
468.049	133.88
468.268	139.88
468.488	120.88
468.707	123.88
468.927	120.88
469.146	137.88
469.365	139.88
469.585	131.88
469.804	133.88
470.023	122.88
470.243	137.88
470.462	146.88
470.681	134.88
470.901	140.88
471.12	146.88
471.339	137.88
471.558	140.88
471.777	137.88
471.997	131.88
472.216	124.88
472.435	103.88
472.654	112.88
472.873	103.88
473.092	113.88
473.311	129.88
473.53	134.88
473.749	134.88
473.968	125.88
474.187	131.88
474.406	122.88
474.625	139.88
474.844	131.88
475.063	147.88
475.282	132.88
475.501	135.88
475.72	117.88
475.939	115.88
476.158	133.88
476.377	144.88
476.596	120.88
476.814	120.88
477.033	114.88
477.252	105.88
477.471	124.88
477.69	131.88
477.908	139.88
478.127	130.88
478.346	146.88
478.564	131.88
478.783	129.88
479.002	147.88
479.22	143.88
479.439	147.88
479.658	133.88
479.876	120.88
480.095	107.88
480.313	112.88
480.532	117.88
480.751	117.88
480.969	98.88
481.188	89.88
481.406	85.88
481.624	88.88
481.843	71.88
482.061	85.88
482.28	110.88
482.498	98.88
482.717	114.88
482.935	126.88
483.153	135.88
483.372	142.88
483.59	145.88
483.808	142.88
484.027	125.88
484.245	123.88
484.463	146.88
484.681	168.88
484.9	139.88
485.118	149.88
485.336	127.88
485.554	113.88
485.772	105.88
485.99	109.88
486.209	98.88
486.427	105.88
486.645	116.88
486.863	133.88
487.081	139.88
487.299	122.88
487.517	147.88
487.735	170.88
487.953	188.88
488.171	170.88
488.389	164.88
488.607	165.88
488.825	147.88
489.043	131.88
489.261	138.88
489.479	126.88
489.696	149.88
489.914	147.88
490.132	148.88
490.35	155.88
490.568	163.88
490.786	169.88
491.003	176.88
491.221	172.88
491.439	180.88
491.657	183.88
491.874	193.88
492.092	204.88
492.31	219.88
492.527	210.88
492.745	182.88
492.963	199.88
493.18	198.88
493.398	192.88
493.615	170.88
493.833	177.88
494.05	180.88
494.268	167.88
494.485	179.88
494.703	172.88
494.92	184.88
495.138	167.88
495.355	171.88
495.573	163.88
495.79	168.88
496.008	162.88
496.225	168.88
496.442	173.88
496.66	169.88
496.877	175.88
497.094	155.88
497.312	164.88
497.529	157.88
497.746	150.88
497.963	126.88
498.181	133.88
498.398	138.88
498.615	117.88
498.832	120.88
499.049	123.88
499.267	115.88
499.484	133.88
499.701	147.88
499.918	141.88
500.135	131.88
500.352	142.88
500.569	131.88
500.786	151.88
501.003	146.88
501.22	142.88
501.437	132.88
501.654	135.88
501.871	147.88
502.088	121.88
502.305	129.88
502.522	121.88
502.739	126.88
502.956	128.88
503.172	135.88
503.389	118.88
503.606	115.88
503.823	116.88
504.04	133.88
504.256	124.88
504.473	127.88
504.69	116.88
504.907	118.88
505.123	125.88
505.34	114.88
505.557	149.88
505.773	114.88
505.99	123.88
506.207	115.88
506.423	119.88
506.64	120.88
506.856	118.88
507.073	112.88
507.289	115.88
507.506	119.88
507.722	121.88
507.939	111.88
508.155	139.88
508.372	114.88
508.588	112.88
508.805	112.88
509.021	94.88
509.238	109.88
509.454	115.88
509.67	100.88
509.887	98.88
510.103	97.88
510.319	100.88
510.536	92.88
510.752	89.88
510.968	86.88
511.184	82.88
511.401	94.88
511.617	77.88
