Data from Location2.07152019.Energy5.Lamp.07192019.3%Agarose_HRD10591_14-56-42-359.txt Node
Date: Fri Jul 19 14:56:42 EDT 2019
User: cochatt
Spectrometer: HR+D1059
Trigger mode: 1
Integration Time (sec): 1.000000E-1
Scans to average: 1
Electric dark correction enabled: true
Nonlinearity correction enabled: false
Boxcar width: 0
XAxis mode: Wavelengths
Number of Pixels in Spectrum: 2048
>>>>>Begin Spectral Data<<<<<
223.165	-10.56
223.4	-10.56
223.635	-10.56
223.869	-12.56
224.104	-20.56
224.338	-16.56
224.573	1.44
224.808	-11.56
225.042	-1.56
225.277	7.44
225.511	-16.56
225.746	-10.56
225.98	-1.56
226.215	23.44
226.449	6.44
226.683	17.44
226.918	18.44
227.152	27.44
227.387	25.44
227.621	29.44
227.856	30.44
228.09	46.44
228.324	53.44
228.559	48.44
228.793	60.44
229.027	57.44
229.262	59.44
229.496	56.44
229.73	67.44
229.964	63.44
230.199	72.44
230.433	68.44
230.667	77.44
230.901	83.44
231.136	82.44
231.37	76.44
231.604	68.44
231.838	82.44
232.072	79.44
232.306	80.44
232.541	65.44
232.775	84.44
233.009	78.44
233.243	74.44
233.477	100.44
233.711	90.44
233.945	71.44
234.179	76.44
234.413	79.44
234.647	94.44
234.881	77.44
235.115	66.44
235.349	83.44
235.583	81.44
235.817	76.44
236.051	92.44
236.285	87.44
236.519	69.44
236.753	89.44
236.987	83.44
237.221	61.44
237.455	83.44
237.689	76.44
237.922	86.44
238.156	74.44
238.39	81.44
238.624	74.44
238.858	68.44
239.091	74.44
239.325	69.44
239.559	83.44
239.793	99.44
240.027	83.44
240.26	72.44
240.494	60.44
240.728	71.44
240.961	65.44
241.195	65.44
241.429	82.44
241.662	83.44
241.896	74.44
242.13	85.44
242.363	90.44
242.597	82.44
242.83	83.44
243.064	66.44
243.298	74.44
243.531	62.44
243.765	62.44
243.998	78.44
244.232	84.44
244.465	71.44
244.699	73.44
244.932	79.44
245.166	80.44
245.399	78.44
245.633	85.44
245.866	79.44
246.099	80.44
246.333	67.44
246.566	75.44
246.8	80.44
247.033	79.44
247.266	74.44
247.5	89.44
247.733	69.44
247.966	68.44
248.2	92.44
248.433	83.44
248.666	84.44
248.899	86.44
249.133	81.44
249.366	85.44
249.599	69.44
249.832	72.44
250.066	85.44
250.299	83.44
250.532	65.44
250.765	86.44
250.998	71.44
251.231	59.44
251.465	87.44
251.698	79.44
251.931	90.44
252.164	68.44
252.397	70.44
252.63	82.44
252.863	74.44
253.096	83.44
253.329	77.44
253.562	77.44
253.795	71.44
254.028	90.44
254.261	95.44
254.494	80.44
254.727	76.44
254.96	81.44
255.193	71.44
255.426	90.44
255.659	69.44
255.892	78.44
256.124	93.44
256.357	86.44
256.59	91.44
256.823	78.44
257.056	71.44
257.289	73.44
257.521	90.44
257.754	93.44
257.987	64.44
258.22	75.44
258.452	84.44
258.685	75.44
258.918	71.44
259.151	81.44
259.383	84.44
259.616	86.44
259.849	82.44
260.081	84.44
260.314	73.44
260.547	82.44
260.779	86.44
261.012	79.44
261.244	69.44
261.477	91.44
261.71	73.44
261.942	90.44
262.175	82.44
262.407	84.44
262.64	93.44
262.872	93.44
263.105	80.44
263.337	77.44
263.57	88.44
263.802	82.44
264.035	103.44
264.267	71.44
264.499	84.44
264.732	82.44
264.964	87.44
265.197	79.44
265.429	68.44
265.661	75.44
265.894	65.44
266.126	79.44
266.358	77.44
266.591	95.44
266.823	64.44
267.055	67.44
267.287	69.44
267.52	80.44
267.752	91.44
267.984	95.44
268.216	86.44
268.448	82.44
268.681	84.44
268.913	80.44
269.145	81.44
269.377	98.44
269.609	82.44
269.841	88.44
270.073	80.44
270.306	94.44
270.538	82.44
270.77	79.44
271.002	72.44
271.234	74.44
271.466	81.44
271.698	78.44
271.93	87.44
272.162	87.44
272.394	70.44
272.626	86.44
272.858	74.44
273.09	77.44
273.322	81.44
273.553	80.44
273.785	77.44
274.017	82.44
274.249	76.44
274.481	80.44
274.713	86.44
274.945	82.44
275.176	76.44
275.408	82.44
275.64	95.44
275.872	79.44
276.104	82.44
276.335	86.44
276.567	80.44
276.799	96.44
277.031	85.44
277.262	79.44
277.494	84.44
277.726	69.44
277.957	83.44
278.189	90.44
278.421	86.44
278.652	80.44
278.884	99.44
279.115	78.44
279.347	83.44
279.579	79.44
279.81	68.44
280.042	90.44
280.273	79.44
280.505	66.44
280.736	88.44
280.968	78.44
281.199	86.44
281.431	62.44
281.662	76.44
281.894	84.44
282.125	80.44
282.356	80.44
282.588	79.44
282.819	82.44
283.051	79.44
283.282	89.44
283.513	82.44
283.745	88.44
283.976	85.44
284.207	99.44
284.439	94.44
284.67	88.44
284.901	94.44
285.132	83.44
285.364	81.44
285.595	94.44
285.826	68.44
286.057	77.44
286.288	82.44
286.52	78.44
286.751	90.44
286.982	83.44
287.213	90.44
287.444	80.44
287.675	83.44
287.906	81.44
288.138	83.44
288.369	91.44
288.6	73.44
288.831	79.44
289.062	86.44
289.293	79.44
289.524	89.44
289.755	77.44
289.986	71.44
290.217	85.44
290.448	79.44
290.679	75.44
290.91	87.44
291.141	82.44
291.371	101.44
291.602	86.44
291.833	80.44
292.064	86.44
292.295	73.44
292.526	94.44
292.757	92.44
292.987	87.44
293.218	80.44
293.449	88.44
293.68	70.44
293.91	80.44
294.141	88.44
294.372	87.44
294.603	90.44
294.833	80.44
295.064	75.44
295.295	81.44
295.525	83.44
295.756	73.44
295.987	81.44
296.217	95.44
296.448	83.44
296.679	79.44
296.909	89.44
297.14	90.44
297.37	91.44
297.601	90.44
297.831	85.44
298.062	68.44
298.292	82.44
298.523	75.44
298.753	74.44
298.984	89.44
299.214	85.44
299.445	90.44
299.675	85.44
299.905	82.44
300.136	82.44
300.366	90.44
300.597	71.44
300.827	75.44
301.057	71.44
301.288	75.44
301.518	78.44
301.748	78.44
301.979	88.44
302.209	71.44
302.439	76.44
302.669	75.44
302.9	83.44
303.13	71.44
303.36	81.44
303.59	89.44
303.82	75.44
304.051	89.44
304.281	86.44
304.511	94.44
304.741	88.44
304.971	97.44
305.201	91.44
305.431	90.44
305.661	79.44
305.891	75.44
306.121	68.44
306.352	94.44
306.582	99.44
306.812	82.44
307.042	79.44
307.272	85.44
307.502	88.44
307.731	86.44
307.961	84.44
308.191	74.44
308.421	80.44
308.651	98.44
308.881	84.44
309.111	93.44
309.341	93.44
309.571	90.44
309.8	82.44
310.03	88.44
310.26	87.44
310.49	86.44
310.72	83.44
310.949	73.44
311.179	78.44
311.409	88.44
311.639	84.44
311.868	84.44
312.098	101.44
312.328	86.44
312.557	89.44
312.787	83.44
313.017	79.44
313.246	103.44
313.476	88.44
313.706	86.44
313.935	81.44
314.165	86.44
314.394	77.44
314.624	96.44
314.853	70.44
315.083	86.44
315.312	90.44
315.542	83.44
315.771	95.44
316.001	96.44
316.23	75.44
316.46	71.44
316.689	96.44
316.919	79.44
317.148	74.44
317.377	69.44
317.607	89.44
317.836	88.44
318.065	71.44
318.295	87.44
318.524	96.44
318.753	90.44
318.983	77.44
319.212	86.44
319.441	80.44
319.67	76.44
319.9	99.44
320.129	91.44
320.358	76.44
320.587	81.44
320.816	80.44
321.046	84.44
321.275	94.44
321.504	87.44
321.733	76.44
321.962	81.44
322.191	76.44
322.42	91.44
322.649	83.44
322.878	68.44
323.108	84.44
323.337	81.44
323.566	77.44
323.795	78.44
324.024	83.44
324.253	75.44
324.482	77.44
324.71	91.44
324.939	88.44
325.168	75.44
325.397	72.44
325.626	89.44
325.855	87.44
326.084	87.44
326.313	83.44
326.542	83.44
326.77	79.44
326.999	68.44
327.228	83.44
327.457	84.44
327.686	77.44
327.914	80.44
328.143	81.44
328.372	84.44
328.6	84.44
328.829	91.44
329.058	79.44
329.287	85.44
329.515	81.44
329.744	88.44
329.972	80.44
330.201	87.44
330.43	92.44
330.658	84.44
330.887	82.44
331.115	89.44
331.344	79.44
331.572	88.44
331.801	82.44
332.03	85.44
332.258	87.44
332.486	77.44
332.715	76.44
332.943	86.44
333.172	73.44
333.4	74.44
333.629	85.44
333.857	66.44
334.085	93.44
334.314	87.44
334.542	93.44
334.771	93.44
334.999	79.44
335.227	90.44
335.455	84.44
335.684	80.44
335.912	84.44
336.14	87.44
336.369	96.44
336.597	86.44
336.825	89.44
337.053	77.44
337.281	94.44
337.51	76.44
337.738	92.44
337.966	75.44
338.194	83.44
338.422	82.44
338.65	90.44
338.878	91.44
339.106	91.44
339.334	82.44
339.562	75.44
339.79	77.44
340.018	88.44
340.246	81.44
340.474	81.44
340.702	78.44
340.93	90.44
341.158	83.44
341.386	83.44
341.614	101.44
341.842	80.44
342.07	82.44
342.298	80.44
342.526	85.44
342.754	83.44
342.981	95.44
343.209	100.44
343.437	89.44
343.665	75.44
343.893	77.44
344.12	75.44
344.348	89.44
344.576	77.44
344.804	93.44
345.031	87.44
345.259	75.44
345.487	86.44
345.714	89.44
345.942	97.44
346.17	94.44
346.397	89.44
346.625	89.44
346.853	76.44
347.08	81.44
347.308	95.44
347.535	82.44
347.763	77.44
347.99	63.44
348.218	81.44
348.445	80.44
348.673	84.44
348.9	82.44
349.128	93.44
349.355	96.44
349.583	82.44
349.81	72.44
350.037	78.44
350.265	94.44
350.492	77.44
350.72	79.44
350.947	76.44
351.174	99.44
351.402	92.44
351.629	86.44
351.856	87.44
352.083	73.44
352.311	80.44
352.538	99.44
352.765	86.44
352.992	87.44
353.22	76.44
353.447	96.44
353.674	81.44
353.901	92.44
354.128	81.44
354.355	76.44
354.583	91.44
354.81	88.44
355.037	90.44
355.264	76.44
355.491	81.44
355.718	71.44
355.945	75.44
356.172	73.44
356.399	77.44
356.626	70.44
356.853	80.44
357.08	79.44
357.307	75.44
357.534	82.44
357.761	85.44
357.988	80.44
358.215	78.44
358.441	80.44
358.668	90.44
358.895	90.44
359.122	79.44
359.349	81.44
359.576	72.44
359.802	74.44
360.029	80.44
360.256	87.44
360.483	84.44
360.709	76.44
360.936	80.44
361.163	91.44
361.39	80.44
361.616	81.44
361.843	85.44
362.07	70.44
362.296	66.44
362.523	82.44
362.749	79.44
362.976	96.44
363.203	81.44
363.429	82.44
363.656	84.44
363.882	92.44
364.109	90.44
364.335	90.44
364.562	87.44
364.788	87.44
365.015	99.44
365.241	87.44
365.468	86.44
365.694	86.44
365.92	75.44
366.147	77.44
366.373	101.44
366.599	75.44
366.826	80.44
367.052	80.44
367.278	80.44
367.505	85.44
367.731	94.44
367.957	96.44
368.184	74.44
368.41	81.44
368.636	98.44
368.862	83.44
369.089	82.44
369.315	88.44
369.541	87.44
369.767	87.44
369.993	87.44
370.219	79.44
370.445	84.44
370.672	82.44
370.898	93.44
371.124	86.44
371.35	91.44
371.576	103.44
371.802	84.44
372.028	113.44
372.254	95.44
372.48	83.44
372.706	88.44
372.932	88.44
373.158	93.44
373.384	107.44
373.61	90.44
373.835	80.44
374.061	95.44
374.287	89.44
374.513	87.44
374.739	94.44
374.965	92.44
375.191	91.44
375.416	95.44
375.642	84.44
375.868	96.44
376.094	89.44
376.319	92.44
376.545	84.44
376.771	78.44
376.997	82.44
377.222	80.44
377.448	99.44
377.674	103.44
377.899	94.44
378.125	89.44
378.35	82.44
378.576	69.44
378.802	104.44
379.027	87.44
379.253	98.44
379.478	84.44
379.704	84.44
379.929	99.44
380.155	98.44
380.38	99.44
380.606	97.44
380.831	95.44
381.057	90.44
381.282	96.44
381.507	88.44
381.733	111.44
381.958	101.44
382.184	88.44
382.409	101.44
382.634	93.44
382.86	97.44
383.085	99.44
383.31	95.44
383.535	97.44
383.761	94.44
383.986	100.44
384.211	97.44
384.436	106.44
384.662	92.44
384.887	96.44
385.112	86.44
385.337	96.44
385.562	94.44
385.787	95.44
386.013	102.44
386.238	101.44
386.463	91.44
386.688	95.44
386.913	106.44
387.138	92.44
387.363	86.44
387.588	90.44
387.813	111.44
388.038	101.44
388.263	118.44
388.488	108.44
388.713	113.44
388.938	104.44
389.163	96.44
389.387	98.44
389.612	99.44
389.837	94.44
390.062	103.44
390.287	98.44
390.512	98.44
390.736	95.44
390.961	105.44
391.186	108.44
391.411	94.44
391.636	94.44
391.86	101.44
392.085	99.44
392.31	95.44
392.534	101.44
392.759	108.44
392.984	107.44
393.208	105.44
393.433	104.44
393.658	119.44
393.882	97.44
394.107	101.44
394.331	97.44
394.556	99.44
394.78	98.44
395.005	107.44
395.229	107.44
395.454	108.44
395.678	105.44
395.903	110.44
396.127	106.44
396.352	105.44
396.576	105.44
396.801	114.44
397.025	99.44
397.249	114.44
397.474	120.44
397.698	104.44
397.922	110.44
398.147	109.44
398.371	128.44
398.595	109.44
398.82	111.44
399.044	114.44
399.268	114.44
399.492	114.44
399.717	111.44
399.941	119.44
400.165	115.44
400.389	100.44
400.613	95.44
400.837	102.44
401.062	111.44
401.286	98.44
401.51	114.44
401.734	118.44
401.958	106.44
402.182	122.44
402.406	113.44
402.63	107.44
402.854	110.44
403.078	110.44
403.302	117.44
403.526	110.44
403.75	104.44
403.974	110.44
404.198	110.44
404.422	113.44
404.645	100.44
404.869	117.44
405.093	106.44
405.317	112.44
405.541	100.44
405.765	108.44
405.988	117.44
406.212	133.44
406.436	127.44
406.66	118.44
406.883	128.44
407.107	101.44
407.331	130.44
407.555	115.44
407.778	116.44
408.002	122.44
408.226	112.44
408.449	116.44
408.673	124.44
408.896	106.44
409.12	112.44
409.344	104.44
409.567	121.44
409.791	106.44
410.014	126.44
410.238	105.44
410.461	122.44
410.685	120.44
410.908	126.44
411.132	141.44
411.355	116.44
411.578	123.44
411.802	126.44
412.025	97.44
412.249	118.44
412.472	132.44
412.695	115.44
412.919	140.44
413.142	129.44
413.365	119.44
413.589	134.44
413.812	119.44
414.035	101.44
414.258	115.44
414.482	127.44
414.705	110.44
414.928	125.44
415.151	123.44
415.374	137.44
415.597	124.44
415.821	135.44
416.044	114.44
416.267	124.44
416.49	118.44
416.713	122.44
416.936	117.44
417.159	133.44
417.382	120.44
417.605	118.44
417.828	124.44
418.051	127.44
418.274	126.44
418.497	129.44
418.72	129.44
418.943	119.44
419.166	114.44
419.389	127.44
419.611	118.44
419.834	132.44
420.057	124.44
420.28	127.44
420.503	140.44
420.726	136.44
420.948	117.44
421.171	128.44
421.394	122.44
421.617	127.44
421.839	138.44
422.062	134.44
422.285	136.44
422.507	130.44
422.73	123.44
422.953	117.44
423.175	117.44
423.398	126.44
423.621	133.44
423.843	145.44
424.066	131.44
424.288	146.44
424.511	132.44
424.733	140.44
424.956	143.44
425.178	148.44
425.401	137.44
425.623	130.44
425.846	138.44
426.068	137.44
426.291	131.44
426.513	131.44
426.735	128.44
426.958	132.44
427.18	137.44
427.402	127.44
427.625	120.44
427.847	123.44
428.069	122.44
428.292	131.44
428.514	128.44
428.736	125.44
428.958	119.44
429.181	118.44
429.403	132.44
429.625	121.44
429.847	130.44
430.069	132.44
430.292	126.44
430.514	112.44
430.736	134.44
430.958	126.44
431.18	128.44
431.402	122.44
431.624	115.44
431.846	100.44
432.068	96.44
432.29	88.44
432.512	114.44
432.734	120.44
432.956	133.44
433.178	122.44
433.4	136.44
433.622	142.44
433.844	122.44
434.066	129.44
434.287	101.44
434.509	99.44
434.731	100.44
434.953	120.44
435.175	117.44
435.397	121.44
435.618	112.44
435.84	112.44
436.062	109.44
436.284	114.44
436.505	129.44
436.727	129.44
436.949	124.44
437.17	137.44
437.392	140.44
437.614	119.44
437.835	109.44
438.057	94.44
438.278	110.44
438.5	123.44
438.721	126.44
438.943	144.44
439.165	131.44
439.386	133.44
439.608	144.44
439.829	143.44
440.05	131.44
440.272	133.44
440.493	126.44
440.715	127.44
440.936	134.44
441.158	150.44
441.379	137.44
441.6	166.44
441.822	163.44
442.043	144.44
442.264	135.44
442.486	135.44
442.707	128.44
442.928	136.44
443.149	135.44
443.371	143.44
443.592	146.44
443.813	139.44
444.034	136.44
444.255	145.44
444.476	153.44
444.698	152.44
444.919	139.44
445.14	276.44
445.361	216.44
445.582	143.44
445.803	146.44
446.024	151.44
446.245	155.44
446.466	153.44
446.687	150.44
446.908	155.44
447.129	152.44
447.35	140.44
447.571	145.44
447.792	133.44
448.013	138.44
448.234	132.44
448.455	141.44
448.675	124.44
448.896	150.44
449.117	133.44
449.338	136.44
449.559	135.44
449.779	135.44
450	129.44
450.221	130.44
450.442	122.44
450.662	144.44
450.883	134.44
451.104	130.44
451.324	136.44
451.545	126.44
451.766	128.44
451.986	135.44
452.207	122.44
452.428	114.44
452.648	116.44
452.869	122.44
453.089	122.44
453.31	96.44
453.53	114.44
453.751	110.44
453.971	84.44
454.192	110.44
454.412	114.44
454.633	114.44
454.853	114.44
455.073	115.44
455.294	117.44
455.514	118.44
455.734	116.44
455.955	101.44
456.175	116.44
456.395	104.44
456.616	101.44
456.836	116.44
457.056	120.44
457.276	101.44
457.497	97.44
457.717	90.44
457.937	88.44
458.157	108.44
458.377	107.44
458.598	94.44
458.818	108.44
459.038	99.44
459.258	92.44
459.478	84.44
459.698	103.44
459.918	97.44
460.138	118.44
460.358	116.44
460.578	110.44
460.798	105.44
461.018	116.44
461.238	114.44
461.458	106.44
461.678	106.44
461.898	115.44
462.118	116.44
462.338	104.44
462.558	116.44
462.777	116.44
462.997	111.44
463.217	110.44
463.437	95.44
463.657	110.44
463.876	88.44
464.096	106.44
464.316	106.44
464.536	101.44
464.755	114.44
464.975	108.44
465.195	110.44
465.414	103.44
465.634	97.44
465.854	123.44
466.073	112.44
466.293	111.44
466.512	129.44
466.732	140.44
466.951	130.44
467.171	114.44
467.391	126.44
467.61	123.44
467.829	133.44
468.049	126.44
468.268	139.44
468.488	132.44
468.707	124.44
468.927	152.44
469.146	133.44
469.365	130.44
469.585	123.44
469.804	146.44
470.023	133.44
470.243	151.44
470.462	151.44
470.681	146.44
470.901	157.44
471.12	127.44
471.339	143.44
471.558	134.44
471.777	146.44
471.997	133.44
472.216	125.44
472.435	126.44
472.654	106.44
472.873	102.44
473.092	98.44
473.311	122.44
473.53	114.44
473.749	118.44
473.968	117.44
474.187	120.44
474.406	108.44
474.625	122.44
474.844	118.44
475.063	123.44
475.282	134.44
475.501	120.44
475.72	120.44
475.939	124.44
476.158	114.44
476.377	113.44
476.596	126.44
476.814	110.44
477.033	117.44
477.252	110.44
477.471	118.44
477.69	129.44
477.908	143.44
478.127	122.44
478.346	134.44
478.564	129.44
478.783	129.44
479.002	147.44
479.22	135.44
479.439	128.44
479.658	129.44
479.876	111.44
480.095	108.44
480.313	124.44
480.532	117.44
480.751	101.44
480.969	94.44
481.188	79.44
481.406	98.44
481.624	75.44
481.843	75.44
482.061	98.44
482.28	113.44
482.498	107.44
482.717	122.44
482.935	132.44
483.153	141.44
483.372	161.44
483.59	161.44
483.808	138.44
484.027	136.44
484.245	132.44
484.463	150.44
484.681	162.44
484.9	124.44
485.118	140.44
485.336	144.44
485.554	112.44
485.772	108.44
485.99	100.44
486.209	105.44
486.427	118.44
486.645	120.44
486.863	143.44
487.081	128.44
487.299	117.44
487.517	120.44
487.735	167.44
487.953	180.44
488.171	176.44
488.389	171.44
488.607	132.44
488.825	138.44
489.043	127.44
489.261	132.44
489.479	147.44
489.696	136.44
489.914	126.44
490.132	138.44
490.35	148.44
490.568	155.44
490.786	156.44
491.003	173.44
491.221	176.44
491.439	185.44
491.657	184.44
491.874	197.44
492.092	216.44
492.31	217.44
492.527	199.44
492.745	214.44
492.963	176.44
493.18	185.44
493.398	177.44
493.615	182.44
493.833	177.44
494.05	179.44
494.268	183.44
494.485	168.44
494.703	166.44
494.92	159.44
495.138	176.44
495.355	171.44
495.573	177.44
495.79	172.44
496.008	180.44
496.225	159.44
496.442	154.44
496.66	164.44
496.877	163.44
497.094	175.44
497.312	153.44
497.529	160.44
497.746	150.44
497.963	126.44
498.181	138.44
498.398	147.44
498.615	126.44
498.832	107.44
499.049	134.44
499.267	114.44
499.484	110.44
499.701	131.44
499.918	126.44
500.135	136.44
500.352	141.44
500.569	134.44
500.786	142.44
501.003	135.44
501.22	149.44
501.437	119.44
501.654	130.44
501.871	133.44
502.088	126.44
502.305	133.44
502.522	123.44
502.739	130.44
502.956	128.44
503.172	119.44
503.389	98.44
503.606	112.44
503.823	118.44
504.04	112.44
504.256	122.44
504.473	111.44
504.69	114.44
504.907	122.44
505.123	112.44
505.34	127.44
505.557	127.44
505.773	118.44
505.99	115.44
506.207	120.44
506.423	117.44
506.64	126.44
506.856	129.44
507.073	122.44
507.289	118.44
507.506	102.44
507.722	115.44
507.939	108.44
508.155	106.44
508.372	107.44
508.588	96.44
508.805	116.44
509.021	94.44
509.238	95.44
509.454	97.44
509.67	107.44
509.887	93.44
510.103	91.44
510.319	89.44
510.536	107.44
510.752	90.44
510.968	82.44
511.184	80.44
511.401	82.44
511.617	94.44
511.833	80.44
