Data from Location2.07152019.Energy5.Lamp.07192019.3%Agarose_HRD10591_14-57-03-358.txt Node
Date: Fri Jul 19 14:57:03 EDT 2019
User: cochatt
Spectrometer: HR+D1059
Trigger mode: 1
Integration Time (sec): 1.000000E-1
Scans to average: 1
Electric dark correction enabled: true
Nonlinearity correction enabled: false
Boxcar width: 0
XAxis mode: Wavelengths
Number of Pixels in Spectrum: 2048
>>>>>Begin Spectral Data<<<<<
223.165	-2.94
223.4	-2.94
223.635	-2.94
223.869	-25.94
224.104	-22.94
224.338	-13.94
224.573	-21.94
224.808	-6.94
225.042	-10.94
225.277	-8.94
225.511	1.06
225.746	-2.94
225.98	2.06
226.215	3.06
226.449	33.06
226.683	12.06
226.918	31.06
227.152	35.06
227.387	40.06
227.621	33.06
227.856	52.06
228.09	49.06
228.324	54.06
228.559	50.06
228.793	55.06
229.027	55.06
229.262	68.06
229.496	62.06
229.73	73.06
229.964	62.06
230.199	75.06
230.433	78.06
230.667	79.06
230.901	78.06
231.136	89.06
231.37	90.06
231.604	79.06
231.838	74.06
232.072	78.06
232.306	88.06
232.541	83.06
232.775	86.06
233.009	94.06
233.243	77.06
233.477	82.06
233.711	85.06
233.945	83.06
234.179	73.06
234.413	68.06
234.647	73.06
234.881	101.06
235.115	86.06
235.349	83.06
235.583	75.06
235.817	79.06
236.051	78.06
236.285	74.06
236.519	87.06
236.753	77.06
236.987	88.06
237.221	63.06
237.455	79.06
237.689	66.06
237.922	57.06
238.156	72.06
238.39	75.06
238.624	72.06
238.858	79.06
239.091	65.06
239.325	66.06
239.559	82.06
239.793	80.06
240.027	81.06
240.26	74.06
240.494	83.06
240.728	64.06
240.961	66.06
241.195	85.06
241.429	74.06
241.662	69.06
241.896	75.06
242.13	77.06
242.363	91.06
242.597	74.06
242.83	89.06
243.064	71.06
243.298	77.06
243.531	72.06
243.765	73.06
243.998	75.06
244.232	83.06
244.465	74.06
244.699	69.06
244.932	79.06
245.166	76.06
245.399	75.06
245.633	73.06
245.866	71.06
246.099	72.06
246.333	100.06
246.566	62.06
246.8	74.06
247.033	73.06
247.266	69.06
247.5	75.06
247.733	76.06
247.966	67.06
248.2	64.06
248.433	69.06
248.666	79.06
248.899	82.06
249.133	65.06
249.366	75.06
249.599	75.06
249.832	81.06
250.066	84.06
250.299	75.06
250.532	75.06
250.765	62.06
250.998	87.06
251.231	71.06
251.465	61.06
251.698	86.06
251.931	77.06
252.164	77.06
252.397	61.06
252.63	82.06
252.863	82.06
253.096	83.06
253.329	83.06
253.562	76.06
253.795	72.06
254.028	81.06
254.261	79.06
254.494	66.06
254.727	84.06
254.96	63.06
255.193	92.06
255.426	76.06
255.659	72.06
255.892	75.06
256.124	85.06
256.357	72.06
256.59	75.06
256.823	86.06
257.056	70.06
257.289	85.06
257.521	68.06
257.754	67.06
257.987	87.06
258.22	96.06
258.452	80.06
258.685	75.06
258.918	68.06
259.151	78.06
259.383	82.06
259.616	87.06
259.849	75.06
260.081	70.06
260.314	91.06
260.547	67.06
260.779	83.06
261.012	77.06
261.244	83.06
261.477	85.06
261.71	73.06
261.942	79.06
262.175	81.06
262.407	78.06
262.64	77.06
262.872	67.06
263.105	62.06
263.337	78.06
263.57	85.06
263.802	68.06
264.035	80.06
264.267	92.06
264.499	85.06
264.732	80.06
264.964	83.06
265.197	80.06
265.429	83.06
265.661	78.06
265.894	93.06
266.126	83.06
266.358	78.06
266.591	71.06
266.823	81.06
267.055	71.06
267.287	92.06
267.52	61.06
267.752	70.06
267.984	73.06
268.216	80.06
268.448	98.06
268.681	81.06
268.913	91.06
269.145	82.06
269.377	87.06
269.609	89.06
269.841	71.06
270.073	77.06
270.306	79.06
270.538	68.06
270.77	81.06
271.002	74.06
271.234	89.06
271.466	81.06
271.698	75.06
271.93	67.06
272.162	92.06
272.394	103.06
272.626	74.06
272.858	88.06
273.09	78.06
273.322	79.06
273.553	80.06
273.785	71.06
274.017	81.06
274.249	75.06
274.481	81.06
274.713	79.06
274.945	81.06
275.176	95.06
275.408	81.06
275.64	82.06
275.872	79.06
276.104	82.06
276.335	81.06
276.567	72.06
276.799	91.06
277.031	97.06
277.262	85.06
277.494	84.06
277.726	90.06
277.957	83.06
278.189	81.06
278.421	84.06
278.652	83.06
278.884	75.06
279.115	79.06
279.347	85.06
279.579	79.06
279.81	67.06
280.042	83.06
280.273	80.06
280.505	91.06
280.736	78.06
280.968	93.06
281.199	71.06
281.431	93.06
281.662	85.06
281.894	82.06
282.125	75.06
282.356	67.06
282.588	84.06
282.819	84.06
283.051	73.06
283.282	96.06
283.513	85.06
283.745	79.06
283.976	83.06
284.207	77.06
284.439	79.06
284.67	86.06
284.901	89.06
285.132	86.06
285.364	66.06
285.595	80.06
285.826	76.06
286.057	72.06
286.288	77.06
286.52	93.06
286.751	75.06
286.982	82.06
287.213	83.06
287.444	80.06
287.675	82.06
287.906	80.06
288.138	79.06
288.369	88.06
288.6	79.06
288.831	71.06
289.062	81.06
289.293	78.06
289.524	81.06
289.755	91.06
289.986	91.06
290.217	85.06
290.448	78.06
290.679	80.06
290.91	77.06
291.141	74.06
291.371	84.06
291.602	81.06
291.833	82.06
292.064	80.06
292.295	65.06
292.526	79.06
292.757	90.06
292.987	82.06
293.218	90.06
293.449	85.06
293.68	87.06
293.91	93.06
294.141	82.06
294.372	77.06
294.603	84.06
294.833	76.06
295.064	83.06
295.295	74.06
295.525	96.06
295.756	75.06
295.987	78.06
296.217	89.06
296.448	76.06
296.679	78.06
296.909	76.06
297.14	80.06
297.37	72.06
297.601	93.06
297.831	66.06
298.062	91.06
298.292	105.06
298.523	81.06
298.753	80.06
298.984	82.06
299.214	76.06
299.445	84.06
299.675	78.06
299.905	77.06
300.136	68.06
300.366	74.06
300.597	75.06
300.827	83.06
301.057	86.06
301.288	87.06
301.518	89.06
301.748	75.06
301.979	70.06
302.209	71.06
302.439	80.06
302.669	57.06
302.9	86.06
303.13	75.06
303.36	81.06
303.59	90.06
303.82	66.06
304.051	72.06
304.281	78.06
304.511	84.06
304.741	70.06
304.971	83.06
305.201	89.06
305.431	81.06
305.661	94.06
305.891	69.06
306.121	65.06
306.352	70.06
306.582	73.06
306.812	88.06
307.042	90.06
307.272	85.06
307.502	65.06
307.731	77.06
307.961	78.06
308.191	76.06
308.421	80.06
308.651	88.06
308.881	80.06
309.111	83.06
309.341	84.06
309.571	87.06
309.8	85.06
310.03	88.06
310.26	71.06
310.49	91.06
310.72	90.06
310.949	80.06
311.179	81.06
311.409	87.06
311.639	81.06
311.868	85.06
312.098	74.06
312.328	91.06
312.557	90.06
312.787	84.06
313.017	71.06
313.246	75.06
313.476	85.06
313.706	72.06
313.935	71.06
314.165	102.06
314.394	93.06
314.624	74.06
314.853	90.06
315.083	85.06
315.312	81.06
315.542	74.06
315.771	78.06
316.001	99.06
316.23	84.06
316.46	79.06
316.689	90.06
316.919	92.06
317.148	83.06
317.377	84.06
317.607	100.06
317.836	82.06
318.065	87.06
318.295	79.06
318.524	80.06
318.753	100.06
318.983	82.06
319.212	84.06
319.441	78.06
319.67	82.06
319.9	84.06
320.129	87.06
320.358	90.06
320.587	81.06
320.816	87.06
321.046	81.06
321.275	78.06
321.504	86.06
321.733	86.06
321.962	83.06
322.191	80.06
322.42	84.06
322.649	86.06
322.878	91.06
323.108	103.06
323.337	74.06
323.566	82.06
323.795	85.06
324.024	81.06
324.253	81.06
324.482	80.06
324.71	86.06
324.939	81.06
325.168	77.06
325.397	83.06
325.626	88.06
325.855	94.06
326.084	87.06
326.313	69.06
326.542	82.06
326.77	86.06
326.999	80.06
327.228	69.06
327.457	82.06
327.686	90.06
327.914	85.06
328.143	69.06
328.372	94.06
328.6	87.06
328.829	81.06
329.058	73.06
329.287	81.06
329.515	90.06
329.744	86.06
329.972	92.06
330.201	80.06
330.43	94.06
330.658	87.06
330.887	85.06
331.115	96.06
331.344	81.06
331.572	84.06
331.801	82.06
332.03	78.06
332.258	87.06
332.486	87.06
332.715	73.06
332.943	84.06
333.172	87.06
333.4	94.06
333.629	91.06
333.857	83.06
334.085	82.06
334.314	87.06
334.542	81.06
334.771	73.06
334.999	90.06
335.227	94.06
335.455	62.06
335.684	83.06
335.912	81.06
336.14	94.06
336.369	86.06
336.597	85.06
336.825	87.06
337.053	80.06
337.281	95.06
337.51	76.06
337.738	79.06
337.966	76.06
338.194	74.06
338.422	77.06
338.65	79.06
338.878	74.06
339.106	88.06
339.334	88.06
339.562	99.06
339.79	101.06
340.018	83.06
340.246	79.06
340.474	82.06
340.702	83.06
340.93	79.06
341.158	72.06
341.386	74.06
341.614	95.06
341.842	86.06
342.07	84.06
342.298	69.06
342.526	87.06
342.754	82.06
342.981	86.06
343.209	86.06
343.437	91.06
343.665	78.06
343.893	70.06
344.12	70.06
344.348	93.06
344.576	91.06
344.804	77.06
345.031	79.06
345.259	83.06
345.487	71.06
345.714	79.06
345.942	84.06
346.17	80.06
346.397	85.06
346.625	63.06
346.853	65.06
347.08	89.06
347.308	82.06
347.535	89.06
347.763	81.06
347.99	96.06
348.218	89.06
348.445	86.06
348.673	79.06
348.9	90.06
349.128	90.06
349.355	89.06
349.583	90.06
349.81	71.06
350.037	78.06
350.265	72.06
350.492	87.06
350.72	81.06
350.947	74.06
351.174	91.06
351.402	82.06
351.629	86.06
351.856	88.06
352.083	82.06
352.311	85.06
352.538	87.06
352.765	75.06
352.992	85.06
353.22	71.06
353.447	88.06
353.674	90.06
353.901	101.06
354.128	85.06
354.355	88.06
354.583	93.06
354.81	85.06
355.037	63.06
355.264	75.06
355.491	75.06
355.718	74.06
355.945	77.06
356.172	94.06
356.399	77.06
356.626	74.06
356.853	76.06
357.08	78.06
357.307	102.06
357.534	87.06
357.761	78.06
357.988	89.06
358.215	70.06
358.441	73.06
358.668	85.06
358.895	91.06
359.122	74.06
359.349	85.06
359.576	69.06
359.802	73.06
360.029	85.06
360.256	77.06
360.483	85.06
360.709	88.06
360.936	92.06
361.163	83.06
361.39	82.06
361.616	86.06
361.843	83.06
362.07	85.06
362.296	83.06
362.523	89.06
362.749	78.06
362.976	76.06
363.203	89.06
363.429	93.06
363.656	71.06
363.882	78.06
364.109	95.06
364.335	82.06
364.562	81.06
364.788	88.06
365.015	70.06
365.241	79.06
365.468	91.06
365.694	76.06
365.92	79.06
366.147	91.06
366.373	86.06
366.599	77.06
366.826	96.06
367.052	82.06
367.278	81.06
367.505	75.06
367.731	84.06
367.957	78.06
368.184	86.06
368.41	96.06
368.636	97.06
368.862	80.06
369.089	79.06
369.315	72.06
369.541	97.06
369.767	95.06
369.993	88.06
370.219	90.06
370.445	93.06
370.672	88.06
370.898	93.06
371.124	85.06
371.35	80.06
371.576	85.06
371.802	93.06
372.028	88.06
372.254	89.06
372.48	85.06
372.706	81.06
372.932	82.06
373.158	91.06
373.384	88.06
373.61	86.06
373.835	92.06
374.061	102.06
374.287	86.06
374.513	91.06
374.739	91.06
374.965	99.06
375.191	87.06
375.416	94.06
375.642	76.06
375.868	80.06
376.094	93.06
376.319	88.06
376.545	97.06
376.771	87.06
376.997	101.06
377.222	88.06
377.448	80.06
377.674	80.06
377.899	80.06
378.125	88.06
378.35	96.06
378.576	95.06
378.802	86.06
379.027	109.06
379.253	98.06
379.478	85.06
379.704	95.06
379.929	82.06
380.155	103.06
380.38	93.06
380.606	79.06
380.831	93.06
381.057	101.06
381.282	102.06
381.507	101.06
381.733	86.06
381.958	79.06
382.184	99.06
382.409	80.06
382.634	103.06
382.86	95.06
383.085	106.06
383.31	97.06
383.535	75.06
383.761	78.06
383.986	89.06
384.211	98.06
384.436	101.06
384.662	90.06
384.887	95.06
385.112	85.06
385.337	90.06
385.562	90.06
385.787	88.06
386.013	128.06
386.238	95.06
386.463	102.06
386.688	106.06
386.913	86.06
387.138	92.06
387.363	90.06
387.588	99.06
387.813	95.06
388.038	107.06
388.263	101.06
388.488	96.06
388.713	85.06
388.938	91.06
389.163	96.06
389.387	93.06
389.612	92.06
389.837	98.06
390.062	86.06
390.287	95.06
390.512	98.06
390.736	97.06
390.961	101.06
391.186	104.06
391.411	77.06
391.636	99.06
391.86	95.06
392.085	104.06
392.31	107.06
392.534	113.06
392.759	98.06
392.984	98.06
393.208	91.06
393.433	91.06
393.658	112.06
393.882	99.06
394.107	104.06
394.331	119.06
394.556	100.06
394.78	100.06
395.005	104.06
395.229	99.06
395.454	99.06
395.678	93.06
395.903	132.06
396.127	99.06
396.352	93.06
396.576	105.06
396.801	110.06
397.025	99.06
397.249	103.06
397.474	117.06
397.698	115.06
397.922	113.06
398.147	104.06
398.371	108.06
398.595	117.06
398.82	115.06
399.044	91.06
399.268	113.06
399.492	110.06
399.717	109.06
399.941	106.06
400.165	108.06
400.389	110.06
400.613	102.06
400.837	114.06
401.062	112.06
401.286	100.06
401.51	112.06
401.734	112.06
401.958	115.06
402.182	116.06
402.406	113.06
402.63	100.06
402.854	113.06
403.078	119.06
403.302	110.06
403.526	103.06
403.75	100.06
403.974	112.06
404.198	111.06
404.422	107.06
404.645	118.06
404.869	110.06
405.093	109.06
405.317	115.06
405.541	113.06
405.765	117.06
405.988	113.06
406.212	130.06
406.436	118.06
406.66	99.06
406.883	124.06
407.107	117.06
407.331	109.06
407.555	115.06
407.778	118.06
408.002	125.06
408.226	113.06
408.449	119.06
408.673	115.06
408.896	129.06
409.12	117.06
409.344	109.06
409.567	123.06
409.791	119.06
410.014	126.06
410.238	125.06
410.461	128.06
410.685	124.06
410.908	126.06
411.132	127.06
411.355	123.06
411.578	127.06
411.802	130.06
412.025	115.06
412.249	110.06
412.472	108.06
412.695	111.06
412.919	129.06
413.142	121.06
413.365	101.06
413.589	121.06
413.812	109.06
414.035	130.06
414.258	121.06
414.482	120.06
414.705	133.06
414.928	117.06
415.151	105.06
415.374	119.06
415.597	133.06
415.821	119.06
416.044	116.06
416.267	125.06
416.49	138.06
416.713	134.06
416.936	122.06
417.159	122.06
417.382	118.06
417.605	112.06
417.828	131.06
418.051	129.06
418.274	116.06
418.497	129.06
418.72	141.06
418.943	135.06
419.166	137.06
419.389	147.06
419.611	139.06
419.834	133.06
420.057	131.06
420.28	145.06
420.503	121.06
420.726	125.06
420.948	130.06
421.171	126.06
421.394	137.06
421.617	128.06
421.839	133.06
422.062	130.06
422.285	119.06
422.507	133.06
422.73	139.06
422.953	132.06
423.175	122.06
423.398	122.06
423.621	121.06
423.843	125.06
424.066	125.06
424.288	139.06
424.511	142.06
424.733	140.06
424.956	145.06
425.178	134.06
425.401	124.06
425.623	133.06
425.846	125.06
426.068	119.06
426.291	119.06
426.513	129.06
426.735	141.06
426.958	135.06
427.18	144.06
427.402	119.06
427.625	121.06
427.847	129.06
428.069	113.06
428.292	127.06
428.514	125.06
428.736	115.06
428.958	139.06
429.181	125.06
429.403	121.06
429.625	137.06
429.847	121.06
430.069	123.06
430.292	123.06
430.514	122.06
430.736	121.06
430.958	117.06
431.18	127.06
431.402	118.06
431.624	133.06
431.846	113.06
432.068	101.06
432.29	97.06
432.512	115.06
432.734	122.06
432.956	118.06
433.178	125.06
433.4	150.06
433.622	134.06
433.844	135.06
434.066	125.06
434.287	103.06
434.509	113.06
434.731	105.06
434.953	116.06
435.175	119.06
435.397	131.06
435.618	122.06
435.84	126.06
436.062	112.06
436.284	117.06
436.505	125.06
436.727	122.06
436.949	125.06
437.17	129.06
437.392	119.06
437.614	103.06
437.835	107.06
438.057	99.06
438.278	103.06
438.5	144.06
438.721	136.06
438.943	115.06
439.165	131.06
439.386	128.06
439.608	142.06
439.829	125.06
440.05	124.06
440.272	131.06
440.493	147.06
440.715	135.06
440.936	143.06
441.158	147.06
441.379	148.06
441.6	138.06
441.822	145.06
442.043	141.06
442.264	141.06
442.486	137.06
442.707	136.06
442.928	125.06
443.149	136.06
443.371	137.06
443.592	134.06
443.813	127.06
444.034	121.06
444.255	131.06
444.476	136.06
444.698	156.06
444.919	122.06
445.14	283.06
445.361	191.06
445.582	157.06
445.803	134.06
446.024	151.06
446.245	145.06
446.466	151.06
446.687	144.06
446.908	155.06
447.129	161.06
447.35	142.06
447.571	157.06
447.792	150.06
448.013	137.06
448.234	136.06
448.455	128.06
448.675	122.06
448.896	134.06
449.117	155.06
449.338	140.06
449.559	145.06
449.779	139.06
450	121.06
450.221	143.06
450.442	124.06
450.662	132.06
450.883	131.06
451.104	130.06
451.324	134.06
451.545	128.06
451.766	138.06
451.986	125.06
452.207	123.06
452.428	105.06
452.648	127.06
452.869	121.06
453.089	108.06
453.31	106.06
453.53	117.06
453.751	109.06
453.971	110.06
454.192	103.06
454.412	112.06
454.633	129.06
454.853	112.06
455.073	117.06
455.294	130.06
455.514	117.06
455.734	126.06
455.955	106.06
456.175	114.06
456.395	121.06
456.616	102.06
456.836	101.06
457.056	113.06
457.276	92.06
457.497	110.06
457.717	93.06
457.937	110.06
458.157	118.06
458.377	101.06
458.598	109.06
458.818	101.06
459.038	91.06
459.258	81.06
459.478	94.06
459.698	82.06
459.918	107.06
460.138	107.06
460.358	108.06
460.578	123.06
460.798	118.06
461.018	107.06
461.238	117.06
461.458	96.06
461.678	103.06
461.898	116.06
462.118	117.06
462.338	121.06
462.558	107.06
462.777	118.06
462.997	101.06
463.217	92.06
463.437	114.06
463.657	113.06
463.876	97.06
464.096	102.06
464.316	94.06
464.536	127.06
464.755	118.06
464.975	117.06
465.195	113.06
465.414	113.06
465.634	107.06
465.854	94.06
466.073	125.06
466.293	118.06
466.512	127.06
466.732	138.06
466.951	127.06
467.171	127.06
467.391	123.06
467.61	117.06
467.829	114.06
468.049	113.06
468.268	116.06
468.488	113.06
468.707	136.06
468.927	135.06
469.146	127.06
469.365	134.06
469.585	136.06
469.804	154.06
470.023	152.06
470.243	147.06
470.462	137.06
470.681	131.06
470.901	134.06
471.12	147.06
471.339	131.06
471.558	145.06
471.777	136.06
471.997	119.06
472.216	130.06
472.435	120.06
472.654	104.06
472.873	102.06
473.092	111.06
473.311	121.06
473.53	125.06
473.749	134.06
473.968	129.06
474.187	118.06
474.406	122.06
474.625	129.06
474.844	119.06
475.063	130.06
475.282	105.06
475.501	101.06
475.72	116.06
475.939	117.06
476.158	129.06
476.377	118.06
476.596	125.06
476.814	129.06
477.033	93.06
477.252	113.06
477.471	125.06
477.69	128.06
477.908	147.06
478.127	138.06
478.346	138.06
478.564	125.06
478.783	122.06
479.002	131.06
479.22	128.06
479.439	127.06
479.658	121.06
479.876	125.06
480.095	109.06
480.313	120.06
480.532	114.06
480.751	121.06
480.969	97.06
481.188	95.06
481.406	99.06
481.624	90.06
481.843	83.06
482.061	79.06
482.28	104.06
482.498	111.06
482.717	99.06
482.935	120.06
483.153	137.06
483.372	149.06
483.59	145.06
483.808	133.06
484.027	133.06
484.245	123.06
484.463	131.06
484.681	161.06
484.9	153.06
485.118	138.06
485.336	129.06
485.554	99.06
485.772	91.06
485.99	111.06
486.209	100.06
486.427	119.06
486.645	107.06
486.863	128.06
487.081	143.06
487.299	127.06
487.517	132.06
487.735	150.06
487.953	167.06
488.171	187.06
488.389	163.06
488.607	161.06
488.825	134.06
489.043	138.06
489.261	116.06
489.479	138.06
489.696	150.06
489.914	133.06
490.132	137.06
490.35	163.06
490.568	161.06
490.786	165.06
491.003	175.06
491.221	182.06
491.439	178.06
491.657	177.06
491.874	179.06
492.092	216.06
492.31	224.06
492.527	229.06
492.745	200.06
492.963	196.06
493.18	184.06
493.398	194.06
493.615	157.06
493.833	165.06
494.05	179.06
494.268	184.06
494.485	167.06
494.703	193.06
494.92	164.06
495.138	173.06
495.355	183.06
495.573	163.06
495.79	169.06
496.008	167.06
496.225	167.06
496.442	169.06
496.66	182.06
496.877	179.06
497.094	172.06
497.312	157.06
497.529	161.06
497.746	142.06
497.963	138.06
498.181	121.06
498.398	119.06
498.615	120.06
498.832	111.06
499.049	110.06
499.267	118.06
499.484	117.06
499.701	114.06
499.918	129.06
500.135	139.06
500.352	139.06
500.569	129.06
500.786	147.06
501.003	147.06
501.22	136.06
501.437	149.06
501.654	133.06
501.871	129.06
502.088	129.06
502.305	121.06
502.522	145.06
502.739	129.06
502.956	133.06
503.172	131.06
503.389	115.06
503.606	127.06
503.823	123.06
504.04	123.06
504.256	118.06
504.473	115.06
504.69	120.06
504.907	131.06
505.123	123.06
505.34	117.06
505.557	123.06
505.773	122.06
505.99	115.06
506.207	128.06
506.423	110.06
506.64	121.06
506.856	109.06
507.073	125.06
507.289	115.06
507.506	106.06
507.722	123.06
507.939	121.06
508.155	116.06
508.372	117.06
508.588	112.06
508.805	97.06
509.021	115.06
509.238	92.06
509.454	94.06
509.67	99.06
509.887	119.06
510.103	87.06
510.319	86.06
510.536	93.06
510.752	79.06
510.968	79.06
511.184	91.06
511.401	79.06
511.617	103.06
511.833	80.06
512.049	83.06
