Data from Location2.07152019.Energy5.Lamp.07192019.3%Agarose_HRD10591_14-57-54-359.txt Node
Date: Fri Jul 19 14:57:54 EDT 2019
User: cochatt
Spectrometer: HR+D1059
Trigger mode: 1
Integration Time (sec): 1.000000E-1
Scans to average: 1
Electric dark correction enabled: true
Nonlinearity correction enabled: false
Boxcar width: 0
XAxis mode: Wavelengths
Number of Pixels in Spectrum: 2048
>>>>>Begin Spectral Data<<<<<
223.165	-11.56
223.4	-11.56
223.635	-11.56
223.869	-22.56
224.104	-13.56
224.338	-12.56
224.573	-5.56
224.808	-0.56
225.042	-20.56
225.277	-11.56
225.511	4.44
225.746	-0.56
225.98	2.44
226.215	21.44
226.449	11.44
226.683	4.44
226.918	26.44
227.152	28.44
227.387	32.44
227.621	43.44
227.856	53.44
228.09	47.44
228.324	54.44
228.559	46.44
228.793	57.44
229.027	58.44
229.262	55.44
229.496	57.44
229.73	64.44
229.964	71.44
230.199	65.44
230.433	63.44
230.667	67.44
230.901	69.44
231.136	79.44
231.37	83.44
231.604	74.44
231.838	68.44
232.072	73.44
232.306	77.44
232.541	82.44
232.775	79.44
233.009	80.44
233.243	74.44
233.477	79.44
233.711	85.44
233.945	94.44
234.179	97.44
234.413	82.44
234.647	74.44
234.881	89.44
235.115	83.44
235.349	72.44
235.583	65.44
235.817	91.44
236.051	66.44
236.285	71.44
236.519	88.44
236.753	78.44
236.987	65.44
237.221	63.44
237.455	70.44
237.689	76.44
237.922	65.44
238.156	77.44
238.39	77.44
238.624	74.44
238.858	83.44
239.091	82.44
239.325	87.44
239.559	71.44
239.793	77.44
240.027	65.44
240.26	73.44
240.494	69.44
240.728	68.44
240.961	66.44
241.195	87.44
241.429	77.44
241.662	69.44
241.896	72.44
242.13	69.44
242.363	77.44
242.597	77.44
242.83	69.44
243.064	78.44
243.298	75.44
243.531	72.44
243.765	85.44
243.998	69.44
244.232	75.44
244.465	71.44
244.699	73.44
244.932	80.44
245.166	93.44
245.399	66.44
245.633	79.44
245.866	69.44
246.099	87.44
246.333	81.44
246.566	82.44
246.8	66.44
247.033	82.44
247.266	71.44
247.5	74.44
247.733	62.44
247.966	83.44
248.2	77.44
248.433	77.44
248.666	72.44
248.899	78.44
249.133	89.44
249.366	72.44
249.599	81.44
249.832	70.44
250.066	82.44
250.299	82.44
250.532	78.44
250.765	69.44
250.998	70.44
251.231	69.44
251.465	79.44
251.698	84.44
251.931	76.44
252.164	87.44
252.397	85.44
252.63	70.44
252.863	73.44
253.096	64.44
253.329	73.44
253.562	85.44
253.795	71.44
254.028	64.44
254.261	83.44
254.494	93.44
254.727	94.44
254.96	81.44
255.193	85.44
255.426	73.44
255.659	78.44
255.892	87.44
256.124	68.44
256.357	77.44
256.59	87.44
256.823	99.44
257.056	80.44
257.289	74.44
257.521	84.44
257.754	71.44
257.987	73.44
258.22	78.44
258.452	91.44
258.685	62.44
258.918	87.44
259.151	79.44
259.383	79.44
259.616	95.44
259.849	86.44
260.081	94.44
260.314	67.44
260.547	75.44
260.779	65.44
261.012	78.44
261.244	70.44
261.477	86.44
261.71	78.44
261.942	83.44
262.175	72.44
262.407	77.44
262.64	88.44
262.872	77.44
263.105	87.44
263.337	81.44
263.57	79.44
263.802	73.44
264.035	97.44
264.267	83.44
264.499	82.44
264.732	95.44
264.964	89.44
265.197	92.44
265.429	82.44
265.661	80.44
265.894	76.44
266.126	77.44
266.358	90.44
266.591	75.44
266.823	82.44
267.055	85.44
267.287	88.44
267.52	73.44
267.752	80.44
267.984	88.44
268.216	83.44
268.448	85.44
268.681	88.44
268.913	82.44
269.145	90.44
269.377	79.44
269.609	73.44
269.841	81.44
270.073	80.44
270.306	98.44
270.538	73.44
270.77	71.44
271.002	71.44
271.234	80.44
271.466	79.44
271.698	75.44
271.93	81.44
272.162	87.44
272.394	82.44
272.626	82.44
272.858	87.44
273.09	90.44
273.322	79.44
273.553	79.44
273.785	94.44
274.017	83.44
274.249	78.44
274.481	73.44
274.713	79.44
274.945	93.44
275.176	92.44
275.408	88.44
275.64	83.44
275.872	92.44
276.104	83.44
276.335	80.44
276.567	74.44
276.799	70.44
277.031	75.44
277.262	81.44
277.494	86.44
277.726	69.44
277.957	68.44
278.189	81.44
278.421	84.44
278.652	92.44
278.884	67.44
279.115	79.44
279.347	75.44
279.579	83.44
279.81	72.44
280.042	81.44
280.273	72.44
280.505	87.44
280.736	72.44
280.968	81.44
281.199	72.44
281.431	79.44
281.662	87.44
281.894	81.44
282.125	73.44
282.356	77.44
282.588	75.44
282.819	86.44
283.051	73.44
283.282	84.44
283.513	93.44
283.745	80.44
283.976	80.44
284.207	81.44
284.439	90.44
284.67	82.44
284.901	85.44
285.132	89.44
285.364	76.44
285.595	82.44
285.826	77.44
286.057	80.44
286.288	91.44
286.52	82.44
286.751	77.44
286.982	67.44
287.213	91.44
287.444	86.44
287.675	91.44
287.906	88.44
288.138	88.44
288.369	87.44
288.6	89.44
288.831	83.44
289.062	90.44
289.293	81.44
289.524	78.44
289.755	77.44
289.986	84.44
290.217	89.44
290.448	90.44
290.679	74.44
290.91	73.44
291.141	88.44
291.371	97.44
291.602	80.44
291.833	101.44
292.064	82.44
292.295	82.44
292.526	73.44
292.757	76.44
292.987	87.44
293.218	77.44
293.449	87.44
293.68	95.44
293.91	86.44
294.141	89.44
294.372	83.44
294.603	85.44
294.833	78.44
295.064	86.44
295.295	75.44
295.525	84.44
295.756	90.44
295.987	84.44
296.217	75.44
296.448	93.44
296.679	87.44
296.909	89.44
297.14	79.44
297.37	95.44
297.601	87.44
297.831	77.44
298.062	87.44
298.292	73.44
298.523	91.44
298.753	82.44
298.984	82.44
299.214	95.44
299.445	87.44
299.675	81.44
299.905	96.44
300.136	80.44
300.366	92.44
300.597	90.44
300.827	89.44
301.057	85.44
301.288	80.44
301.518	90.44
301.748	82.44
301.979	95.44
302.209	90.44
302.439	83.44
302.669	71.44
302.9	94.44
303.13	93.44
303.36	76.44
303.59	81.44
303.82	88.44
304.051	75.44
304.281	81.44
304.511	98.44
304.741	79.44
304.971	93.44
305.201	85.44
305.431	91.44
305.661	91.44
305.891	95.44
306.121	90.44
306.352	79.44
306.582	87.44
306.812	82.44
307.042	94.44
307.272	96.44
307.502	92.44
307.731	91.44
307.961	100.44
308.191	70.44
308.421	77.44
308.651	102.44
308.881	84.44
309.111	77.44
309.341	72.44
309.571	82.44
309.8	80.44
310.03	74.44
310.26	76.44
310.49	80.44
310.72	78.44
310.949	70.44
311.179	85.44
311.409	88.44
311.639	86.44
311.868	70.44
312.098	92.44
312.328	87.44
312.557	85.44
312.787	75.44
313.017	85.44
313.246	88.44
313.476	77.44
313.706	83.44
313.935	89.44
314.165	76.44
314.394	67.44
314.624	98.44
314.853	75.44
315.083	79.44
315.312	86.44
315.542	92.44
315.771	89.44
316.001	74.44
316.23	85.44
316.46	92.44
316.689	77.44
316.919	82.44
317.148	77.44
317.377	81.44
317.607	85.44
317.836	80.44
318.065	75.44
318.295	87.44
318.524	88.44
318.753	93.44
318.983	90.44
319.212	100.44
319.441	83.44
319.67	79.44
319.9	89.44
320.129	77.44
320.358	83.44
320.587	81.44
320.816	76.44
321.046	85.44
321.275	88.44
321.504	73.44
321.733	70.44
321.962	85.44
322.191	84.44
322.42	84.44
322.649	73.44
322.878	70.44
323.108	75.44
323.337	80.44
323.566	82.44
323.795	93.44
324.024	94.44
324.253	78.44
324.482	94.44
324.71	93.44
324.939	84.44
325.168	87.44
325.397	93.44
325.626	93.44
325.855	93.44
326.084	90.44
326.313	81.44
326.542	84.44
326.77	68.44
326.999	83.44
327.228	73.44
327.457	83.44
327.686	101.44
327.914	83.44
328.143	93.44
328.372	75.44
328.6	95.44
328.829	94.44
329.058	84.44
329.287	80.44
329.515	77.44
329.744	69.44
329.972	77.44
330.201	80.44
330.43	74.44
330.658	82.44
330.887	87.44
331.115	93.44
331.344	72.44
331.572	70.44
331.801	89.44
332.03	85.44
332.258	86.44
332.486	89.44
332.715	76.44
332.943	84.44
333.172	82.44
333.4	85.44
333.629	87.44
333.857	92.44
334.085	85.44
334.314	86.44
334.542	65.44
334.771	85.44
334.999	75.44
335.227	74.44
335.455	95.44
335.684	67.44
335.912	80.44
336.14	87.44
336.369	90.44
336.597	95.44
336.825	87.44
337.053	82.44
337.281	88.44
337.51	90.44
337.738	71.44
337.966	68.44
338.194	89.44
338.422	87.44
338.65	90.44
338.878	85.44
339.106	83.44
339.334	96.44
339.562	83.44
339.79	86.44
340.018	82.44
340.246	75.44
340.474	79.44
340.702	81.44
340.93	78.44
341.158	90.44
341.386	95.44
341.614	77.44
341.842	85.44
342.07	86.44
342.298	91.44
342.526	78.44
342.754	74.44
342.981	86.44
343.209	89.44
343.437	76.44
343.665	69.44
343.893	83.44
344.12	83.44
344.348	73.44
344.576	93.44
344.804	77.44
345.031	74.44
345.259	82.44
345.487	88.44
345.714	98.44
345.942	81.44
346.17	83.44
346.397	89.44
346.625	96.44
346.853	80.44
347.08	73.44
347.308	75.44
347.535	80.44
347.763	97.44
347.99	91.44
348.218	73.44
348.445	82.44
348.673	79.44
348.9	86.44
349.128	71.44
349.355	80.44
349.583	86.44
349.81	81.44
350.037	79.44
350.265	81.44
350.492	93.44
350.72	89.44
350.947	79.44
351.174	76.44
351.402	80.44
351.629	80.44
351.856	87.44
352.083	76.44
352.311	72.44
352.538	93.44
352.765	87.44
352.992	96.44
353.22	93.44
353.447	72.44
353.674	88.44
353.901	81.44
354.128	90.44
354.355	70.44
354.583	77.44
354.81	81.44
355.037	79.44
355.264	78.44
355.491	68.44
355.718	71.44
355.945	77.44
356.172	86.44
356.399	83.44
356.626	88.44
356.853	83.44
357.08	79.44
357.307	90.44
357.534	77.44
357.761	67.44
357.988	72.44
358.215	95.44
358.441	78.44
358.668	83.44
358.895	83.44
359.122	89.44
359.349	87.44
359.576	76.44
359.802	81.44
360.029	76.44
360.256	86.44
360.483	77.44
360.709	76.44
360.936	83.44
361.163	81.44
361.39	81.44
361.616	80.44
361.843	97.44
362.07	90.44
362.296	87.44
362.523	68.44
362.749	80.44
362.976	97.44
363.203	82.44
363.429	73.44
363.656	84.44
363.882	97.44
364.109	84.44
364.335	90.44
364.562	78.44
364.788	77.44
365.015	69.44
365.241	72.44
365.468	87.44
365.694	83.44
365.92	77.44
366.147	89.44
366.373	87.44
366.599	98.44
366.826	92.44
367.052	96.44
367.278	74.44
367.505	74.44
367.731	84.44
367.957	76.44
368.184	89.44
368.41	80.44
368.636	85.44
368.862	80.44
369.089	96.44
369.315	105.44
369.541	89.44
369.767	96.44
369.993	89.44
370.219	98.44
370.445	79.44
370.672	81.44
370.898	78.44
371.124	85.44
371.35	88.44
371.576	88.44
371.802	89.44
372.028	93.44
372.254	101.44
372.48	84.44
372.706	87.44
372.932	93.44
373.158	91.44
373.384	85.44
373.61	94.44
373.835	91.44
374.061	87.44
374.287	89.44
374.513	91.44
374.739	73.44
374.965	87.44
375.191	100.44
375.416	90.44
375.642	93.44
375.868	96.44
376.094	70.44
376.319	84.44
376.545	94.44
376.771	104.44
376.997	99.44
377.222	88.44
377.448	96.44
377.674	92.44
377.899	96.44
378.125	91.44
378.35	107.44
378.576	94.44
378.802	85.44
379.027	98.44
379.253	91.44
379.478	91.44
379.704	95.44
379.929	94.44
380.155	100.44
380.38	94.44
380.606	79.44
380.831	106.44
381.057	84.44
381.282	98.44
381.507	99.44
381.733	99.44
381.958	97.44
382.184	99.44
382.409	103.44
382.634	92.44
382.86	86.44
383.085	100.44
383.31	101.44
383.535	93.44
383.761	95.44
383.986	93.44
384.211	98.44
384.436	104.44
384.662	83.44
384.887	97.44
385.112	92.44
385.337	93.44
385.562	95.44
385.787	91.44
386.013	93.44
386.238	109.44
386.463	89.44
386.688	94.44
386.913	103.44
387.138	96.44
387.363	85.44
387.588	105.44
387.813	90.44
388.038	99.44
388.263	99.44
388.488	93.44
388.713	97.44
388.938	97.44
389.163	83.44
389.387	117.44
389.612	114.44
389.837	93.44
390.062	93.44
390.287	92.44
390.512	101.44
390.736	105.44
390.961	102.44
391.186	90.44
391.411	99.44
391.636	112.44
391.86	90.44
392.085	95.44
392.31	92.44
392.534	100.44
392.759	103.44
392.984	100.44
393.208	100.44
393.433	96.44
393.658	102.44
393.882	102.44
394.107	98.44
394.331	106.44
394.556	102.44
394.78	111.44
395.005	105.44
395.229	118.44
395.454	109.44
395.678	96.44
395.903	109.44
396.127	97.44
396.352	101.44
396.576	104.44
396.801	99.44
397.025	106.44
397.249	93.44
397.474	111.44
397.698	98.44
397.922	95.44
398.147	89.44
398.371	95.44
398.595	103.44
398.82	106.44
399.044	103.44
399.268	103.44
399.492	111.44
399.717	103.44
399.941	111.44
400.165	97.44
400.389	99.44
400.613	102.44
400.837	103.44
401.062	110.44
401.286	100.44
401.51	113.44
401.734	105.44
401.958	102.44
402.182	102.44
402.406	119.44
402.63	110.44
402.854	114.44
403.078	120.44
403.302	106.44
403.526	97.44
403.75	114.44
403.974	110.44
404.198	101.44
404.422	105.44
404.645	97.44
404.869	114.44
405.093	119.44
405.317	116.44
405.541	102.44
405.765	105.44
405.988	109.44
406.212	110.44
406.436	111.44
406.66	131.44
406.883	129.44
407.107	121.44
407.331	123.44
407.555	119.44
407.778	102.44
408.002	125.44
408.226	117.44
408.449	99.44
408.673	119.44
408.896	101.44
409.12	125.44
409.344	122.44
409.567	117.44
409.791	123.44
410.014	116.44
410.238	112.44
410.461	106.44
410.685	109.44
410.908	118.44
411.132	115.44
411.355	111.44
411.578	121.44
411.802	130.44
412.025	123.44
412.249	117.44
412.472	133.44
412.695	121.44
412.919	112.44
413.142	107.44
413.365	114.44
413.589	121.44
413.812	129.44
414.035	103.44
414.258	131.44
414.482	123.44
414.705	98.44
414.928	105.44
415.151	132.44
415.374	131.44
415.597	125.44
415.821	124.44
416.044	98.44
416.267	108.44
416.49	121.44
416.713	126.44
416.936	137.44
417.159	127.44
417.382	119.44
417.605	105.44
417.828	127.44
418.051	126.44
418.274	143.44
418.497	121.44
418.72	130.44
418.943	122.44
419.166	128.44
419.389	139.44
419.611	140.44
419.834	127.44
420.057	140.44
420.28	121.44
420.503	125.44
420.726	140.44
420.948	133.44
421.171	134.44
421.394	118.44
421.617	131.44
421.839	145.44
422.062	142.44
422.285	119.44
422.507	115.44
422.73	114.44
422.953	121.44
423.175	138.44
423.398	128.44
423.621	134.44
423.843	122.44
424.066	138.44
424.288	138.44
424.511	130.44
424.733	135.44
424.956	147.44
425.178	146.44
425.401	138.44
425.623	134.44
425.846	121.44
426.068	139.44
426.291	132.44
426.513	121.44
426.735	133.44
426.958	123.44
427.18	121.44
427.402	111.44
427.625	118.44
427.847	127.44
428.069	131.44
428.292	122.44
428.514	125.44
428.736	129.44
428.958	129.44
429.181	113.44
429.403	120.44
429.625	121.44
429.847	128.44
430.069	146.44
430.292	126.44
430.514	119.44
430.736	114.44
430.958	122.44
431.18	110.44
431.402	114.44
431.624	124.44
431.846	101.44
432.068	96.44
432.29	93.44
432.512	97.44
432.734	122.44
432.956	116.44
433.178	127.44
433.4	127.44
433.622	144.44
433.844	119.44
434.066	105.44
434.287	112.44
434.509	87.44
434.731	106.44
434.953	99.44
435.175	110.44
435.397	130.44
435.618	120.44
435.84	113.44
436.062	123.44
436.284	109.44
436.505	121.44
436.727	111.44
436.949	139.44
437.17	134.44
437.392	125.44
437.614	117.44
437.835	117.44
438.057	105.44
438.278	113.44
438.5	134.44
438.721	131.44
438.943	143.44
439.165	138.44
439.386	141.44
439.608	135.44
439.829	135.44
440.05	132.44
440.272	135.44
440.493	122.44
440.715	143.44
440.936	127.44
441.158	140.44
441.379	140.44
441.6	147.44
441.822	153.44
442.043	133.44
442.264	140.44
442.486	143.44
442.707	125.44
442.928	130.44
443.149	142.44
443.371	145.44
443.592	127.44
443.813	151.44
444.034	129.44
444.255	141.44
444.476	127.44
444.698	138.44
444.919	136.44
445.14	225.44
445.361	167.44
445.582	136.44
445.803	134.44
446.024	139.44
446.245	161.44
446.466	158.44
446.687	145.44
446.908	152.44
447.129	152.44
447.35	138.44
447.571	146.44
447.792	139.44
448.013	130.44
448.234	151.44
448.455	133.44
448.675	150.44
448.896	135.44
449.117	146.44
449.338	125.44
449.559	140.44
449.779	132.44
450	115.44
450.221	143.44
450.442	125.44
450.662	130.44
450.883	126.44
451.104	136.44
451.324	118.44
451.545	127.44
451.766	118.44
451.986	127.44
452.207	121.44
452.428	145.44
452.648	117.44
452.869	121.44
453.089	123.44
453.31	120.44
453.53	110.44
453.751	103.44
453.971	104.44
454.192	102.44
454.412	100.44
454.633	116.44
454.853	123.44
455.073	114.44
455.294	133.44
455.514	101.44
455.734	121.44
455.955	116.44
456.175	128.44
456.395	101.44
456.616	98.44
456.836	108.44
457.056	102.44
457.276	112.44
457.497	113.44
457.717	118.44
457.937	110.44
458.157	99.44
458.377	97.44
458.598	101.44
458.818	105.44
459.038	88.44
459.258	100.44
459.478	83.44
459.698	94.44
459.918	88.44
460.138	114.44
460.358	113.44
460.578	101.44
460.798	104.44
461.018	118.44
461.238	120.44
461.458	95.44
461.678	99.44
461.898	82.44
462.118	95.44
462.338	107.44
462.558	109.44
462.777	105.44
462.997	113.44
463.217	110.44
463.437	101.44
463.657	105.44
463.876	119.44
464.096	115.44
464.316	93.44
464.536	96.44
464.755	96.44
464.975	112.44
465.195	120.44
465.414	136.44
465.634	103.44
465.854	117.44
466.073	117.44
466.293	118.44
466.512	116.44
466.732	114.44
466.951	133.44
467.171	152.44
467.391	125.44
467.61	121.44
467.829	121.44
468.049	130.44
468.268	130.44
468.488	134.44
468.707	128.44
468.927	138.44
469.146	120.44
469.365	148.44
469.585	164.44
469.804	124.44
470.023	130.44
470.243	144.44
470.462	146.44
470.681	146.44
470.901	140.44
471.12	129.44
471.339	135.44
471.558	142.44
471.777	136.44
471.997	133.44
472.216	136.44
472.435	106.44
472.654	101.44
472.873	106.44
473.092	116.44
473.311	113.44
473.53	111.44
473.749	127.44
473.968	134.44
474.187	119.44
474.406	114.44
474.625	115.44
474.844	136.44
475.063	124.44
475.282	132.44
475.501	106.44
475.72	104.44
475.939	126.44
476.158	127.44
476.377	122.44
476.596	126.44
476.814	109.44
477.033	98.44
477.252	106.44
477.471	115.44
477.69	124.44
477.908	131.44
478.127	130.44
478.346	130.44
478.564	130.44
478.783	138.44
479.002	127.44
479.22	128.44
479.439	122.44
479.658	120.44
479.876	122.44
480.095	102.44
480.313	118.44
480.532	115.44
480.751	127.44
480.969	101.44
481.188	102.44
481.406	91.44
481.624	95.44
481.843	93.44
482.061	98.44
482.28	104.44
482.498	120.44
482.717	114.44
482.935	113.44
483.153	117.44
483.372	153.44
483.59	153.44
483.808	141.44
484.027	126.44
484.245	119.44
484.463	136.44
484.681	145.44
484.9	146.44
485.118	137.44
485.336	132.44
485.554	106.44
485.772	106.44
485.99	99.44
486.209	115.44
486.427	103.44
486.645	105.44
486.863	143.44
487.081	143.44
487.299	138.44
487.517	156.44
487.735	153.44
487.953	183.44
488.171	171.44
488.389	177.44
488.607	155.44
488.825	124.44
489.043	141.44
489.261	136.44
489.479	136.44
489.696	150.44
489.914	144.44
490.132	133.44
490.35	147.44
490.568	151.44
490.786	147.44
491.003	167.44
491.221	174.44
491.439	183.44
491.657	183.44
491.874	197.44
492.092	207.44
492.31	232.44
492.527	226.44
492.745	206.44
492.963	194.44
493.18	194.44
493.398	175.44
493.615	182.44
493.833	194.44
494.05	179.44
494.268	174.44
494.485	159.44
494.703	161.44
494.92	168.44
495.138	170.44
495.355	157.44
495.573	168.44
495.79	175.44
496.008	186.44
496.225	169.44
496.442	161.44
496.66	161.44
496.877	168.44
497.094	156.44
497.312	152.44
497.529	160.44
497.746	153.44
497.963	135.44
498.181	143.44
498.398	119.44
498.615	125.44
498.832	117.44
499.049	122.44
499.267	121.44
499.484	117.44
499.701	130.44
499.918	134.44
500.135	137.44
500.352	144.44
500.569	125.44
500.786	135.44
501.003	154.44
501.22	144.44
501.437	130.44
501.654	149.44
501.871	142.44
502.088	120.44
502.305	127.44
502.522	126.44
502.739	114.44
502.956	129.44
503.172	118.44
503.389	123.44
503.606	125.44
503.823	117.44
504.04	102.44
504.256	132.44
504.473	116.44
504.69	122.44
504.907	117.44
505.123	135.44
505.34	113.44
505.557	123.44
505.773	119.44
505.99	110.44
506.207	119.44
506.423	121.44
506.64	111.44
506.856	118.44
507.073	110.44
507.289	111.44
507.506	110.44
507.722	117.44
507.939	108.44
508.155	121.44
508.372	115.44
508.588	102.44
508.805	119.44
509.021	110.44
509.238	119.44
509.454	96.44
509.67	103.44
509.887	105.44
510.103	76.44
510.319	98.44
510.536	101.44
510.752	90.44
510.968	101.44
511.184	89.44
511.401	87.44
511.617	99.44
511.833	91.44
512.049	99.44
