Data from Location2.07152019.Energy5.Lamp.07192019.3%Agarose_HRD10591_14-58-38-359.txt Node
Date: Fri Jul 19 14:58:38 EDT 2019
User: cochatt
Spectrometer: HR+D1059
Trigger mode: 1
Integration Time (sec): 1.000000E-1
Scans to average: 1
Electric dark correction enabled: true
Nonlinearity correction enabled: false
Boxcar width: 0
XAxis mode: Wavelengths
Number of Pixels in Spectrum: 2048
>>>>>Begin Spectral Data<<<<<
223.165	-12.38
223.4	-12.38
223.635	-12.38
223.869	-12.38
224.104	-15.38
224.338	-13.38
224.573	-13.38
224.808	-19.38
225.042	3.62
225.277	-16.38
225.511	-11.38
225.746	2.62
225.98	4.62
226.215	11.62
226.449	18.62
226.683	22.62
226.918	13.62
227.152	36.62
227.387	28.62
227.621	36.62
227.856	39.62
228.09	45.62
228.324	52.62
228.559	56.62
228.793	53.62
229.027	77.62
229.262	65.62
229.496	67.62
229.73	63.62
229.964	65.62
230.199	66.62
230.433	66.62
230.667	69.62
230.901	60.62
231.136	70.62
231.37	77.62
231.604	73.62
231.838	81.62
232.072	74.62
232.306	75.62
232.541	69.62
232.775	79.62
233.009	78.62
233.243	73.62
233.477	65.62
233.711	89.62
233.945	75.62
234.179	82.62
234.413	83.62
234.647	59.62
234.881	59.62
235.115	81.62
235.349	78.62
235.583	90.62
235.817	73.62
236.051	74.62
236.285	66.62
236.519	71.62
236.753	75.62
236.987	63.62
237.221	68.62
237.455	69.62
237.689	71.62
237.922	76.62
238.156	64.62
238.39	67.62
238.624	66.62
238.858	68.62
239.091	62.62
239.325	69.62
239.559	78.62
239.793	60.62
240.027	65.62
240.26	67.62
240.494	84.62
240.728	67.62
240.961	67.62
241.195	67.62
241.429	74.62
241.662	70.62
241.896	62.62
242.13	65.62
242.363	80.62
242.597	72.62
242.83	77.62
243.064	73.62
243.298	72.62
243.531	53.62
243.765	80.62
243.998	64.62
244.232	62.62
244.465	68.62
244.699	76.62
244.932	71.62
245.166	72.62
245.399	68.62
245.633	70.62
245.866	74.62
246.099	86.62
246.333	83.62
246.566	85.62
246.8	83.62
247.033	77.62
247.266	81.62
247.5	84.62
247.733	79.62
247.966	75.62
248.2	71.62
248.433	85.62
248.666	70.62
248.899	75.62
249.133	70.62
249.366	74.62
249.599	68.62
249.832	77.62
250.066	83.62
250.299	70.62
250.532	94.62
250.765	56.62
250.998	68.62
251.231	79.62
251.465	64.62
251.698	67.62
251.931	78.62
252.164	56.62
252.397	86.62
252.63	84.62
252.863	69.62
253.096	77.62
253.329	63.62
253.562	77.62
253.795	82.62
254.028	89.62
254.261	69.62
254.494	70.62
254.727	69.62
254.96	68.62
255.193	87.62
255.426	76.62
255.659	78.62
255.892	87.62
256.124	60.62
256.357	77.62
256.59	81.62
256.823	64.62
257.056	89.62
257.289	64.62
257.521	61.62
257.754	84.62
257.987	82.62
258.22	63.62
258.452	69.62
258.685	85.62
258.918	59.62
259.151	70.62
259.383	80.62
259.616	83.62
259.849	82.62
260.081	74.62
260.314	75.62
260.547	73.62
260.779	69.62
261.012	61.62
261.244	75.62
261.477	70.62
261.71	72.62
261.942	76.62
262.175	71.62
262.407	78.62
262.64	73.62
262.872	70.62
263.105	82.62
263.337	76.62
263.57	72.62
263.802	77.62
264.035	82.62
264.267	80.62
264.499	79.62
264.732	79.62
264.964	76.62
265.197	66.62
265.429	69.62
265.661	71.62
265.894	74.62
266.126	76.62
266.358	74.62
266.591	64.62
266.823	78.62
267.055	74.62
267.287	72.62
267.52	80.62
267.752	85.62
267.984	74.62
268.216	68.62
268.448	64.62
268.681	75.62
268.913	83.62
269.145	74.62
269.377	76.62
269.609	60.62
269.841	83.62
270.073	71.62
270.306	85.62
270.538	77.62
270.77	73.62
271.002	69.62
271.234	78.62
271.466	74.62
271.698	72.62
271.93	80.62
272.162	89.62
272.394	78.62
272.626	81.62
272.858	68.62
273.09	74.62
273.322	74.62
273.553	73.62
273.785	79.62
274.017	79.62
274.249	92.62
274.481	78.62
274.713	71.62
274.945	72.62
275.176	88.62
275.408	67.62
275.64	83.62
275.872	69.62
276.104	80.62
276.335	76.62
276.567	76.62
276.799	80.62
277.031	66.62
277.262	79.62
277.494	80.62
277.726	71.62
277.957	73.62
278.189	57.62
278.421	92.62
278.652	76.62
278.884	80.62
279.115	81.62
279.347	67.62
279.579	80.62
279.81	87.62
280.042	84.62
280.273	70.62
280.505	77.62
280.736	76.62
280.968	76.62
281.199	84.62
281.431	68.62
281.662	83.62
281.894	69.62
282.125	67.62
282.356	76.62
282.588	80.62
282.819	95.62
283.051	80.62
283.282	66.62
283.513	93.62
283.745	81.62
283.976	81.62
284.207	76.62
284.439	72.62
284.67	73.62
284.901	74.62
285.132	78.62
285.364	89.62
285.595	82.62
285.826	85.62
286.057	80.62
286.288	77.62
286.52	76.62
286.751	81.62
286.982	72.62
287.213	88.62
287.444	89.62
287.675	71.62
287.906	87.62
288.138	76.62
288.369	68.62
288.6	75.62
288.831	79.62
289.062	82.62
289.293	85.62
289.524	78.62
289.755	85.62
289.986	82.62
290.217	70.62
290.448	75.62
290.679	72.62
290.91	71.62
291.141	79.62
291.371	88.62
291.602	77.62
291.833	95.62
292.064	65.62
292.295	82.62
292.526	64.62
292.757	75.62
292.987	80.62
293.218	86.62
293.449	85.62
293.68	84.62
293.91	74.62
294.141	78.62
294.372	82.62
294.603	69.62
294.833	83.62
295.064	90.62
295.295	69.62
295.525	72.62
295.756	70.62
295.987	64.62
296.217	75.62
296.448	80.62
296.679	86.62
296.909	70.62
297.14	88.62
297.37	73.62
297.601	74.62
297.831	76.62
298.062	75.62
298.292	83.62
298.523	77.62
298.753	90.62
298.984	91.62
299.214	80.62
299.445	80.62
299.675	81.62
299.905	75.62
300.136	81.62
300.366	81.62
300.597	84.62
300.827	79.62
301.057	71.62
301.288	81.62
301.518	77.62
301.748	76.62
301.979	76.62
302.209	81.62
302.439	72.62
302.669	94.62
302.9	79.62
303.13	78.62
303.36	81.62
303.59	81.62
303.82	78.62
304.051	77.62
304.281	79.62
304.511	82.62
304.741	79.62
304.971	76.62
305.201	78.62
305.431	75.62
305.661	81.62
305.891	69.62
306.121	75.62
306.352	69.62
306.582	78.62
306.812	82.62
307.042	86.62
307.272	75.62
307.502	88.62
307.731	74.62
307.961	80.62
308.191	73.62
308.421	75.62
308.651	78.62
308.881	78.62
309.111	75.62
309.341	74.62
309.571	88.62
309.8	98.62
310.03	86.62
310.26	70.62
310.49	71.62
310.72	88.62
310.949	87.62
311.179	70.62
311.409	76.62
311.639	72.62
311.868	83.62
312.098	84.62
312.328	82.62
312.557	83.62
312.787	74.62
313.017	77.62
313.246	66.62
313.476	93.62
313.706	81.62
313.935	84.62
314.165	82.62
314.394	74.62
314.624	78.62
314.853	90.62
315.083	74.62
315.312	65.62
315.542	75.62
315.771	65.62
316.001	82.62
316.23	85.62
316.46	69.62
316.689	75.62
316.919	72.62
317.148	77.62
317.377	91.62
317.607	88.62
317.836	86.62
318.065	76.62
318.295	90.62
318.524	66.62
318.753	75.62
318.983	78.62
319.212	91.62
319.441	82.62
319.67	80.62
319.9	85.62
320.129	87.62
320.358	78.62
320.587	83.62
320.816	65.62
321.046	77.62
321.275	74.62
321.504	64.62
321.733	78.62
321.962	76.62
322.191	84.62
322.42	67.62
322.649	83.62
322.878	87.62
323.108	79.62
323.337	71.62
323.566	79.62
323.795	84.62
324.024	76.62
324.253	71.62
324.482	72.62
324.71	85.62
324.939	72.62
325.168	76.62
325.397	74.62
325.626	75.62
325.855	79.62
326.084	79.62
326.313	71.62
326.542	86.62
326.77	83.62
326.999	71.62
327.228	81.62
327.457	78.62
327.686	84.62
327.914	82.62
328.143	74.62
328.372	83.62
328.6	66.62
328.829	76.62
329.058	72.62
329.287	59.62
329.515	82.62
329.744	72.62
329.972	76.62
330.201	74.62
330.43	80.62
330.658	72.62
330.887	64.62
331.115	66.62
331.344	68.62
331.572	77.62
331.801	66.62
332.03	63.62
332.258	81.62
332.486	78.62
332.715	86.62
332.943	93.62
333.172	77.62
333.4	92.62
333.629	71.62
333.857	71.62
334.085	84.62
334.314	77.62
334.542	89.62
334.771	62.62
334.999	80.62
335.227	81.62
335.455	67.62
335.684	72.62
335.912	73.62
336.14	74.62
336.369	81.62
336.597	76.62
336.825	74.62
337.053	81.62
337.281	86.62
337.51	71.62
337.738	79.62
337.966	72.62
338.194	62.62
338.422	81.62
338.65	75.62
338.878	67.62
339.106	81.62
339.334	75.62
339.562	76.62
339.79	86.62
340.018	77.62
340.246	72.62
340.474	81.62
340.702	84.62
340.93	68.62
341.158	89.62
341.386	80.62
341.614	76.62
341.842	71.62
342.07	77.62
342.298	73.62
342.526	81.62
342.754	70.62
342.981	74.62
343.209	79.62
343.437	84.62
343.665	81.62
343.893	78.62
344.12	92.62
344.348	85.62
344.576	84.62
344.804	75.62
345.031	64.62
345.259	76.62
345.487	78.62
345.714	81.62
345.942	85.62
346.17	75.62
346.397	76.62
346.625	71.62
346.853	64.62
347.08	82.62
347.308	75.62
347.535	92.62
347.763	73.62
347.99	78.62
348.218	75.62
348.445	71.62
348.673	90.62
348.9	81.62
349.128	84.62
349.355	65.62
349.583	85.62
349.81	76.62
350.037	82.62
350.265	82.62
350.492	78.62
350.72	88.62
350.947	72.62
351.174	80.62
351.402	80.62
351.629	78.62
351.856	93.62
352.083	65.62
352.311	73.62
352.538	75.62
352.765	70.62
352.992	76.62
353.22	90.62
353.447	69.62
353.674	105.62
353.901	84.62
354.128	72.62
354.355	76.62
354.583	77.62
354.81	78.62
355.037	64.62
355.264	68.62
355.491	86.62
355.718	77.62
355.945	65.62
356.172	82.62
356.399	80.62
356.626	73.62
356.853	64.62
357.08	88.62
357.307	67.62
357.534	69.62
357.761	74.62
357.988	72.62
358.215	81.62
358.441	85.62
358.668	76.62
358.895	91.62
359.122	78.62
359.349	80.62
359.576	83.62
359.802	77.62
360.029	80.62
360.256	76.62
360.483	75.62
360.709	70.62
360.936	82.62
361.163	73.62
361.39	86.62
361.616	80.62
361.843	83.62
362.07	87.62
362.296	83.62
362.523	66.62
362.749	85.62
362.976	68.62
363.203	80.62
363.429	73.62
363.656	88.62
363.882	67.62
364.109	86.62
364.335	84.62
364.562	66.62
364.788	82.62
365.015	71.62
365.241	85.62
365.468	79.62
365.694	75.62
365.92	74.62
366.147	75.62
366.373	81.62
366.599	75.62
366.826	70.62
367.052	85.62
367.278	68.62
367.505	76.62
367.731	82.62
367.957	83.62
368.184	81.62
368.41	88.62
368.636	96.62
368.862	88.62
369.089	77.62
369.315	90.62
369.541	94.62
369.767	72.62
369.993	67.62
370.219	79.62
370.445	85.62
370.672	68.62
370.898	86.62
371.124	88.62
371.35	87.62
371.576	82.62
371.802	87.62
372.028	78.62
372.254	98.62
372.48	87.62
372.706	76.62
372.932	90.62
373.158	80.62
373.384	108.62
373.61	76.62
373.835	89.62
374.061	66.62
374.287	94.62
374.513	84.62
374.739	85.62
374.965	86.62
375.191	92.62
375.416	93.62
375.642	92.62
375.868	94.62
376.094	73.62
376.319	77.62
376.545	95.62
376.771	81.62
376.997	75.62
377.222	86.62
377.448	88.62
377.674	95.62
377.899	81.62
378.125	81.62
378.35	69.62
378.576	77.62
378.802	81.62
379.027	89.62
379.253	83.62
379.478	84.62
379.704	85.62
379.929	82.62
380.155	77.62
380.38	84.62
380.606	87.62
380.831	96.62
381.057	95.62
381.282	84.62
381.507	90.62
381.733	84.62
381.958	78.62
382.184	93.62
382.409	86.62
382.634	93.62
382.86	100.62
383.085	88.62
383.31	92.62
383.535	100.62
383.761	85.62
383.986	83.62
384.211	94.62
384.436	88.62
384.662	90.62
384.887	91.62
385.112	92.62
385.337	96.62
385.562	93.62
385.787	87.62
386.013	101.62
386.238	86.62
386.463	89.62
386.688	93.62
386.913	101.62
387.138	94.62
387.363	85.62
387.588	90.62
387.813	92.62
388.038	101.62
388.263	99.62
388.488	90.62
388.713	92.62
388.938	92.62
389.163	94.62
389.387	89.62
389.612	109.62
389.837	100.62
390.062	101.62
390.287	92.62
390.512	102.62
390.736	88.62
390.961	89.62
391.186	98.62
391.411	92.62
391.636	95.62
391.86	115.62
392.085	90.62
392.31	86.62
392.534	107.62
392.759	105.62
392.984	109.62
393.208	102.62
393.433	97.62
393.658	110.62
393.882	90.62
394.107	75.62
394.331	96.62
394.556	111.62
394.78	113.62
395.005	108.62
395.229	104.62
395.454	98.62
395.678	96.62
395.903	96.62
396.127	97.62
396.352	95.62
396.576	114.62
396.801	98.62
397.025	100.62
397.249	105.62
397.474	107.62
397.698	99.62
397.922	104.62
398.147	97.62
398.371	93.62
398.595	92.62
398.82	86.62
399.044	107.62
399.268	102.62
399.492	110.62
399.717	114.62
399.941	101.62
400.165	110.62
400.389	94.62
400.613	99.62
400.837	105.62
401.062	100.62
401.286	108.62
401.51	118.62
401.734	93.62
401.958	90.62
402.182	116.62
402.406	92.62
402.63	112.62
402.854	104.62
403.078	100.62
403.302	96.62
403.526	88.62
403.75	98.62
403.974	99.62
404.198	104.62
404.422	112.62
404.645	126.62
404.869	112.62
405.093	100.62
405.317	109.62
405.541	109.62
405.765	116.62
405.988	113.62
406.212	104.62
406.436	95.62
406.66	106.62
406.883	112.62
407.107	108.62
407.331	112.62
407.555	114.62
407.778	109.62
408.002	117.62
408.226	118.62
408.449	100.62
408.673	118.62
408.896	118.62
409.12	128.62
409.344	120.62
409.567	114.62
409.791	112.62
410.014	122.62
410.238	101.62
410.461	114.62
410.685	108.62
410.908	100.62
411.132	112.62
411.355	129.62
411.578	108.62
411.802	112.62
412.025	100.62
412.249	112.62
412.472	100.62
412.695	114.62
412.919	120.62
413.142	110.62
413.365	110.62
413.589	121.62
413.812	129.62
414.035	110.62
414.258	114.62
414.482	106.62
414.705	111.62
414.928	115.62
415.151	110.62
415.374	122.62
415.597	128.62
415.821	118.62
416.044	126.62
416.267	113.62
416.49	108.62
416.713	130.62
416.936	126.62
417.159	111.62
417.382	109.62
417.605	125.62
417.828	98.62
418.051	126.62
418.274	125.62
418.497	133.62
418.72	141.62
418.943	126.62
419.166	125.62
419.389	152.62
419.611	149.62
419.834	121.62
420.057	122.62
420.28	119.62
420.503	121.62
420.726	118.62
420.948	116.62
421.171	124.62
421.394	104.62
421.617	126.62
421.839	122.62
422.062	138.62
422.285	126.62
422.507	115.62
422.73	114.62
422.953	120.62
423.175	121.62
423.398	115.62
423.621	118.62
423.843	124.62
424.066	138.62
424.288	129.62
424.511	146.62
424.733	128.62
424.956	124.62
425.178	128.62
425.401	131.62
425.623	128.62
425.846	131.62
426.068	120.62
426.291	122.62
426.513	126.62
426.735	116.62
426.958	135.62
427.18	120.62
427.402	129.62
427.625	112.62
427.847	118.62
428.069	135.62
428.292	114.62
428.514	113.62
428.736	104.62
428.958	130.62
429.181	122.62
429.403	126.62
429.625	132.62
429.847	118.62
430.069	124.62
430.292	118.62
430.514	121.62
430.736	137.62
430.958	128.62
431.18	124.62
431.402	120.62
431.624	108.62
431.846	93.62
432.068	82.62
432.29	97.62
432.512	105.62
432.734	124.62
432.956	126.62
433.178	137.62
433.4	111.62
433.622	126.62
433.844	107.62
434.066	112.62
434.287	97.62
434.509	80.62
434.731	92.62
434.953	124.62
435.175	110.62
435.397	120.62
435.618	106.62
435.84	96.62
436.062	111.62
436.284	108.62
436.505	123.62
436.727	119.62
436.949	123.62
437.17	126.62
437.392	119.62
437.614	98.62
437.835	106.62
438.057	98.62
438.278	112.62
438.5	132.62
438.721	124.62
438.943	117.62
439.165	125.62
439.386	134.62
439.608	133.62
439.829	136.62
440.05	124.62
440.272	121.62
440.493	132.62
440.715	145.62
440.936	138.62
441.158	138.62
441.379	139.62
441.6	142.62
441.822	131.62
442.043	143.62
442.264	131.62
442.486	142.62
442.707	140.62
442.928	131.62
443.149	113.62
443.371	127.62
443.592	128.62
443.813	148.62
444.034	136.62
444.255	139.62
444.476	154.62
444.698	138.62
444.919	135.62
445.14	234.62
445.361	186.62
445.582	144.62
445.803	136.62
446.024	143.62
446.245	133.62
446.466	117.62
446.687	140.62
446.908	140.62
447.129	140.62
447.35	145.62
447.571	141.62
447.792	120.62
448.013	138.62
448.234	128.62
448.455	140.62
448.675	126.62
448.896	132.62
449.117	126.62
449.338	120.62
449.559	125.62
449.779	129.62
450	115.62
450.221	132.62
450.442	120.62
450.662	129.62
450.883	137.62
451.104	127.62
451.324	136.62
451.545	128.62
451.766	120.62
451.986	134.62
452.207	114.62
452.428	114.62
452.648	114.62
452.869	124.62
453.089	105.62
453.31	114.62
453.53	110.62
453.751	101.62
453.971	100.62
454.192	102.62
454.412	98.62
454.633	116.62
454.853	110.62
455.073	114.62
455.294	112.62
455.514	100.62
455.734	111.62
455.955	119.62
456.175	110.62
456.395	112.62
456.616	97.62
456.836	109.62
457.056	123.62
457.276	106.62
457.497	99.62
457.717	104.62
457.937	106.62
458.157	116.62
458.377	104.62
458.598	91.62
458.818	85.62
459.038	94.62
459.258	95.62
459.478	87.62
459.698	76.62
459.918	76.62
460.138	91.62
460.358	105.62
460.578	106.62
460.798	97.62
461.018	114.62
461.238	101.62
461.458	118.62
461.678	104.62
461.898	105.62
462.118	113.62
462.338	120.62
462.558	104.62
462.777	97.62
462.997	99.62
463.217	97.62
463.437	106.62
463.657	99.62
463.876	113.62
464.096	112.62
464.316	106.62
464.536	111.62
464.755	106.62
464.975	124.62
465.195	122.62
465.414	97.62
465.634	112.62
465.854	126.62
466.073	109.62
466.293	130.62
466.512	122.62
466.732	129.62
466.951	115.62
467.171	118.62
467.391	128.62
467.61	131.62
467.829	130.62
468.049	129.62
468.268	133.62
468.488	123.62
468.707	128.62
468.927	133.62
469.146	137.62
469.365	134.62
469.585	149.62
469.804	138.62
470.023	123.62
470.243	120.62
470.462	144.62
470.681	121.62
470.901	130.62
471.12	146.62
471.339	142.62
471.558	122.62
471.777	127.62
471.997	125.62
472.216	124.62
472.435	117.62
472.654	107.62
472.873	113.62
473.092	108.62
473.311	112.62
473.53	111.62
473.749	133.62
473.968	122.62
474.187	112.62
474.406	121.62
474.625	114.62
474.844	128.62
475.063	126.62
475.282	128.62
475.501	104.62
475.72	125.62
475.939	134.62
476.158	121.62
476.377	120.62
476.596	118.62
476.814	122.62
477.033	104.62
477.252	113.62
477.471	122.62
477.69	119.62
477.908	133.62
478.127	115.62
478.346	141.62
478.564	132.62
478.783	138.62
479.002	144.62
479.22	133.62
479.439	112.62
479.658	111.62
479.876	112.62
480.095	102.62
480.313	106.62
480.532	93.62
480.751	108.62
480.969	102.62
481.188	82.62
481.406	98.62
481.624	86.62
481.843	67.62
482.061	74.62
482.28	115.62
482.498	117.62
482.717	109.62
482.935	112.62
483.153	125.62
483.372	134.62
483.59	138.62
483.808	134.62
484.027	138.62
484.245	120.62
484.463	139.62
484.681	146.62
484.9	138.62
485.118	140.62
485.336	126.62
485.554	121.62
485.772	85.62
485.99	97.62
486.209	107.62
486.427	111.62
486.645	120.62
486.863	124.62
487.081	140.62
487.299	133.62
487.517	124.62
487.735	164.62
487.953	180.62
488.171	172.62
488.389	156.62
488.607	130.62
488.825	129.62
489.043	120.62
489.261	134.62
489.479	126.62
489.696	137.62
489.914	123.62
490.132	132.62
490.35	142.62
490.568	160.62
490.786	162.62
491.003	166.62
491.221	164.62
491.439	189.62
491.657	171.62
491.874	192.62
492.092	213.62
492.31	230.62
492.527	212.62
492.745	202.62
492.963	180.62
493.18	189.62
493.398	182.62
493.615	160.62
493.833	172.62
494.05	164.62
494.268	168.62
494.485	180.62
494.703	176.62
494.92	174.62
495.138	166.62
495.355	169.62
495.573	156.62
495.79	164.62
496.008	172.62
496.225	155.62
496.442	155.62
496.66	177.62
496.877	150.62
497.094	146.62
497.312	152.62
497.529	163.62
497.746	150.62
497.963	134.62
498.181	131.62
498.398	129.62
498.615	117.62
498.832	97.62
499.049	104.62
499.267	110.62
499.484	115.62
499.701	133.62
499.918	135.62
500.135	128.62
500.352	147.62
500.569	140.62
500.786	126.62
501.003	139.62
501.22	146.62
501.437	131.62
501.654	127.62
501.871	130.62
502.088	115.62
502.305	132.62
502.522	124.62
502.739	133.62
502.956	112.62
503.172	113.62
503.389	121.62
503.606	107.62
503.823	105.62
504.04	112.62
504.256	114.62
504.473	98.62
504.69	116.62
504.907	117.62
505.123	100.62
505.34	112.62
505.557	119.62
505.773	117.62
505.99	112.62
506.207	79.62
506.423	120.62
506.64	108.62
506.856	106.62
507.073	117.62
507.289	114.62
507.506	105.62
507.722	116.62
507.939	108.62
508.155	113.62
508.372	122.62
508.588	128.62
508.805	101.62
509.021	106.62
509.238	84.62
509.454	94.62
509.67	104.62
509.887	92.62
510.103	93.62
510.319	103.62
510.536	84.62
510.752	82.62
510.968	85.62
511.184	78.62
511.401	88.62
511.617	85.62
511.833	79.62
512.049	75.62
512.265	97.62
512.481	90.62
