Data from Location2.07152019.Energy5.Lamp.07192019.3%Agarose_HRD10591_14-55-53-358.txt Node
Date: Fri Jul 19 14:55:53 EDT 2019
User: cochatt
Spectrometer: HR+D1059
Trigger mode: 1
Integration Time (sec): 1.000000E-1
Scans to average: 1
Electric dark correction enabled: true
Nonlinearity correction enabled: false
Boxcar width: 0
XAxis mode: Wavelengths
Number of Pixels in Spectrum: 2048
>>>>>Begin Spectral Data<<<<<
223.165	-20.19
223.4	-20.19
223.635	-20.19
223.869	-15.19
224.104	-8.19
224.338	-22.19
224.573	-21.19
224.808	-12.19
225.042	-7.19
225.277	1.81
225.511	-10.19
225.746	-3.19
225.98	13.81
226.215	2.81
226.449	15.81
226.683	22.81
226.918	44.81
227.152	17.81
227.387	31.81
227.621	51.81
227.856	38.81
228.09	49.81
228.324	45.81
228.559	59.81
228.793	59.81
229.027	40.81
229.262	53.81
229.496	63.81
229.73	65.81
229.964	78.81
230.199	84.81
230.433	71.81
230.667	75.81
230.901	76.81
231.136	77.81
231.37	65.81
231.604	90.81
231.838	78.81
232.072	74.81
232.306	83.81
232.541	82.81
232.775	64.81
233.009	81.81
233.243	68.81
233.477	73.81
233.711	87.81
233.945	75.81
234.179	88.81
234.413	79.81
234.647	85.81
234.881	68.81
235.115	95.81
235.349	78.81
235.583	85.81
235.817	77.81
236.051	88.81
236.285	95.81
236.519	74.81
236.753	69.81
236.987	93.81
237.221	77.81
237.455	78.81
237.689	69.81
237.922	74.81
238.156	68.81
238.39	81.81
238.624	73.81
238.858	75.81
239.091	68.81
239.325	73.81
239.559	77.81
239.793	82.81
240.027	80.81
240.26	73.81
240.494	72.81
240.728	81.81
240.961	85.81
241.195	92.81
241.429	78.81
241.662	76.81
241.896	72.81
242.13	86.81
242.363	87.81
242.597	59.81
242.83	75.81
243.064	78.81
243.298	72.81
243.531	64.81
243.765	74.81
243.998	83.81
244.232	88.81
244.465	83.81
244.699	74.81
244.932	72.81
245.166	66.81
245.399	81.81
245.633	75.81
245.866	85.81
246.099	86.81
246.333	83.81
246.566	76.81
246.8	67.81
247.033	72.81
247.266	85.81
247.5	81.81
247.733	81.81
247.966	83.81
248.2	75.81
248.433	77.81
248.666	92.81
248.899	74.81
249.133	80.81
249.366	73.81
249.599	70.81
249.832	81.81
250.066	76.81
250.299	82.81
250.532	77.81
250.765	62.81
250.998	69.81
251.231	83.81
251.465	89.81
251.698	81.81
251.931	83.81
252.164	72.81
252.397	63.81
252.63	76.81
252.863	68.81
253.096	81.81
253.329	82.81
253.562	70.81
253.795	77.81
254.028	88.81
254.261	68.81
254.494	74.81
254.727	77.81
254.96	74.81
255.193	69.81
255.426	83.81
255.659	87.81
255.892	87.81
256.124	73.81
256.357	79.81
256.59	76.81
256.823	96.81
257.056	79.81
257.289	83.81
257.521	97.81
257.754	79.81
257.987	70.81
258.22	75.81
258.452	72.81
258.685	76.81
258.918	88.81
259.151	73.81
259.383	75.81
259.616	88.81
259.849	76.81
260.081	91.81
260.314	80.81
260.547	72.81
260.779	74.81
261.012	67.81
261.244	75.81
261.477	88.81
261.71	76.81
261.942	86.81
262.175	80.81
262.407	68.81
262.64	78.81
262.872	80.81
263.105	84.81
263.337	83.81
263.57	74.81
263.802	65.81
264.035	83.81
264.267	90.81
264.499	69.81
264.732	65.81
264.964	81.81
265.197	63.81
265.429	79.81
265.661	81.81
265.894	68.81
266.126	75.81
266.358	89.81
266.591	86.81
266.823	89.81
267.055	83.81
267.287	78.81
267.52	85.81
267.752	87.81
267.984	89.81
268.216	86.81
268.448	95.81
268.681	83.81
268.913	87.81
269.145	76.81
269.377	91.81
269.609	83.81
269.841	85.81
270.073	90.81
270.306	83.81
270.538	85.81
270.77	84.81
271.002	91.81
271.234	79.81
271.466	89.81
271.698	73.81
271.93	92.81
272.162	88.81
272.394	79.81
272.626	86.81
272.858	79.81
273.09	94.81
273.322	87.81
273.553	73.81
273.785	77.81
274.017	97.81
274.249	90.81
274.481	78.81
274.713	87.81
274.945	76.81
275.176	83.81
275.408	70.81
275.64	87.81
275.872	71.81
276.104	80.81
276.335	80.81
276.567	82.81
276.799	78.81
277.031	72.81
277.262	77.81
277.494	92.81
277.726	75.81
277.957	85.81
278.189	97.81
278.421	93.81
278.652	85.81
278.884	75.81
279.115	87.81
279.347	81.81
279.579	83.81
279.81	87.81
280.042	83.81
280.273	91.81
280.505	83.81
280.736	77.81
280.968	84.81
281.199	74.81
281.431	79.81
281.662	76.81
281.894	87.81
282.125	73.81
282.356	68.81
282.588	83.81
282.819	73.81
283.051	77.81
283.282	74.81
283.513	94.81
283.745	80.81
283.976	92.81
284.207	83.81
284.439	97.81
284.67	72.81
284.901	85.81
285.132	78.81
285.364	96.81
285.595	65.81
285.826	82.81
286.057	75.81
286.288	82.81
286.52	100.81
286.751	87.81
286.982	81.81
287.213	89.81
287.444	89.81
287.675	85.81
287.906	93.81
288.138	69.81
288.369	89.81
288.6	85.81
288.831	74.81
289.062	86.81
289.293	87.81
289.524	79.81
289.755	92.81
289.986	77.81
290.217	83.81
290.448	83.81
290.679	89.81
290.91	72.81
291.141	83.81
291.371	75.81
291.602	77.81
291.833	89.81
292.064	83.81
292.295	83.81
292.526	78.81
292.757	82.81
292.987	86.81
293.218	95.81
293.449	91.81
293.68	94.81
293.91	73.81
294.141	86.81
294.372	77.81
294.603	89.81
294.833	83.81
295.064	83.81
295.295	77.81
295.525	69.81
295.756	76.81
295.987	90.81
296.217	82.81
296.448	89.81
296.679	85.81
296.909	86.81
297.14	100.81
297.37	97.81
297.601	87.81
297.831	91.81
298.062	85.81
298.292	91.81
298.523	97.81
298.753	82.81
298.984	81.81
299.214	82.81
299.445	80.81
299.675	79.81
299.905	87.81
300.136	100.81
300.366	72.81
300.597	86.81
300.827	83.81
301.057	87.81
301.288	82.81
301.518	80.81
301.748	81.81
301.979	75.81
302.209	89.81
302.439	85.81
302.669	84.81
302.9	79.81
303.13	90.81
303.36	97.81
303.59	98.81
303.82	80.81
304.051	91.81
304.281	89.81
304.511	93.81
304.741	82.81
304.971	70.81
305.201	96.81
305.431	76.81
305.661	91.81
305.891	76.81
306.121	95.81
306.352	82.81
306.582	73.81
306.812	89.81
307.042	69.81
307.272	87.81
307.502	74.81
307.731	81.81
307.961	77.81
308.191	95.81
308.421	89.81
308.651	95.81
308.881	68.81
309.111	76.81
309.341	89.81
309.571	91.81
309.8	81.81
310.03	85.81
310.26	67.81
310.49	88.81
310.72	86.81
310.949	84.81
311.179	76.81
311.409	95.81
311.639	73.81
311.868	96.81
312.098	70.81
312.328	92.81
312.557	97.81
312.787	81.81
313.017	82.81
313.246	92.81
313.476	91.81
313.706	83.81
313.935	85.81
314.165	90.81
314.394	76.81
314.624	80.81
314.853	98.81
315.083	83.81
315.312	80.81
315.542	77.81
315.771	85.81
316.001	88.81
316.23	82.81
316.46	79.81
316.689	74.81
316.919	90.81
317.148	91.81
317.377	83.81
317.607	76.81
317.836	73.81
318.065	87.81
318.295	84.81
318.524	72.81
318.753	85.81
318.983	87.81
319.212	84.81
319.441	79.81
319.67	87.81
319.9	86.81
320.129	86.81
320.358	87.81
320.587	79.81
320.816	85.81
321.046	84.81
321.275	90.81
321.504	68.81
321.733	81.81
321.962	94.81
322.191	88.81
322.42	66.81
322.649	93.81
322.878	91.81
323.108	74.81
323.337	78.81
323.566	75.81
323.795	97.81
324.024	95.81
324.253	77.81
324.482	69.81
324.71	84.81
324.939	83.81
325.168	81.81
325.397	89.81
325.626	84.81
325.855	81.81
326.084	86.81
326.313	83.81
326.542	108.81
326.77	81.81
326.999	79.81
327.228	73.81
327.457	94.81
327.686	74.81
327.914	90.81
328.143	98.81
328.372	83.81
328.6	88.81
328.829	89.81
329.058	72.81
329.287	101.81
329.515	75.81
329.744	86.81
329.972	95.81
330.201	115.81
330.43	98.81
330.658	70.81
330.887	94.81
331.115	81.81
331.344	90.81
331.572	98.81
331.801	85.81
332.03	88.81
332.258	71.81
332.486	81.81
332.715	93.81
332.943	88.81
333.172	87.81
333.4	83.81
333.629	87.81
333.857	77.81
334.085	76.81
334.314	95.81
334.542	92.81
334.771	87.81
334.999	91.81
335.227	77.81
335.455	81.81
335.684	92.81
335.912	79.81
336.14	74.81
336.369	90.81
336.597	78.81
336.825	83.81
337.053	78.81
337.281	83.81
337.51	86.81
337.738	84.81
337.966	75.81
338.194	87.81
338.422	78.81
338.65	89.81
338.878	83.81
339.106	85.81
339.334	90.81
339.562	95.81
339.79	84.81
340.018	85.81
340.246	86.81
340.474	81.81
340.702	81.81
340.93	92.81
341.158	83.81
341.386	82.81
341.614	89.81
341.842	75.81
342.07	71.81
342.298	83.81
342.526	85.81
342.754	80.81
342.981	93.81
343.209	90.81
343.437	82.81
343.665	88.81
343.893	92.81
344.12	90.81
344.348	90.81
344.576	82.81
344.804	75.81
345.031	81.81
345.259	97.81
345.487	91.81
345.714	86.81
345.942	90.81
346.17	88.81
346.397	97.81
346.625	86.81
346.853	91.81
347.08	82.81
347.308	90.81
347.535	69.81
347.763	77.81
347.99	77.81
348.218	72.81
348.445	66.81
348.673	80.81
348.9	77.81
349.128	80.81
349.355	71.81
349.583	90.81
349.81	93.81
350.037	87.81
350.265	80.81
350.492	87.81
350.72	89.81
350.947	90.81
351.174	90.81
351.402	68.81
351.629	81.81
351.856	88.81
352.083	81.81
352.311	82.81
352.538	81.81
352.765	85.81
352.992	95.81
353.22	72.81
353.447	73.81
353.674	87.81
353.901	89.81
354.128	85.81
354.355	74.81
354.583	85.81
354.81	83.81
355.037	86.81
355.264	95.81
355.491	80.81
355.718	82.81
355.945	70.81
356.172	72.81
356.399	88.81
356.626	75.81
356.853	76.81
357.08	88.81
357.307	84.81
357.534	87.81
357.761	75.81
357.988	73.81
358.215	83.81
358.441	84.81
358.668	79.81
358.895	77.81
359.122	84.81
359.349	90.81
359.576	81.81
359.802	88.81
360.029	80.81
360.256	72.81
360.483	74.81
360.709	83.81
360.936	75.81
361.163	72.81
361.39	85.81
361.616	92.81
361.843	68.81
362.07	77.81
362.296	71.81
362.523	71.81
362.749	76.81
362.976	89.81
363.203	82.81
363.429	92.81
363.656	84.81
363.882	75.81
364.109	87.81
364.335	72.81
364.562	77.81
364.788	72.81
365.015	59.81
365.241	78.81
365.468	89.81
365.694	71.81
365.92	89.81
366.147	95.81
366.373	90.81
366.599	77.81
366.826	87.81
367.052	74.81
367.278	91.81
367.505	86.81
367.731	100.81
367.957	85.81
368.184	79.81
368.41	82.81
368.636	81.81
368.862	85.81
369.089	78.81
369.315	98.81
369.541	96.81
369.767	102.81
369.993	87.81
370.219	78.81
370.445	86.81
370.672	91.81
370.898	101.81
371.124	91.81
371.35	93.81
371.576	81.81
371.802	89.81
372.028	83.81
372.254	86.81
372.48	83.81
372.706	96.81
372.932	97.81
373.158	88.81
373.384	95.81
373.61	86.81
373.835	101.81
374.061	102.81
374.287	83.81
374.513	90.81
374.739	86.81
374.965	96.81
375.191	86.81
375.416	84.81
375.642	105.81
375.868	101.81
376.094	106.81
376.319	97.81
376.545	85.81
376.771	92.81
376.997	93.81
377.222	91.81
377.448	81.81
377.674	114.81
377.899	77.81
378.125	97.81
378.35	103.81
378.576	110.81
378.802	94.81
379.027	89.81
379.253	98.81
379.478	96.81
379.704	94.81
379.929	93.81
380.155	83.81
380.38	100.81
380.606	93.81
380.831	94.81
381.057	109.81
381.282	104.81
381.507	91.81
381.733	98.81
381.958	81.81
382.184	88.81
382.409	82.81
382.634	87.81
382.86	93.81
383.085	105.81
383.31	104.81
383.535	96.81
383.761	99.81
383.986	101.81
384.211	98.81
384.436	96.81
384.662	108.81
384.887	91.81
385.112	74.81
385.337	95.81
385.562	98.81
385.787	101.81
386.013	100.81
386.238	105.81
386.463	98.81
386.688	105.81
386.913	106.81
387.138	97.81
387.363	87.81
387.588	93.81
387.813	84.81
388.038	112.81
388.263	101.81
388.488	96.81
388.713	104.81
388.938	107.81
389.163	96.81
389.387	103.81
389.612	98.81
389.837	97.81
390.062	104.81
390.287	104.81
390.512	113.81
390.736	105.81
390.961	77.81
391.186	99.81
391.411	91.81
391.636	107.81
391.86	96.81
392.085	91.81
392.31	104.81
392.534	88.81
392.759	107.81
392.984	96.81
393.208	108.81
393.433	102.81
393.658	115.81
393.882	109.81
394.107	99.81
394.331	105.81
394.556	97.81
394.78	98.81
395.005	106.81
395.229	119.81
395.454	108.81
395.678	99.81
395.903	105.81
396.127	116.81
396.352	105.81
396.576	103.81
396.801	121.81
397.025	92.81
397.249	101.81
397.474	99.81
397.698	105.81
397.922	105.81
398.147	94.81
398.371	103.81
398.595	105.81
398.82	92.81
399.044	111.81
399.268	112.81
399.492	100.81
399.717	109.81
399.941	113.81
400.165	111.81
400.389	115.81
400.613	101.81
400.837	121.81
401.062	103.81
401.286	106.81
401.51	107.81
401.734	118.81
401.958	97.81
402.182	119.81
402.406	105.81
402.63	98.81
402.854	107.81
403.078	119.81
403.302	114.81
403.526	123.81
403.75	119.81
403.974	107.81
404.198	120.81
404.422	119.81
404.645	111.81
404.869	125.81
405.093	120.81
405.317	125.81
405.541	102.81
405.765	122.81
405.988	121.81
406.212	115.81
406.436	111.81
406.66	107.81
406.883	112.81
407.107	115.81
407.331	125.81
407.555	116.81
407.778	116.81
408.002	116.81
408.226	111.81
408.449	131.81
408.673	109.81
408.896	125.81
409.12	122.81
409.344	121.81
409.567	111.81
409.791	129.81
410.014	121.81
410.238	114.81
410.461	124.81
410.685	106.81
410.908	109.81
411.132	116.81
411.355	102.81
411.578	125.81
411.802	116.81
412.025	120.81
412.249	127.81
412.472	119.81
412.695	121.81
412.919	123.81
413.142	118.81
413.365	139.81
413.589	114.81
413.812	114.81
414.035	124.81
414.258	120.81
414.482	114.81
414.705	131.81
414.928	113.81
415.151	127.81
415.374	121.81
415.597	123.81
415.821	133.81
416.044	137.81
416.267	137.81
416.49	140.81
416.713	124.81
416.936	123.81
417.159	135.81
417.382	132.81
417.605	135.81
417.828	141.81
418.051	125.81
418.274	138.81
418.497	136.81
418.72	139.81
418.943	121.81
419.166	139.81
419.389	135.81
419.611	139.81
419.834	120.81
420.057	142.81
420.28	145.81
420.503	138.81
420.726	123.81
420.948	132.81
421.171	127.81
421.394	128.81
421.617	130.81
421.839	160.81
422.062	141.81
422.285	145.81
422.507	133.81
422.73	107.81
422.953	119.81
423.175	123.81
423.398	132.81
423.621	131.81
423.843	126.81
424.066	138.81
424.288	139.81
424.511	137.81
424.733	135.81
424.956	132.81
425.178	145.81
425.401	139.81
425.623	124.81
425.846	137.81
426.068	126.81
426.291	118.81
426.513	140.81
426.735	133.81
426.958	129.81
427.18	135.81
427.402	138.81
427.625	129.81
427.847	129.81
428.069	142.81
428.292	140.81
428.514	130.81
428.736	129.81
428.958	133.81
429.181	127.81
429.403	119.81
429.625	134.81
429.847	113.81
430.069	132.81
430.292	119.81
430.514	127.81
430.736	128.81
430.958	119.81
431.18	127.81
431.402	126.81
431.624	123.81
431.846	113.81
432.068	95.81
432.29	103.81
432.512	123.81
432.734	125.81
432.956	134.81
433.178	143.81
433.4	132.81
433.622	135.81
433.844	121.81
434.066	123.81
434.287	107.81
434.509	113.81
434.731	105.81
434.953	113.81
435.175	120.81
435.397	129.81
435.618	121.81
435.84	112.81
436.062	128.81
436.284	124.81
436.505	133.81
436.727	135.81
436.949	135.81
437.17	114.81
437.392	119.81
437.614	123.81
437.835	97.81
438.057	101.81
438.278	121.81
438.5	124.81
438.721	122.81
438.943	141.81
439.165	141.81
439.386	144.81
439.608	142.81
439.829	134.81
440.05	128.81
440.272	147.81
440.493	127.81
440.715	138.81
440.936	145.81
441.158	143.81
441.379	143.81
441.6	162.81
441.822	162.81
442.043	151.81
442.264	131.81
442.486	140.81
442.707	146.81
442.928	150.81
443.149	140.81
443.371	151.81
443.592	113.81
443.813	125.81
444.034	138.81
444.255	147.81
444.476	133.81
444.698	141.81
444.919	146.81
445.14	273.81
445.361	209.81
445.582	150.81
445.803	159.81
446.024	144.81
446.245	146.81
446.466	156.81
446.687	149.81
446.908	142.81
447.129	143.81
447.35	157.81
447.571	151.81
447.792	134.81
448.013	141.81
448.234	156.81
448.455	153.81
448.675	147.81
448.896	136.81
449.117	147.81
449.338	142.81
449.559	147.81
449.779	133.81
450	136.81
450.221	127.81
450.442	127.81
450.662	142.81
450.883	135.81
451.104	121.81
451.324	147.81
451.545	135.81
451.766	148.81
451.986	117.81
452.207	117.81
452.428	122.81
452.648	124.81
452.869	114.81
453.089	110.81
453.31	120.81
453.53	121.81
453.751	102.81
453.971	111.81
454.192	120.81
454.412	112.81
454.633	116.81
454.853	110.81
455.073	114.81
455.294	111.81
455.514	127.81
455.734	127.81
455.955	114.81
456.175	113.81
456.395	100.81
456.616	111.81
456.836	105.81
457.056	107.81
457.276	107.81
457.497	98.81
457.717	107.81
457.937	121.81
458.157	100.81
458.377	112.81
458.598	90.81
458.818	81.81
459.038	101.81
459.258	86.81
459.478	96.81
459.698	99.81
459.918	102.81
460.138	103.81
460.358	111.81
460.578	120.81
460.798	121.81
461.018	105.81
461.238	119.81
461.458	110.81
461.678	117.81
461.898	122.81
462.118	118.81
462.338	119.81
462.558	104.81
462.777	115.81
462.997	105.81
463.217	114.81
463.437	105.81
463.657	111.81
463.876	107.81
464.096	113.81
464.316	113.81
464.536	101.81
464.755	104.81
464.975	108.81
465.195	116.81
465.414	109.81
465.634	119.81
465.854	114.81
466.073	121.81
466.293	118.81
466.512	125.81
466.732	135.81
466.951	143.81
467.171	136.81
467.391	140.81
467.61	129.81
467.829	139.81
468.049	153.81
468.268	147.81
468.488	143.81
468.707	133.81
468.927	138.81
469.146	127.81
469.365	134.81
469.585	141.81
469.804	124.81
470.023	139.81
470.243	139.81
470.462	141.81
470.681	141.81
470.901	141.81
471.12	154.81
471.339	123.81
471.558	143.81
471.777	136.81
471.997	123.81
472.216	123.81
472.435	123.81
472.654	90.81
472.873	97.81
473.092	114.81
473.311	115.81
473.53	130.81
473.749	120.81
473.968	125.81
474.187	114.81
474.406	131.81
474.625	135.81
474.844	136.81
475.063	134.81
475.282	130.81
475.501	129.81
475.72	120.81
475.939	138.81
476.158	137.81
476.377	124.81
476.596	128.81
476.814	112.81
477.033	113.81
477.252	105.81
477.471	122.81
477.69	135.81
477.908	135.81
478.127	136.81
478.346	139.81
478.564	135.81
478.783	142.81
479.002	125.81
479.22	137.81
479.439	126.81
479.658	126.81
479.876	128.81
480.095	114.81
480.313	119.81
480.532	117.81
480.751	113.81
480.969	101.81
481.188	101.81
481.406	80.81
481.624	87.81
481.843	77.81
482.061	100.81
482.28	122.81
482.498	101.81
482.717	111.81
482.935	133.81
483.153	139.81
483.372	142.81
483.59	148.81
483.808	133.81
484.027	141.81
484.245	129.81
484.463	146.81
484.681	152.81
484.9	141.81
485.118	144.81
485.336	111.81
485.554	112.81
485.772	95.81
485.99	101.81
486.209	101.81
486.427	101.81
486.645	133.81
486.863	133.81
487.081	144.81
487.299	125.81
487.517	139.81
487.735	163.81
487.953	179.81
488.171	196.81
488.389	171.81
488.607	163.81
488.825	150.81
489.043	127.81
489.261	120.81
489.479	131.81
489.696	143.81
489.914	142.81
490.132	139.81
490.35	160.81
490.568	158.81
490.786	170.81
491.003	182.81
491.221	183.81
491.439	196.81
491.657	183.81
491.874	205.81
492.092	212.81
492.31	243.81
492.527	221.81
492.745	196.81
492.963	193.81
493.18	183.81
493.398	199.81
493.615	183.81
493.833	173.81
494.05	162.81
494.268	161.81
494.485	160.81
494.703	163.81
494.92	169.81
495.138	170.81
495.355	188.81
495.573	164.81
495.79	159.81
496.008	171.81
496.225	166.81
496.442	164.81
496.66	167.81
496.877	172.81
497.094	179.81
497.312	149.81
497.529	147.81
497.746	149.81
497.963	134.81
498.181	128.81
498.398	118.81
498.615	113.81
498.832	108.81
499.049	117.81
499.267	117.81
499.484	121.81
499.701	129.81
499.918	131.81
500.135	129.81
500.352	128.81
500.569	134.81
500.786	137.81
501.003	147.81
501.22	127.81
501.437	134.81
501.654	141.81
501.871	128.81
502.088	136.81
502.305	138.81
502.522	131.81
502.739	128.81
502.956	123.81
503.172	137.81
503.389	117.81
503.606	125.81
503.823	123.81
504.04	116.81
504.256	109.81
504.473	114.81
504.69	104.81
504.907	121.81
505.123	117.81
505.34	124.81
505.557	113.81
505.773	116.81
505.99	131.81
506.207	123.81
506.423	111.81
506.64	104.81
506.856	120.81
507.073	112.81
507.289	124.81
507.506	127.81
507.722	112.81
507.939	122.81
508.155	130.81
508.372	117.81
508.588	116.81
508.805	103.81
509.021	114.81
509.238	106.81
509.454	111.81
509.67	105.81
509.887	101.81
510.103	107.81
510.319	85.81
510.536	93.81
510.752	93.81
510.968	74.81
511.184	89.81
511.401	76.81
511.617	84.81
