Data from Location2.07152019.Energy5.Lamp.07192019.3%Agarose_HRD10591_14-57-30-358.txt Node
Date: Fri Jul 19 14:57:30 EDT 2019
User: cochatt
Spectrometer: HR+D1059
Trigger mode: 1
Integration Time (sec): 1.000000E-1
Scans to average: 1
Electric dark correction enabled: true
Nonlinearity correction enabled: false
Boxcar width: 0
XAxis mode: Wavelengths
Number of Pixels in Spectrum: 2048
>>>>>Begin Spectral Data<<<<<
223.165	-21.19
223.4	-21.19
223.635	-21.19
223.869	-8.19
224.104	-23.19
224.338	-17.19
224.573	-16.19
224.808	-11.19
225.042	-6.19
225.277	-11.19
225.511	-1.19
225.746	-2.19
225.98	7.81
226.215	10.81
226.449	17.81
226.683	22.81
226.918	16.81
227.152	41.81
227.387	41.81
227.621	29.81
227.856	42.81
228.09	40.81
228.324	58.81
228.559	49.81
228.793	54.81
229.027	71.81
229.262	73.81
229.496	66.81
229.73	52.81
229.964	74.81
230.199	69.81
230.433	81.81
230.667	87.81
230.901	86.81
231.136	85.81
231.37	79.81
231.604	90.81
231.838	87.81
232.072	80.81
232.306	82.81
232.541	82.81
232.775	70.81
233.009	87.81
233.243	78.81
233.477	99.81
233.711	80.81
233.945	87.81
234.179	81.81
234.413	83.81
234.647	70.81
234.881	76.81
235.115	92.81
235.349	92.81
235.583	94.81
235.817	86.81
236.051	75.81
236.285	73.81
236.519	84.81
236.753	77.81
236.987	84.81
237.221	92.81
237.455	84.81
237.689	76.81
237.922	78.81
238.156	89.81
238.39	77.81
238.624	69.81
238.858	87.81
239.091	73.81
239.325	79.81
239.559	66.81
239.793	96.81
240.027	73.81
240.26	71.81
240.494	69.81
240.728	65.81
240.961	61.81
241.195	84.81
241.429	82.81
241.662	79.81
241.896	75.81
242.13	86.81
242.363	78.81
242.597	71.81
242.83	81.81
243.064	71.81
243.298	79.81
243.531	75.81
243.765	86.81
243.998	92.81
244.232	84.81
244.465	88.81
244.699	80.81
244.932	73.81
245.166	87.81
245.399	70.81
245.633	82.81
245.866	79.81
246.099	77.81
246.333	77.81
246.566	93.81
246.8	87.81
247.033	80.81
247.266	87.81
247.5	76.81
247.733	70.81
247.966	82.81
248.2	69.81
248.433	92.81
248.666	77.81
248.899	90.81
249.133	80.81
249.366	91.81
249.599	79.81
249.832	82.81
250.066	83.81
250.299	78.81
250.532	93.81
250.765	94.81
250.998	90.81
251.231	75.81
251.465	69.81
251.698	76.81
251.931	84.81
252.164	95.81
252.397	88.81
252.63	84.81
252.863	80.81
253.096	74.81
253.329	74.81
253.562	87.81
253.795	88.81
254.028	84.81
254.261	100.81
254.494	71.81
254.727	80.81
254.96	82.81
255.193	76.81
255.426	89.81
255.659	83.81
255.892	71.81
256.124	98.81
256.357	93.81
256.59	79.81
256.823	74.81
257.056	92.81
257.289	96.81
257.521	83.81
257.754	85.81
257.987	83.81
258.22	79.81
258.452	69.81
258.685	87.81
258.918	88.81
259.151	88.81
259.383	78.81
259.616	84.81
259.849	86.81
260.081	96.81
260.314	85.81
260.547	80.81
260.779	88.81
261.012	92.81
261.244	84.81
261.477	83.81
261.71	75.81
261.942	64.81
262.175	76.81
262.407	79.81
262.64	92.81
262.872	88.81
263.105	87.81
263.337	81.81
263.57	91.81
263.802	78.81
264.035	80.81
264.267	92.81
264.499	86.81
264.732	90.81
264.964	102.81
265.197	81.81
265.429	76.81
265.661	82.81
265.894	86.81
266.126	81.81
266.358	86.81
266.591	76.81
266.823	94.81
267.055	98.81
267.287	79.81
267.52	78.81
267.752	89.81
267.984	90.81
268.216	76.81
268.448	91.81
268.681	76.81
268.913	78.81
269.145	79.81
269.377	79.81
269.609	78.81
269.841	91.81
270.073	84.81
270.306	77.81
270.538	98.81
270.77	76.81
271.002	78.81
271.234	93.81
271.466	93.81
271.698	77.81
271.93	82.81
272.162	82.81
272.394	99.81
272.626	100.81
272.858	79.81
273.09	94.81
273.322	81.81
273.553	100.81
273.785	84.81
274.017	85.81
274.249	81.81
274.481	84.81
274.713	96.81
274.945	77.81
275.176	88.81
275.408	81.81
275.64	91.81
275.872	88.81
276.104	86.81
276.335	83.81
276.567	85.81
276.799	72.81
277.031	71.81
277.262	87.81
277.494	87.81
277.726	88.81
277.957	71.81
278.189	77.81
278.421	85.81
278.652	81.81
278.884	78.81
279.115	84.81
279.347	81.81
279.579	93.81
279.81	87.81
280.042	93.81
280.273	80.81
280.505	78.81
280.736	80.81
280.968	91.81
281.199	69.81
281.431	73.81
281.662	88.81
281.894	83.81
282.125	87.81
282.356	87.81
282.588	95.81
282.819	92.81
283.051	95.81
283.282	99.81
283.513	78.81
283.745	86.81
283.976	76.81
284.207	88.81
284.439	77.81
284.67	80.81
284.901	86.81
285.132	86.81
285.364	90.81
285.595	95.81
285.826	95.81
286.057	84.81
286.288	100.81
286.52	98.81
286.751	94.81
286.982	81.81
287.213	78.81
287.444	85.81
287.675	76.81
287.906	90.81
288.138	99.81
288.369	95.81
288.6	87.81
288.831	86.81
289.062	98.81
289.293	79.81
289.524	91.81
289.755	82.81
289.986	83.81
290.217	98.81
290.448	89.81
290.679	89.81
290.91	90.81
291.141	77.81
291.371	94.81
291.602	78.81
291.833	84.81
292.064	97.81
292.295	86.81
292.526	86.81
292.757	88.81
292.987	89.81
293.218	67.81
293.449	85.81
293.68	81.81
293.91	88.81
294.141	98.81
294.372	78.81
294.603	95.81
294.833	80.81
295.064	85.81
295.295	91.81
295.525	84.81
295.756	90.81
295.987	100.81
296.217	90.81
296.448	100.81
296.679	86.81
296.909	102.81
297.14	96.81
297.37	96.81
297.601	85.81
297.831	75.81
298.062	84.81
298.292	84.81
298.523	83.81
298.753	103.81
298.984	99.81
299.214	79.81
299.445	90.81
299.675	94.81
299.905	74.81
300.136	86.81
300.366	90.81
300.597	82.81
300.827	83.81
301.057	80.81
301.288	78.81
301.518	81.81
301.748	79.81
301.979	84.81
302.209	84.81
302.439	94.81
302.669	76.81
302.9	102.81
303.13	92.81
303.36	85.81
303.59	82.81
303.82	84.81
304.051	87.81
304.281	83.81
304.511	77.81
304.741	94.81
304.971	78.81
305.201	89.81
305.431	102.81
305.661	96.81
305.891	74.81
306.121	91.81
306.352	82.81
306.582	91.81
306.812	77.81
307.042	87.81
307.272	89.81
307.502	81.81
307.731	79.81
307.961	89.81
308.191	94.81
308.421	89.81
308.651	79.81
308.881	94.81
309.111	85.81
309.341	84.81
309.571	88.81
309.8	78.81
310.03	80.81
310.26	87.81
310.49	80.81
310.72	90.81
310.949	88.81
311.179	79.81
311.409	85.81
311.639	91.81
311.868	103.81
312.098	87.81
312.328	86.81
312.557	80.81
312.787	75.81
313.017	86.81
313.246	84.81
313.476	87.81
313.706	85.81
313.935	76.81
314.165	90.81
314.394	86.81
314.624	81.81
314.853	100.81
315.083	87.81
315.312	97.81
315.542	92.81
315.771	98.81
316.001	92.81
316.23	81.81
316.46	103.81
316.689	101.81
316.919	79.81
317.148	82.81
317.377	88.81
317.607	90.81
317.836	88.81
318.065	78.81
318.295	75.81
318.524	84.81
318.753	99.81
318.983	75.81
319.212	84.81
319.441	86.81
319.67	103.81
319.9	86.81
320.129	90.81
320.358	83.81
320.587	81.81
320.816	81.81
321.046	90.81
321.275	95.81
321.504	86.81
321.733	77.81
321.962	93.81
322.191	93.81
322.42	91.81
322.649	85.81
322.878	81.81
323.108	86.81
323.337	73.81
323.566	82.81
323.795	80.81
324.024	84.81
324.253	82.81
324.482	84.81
324.71	92.81
324.939	84.81
325.168	88.81
325.397	96.81
325.626	73.81
325.855	78.81
326.084	86.81
326.313	72.81
326.542	83.81
326.77	88.81
326.999	93.81
327.228	82.81
327.457	96.81
327.686	86.81
327.914	87.81
328.143	98.81
328.372	89.81
328.6	86.81
328.829	91.81
329.058	95.81
329.287	83.81
329.515	85.81
329.744	83.81
329.972	89.81
330.201	87.81
330.43	82.81
330.658	73.81
330.887	79.81
331.115	82.81
331.344	95.81
331.572	87.81
331.801	80.81
332.03	88.81
332.258	95.81
332.486	68.81
332.715	75.81
332.943	88.81
333.172	86.81
333.4	97.81
333.629	91.81
333.857	86.81
334.085	80.81
334.314	90.81
334.542	104.81
334.771	83.81
334.999	88.81
335.227	92.81
335.455	90.81
335.684	90.81
335.912	91.81
336.14	80.81
336.369	86.81
336.597	92.81
336.825	93.81
337.053	85.81
337.281	87.81
337.51	94.81
337.738	97.81
337.966	99.81
338.194	91.81
338.422	84.81
338.65	77.81
338.878	93.81
339.106	70.81
339.334	80.81
339.562	90.81
339.79	89.81
340.018	79.81
340.246	80.81
340.474	89.81
340.702	88.81
340.93	100.81
341.158	96.81
341.386	92.81
341.614	86.81
341.842	85.81
342.07	84.81
342.298	93.81
342.526	75.81
342.754	81.81
342.981	92.81
343.209	84.81
343.437	89.81
343.665	87.81
343.893	92.81
344.12	75.81
344.348	101.81
344.576	79.81
344.804	93.81
345.031	111.81
345.259	96.81
345.487	75.81
345.714	79.81
345.942	69.81
346.17	93.81
346.397	79.81
346.625	82.81
346.853	83.81
347.08	91.81
347.308	90.81
347.535	94.81
347.763	85.81
347.99	86.81
348.218	88.81
348.445	87.81
348.673	79.81
348.9	80.81
349.128	95.81
349.355	83.81
349.583	99.81
349.81	84.81
350.037	88.81
350.265	93.81
350.492	88.81
350.72	85.81
350.947	90.81
351.174	93.81
351.402	90.81
351.629	83.81
351.856	83.81
352.083	88.81
352.311	81.81
352.538	87.81
352.765	78.81
352.992	74.81
353.22	75.81
353.447	109.81
353.674	103.81
353.901	100.81
354.128	88.81
354.355	88.81
354.583	76.81
354.81	99.81
355.037	81.81
355.264	80.81
355.491	100.81
355.718	83.81
355.945	90.81
356.172	87.81
356.399	100.81
356.626	81.81
356.853	89.81
357.08	79.81
357.307	97.81
357.534	93.81
357.761	87.81
357.988	87.81
358.215	84.81
358.441	82.81
358.668	83.81
358.895	87.81
359.122	84.81
359.349	85.81
359.576	76.81
359.802	70.81
360.029	91.81
360.256	98.81
360.483	87.81
360.709	88.81
360.936	94.81
361.163	87.81
361.39	79.81
361.616	76.81
361.843	88.81
362.07	98.81
362.296	90.81
362.523	87.81
362.749	79.81
362.976	95.81
363.203	108.81
363.429	82.81
363.656	97.81
363.882	90.81
364.109	99.81
364.335	99.81
364.562	91.81
364.788	76.81
365.015	73.81
365.241	80.81
365.468	94.81
365.694	91.81
365.92	88.81
366.147	88.81
366.373	100.81
366.599	104.81
366.826	95.81
367.052	93.81
367.278	88.81
367.505	79.81
367.731	75.81
367.957	93.81
368.184	96.81
368.41	87.81
368.636	105.81
368.862	99.81
369.089	102.81
369.315	92.81
369.541	108.81
369.767	98.81
369.993	84.81
370.219	89.81
370.445	84.81
370.672	99.81
370.898	97.81
371.124	91.81
371.35	84.81
371.576	100.81
371.802	92.81
372.028	104.81
372.254	101.81
372.48	101.81
372.706	93.81
372.932	92.81
373.158	82.81
373.384	79.81
373.61	104.81
373.835	91.81
374.061	72.81
374.287	77.81
374.513	102.81
374.739	80.81
374.965	92.81
375.191	102.81
375.416	114.81
375.642	108.81
375.868	98.81
376.094	88.81
376.319	83.81
376.545	87.81
376.771	108.81
376.997	91.81
377.222	88.81
377.448	87.81
377.674	103.81
377.899	89.81
378.125	102.81
378.35	92.81
378.576	97.81
378.802	97.81
379.027	90.81
379.253	80.81
379.478	87.81
379.704	117.81
379.929	88.81
380.155	101.81
380.38	95.81
380.606	91.81
380.831	94.81
381.057	92.81
381.282	88.81
381.507	95.81
381.733	84.81
381.958	100.81
382.184	97.81
382.409	105.81
382.634	107.81
382.86	91.81
383.085	101.81
383.31	98.81
383.535	93.81
383.761	90.81
383.986	87.81
384.211	91.81
384.436	93.81
384.662	102.81
384.887	92.81
385.112	108.81
385.337	94.81
385.562	100.81
385.787	94.81
386.013	100.81
386.238	95.81
386.463	92.81
386.688	91.81
386.913	95.81
387.138	100.81
387.363	98.81
387.588	116.81
387.813	95.81
388.038	107.81
388.263	93.81
388.488	107.81
388.713	104.81
388.938	98.81
389.163	104.81
389.387	102.81
389.612	108.81
389.837	104.81
390.062	104.81
390.287	100.81
390.512	97.81
390.736	104.81
390.961	91.81
391.186	104.81
391.411	102.81
391.636	101.81
391.86	107.81
392.085	94.81
392.31	95.81
392.534	112.81
392.759	96.81
392.984	96.81
393.208	100.81
393.433	103.81
393.658	112.81
393.882	117.81
394.107	98.81
394.331	114.81
394.556	105.81
394.78	101.81
395.005	104.81
395.229	110.81
395.454	108.81
395.678	111.81
395.903	97.81
396.127	98.81
396.352	97.81
396.576	112.81
396.801	120.81
397.025	117.81
397.249	87.81
397.474	121.81
397.698	107.81
397.922	108.81
398.147	111.81
398.371	100.81
398.595	114.81
398.82	122.81
399.044	118.81
399.268	95.81
399.492	118.81
399.717	112.81
399.941	106.81
400.165	134.81
400.389	106.81
400.613	121.81
400.837	110.81
401.062	127.81
401.286	122.81
401.51	118.81
401.734	118.81
401.958	126.81
402.182	112.81
402.406	127.81
402.63	118.81
402.854	120.81
403.078	104.81
403.302	123.81
403.526	114.81
403.75	103.81
403.974	114.81
404.198	100.81
404.422	127.81
404.645	118.81
404.869	126.81
405.093	130.81
405.317	107.81
405.541	122.81
405.765	120.81
405.988	128.81
406.212	123.81
406.436	108.81
406.66	120.81
406.883	119.81
407.107	119.81
407.331	131.81
407.555	102.81
407.778	129.81
408.002	116.81
408.226	121.81
408.449	103.81
408.673	120.81
408.896	106.81
409.12	128.81
409.344	123.81
409.567	123.81
409.791	115.81
410.014	122.81
410.238	121.81
410.461	111.81
410.685	126.81
410.908	119.81
411.132	124.81
411.355	126.81
411.578	116.81
411.802	123.81
412.025	115.81
412.249	119.81
412.472	122.81
412.695	119.81
412.919	130.81
413.142	122.81
413.365	136.81
413.589	126.81
413.812	120.81
414.035	120.81
414.258	128.81
414.482	116.81
414.705	126.81
414.928	128.81
415.151	127.81
415.374	114.81
415.597	137.81
415.821	123.81
416.044	124.81
416.267	124.81
416.49	125.81
416.713	126.81
416.936	138.81
417.159	139.81
417.382	136.81
417.605	122.81
417.828	141.81
418.051	120.81
418.274	147.81
418.497	132.81
418.72	135.81
418.943	135.81
419.166	126.81
419.389	148.81
419.611	133.81
419.834	128.81
420.057	114.81
420.28	159.81
420.503	130.81
420.726	135.81
420.948	152.81
421.171	136.81
421.394	128.81
421.617	146.81
421.839	150.81
422.062	150.81
422.285	144.81
422.507	130.81
422.73	127.81
422.953	120.81
423.175	114.81
423.398	123.81
423.621	129.81
423.843	134.81
424.066	139.81
424.288	126.81
424.511	132.81
424.733	139.81
424.956	132.81
425.178	143.81
425.401	128.81
425.623	131.81
425.846	127.81
426.068	130.81
426.291	136.81
426.513	138.81
426.735	143.81
426.958	127.81
427.18	144.81
427.402	150.81
427.625	142.81
427.847	130.81
428.069	130.81
428.292	134.81
428.514	135.81
428.736	145.81
428.958	134.81
429.181	136.81
429.403	127.81
429.625	127.81
429.847	128.81
430.069	123.81
430.292	136.81
430.514	123.81
430.736	135.81
430.958	143.81
431.18	141.81
431.402	118.81
431.624	128.81
431.846	110.81
432.068	107.81
432.29	107.81
432.512	99.81
432.734	130.81
432.956	143.81
433.178	156.81
433.4	134.81
433.622	139.81
433.844	137.81
434.066	120.81
434.287	105.81
434.509	98.81
434.731	92.81
434.953	121.81
435.175	133.81
435.397	124.81
435.618	116.81
435.84	116.81
436.062	115.81
436.284	134.81
436.505	136.81
436.727	131.81
436.949	133.81
437.17	127.81
437.392	126.81
437.614	120.81
437.835	124.81
438.057	109.81
438.278	118.81
438.5	125.81
438.721	129.81
438.943	129.81
439.165	142.81
439.386	141.81
439.608	140.81
439.829	133.81
440.05	150.81
440.272	143.81
440.493	153.81
440.715	138.81
440.936	133.81
441.158	151.81
441.379	140.81
441.6	155.81
441.822	137.81
442.043	147.81
442.264	118.81
442.486	144.81
442.707	127.81
442.928	138.81
443.149	135.81
443.371	138.81
443.592	138.81
443.813	135.81
444.034	141.81
444.255	137.81
444.476	148.81
444.698	142.81
444.919	150.81
445.14	231.81
445.361	181.81
445.582	153.81
445.803	132.81
446.024	146.81
446.245	167.81
446.466	144.81
446.687	156.81
446.908	153.81
447.129	154.81
447.35	142.81
447.571	138.81
447.792	149.81
448.013	128.81
448.234	153.81
448.455	158.81
448.675	139.81
448.896	140.81
449.117	139.81
449.338	144.81
449.559	154.81
449.779	119.81
450	127.81
450.221	134.81
450.442	152.81
450.662	139.81
450.883	139.81
451.104	131.81
451.324	140.81
451.545	136.81
451.766	119.81
451.986	128.81
452.207	134.81
452.428	130.81
452.648	144.81
452.869	136.81
453.089	110.81
453.31	118.81
453.53	93.81
453.751	112.81
453.971	117.81
454.192	100.81
454.412	110.81
454.633	121.81
454.853	121.81
455.073	124.81
455.294	122.81
455.514	135.81
455.734	132.81
455.955	127.81
456.175	128.81
456.395	129.81
456.616	107.81
456.836	114.81
457.056	126.81
457.276	114.81
457.497	108.81
457.717	112.81
457.937	117.81
458.157	104.81
458.377	110.81
458.598	95.81
458.818	109.81
459.038	94.81
459.258	99.81
459.478	88.81
459.698	91.81
459.918	91.81
460.138	103.81
460.358	107.81
460.578	106.81
460.798	116.81
461.018	118.81
461.238	123.81
461.458	139.81
461.678	105.81
461.898	115.81
462.118	114.81
462.338	114.81
462.558	114.81
462.777	109.81
462.997	109.81
463.217	119.81
463.437	117.81
463.657	119.81
463.876	116.81
464.096	101.81
464.316	109.81
464.536	118.81
464.755	112.81
464.975	109.81
465.195	119.81
465.414	118.81
465.634	123.81
465.854	142.81
466.073	120.81
466.293	128.81
466.512	141.81
466.732	118.81
466.951	125.81
467.171	134.81
467.391	129.81
467.61	121.81
467.829	129.81
468.049	116.81
468.268	133.81
468.488	138.81
468.707	142.81
468.927	141.81
469.146	136.81
469.365	133.81
469.585	139.81
469.804	135.81
470.023	135.81
470.243	134.81
470.462	141.81
470.681	153.81
470.901	149.81
471.12	155.81
471.339	144.81
471.558	148.81
471.777	142.81
471.997	143.81
472.216	135.81
472.435	128.81
472.654	111.81
472.873	103.81
473.092	100.81
473.311	116.81
473.53	123.81
473.749	120.81
473.968	134.81
474.187	125.81
474.406	122.81
474.625	132.81
474.844	133.81
475.063	137.81
475.282	129.81
475.501	129.81
475.72	131.81
475.939	135.81
476.158	142.81
476.377	122.81
476.596	125.81
476.814	132.81
477.033	103.81
477.252	110.81
477.471	118.81
477.69	130.81
477.908	142.81
478.127	141.81
478.346	141.81
478.564	143.81
478.783	135.81
479.002	150.81
479.22	153.81
479.439	135.81
479.658	118.81
479.876	124.81
480.095	97.81
480.313	106.81
480.532	103.81
480.751	109.81
480.969	83.81
481.188	102.81
481.406	86.81
481.624	80.81
481.843	74.81
482.061	102.81
482.28	123.81
482.498	106.81
482.717	108.81
482.935	126.81
483.153	133.81
483.372	163.81
483.59	158.81
483.808	132.81
484.027	119.81
484.245	125.81
484.463	127.81
484.681	158.81
484.9	143.81
485.118	127.81
485.336	127.81
485.554	98.81
485.772	109.81
485.99	100.81
486.209	113.81
486.427	120.81
486.645	114.81
486.863	120.81
487.081	151.81
487.299	134.81
487.517	142.81
487.735	149.81
487.953	190.81
488.171	175.81
488.389	184.81
488.607	166.81
488.825	134.81
489.043	139.81
489.261	140.81
489.479	146.81
489.696	136.81
489.914	137.81
490.132	156.81
490.35	154.81
490.568	158.81
490.786	172.81
491.003	178.81
491.221	173.81
491.439	185.81
491.657	204.81
491.874	206.81
492.092	206.81
492.31	233.81
492.527	224.81
492.745	204.81
492.963	193.81
493.18	199.81
493.398	170.81
493.615	178.81
493.833	184.81
494.05	181.81
494.268	168.81
494.485	175.81
494.703	178.81
494.92	191.81
495.138	157.81
495.355	199.81
495.573	172.81
495.79	166.81
496.008	176.81
496.225	173.81
496.442	172.81
496.66	182.81
496.877	170.81
497.094	170.81
497.312	156.81
497.529	152.81
497.746	171.81
497.963	149.81
498.181	131.81
498.398	120.81
498.615	131.81
498.832	114.81
499.049	128.81
499.267	130.81
499.484	130.81
499.701	147.81
499.918	136.81
500.135	126.81
500.352	124.81
500.569	126.81
500.786	144.81
501.003	142.81
501.22	142.81
501.437	130.81
501.654	125.81
501.871	132.81
502.088	131.81
502.305	144.81
502.522	123.81
502.739	134.81
502.956	125.81
503.172	127.81
503.389	124.81
503.606	118.81
503.823	125.81
504.04	126.81
504.256	112.81
504.473	130.81
504.69	112.81
504.907	123.81
505.123	110.81
505.34	136.81
505.557	133.81
505.773	117.81
505.99	124.81
506.207	134.81
506.423	125.81
506.64	136.81
506.856	117.81
507.073	102.81
507.289	124.81
507.506	132.81
507.722	119.81
507.939	130.81
508.155	121.81
508.372	117.81
508.588	112.81
508.805	114.81
509.021	105.81
509.238	117.81
509.454	102.81
509.67	93.81
509.887	91.81
510.103	88.81
510.319	100.81
510.536	98.81
510.752	111.81
510.968	108.81
511.184	79.81
