Data from Location2.07152019.Energy5.Lamp.07192019.3%Agarose_HRD10591_14-55-51-358.txt Node
Date: Fri Jul 19 14:55:51 EDT 2019
User: cochatt
Spectrometer: HR+D1059
Trigger mode: 1
Integration Time (sec): 1.000000E-1
Scans to average: 1
Electric dark correction enabled: true
Nonlinearity correction enabled: false
Boxcar width: 0
XAxis mode: Wavelengths
Number of Pixels in Spectrum: 2048
>>>>>Begin Spectral Data<<<<<
223.165	-5.62
223.4	-5.62
223.635	-5.62
223.869	-21.62
224.104	-21.62
224.338	-11.62
224.573	-5.62
224.808	-14.62
225.042	1.38
225.277	-20.62
225.511	-6.62
225.746	15.38
225.98	3.38
226.215	16.38
226.449	25.38
226.683	25.38
226.918	3.38
227.152	17.38
227.387	23.38
227.621	39.38
227.856	44.38
228.09	40.38
228.324	41.38
228.559	50.38
228.793	51.38
229.027	53.38
229.262	58.38
229.496	59.38
229.73	65.38
229.964	59.38
230.199	70.38
230.433	82.38
230.667	64.38
230.901	76.38
231.136	76.38
231.37	75.38
231.604	78.38
231.838	87.38
232.072	75.38
232.306	92.38
232.541	92.38
232.775	83.38
233.009	90.38
233.243	88.38
233.477	82.38
233.711	95.38
233.945	70.38
234.179	80.38
234.413	96.38
234.647	89.38
234.881	77.38
235.115	91.38
235.349	73.38
235.583	83.38
235.817	82.38
236.051	85.38
236.285	89.38
236.519	75.38
236.753	80.38
236.987	72.38
237.221	83.38
237.455	83.38
237.689	83.38
237.922	72.38
238.156	72.38
238.39	79.38
238.624	79.38
238.858	89.38
239.091	79.38
239.325	71.38
239.559	92.38
239.793	79.38
240.027	72.38
240.26	87.38
240.494	74.38
240.728	88.38
240.961	79.38
241.195	88.38
241.429	74.38
241.662	68.38
241.896	72.38
242.13	69.38
242.363	71.38
242.597	79.38
242.83	79.38
243.064	82.38
243.298	84.38
243.531	72.38
243.765	72.38
243.998	77.38
244.232	73.38
244.465	86.38
244.699	81.38
244.932	79.38
245.166	82.38
245.399	75.38
245.633	78.38
245.866	88.38
246.099	77.38
246.333	67.38
246.566	70.38
246.8	85.38
247.033	77.38
247.266	74.38
247.5	86.38
247.733	71.38
247.966	87.38
248.2	65.38
248.433	70.38
248.666	74.38
248.899	78.38
249.133	77.38
249.366	88.38
249.599	76.38
249.832	75.38
250.066	77.38
250.299	89.38
250.532	87.38
250.765	80.38
250.998	89.38
251.231	73.38
251.465	80.38
251.698	82.38
251.931	75.38
252.164	86.38
252.397	87.38
252.63	80.38
252.863	72.38
253.096	85.38
253.329	89.38
253.562	89.38
253.795	82.38
254.028	66.38
254.261	78.38
254.494	82.38
254.727	94.38
254.96	87.38
255.193	85.38
255.426	80.38
255.659	68.38
255.892	88.38
256.124	88.38
256.357	79.38
256.59	79.38
256.823	78.38
257.056	73.38
257.289	83.38
257.521	68.38
257.754	72.38
257.987	89.38
258.22	93.38
258.452	82.38
258.685	85.38
258.918	90.38
259.151	89.38
259.383	77.38
259.616	71.38
259.849	82.38
260.081	70.38
260.314	87.38
260.547	91.38
260.779	87.38
261.012	72.38
261.244	84.38
261.477	76.38
261.71	92.38
261.942	75.38
262.175	79.38
262.407	72.38
262.64	89.38
262.872	77.38
263.105	86.38
263.337	69.38
263.57	82.38
263.802	77.38
264.035	69.38
264.267	76.38
264.499	87.38
264.732	83.38
264.964	76.38
265.197	91.38
265.429	67.38
265.661	71.38
265.894	82.38
266.126	85.38
266.358	72.38
266.591	75.38
266.823	77.38
267.055	74.38
267.287	77.38
267.52	81.38
267.752	80.38
267.984	73.38
268.216	69.38
268.448	78.38
268.681	92.38
268.913	84.38
269.145	89.38
269.377	75.38
269.609	92.38
269.841	93.38
270.073	76.38
270.306	98.38
270.538	82.38
270.77	88.38
271.002	82.38
271.234	90.38
271.466	81.38
271.698	73.38
271.93	88.38
272.162	91.38
272.394	85.38
272.626	80.38
272.858	86.38
273.09	82.38
273.322	93.38
273.553	71.38
273.785	89.38
274.017	72.38
274.249	74.38
274.481	75.38
274.713	79.38
274.945	87.38
275.176	85.38
275.408	77.38
275.64	71.38
275.872	88.38
276.104	74.38
276.335	79.38
276.567	94.38
276.799	72.38
277.031	92.38
277.262	73.38
277.494	82.38
277.726	83.38
277.957	85.38
278.189	78.38
278.421	84.38
278.652	87.38
278.884	85.38
279.115	76.38
279.347	83.38
279.579	90.38
279.81	104.38
280.042	86.38
280.273	70.38
280.505	78.38
280.736	88.38
280.968	95.38
281.199	86.38
281.431	95.38
281.662	84.38
281.894	92.38
282.125	77.38
282.356	95.38
282.588	85.38
282.819	80.38
283.051	87.38
283.282	79.38
283.513	95.38
283.745	93.38
283.976	98.38
284.207	80.38
284.439	91.38
284.67	93.38
284.901	89.38
285.132	75.38
285.364	83.38
285.595	93.38
285.826	79.38
286.057	87.38
286.288	95.38
286.52	90.38
286.751	87.38
286.982	90.38
287.213	92.38
287.444	88.38
287.675	96.38
287.906	84.38
288.138	98.38
288.369	76.38
288.6	78.38
288.831	78.38
289.062	95.38
289.293	84.38
289.524	76.38
289.755	97.38
289.986	69.38
290.217	81.38
290.448	89.38
290.679	82.38
290.91	80.38
291.141	84.38
291.371	90.38
291.602	71.38
291.833	76.38
292.064	79.38
292.295	85.38
292.526	83.38
292.757	93.38
292.987	82.38
293.218	85.38
293.449	88.38
293.68	73.38
293.91	91.38
294.141	89.38
294.372	91.38
294.603	83.38
294.833	83.38
295.064	91.38
295.295	85.38
295.525	89.38
295.756	81.38
295.987	74.38
296.217	96.38
296.448	84.38
296.679	84.38
296.909	99.38
297.14	96.38
297.37	87.38
297.601	87.38
297.831	79.38
298.062	72.38
298.292	85.38
298.523	81.38
298.753	100.38
298.984	64.38
299.214	85.38
299.445	80.38
299.675	99.38
299.905	82.38
300.136	83.38
300.366	76.38
300.597	80.38
300.827	85.38
301.057	86.38
301.288	91.38
301.518	93.38
301.748	88.38
301.979	91.38
302.209	69.38
302.439	92.38
302.669	97.38
302.9	93.38
303.13	82.38
303.36	94.38
303.59	91.38
303.82	90.38
304.051	84.38
304.281	89.38
304.511	100.38
304.741	89.38
304.971	104.38
305.201	83.38
305.431	86.38
305.661	86.38
305.891	89.38
306.121	86.38
306.352	85.38
306.582	90.38
306.812	67.38
307.042	93.38
307.272	82.38
307.502	90.38
307.731	82.38
307.961	83.38
308.191	85.38
308.421	89.38
308.651	82.38
308.881	81.38
309.111	79.38
309.341	77.38
309.571	91.38
309.8	86.38
310.03	85.38
310.26	93.38
310.49	89.38
310.72	74.38
310.949	92.38
311.179	86.38
311.409	84.38
311.639	82.38
311.868	83.38
312.098	88.38
312.328	83.38
312.557	98.38
312.787	82.38
313.017	87.38
313.246	89.38
313.476	96.38
313.706	73.38
313.935	69.38
314.165	85.38
314.394	78.38
314.624	82.38
314.853	91.38
315.083	92.38
315.312	77.38
315.542	91.38
315.771	74.38
316.001	97.38
316.23	97.38
316.46	92.38
316.689	67.38
316.919	84.38
317.148	92.38
317.377	87.38
317.607	77.38
317.836	83.38
318.065	83.38
318.295	98.38
318.524	94.38
318.753	87.38
318.983	82.38
319.212	91.38
319.441	83.38
319.67	73.38
319.9	81.38
320.129	72.38
320.358	96.38
320.587	85.38
320.816	90.38
321.046	100.38
321.275	87.38
321.504	85.38
321.733	79.38
321.962	76.38
322.191	72.38
322.42	88.38
322.649	95.38
322.878	85.38
323.108	86.38
323.337	86.38
323.566	88.38
323.795	77.38
324.024	79.38
324.253	75.38
324.482	77.38
324.71	94.38
324.939	93.38
325.168	97.38
325.397	85.38
325.626	75.38
325.855	81.38
326.084	89.38
326.313	88.38
326.542	77.38
326.77	84.38
326.999	93.38
327.228	94.38
327.457	86.38
327.686	81.38
327.914	94.38
328.143	82.38
328.372	96.38
328.6	89.38
328.829	84.38
329.058	89.38
329.287	87.38
329.515	87.38
329.744	84.38
329.972	81.38
330.201	93.38
330.43	88.38
330.658	85.38
330.887	88.38
331.115	84.38
331.344	103.38
331.572	75.38
331.801	88.38
332.03	98.38
332.258	96.38
332.486	75.38
332.715	72.38
332.943	83.38
333.172	77.38
333.4	85.38
333.629	86.38
333.857	79.38
334.085	78.38
334.314	82.38
334.542	85.38
334.771	80.38
334.999	89.38
335.227	89.38
335.455	82.38
335.684	85.38
335.912	81.38
336.14	91.38
336.369	89.38
336.597	90.38
336.825	87.38
337.053	74.38
337.281	88.38
337.51	83.38
337.738	88.38
337.966	93.38
338.194	76.38
338.422	92.38
338.65	85.38
338.878	96.38
339.106	84.38
339.334	81.38
339.562	87.38
339.79	88.38
340.018	84.38
340.246	78.38
340.474	64.38
340.702	83.38
340.93	92.38
341.158	83.38
341.386	85.38
341.614	80.38
341.842	91.38
342.07	80.38
342.298	77.38
342.526	81.38
342.754	95.38
342.981	81.38
343.209	87.38
343.437	73.38
343.665	81.38
343.893	80.38
344.12	85.38
344.348	94.38
344.576	85.38
344.804	84.38
345.031	91.38
345.259	98.38
345.487	85.38
345.714	92.38
345.942	96.38
346.17	73.38
346.397	95.38
346.625	80.38
346.853	90.38
347.08	80.38
347.308	84.38
347.535	83.38
347.763	85.38
347.99	96.38
348.218	75.38
348.445	87.38
348.673	81.38
348.9	84.38
349.128	83.38
349.355	87.38
349.583	85.38
349.81	81.38
350.037	74.38
350.265	87.38
350.492	91.38
350.72	85.38
350.947	81.38
351.174	88.38
351.402	90.38
351.629	91.38
351.856	87.38
352.083	78.38
352.311	98.38
352.538	83.38
352.765	89.38
352.992	88.38
353.22	82.38
353.447	80.38
353.674	73.38
353.901	86.38
354.128	82.38
354.355	77.38
354.583	76.38
354.81	79.38
355.037	79.38
355.264	81.38
355.491	75.38
355.718	62.38
355.945	88.38
356.172	89.38
356.399	84.38
356.626	81.38
356.853	77.38
357.08	68.38
357.307	72.38
357.534	87.38
357.761	78.38
357.988	88.38
358.215	96.38
358.441	83.38
358.668	79.38
358.895	87.38
359.122	96.38
359.349	85.38
359.576	79.38
359.802	84.38
360.029	86.38
360.256	85.38
360.483	78.38
360.709	80.38
360.936	103.38
361.163	74.38
361.39	78.38
361.616	94.38
361.843	78.38
362.07	80.38
362.296	85.38
362.523	90.38
362.749	88.38
362.976	98.38
363.203	83.38
363.429	85.38
363.656	76.38
363.882	81.38
364.109	80.38
364.335	84.38
364.562	91.38
364.788	84.38
365.015	99.38
365.241	92.38
365.468	88.38
365.694	76.38
365.92	74.38
366.147	81.38
366.373	77.38
366.599	93.38
366.826	93.38
367.052	96.38
367.278	89.38
367.505	95.38
367.731	87.38
367.957	83.38
368.184	78.38
368.41	91.38
368.636	89.38
368.862	78.38
369.089	98.38
369.315	94.38
369.541	94.38
369.767	82.38
369.993	96.38
370.219	91.38
370.445	98.38
370.672	86.38
370.898	85.38
371.124	91.38
371.35	98.38
371.576	95.38
371.802	91.38
372.028	94.38
372.254	84.38
372.48	91.38
372.706	93.38
372.932	84.38
373.158	105.38
373.384	91.38
373.61	88.38
373.835	106.38
374.061	85.38
374.287	113.38
374.513	85.38
374.739	91.38
374.965	86.38
375.191	84.38
375.416	90.38
375.642	95.38
375.868	89.38
376.094	98.38
376.319	96.38
376.545	104.38
376.771	97.38
376.997	86.38
377.222	87.38
377.448	81.38
377.674	95.38
377.899	101.38
378.125	101.38
378.35	93.38
378.576	93.38
378.802	90.38
379.027	85.38
379.253	92.38
379.478	107.38
379.704	96.38
379.929	99.38
380.155	92.38
380.38	91.38
380.606	91.38
380.831	92.38
381.057	103.38
381.282	87.38
381.507	101.38
381.733	105.38
381.958	101.38
382.184	105.38
382.409	106.38
382.634	89.38
382.86	106.38
383.085	98.38
383.31	96.38
383.535	94.38
383.761	100.38
383.986	102.38
384.211	98.38
384.436	85.38
384.662	99.38
384.887	95.38
385.112	91.38
385.337	91.38
385.562	107.38
385.787	98.38
386.013	101.38
386.238	103.38
386.463	90.38
386.688	89.38
386.913	90.38
387.138	120.38
387.363	113.38
387.588	100.38
387.813	101.38
388.038	108.38
388.263	96.38
388.488	98.38
388.713	86.38
388.938	105.38
389.163	97.38
389.387	119.38
389.612	104.38
389.837	116.38
390.062	92.38
390.287	85.38
390.512	106.38
390.736	96.38
390.961	87.38
391.186	102.38
391.411	103.38
391.636	97.38
391.86	105.38
392.085	95.38
392.31	104.38
392.534	116.38
392.759	104.38
392.984	111.38
393.208	114.38
393.433	99.38
393.658	102.38
393.882	113.38
394.107	95.38
394.331	102.38
394.556	104.38
394.78	107.38
395.005	111.38
395.229	103.38
395.454	105.38
395.678	99.38
395.903	105.38
396.127	96.38
396.352	107.38
396.576	105.38
396.801	101.38
397.025	116.38
397.249	118.38
397.474	100.38
397.698	106.38
397.922	112.38
398.147	101.38
398.371	123.38
398.595	105.38
398.82	106.38
399.044	114.38
399.268	124.38
399.492	114.38
399.717	108.38
399.941	113.38
400.165	118.38
400.389	106.38
400.613	109.38
400.837	93.38
401.062	95.38
401.286	114.38
401.51	111.38
401.734	119.38
401.958	113.38
402.182	111.38
402.406	112.38
402.63	123.38
402.854	120.38
403.078	116.38
403.302	117.38
403.526	107.38
403.75	120.38
403.974	119.38
404.198	101.38
404.422	115.38
404.645	122.38
404.869	109.38
405.093	121.38
405.317	116.38
405.541	120.38
405.765	120.38
405.988	107.38
406.212	111.38
406.436	114.38
406.66	113.38
406.883	128.38
407.107	122.38
407.331	116.38
407.555	131.38
407.778	109.38
408.002	130.38
408.226	116.38
408.449	121.38
408.673	122.38
408.896	121.38
409.12	107.38
409.344	123.38
409.567	110.38
409.791	104.38
410.014	115.38
410.238	127.38
410.461	120.38
410.685	121.38
410.908	120.38
411.132	116.38
411.355	123.38
411.578	115.38
411.802	106.38
412.025	120.38
412.249	121.38
412.472	115.38
412.695	110.38
412.919	117.38
413.142	131.38
413.365	134.38
413.589	126.38
413.812	123.38
414.035	121.38
414.258	128.38
414.482	122.38
414.705	119.38
414.928	117.38
415.151	117.38
415.374	125.38
415.597	122.38
415.821	127.38
416.044	129.38
416.267	123.38
416.49	117.38
416.713	127.38
416.936	132.38
417.159	136.38
417.382	131.38
417.605	121.38
417.828	109.38
418.051	134.38
418.274	136.38
418.497	142.38
418.72	132.38
418.943	134.38
419.166	121.38
419.389	139.38
419.611	137.38
419.834	131.38
420.057	136.38
420.28	126.38
420.503	140.38
420.726	135.38
420.948	133.38
421.171	130.38
421.394	118.38
421.617	128.38
421.839	142.38
422.062	135.38
422.285	129.38
422.507	135.38
422.73	129.38
422.953	140.38
423.175	123.38
423.398	123.38
423.621	128.38
423.843	110.38
424.066	144.38
424.288	158.38
424.511	165.38
424.733	143.38
424.956	126.38
425.178	136.38
425.401	134.38
425.623	140.38
425.846	134.38
426.068	131.38
426.291	121.38
426.513	125.38
426.735	130.38
426.958	137.38
427.18	140.38
427.402	131.38
427.625	128.38
427.847	115.38
428.069	133.38
428.292	128.38
428.514	125.38
428.736	142.38
428.958	128.38
429.181	144.38
429.403	130.38
429.625	135.38
429.847	123.38
430.069	126.38
430.292	142.38
430.514	128.38
430.736	120.38
430.958	141.38
431.18	124.38
431.402	116.38
431.624	92.38
431.846	115.38
432.068	98.38
432.29	100.38
432.512	119.38
432.734	113.38
432.956	127.38
433.178	139.38
433.4	132.38
433.622	158.38
433.844	128.38
434.066	127.38
434.287	116.38
434.509	86.38
434.731	106.38
434.953	122.38
435.175	127.38
435.397	133.38
435.618	121.38
435.84	126.38
436.062	108.38
436.284	124.38
436.505	116.38
436.727	139.38
436.949	126.38
437.17	115.38
437.392	127.38
437.614	125.38
437.835	105.38
438.057	123.38
438.278	113.38
438.5	123.38
438.721	125.38
438.943	133.38
439.165	145.38
439.386	126.38
439.608	139.38
439.829	135.38
440.05	165.38
440.272	148.38
440.493	142.38
440.715	144.38
440.936	140.38
441.158	141.38
441.379	128.38
441.6	133.38
441.822	141.38
442.043	142.38
442.264	140.38
442.486	140.38
442.707	145.38
442.928	150.38
443.149	148.38
443.371	131.38
443.592	155.38
443.813	138.38
444.034	133.38
444.255	155.38
444.476	150.38
444.698	129.38
444.919	143.38
445.14	273.38
445.361	186.38
445.582	141.38
445.803	149.38
446.024	145.38
446.245	157.38
446.466	156.38
446.687	150.38
446.908	149.38
447.129	159.38
447.35	149.38
447.571	146.38
447.792	130.38
448.013	145.38
448.234	156.38
448.455	153.38
448.675	135.38
448.896	140.38
449.117	130.38
449.338	141.38
449.559	134.38
449.779	143.38
450	134.38
450.221	133.38
450.442	133.38
450.662	150.38
450.883	140.38
451.104	129.38
451.324	136.38
451.545	126.38
451.766	137.38
451.986	125.38
452.207	130.38
452.428	119.38
452.648	124.38
452.869	125.38
453.089	112.38
453.31	122.38
453.53	123.38
453.751	116.38
453.971	111.38
454.192	112.38
454.412	111.38
454.633	120.38
454.853	126.38
455.073	111.38
455.294	119.38
455.514	129.38
455.734	115.38
455.955	121.38
456.175	124.38
456.395	122.38
456.616	104.38
456.836	96.38
457.056	95.38
457.276	96.38
457.497	114.38
457.717	115.38
457.937	107.38
458.157	100.38
458.377	115.38
458.598	106.38
458.818	95.38
459.038	97.38
459.258	91.38
459.478	91.38
459.698	91.38
459.918	92.38
460.138	105.38
460.358	110.38
460.578	106.38
460.798	112.38
461.018	113.38
461.238	114.38
461.458	127.38
461.678	115.38
461.898	116.38
462.118	108.38
462.338	123.38
462.558	115.38
462.777	121.38
462.997	103.38
463.217	108.38
463.437	122.38
463.657	116.38
463.876	114.38
464.096	114.38
464.316	87.38
464.536	106.38
464.755	117.38
464.975	118.38
465.195	100.38
465.414	120.38
465.634	99.38
465.854	100.38
466.073	119.38
466.293	129.38
466.512	121.38
466.732	141.38
466.951	141.38
467.171	123.38
467.391	132.38
467.61	125.38
467.829	129.38
468.049	120.38
468.268	142.38
468.488	138.38
468.707	146.38
468.927	136.38
469.146	145.38
469.365	136.38
469.585	147.38
469.804	133.38
470.023	127.38
470.243	156.38
470.462	145.38
470.681	133.38
470.901	144.38
471.12	139.38
471.339	149.38
471.558	138.38
471.777	143.38
471.997	133.38
472.216	131.38
472.435	117.38
472.654	119.38
472.873	103.38
473.092	119.38
473.311	127.38
473.53	130.38
473.749	137.38
473.968	118.38
474.187	119.38
474.406	115.38
474.625	133.38
474.844	123.38
475.063	140.38
475.282	127.38
475.501	138.38
475.72	118.38
475.939	129.38
476.158	129.38
476.377	116.38
476.596	136.38
476.814	119.38
477.033	111.38
477.252	117.38
477.471	113.38
477.69	129.38
477.908	141.38
478.127	131.38
478.346	124.38
478.564	125.38
478.783	133.38
479.002	150.38
479.22	149.38
479.439	153.38
479.658	142.38
479.876	113.38
480.095	104.38
480.313	117.38
480.532	119.38
480.751	102.38
480.969	101.38
481.188	87.38
481.406	83.38
481.624	94.38
481.843	92.38
482.061	89.38
482.28	119.38
482.498	120.38
482.717	110.38
482.935	119.38
483.153	136.38
483.372	147.38
483.59	146.38
483.808	142.38
484.027	140.38
484.245	130.38
484.463	132.38
484.681	164.38
484.9	134.38
485.118	137.38
485.336	122.38
485.554	107.38
485.772	104.38
485.99	104.38
486.209	118.38
486.427	120.38
486.645	120.38
486.863	130.38
487.081	140.38
487.299	155.38
487.517	132.38
487.735	165.38
487.953	175.38
488.171	175.38
488.389	156.38
488.607	143.38
488.825	138.38
489.043	145.38
489.261	137.38
489.479	147.38
489.696	143.38
489.914	151.38
490.132	146.38
490.35	156.38
490.568	151.38
490.786	166.38
491.003	169.38
491.221	183.38
491.439	176.38
491.657	190.38
491.874	194.38
492.092	215.38
492.31	245.38
492.527	230.38
492.745	209.38
492.963	196.38
493.18	188.38
493.398	183.38
493.615	185.38
493.833	170.38
494.05	169.38
494.268	160.38
494.485	179.38
494.703	168.38
494.92	190.38
495.138	177.38
495.355	192.38
495.573	163.38
495.79	155.38
496.008	171.38
496.225	157.38
496.442	165.38
496.66	159.38
496.877	167.38
497.094	154.38
497.312	180.38
497.529	161.38
497.746	157.38
497.963	138.38
498.181	137.38
498.398	128.38
498.615	117.38
498.832	113.38
499.049	113.38
499.267	133.38
499.484	127.38
499.701	139.38
499.918	133.38
500.135	138.38
500.352	132.38
500.569	141.38
500.786	149.38
501.003	145.38
501.22	149.38
501.437	119.38
501.654	130.38
501.871	123.38
502.088	131.38
502.305	128.38
502.522	136.38
502.739	125.38
502.956	131.38
503.172	124.38
503.389	124.38
503.606	116.38
503.823	133.38
504.04	114.38
504.256	121.38
504.473	111.38
504.69	108.38
504.907	120.38
505.123	130.38
505.34	121.38
505.557	122.38
505.773	111.38
505.99	127.38
506.207	118.38
506.423	120.38
506.64	117.38
506.856	117.38
507.073	113.38
507.289	123.38
507.506	117.38
507.722	112.38
507.939	121.38
508.155	106.38
508.372	115.38
508.588	108.38
508.805	95.38
509.021	99.38
509.238	102.38
509.454	103.38
509.67	100.38
509.887	102.38
510.103	89.38
510.319	86.38
510.536	90.38
510.752	83.38
510.968	82.38
511.184	80.38
511.401	95.38
511.617	92.38
