Data from Location2.07152019.Energy5.Lamp.07192019.3%Agarose_HRD10591_14-57-47-359.txt Node
Date: Fri Jul 19 14:57:47 EDT 2019
User: cochatt
Spectrometer: HR+D1059
Trigger mode: 1
Integration Time (sec): 1.000000E-1
Scans to average: 1
Electric dark correction enabled: true
Nonlinearity correction enabled: false
Boxcar width: 0
XAxis mode: Wavelengths
Number of Pixels in Spectrum: 2048
>>>>>Begin Spectral Data<<<<<
223.165	-5.81
223.4	-5.81
223.635	-5.81
223.869	-11.81
224.104	-10.81
224.338	-23.81
224.573	-17.81
224.808	-12.81
225.042	2.19
225.277	7.19
225.511	-4.81
225.746	-7.81
225.98	0.19
226.215	2.19
226.449	21.19
226.683	20.19
226.918	11.19
227.152	31.19
227.387	29.19
227.621	50.19
227.856	53.19
228.09	42.19
228.324	45.19
228.559	62.19
228.793	60.19
229.027	59.19
229.262	58.19
229.496	73.19
229.73	71.19
229.964	68.19
230.199	72.19
230.433	89.19
230.667	77.19
230.901	65.19
231.136	77.19
231.37	85.19
231.604	79.19
231.838	70.19
232.072	81.19
232.306	66.19
232.541	90.19
232.775	83.19
233.009	93.19
233.243	90.19
233.477	93.19
233.711	81.19
233.945	68.19
234.179	71.19
234.413	86.19
234.647	90.19
234.881	85.19
235.115	69.19
235.349	82.19
235.583	87.19
235.817	78.19
236.051	60.19
236.285	85.19
236.519	86.19
236.753	92.19
236.987	72.19
237.221	94.19
237.455	74.19
237.689	66.19
237.922	75.19
238.156	80.19
238.39	73.19
238.624	80.19
238.858	94.19
239.091	59.19
239.325	73.19
239.559	77.19
239.793	77.19
240.027	87.19
240.26	69.19
240.494	84.19
240.728	94.19
240.961	73.19
241.195	89.19
241.429	82.19
241.662	75.19
241.896	84.19
242.13	73.19
242.363	84.19
242.597	78.19
242.83	83.19
243.064	86.19
243.298	89.19
243.531	72.19
243.765	81.19
243.998	69.19
244.232	62.19
244.465	71.19
244.699	66.19
244.932	81.19
245.166	85.19
245.399	87.19
245.633	95.19
245.866	72.19
246.099	78.19
246.333	72.19
246.566	82.19
246.8	85.19
247.033	73.19
247.266	82.19
247.5	72.19
247.733	80.19
247.966	86.19
248.2	84.19
248.433	74.19
248.666	90.19
248.899	78.19
249.133	95.19
249.366	85.19
249.599	80.19
249.832	81.19
250.066	89.19
250.299	84.19
250.532	78.19
250.765	72.19
250.998	77.19
251.231	99.19
251.465	91.19
251.698	80.19
251.931	85.19
252.164	80.19
252.397	81.19
252.63	74.19
252.863	89.19
253.096	75.19
253.329	92.19
253.562	76.19
253.795	70.19
254.028	83.19
254.261	76.19
254.494	83.19
254.727	70.19
254.96	81.19
255.193	76.19
255.426	76.19
255.659	88.19
255.892	84.19
256.124	73.19
256.357	80.19
256.59	64.19
256.823	81.19
257.056	81.19
257.289	98.19
257.521	89.19
257.754	86.19
257.987	72.19
258.22	91.19
258.452	71.19
258.685	77.19
258.918	72.19
259.151	82.19
259.383	76.19
259.616	94.19
259.849	82.19
260.081	71.19
260.314	72.19
260.547	79.19
260.779	96.19
261.012	97.19
261.244	76.19
261.477	81.19
261.71	85.19
261.942	74.19
262.175	95.19
262.407	94.19
262.64	77.19
262.872	86.19
263.105	78.19
263.337	97.19
263.57	87.19
263.802	88.19
264.035	87.19
264.267	94.19
264.499	79.19
264.732	83.19
264.964	74.19
265.197	85.19
265.429	77.19
265.661	88.19
265.894	88.19
266.126	98.19
266.358	73.19
266.591	87.19
266.823	101.19
267.055	80.19
267.287	84.19
267.52	69.19
267.752	78.19
267.984	73.19
268.216	83.19
268.448	90.19
268.681	82.19
268.913	103.19
269.145	77.19
269.377	81.19
269.609	100.19
269.841	77.19
270.073	81.19
270.306	94.19
270.538	87.19
270.77	93.19
271.002	77.19
271.234	78.19
271.466	84.19
271.698	73.19
271.93	76.19
272.162	76.19
272.394	87.19
272.626	88.19
272.858	76.19
273.09	90.19
273.322	80.19
273.553	74.19
273.785	96.19
274.017	80.19
274.249	87.19
274.481	96.19
274.713	86.19
274.945	86.19
275.176	83.19
275.408	88.19
275.64	85.19
275.872	93.19
276.104	93.19
276.335	74.19
276.567	77.19
276.799	83.19
277.031	80.19
277.262	84.19
277.494	79.19
277.726	85.19
277.957	89.19
278.189	72.19
278.421	80.19
278.652	88.19
278.884	76.19
279.115	94.19
279.347	82.19
279.579	75.19
279.81	87.19
280.042	84.19
280.273	85.19
280.505	83.19
280.736	91.19
280.968	85.19
281.199	78.19
281.431	79.19
281.662	80.19
281.894	89.19
282.125	92.19
282.356	97.19
282.588	95.19
282.819	83.19
283.051	97.19
283.282	82.19
283.513	93.19
283.745	86.19
283.976	75.19
284.207	68.19
284.439	87.19
284.67	101.19
284.901	77.19
285.132	82.19
285.364	94.19
285.595	93.19
285.826	80.19
286.057	92.19
286.288	77.19
286.52	93.19
286.751	75.19
286.982	92.19
287.213	87.19
287.444	91.19
287.675	96.19
287.906	72.19
288.138	98.19
288.369	87.19
288.6	68.19
288.831	80.19
289.062	99.19
289.293	85.19
289.524	92.19
289.755	92.19
289.986	77.19
290.217	93.19
290.448	95.19
290.679	81.19
290.91	93.19
291.141	85.19
291.371	82.19
291.602	90.19
291.833	85.19
292.064	94.19
292.295	87.19
292.526	67.19
292.757	81.19
292.987	78.19
293.218	91.19
293.449	100.19
293.68	80.19
293.91	98.19
294.141	90.19
294.372	96.19
294.603	81.19
294.833	75.19
295.064	73.19
295.295	81.19
295.525	98.19
295.756	97.19
295.987	99.19
296.217	103.19
296.448	79.19
296.679	85.19
296.909	93.19
297.14	99.19
297.37	87.19
297.601	84.19
297.831	90.19
298.062	77.19
298.292	86.19
298.523	101.19
298.753	93.19
298.984	90.19
299.214	77.19
299.445	96.19
299.675	100.19
299.905	94.19
300.136	81.19
300.366	94.19
300.597	81.19
300.827	90.19
301.057	98.19
301.288	98.19
301.518	94.19
301.748	74.19
301.979	96.19
302.209	76.19
302.439	67.19
302.669	75.19
302.9	99.19
303.13	88.19
303.36	84.19
303.59	90.19
303.82	82.19
304.051	94.19
304.281	91.19
304.511	94.19
304.741	80.19
304.971	72.19
305.201	75.19
305.431	91.19
305.661	82.19
305.891	81.19
306.121	88.19
306.352	68.19
306.582	74.19
306.812	96.19
307.042	94.19
307.272	84.19
307.502	79.19
307.731	89.19
307.961	85.19
308.191	85.19
308.421	87.19
308.651	98.19
308.881	89.19
309.111	77.19
309.341	91.19
309.571	82.19
309.8	82.19
310.03	78.19
310.26	85.19
310.49	99.19
310.72	94.19
310.949	93.19
311.179	84.19
311.409	89.19
311.639	87.19
311.868	85.19
312.098	84.19
312.328	84.19
312.557	87.19
312.787	94.19
313.017	97.19
313.246	79.19
313.476	76.19
313.706	84.19
313.935	78.19
314.165	84.19
314.394	84.19
314.624	88.19
314.853	77.19
315.083	84.19
315.312	87.19
315.542	89.19
315.771	89.19
316.001	71.19
316.23	86.19
316.46	84.19
316.689	88.19
316.919	92.19
317.148	89.19
317.377	86.19
317.607	101.19
317.836	78.19
318.065	86.19
318.295	88.19
318.524	97.19
318.753	90.19
318.983	97.19
319.212	84.19
319.441	96.19
319.67	91.19
319.9	91.19
320.129	95.19
320.358	87.19
320.587	89.19
320.816	82.19
321.046	81.19
321.275	88.19
321.504	86.19
321.733	86.19
321.962	76.19
322.191	83.19
322.42	103.19
322.649	80.19
322.878	97.19
323.108	89.19
323.337	82.19
323.566	70.19
323.795	92.19
324.024	82.19
324.253	86.19
324.482	73.19
324.71	80.19
324.939	93.19
325.168	84.19
325.397	92.19
325.626	91.19
325.855	105.19
326.084	86.19
326.313	108.19
326.542	82.19
326.77	75.19
326.999	77.19
327.228	81.19
327.457	83.19
327.686	93.19
327.914	86.19
328.143	82.19
328.372	87.19
328.6	83.19
328.829	89.19
329.058	101.19
329.287	81.19
329.515	76.19
329.744	83.19
329.972	89.19
330.201	81.19
330.43	84.19
330.658	85.19
330.887	88.19
331.115	81.19
331.344	80.19
331.572	84.19
331.801	88.19
332.03	83.19
332.258	86.19
332.486	85.19
332.715	81.19
332.943	75.19
333.172	87.19
333.4	92.19
333.629	96.19
333.857	90.19
334.085	85.19
334.314	97.19
334.542	91.19
334.771	92.19
334.999	84.19
335.227	93.19
335.455	88.19
335.684	87.19
335.912	84.19
336.14	74.19
336.369	83.19
336.597	77.19
336.825	92.19
337.053	91.19
337.281	84.19
337.51	70.19
337.738	94.19
337.966	81.19
338.194	82.19
338.422	83.19
338.65	77.19
338.878	96.19
339.106	82.19
339.334	94.19
339.562	96.19
339.79	74.19
340.018	85.19
340.246	92.19
340.474	76.19
340.702	85.19
340.93	92.19
341.158	65.19
341.386	70.19
341.614	88.19
341.842	81.19
342.07	86.19
342.298	80.19
342.526	93.19
342.754	79.19
342.981	90.19
343.209	90.19
343.437	84.19
343.665	78.19
343.893	76.19
344.12	86.19
344.348	83.19
344.576	95.19
344.804	87.19
345.031	105.19
345.259	88.19
345.487	92.19
345.714	101.19
345.942	75.19
346.17	97.19
346.397	95.19
346.625	95.19
346.853	80.19
347.08	105.19
347.308	78.19
347.535	89.19
347.763	86.19
347.99	103.19
348.218	89.19
348.445	95.19
348.673	85.19
348.9	96.19
349.128	89.19
349.355	91.19
349.583	79.19
349.81	91.19
350.037	86.19
350.265	86.19
350.492	84.19
350.72	81.19
350.947	89.19
351.174	101.19
351.402	89.19
351.629	75.19
351.856	83.19
352.083	88.19
352.311	75.19
352.538	84.19
352.765	97.19
352.992	91.19
353.22	94.19
353.447	84.19
353.674	100.19
353.901	93.19
354.128	88.19
354.355	87.19
354.583	76.19
354.81	82.19
355.037	77.19
355.264	89.19
355.491	76.19
355.718	90.19
355.945	78.19
356.172	81.19
356.399	89.19
356.626	88.19
356.853	89.19
357.08	82.19
357.307	85.19
357.534	94.19
357.761	85.19
357.988	86.19
358.215	89.19
358.441	84.19
358.668	73.19
358.895	76.19
359.122	95.19
359.349	79.19
359.576	88.19
359.802	93.19
360.029	94.19
360.256	69.19
360.483	64.19
360.709	95.19
360.936	78.19
361.163	72.19
361.39	89.19
361.616	89.19
361.843	78.19
362.07	87.19
362.296	89.19
362.523	97.19
362.749	84.19
362.976	85.19
363.203	81.19
363.429	89.19
363.656	78.19
363.882	84.19
364.109	75.19
364.335	82.19
364.562	91.19
364.788	77.19
365.015	67.19
365.241	107.19
365.468	87.19
365.694	93.19
365.92	103.19
366.147	90.19
366.373	89.19
366.599	83.19
366.826	94.19
367.052	91.19
367.278	93.19
367.505	73.19
367.731	96.19
367.957	90.19
368.184	101.19
368.41	90.19
368.636	91.19
368.862	96.19
369.089	84.19
369.315	84.19
369.541	93.19
369.767	109.19
369.993	107.19
370.219	98.19
370.445	91.19
370.672	92.19
370.898	90.19
371.124	100.19
371.35	80.19
371.576	87.19
371.802	89.19
372.028	95.19
372.254	98.19
372.48	82.19
372.706	94.19
372.932	81.19
373.158	91.19
373.384	104.19
373.61	114.19
373.835	102.19
374.061	83.19
374.287	90.19
374.513	86.19
374.739	89.19
374.965	94.19
375.191	86.19
375.416	101.19
375.642	97.19
375.868	91.19
376.094	96.19
376.319	89.19
376.545	92.19
376.771	95.19
376.997	91.19
377.222	113.19
377.448	86.19
377.674	101.19
377.899	102.19
378.125	89.19
378.35	94.19
378.576	84.19
378.802	99.19
379.027	106.19
379.253	102.19
379.478	105.19
379.704	100.19
379.929	97.19
380.155	115.19
380.38	112.19
380.606	97.19
380.831	102.19
381.057	101.19
381.282	90.19
381.507	101.19
381.733	97.19
381.958	90.19
382.184	91.19
382.409	99.19
382.634	92.19
382.86	100.19
383.085	85.19
383.31	111.19
383.535	97.19
383.761	116.19
383.986	95.19
384.211	88.19
384.436	90.19
384.662	97.19
384.887	100.19
385.112	84.19
385.337	90.19
385.562	98.19
385.787	93.19
386.013	88.19
386.238	103.19
386.463	106.19
386.688	105.19
386.913	96.19
387.138	86.19
387.363	117.19
387.588	108.19
387.813	107.19
388.038	113.19
388.263	102.19
388.488	78.19
388.713	103.19
388.938	103.19
389.163	107.19
389.387	89.19
389.612	95.19
389.837	99.19
390.062	97.19
390.287	95.19
390.512	103.19
390.736	101.19
390.961	108.19
391.186	104.19
391.411	99.19
391.636	93.19
391.86	95.19
392.085	101.19
392.31	109.19
392.534	88.19
392.759	99.19
392.984	110.19
393.208	115.19
393.433	94.19
393.658	105.19
393.882	95.19
394.107	106.19
394.331	111.19
394.556	118.19
394.78	116.19
395.005	105.19
395.229	100.19
395.454	107.19
395.678	110.19
395.903	93.19
396.127	102.19
396.352	119.19
396.576	96.19
396.801	118.19
397.025	116.19
397.249	108.19
397.474	104.19
397.698	110.19
397.922	107.19
398.147	114.19
398.371	107.19
398.595	98.19
398.82	105.19
399.044	117.19
399.268	112.19
399.492	103.19
399.717	117.19
399.941	114.19
400.165	118.19
400.389	110.19
400.613	114.19
400.837	115.19
401.062	120.19
401.286	124.19
401.51	114.19
401.734	114.19
401.958	117.19
402.182	116.19
402.406	112.19
402.63	121.19
402.854	105.19
403.078	106.19
403.302	127.19
403.526	113.19
403.75	117.19
403.974	120.19
404.198	121.19
404.422	115.19
404.645	137.19
404.869	129.19
405.093	107.19
405.317	116.19
405.541	112.19
405.765	123.19
405.988	120.19
406.212	128.19
406.436	125.19
406.66	142.19
406.883	117.19
407.107	113.19
407.331	123.19
407.555	124.19
407.778	123.19
408.002	123.19
408.226	113.19
408.449	122.19
408.673	140.19
408.896	119.19
409.12	115.19
409.344	142.19
409.567	118.19
409.791	129.19
410.014	142.19
410.238	127.19
410.461	141.19
410.685	122.19
410.908	126.19
411.132	126.19
411.355	116.19
411.578	125.19
411.802	127.19
412.025	129.19
412.249	131.19
412.472	134.19
412.695	110.19
412.919	128.19
413.142	123.19
413.365	124.19
413.589	122.19
413.812	120.19
414.035	100.19
414.258	126.19
414.482	126.19
414.705	123.19
414.928	130.19
415.151	122.19
415.374	118.19
415.597	114.19
415.821	124.19
416.044	118.19
416.267	128.19
416.49	127.19
416.713	142.19
416.936	136.19
417.159	126.19
417.382	122.19
417.605	121.19
417.828	124.19
418.051	134.19
418.274	129.19
418.497	129.19
418.72	130.19
418.943	132.19
419.166	129.19
419.389	134.19
419.611	138.19
419.834	136.19
420.057	134.19
420.28	139.19
420.503	133.19
420.726	123.19
420.948	140.19
421.171	126.19
421.394	140.19
421.617	153.19
421.839	128.19
422.062	142.19
422.285	146.19
422.507	106.19
422.73	112.19
422.953	121.19
423.175	122.19
423.398	134.19
423.621	124.19
423.843	132.19
424.066	141.19
424.288	129.19
424.511	160.19
424.733	133.19
424.956	121.19
425.178	146.19
425.401	139.19
425.623	136.19
425.846	136.19
426.068	134.19
426.291	122.19
426.513	132.19
426.735	127.19
426.958	145.19
427.18	141.19
427.402	126.19
427.625	143.19
427.847	124.19
428.069	130.19
428.292	147.19
428.514	132.19
428.736	134.19
428.958	118.19
429.181	129.19
429.403	115.19
429.625	126.19
429.847	124.19
430.069	132.19
430.292	141.19
430.514	135.19
430.736	128.19
430.958	143.19
431.18	154.19
431.402	127.19
431.624	120.19
431.846	106.19
432.068	92.19
432.29	100.19
432.512	113.19
432.734	112.19
432.956	137.19
433.178	140.19
433.4	136.19
433.622	161.19
433.844	125.19
434.066	111.19
434.287	118.19
434.509	101.19
434.731	102.19
434.953	124.19
435.175	127.19
435.397	121.19
435.618	119.19
435.84	111.19
436.062	127.19
436.284	123.19
436.505	121.19
436.727	132.19
436.949	136.19
437.17	130.19
437.392	132.19
437.614	132.19
437.835	105.19
438.057	120.19
438.278	113.19
438.5	121.19
438.721	114.19
438.943	149.19
439.165	149.19
439.386	138.19
439.608	132.19
439.829	135.19
440.05	130.19
440.272	134.19
440.493	141.19
440.715	137.19
440.936	136.19
441.158	146.19
441.379	158.19
441.6	149.19
441.822	145.19
442.043	141.19
442.264	134.19
442.486	144.19
442.707	137.19
442.928	139.19
443.149	136.19
443.371	141.19
443.592	129.19
443.813	145.19
444.034	138.19
444.255	123.19
444.476	149.19
444.698	131.19
444.919	143.19
445.14	243.19
445.361	185.19
445.582	154.19
445.803	164.19
446.024	141.19
446.245	151.19
446.466	149.19
446.687	160.19
446.908	143.19
447.129	150.19
447.35	148.19
447.571	149.19
447.792	156.19
448.013	154.19
448.234	148.19
448.455	145.19
448.675	138.19
448.896	133.19
449.117	142.19
449.338	153.19
449.559	138.19
449.779	144.19
450	129.19
450.221	136.19
450.442	152.19
450.662	131.19
450.883	142.19
451.104	133.19
451.324	138.19
451.545	141.19
451.766	142.19
451.986	131.19
452.207	133.19
452.428	115.19
452.648	118.19
452.869	128.19
453.089	113.19
453.31	116.19
453.53	109.19
453.751	114.19
453.971	114.19
454.192	97.19
454.412	105.19
454.633	121.19
454.853	123.19
455.073	115.19
455.294	123.19
455.514	123.19
455.734	102.19
455.955	125.19
456.175	115.19
456.395	123.19
456.616	110.19
456.836	109.19
457.056	121.19
457.276	100.19
457.497	103.19
457.717	105.19
457.937	105.19
458.157	116.19
458.377	110.19
458.598	114.19
458.818	84.19
459.038	92.19
459.258	84.19
459.478	93.19
459.698	90.19
459.918	102.19
460.138	109.19
460.358	116.19
460.578	126.19
460.798	136.19
461.018	134.19
461.238	120.19
461.458	130.19
461.678	128.19
461.898	125.19
462.118	116.19
462.338	125.19
462.558	114.19
462.777	116.19
462.997	110.19
463.217	116.19
463.437	126.19
463.657	121.19
463.876	123.19
464.096	113.19
464.316	116.19
464.536	105.19
464.755	123.19
464.975	119.19
465.195	119.19
465.414	106.19
465.634	130.19
465.854	112.19
466.073	119.19
466.293	132.19
466.512	135.19
466.732	128.19
466.951	139.19
467.171	136.19
467.391	136.19
467.61	143.19
467.829	134.19
468.049	124.19
468.268	136.19
468.488	130.19
468.707	134.19
468.927	134.19
469.146	136.19
469.365	146.19
469.585	141.19
469.804	152.19
470.023	135.19
470.243	133.19
470.462	140.19
470.681	148.19
470.901	139.19
471.12	130.19
471.339	150.19
471.558	150.19
471.777	139.19
471.997	118.19
472.216	124.19
472.435	128.19
472.654	109.19
472.873	120.19
473.092	116.19
473.311	116.19
473.53	120.19
473.749	130.19
473.968	128.19
474.187	120.19
474.406	126.19
474.625	138.19
474.844	135.19
475.063	128.19
475.282	156.19
475.501	110.19
475.72	131.19
475.939	129.19
476.158	137.19
476.377	133.19
476.596	125.19
476.814	115.19
477.033	109.19
477.252	106.19
477.471	121.19
477.69	130.19
477.908	132.19
478.127	148.19
478.346	134.19
478.564	153.19
478.783	136.19
479.002	134.19
479.22	137.19
479.439	140.19
479.658	125.19
479.876	109.19
480.095	121.19
480.313	116.19
480.532	115.19
480.751	115.19
480.969	92.19
481.188	83.19
481.406	81.19
481.624	89.19
481.843	83.19
482.061	104.19
482.28	113.19
482.498	117.19
482.717	117.19
482.935	117.19
483.153	140.19
483.372	151.19
483.59	150.19
483.808	138.19
484.027	140.19
484.245	123.19
484.463	149.19
484.681	153.19
484.9	144.19
485.118	134.19
485.336	125.19
485.554	107.19
485.772	101.19
485.99	93.19
486.209	99.19
486.427	103.19
486.645	114.19
486.863	137.19
487.081	146.19
487.299	132.19
487.517	122.19
487.735	157.19
487.953	172.19
488.171	179.19
488.389	174.19
488.607	165.19
488.825	139.19
489.043	123.19
489.261	135.19
489.479	144.19
489.696	152.19
489.914	145.19
490.132	136.19
490.35	141.19
490.568	143.19
490.786	170.19
491.003	179.19
491.221	187.19
491.439	177.19
491.657	192.19
491.874	200.19
492.092	225.19
492.31	225.19
492.527	229.19
492.745	187.19
492.963	201.19
493.18	183.19
493.398	186.19
493.615	187.19
493.833	164.19
494.05	168.19
494.268	173.19
494.485	186.19
494.703	172.19
494.92	176.19
495.138	171.19
495.355	191.19
495.573	176.19
495.79	168.19
496.008	170.19
496.225	177.19
496.442	166.19
496.66	167.19
496.877	164.19
497.094	162.19
497.312	162.19
497.529	147.19
497.746	150.19
497.963	139.19
498.181	129.19
498.398	113.19
498.615	143.19
498.832	115.19
499.049	115.19
499.267	115.19
499.484	137.19
499.701	139.19
499.918	141.19
500.135	140.19
500.352	140.19
500.569	128.19
500.786	152.19
501.003	140.19
501.22	153.19
501.437	144.19
501.654	133.19
501.871	142.19
502.088	137.19
502.305	132.19
502.522	124.19
502.739	123.19
502.956	112.19
503.172	132.19
503.389	121.19
503.606	129.19
503.823	122.19
504.04	114.19
504.256	127.19
504.473	130.19
504.69	112.19
504.907	130.19
505.123	122.19
505.34	119.19
505.557	117.19
505.773	136.19
505.99	140.19
506.207	125.19
506.423	126.19
506.64	105.19
506.856	130.19
507.073	122.19
507.289	122.19
507.506	106.19
507.722	128.19
507.939	116.19
508.155	110.19
508.372	118.19
508.588	117.19
508.805	105.19
509.021	98.19
509.238	102.19
509.454	111.19
509.67	112.19
509.887	100.19
510.103	100.19
510.319	106.19
510.536	87.19
510.752	96.19
510.968	96.19
511.184	92.19
