Data from Location2.07152019.Energy5.Lamp.07192019.3%Agarose_HRD10591_14-58-15-360.txt Node
Date: Fri Jul 19 14:58:15 EDT 2019
User: cochatt
Spectrometer: HR+D1059
Trigger mode: 1
Integration Time (sec): 1.000000E-1
Scans to average: 1
Electric dark correction enabled: true
Nonlinearity correction enabled: false
Boxcar width: 0
XAxis mode: Wavelengths
Number of Pixels in Spectrum: 2048
>>>>>Begin Spectral Data<<<<<
223.165	-23.19
223.4	-23.19
223.635	-23.19
223.869	2.81
224.104	-22.19
224.338	-15.19
224.573	-13.19
224.808	-12.19
225.042	-11.19
225.277	-16.19
225.511	-6.19
225.746	10.81
225.98	6.81
226.215	7.81
226.449	15.81
226.683	14.81
226.918	28.81
227.152	31.81
227.387	29.81
227.621	39.81
227.856	33.81
228.09	34.81
228.324	51.81
228.559	61.81
228.793	53.81
229.027	60.81
229.262	60.81
229.496	77.81
229.73	68.81
229.964	68.81
230.199	75.81
230.433	67.81
230.667	73.81
230.901	88.81
231.136	73.81
231.37	90.81
231.604	76.81
231.838	76.81
232.072	72.81
232.306	81.81
232.541	78.81
232.775	89.81
233.009	73.81
233.243	69.81
233.477	79.81
233.711	81.81
233.945	106.81
234.179	77.81
234.413	80.81
234.647	84.81
234.881	86.81
235.115	86.81
235.349	73.81
235.583	85.81
235.817	82.81
236.051	80.81
236.285	87.81
236.519	74.81
236.753	74.81
236.987	77.81
237.221	77.81
237.455	75.81
237.689	66.81
237.922	76.81
238.156	77.81
238.39	70.81
238.624	88.81
238.858	80.81
239.091	65.81
239.325	76.81
239.559	83.81
239.793	85.81
240.027	85.81
240.26	73.81
240.494	68.81
240.728	88.81
240.961	71.81
241.195	71.81
241.429	86.81
241.662	72.81
241.896	74.81
242.13	77.81
242.363	90.81
242.597	78.81
242.83	67.81
243.064	87.81
243.298	90.81
243.531	84.81
243.765	69.81
243.998	73.81
244.232	82.81
244.465	78.81
244.699	84.81
244.932	78.81
245.166	82.81
245.399	78.81
245.633	84.81
245.866	88.81
246.099	92.81
246.333	80.81
246.566	82.81
246.8	70.81
247.033	79.81
247.266	82.81
247.5	91.81
247.733	80.81
247.966	74.81
248.2	83.81
248.433	87.81
248.666	85.81
248.899	79.81
249.133	74.81
249.366	90.81
249.599	77.81
249.832	93.81
250.066	90.81
250.299	74.81
250.532	77.81
250.765	76.81
250.998	86.81
251.231	80.81
251.465	78.81
251.698	78.81
251.931	76.81
252.164	81.81
252.397	86.81
252.63	66.81
252.863	83.81
253.096	84.81
253.329	86.81
253.562	83.81
253.795	76.81
254.028	86.81
254.261	79.81
254.494	90.81
254.727	86.81
254.96	83.81
255.193	82.81
255.426	70.81
255.659	73.81
255.892	87.81
256.124	83.81
256.357	72.81
256.59	81.81
256.823	79.81
257.056	78.81
257.289	90.81
257.521	77.81
257.754	75.81
257.987	81.81
258.22	76.81
258.452	77.81
258.685	72.81
258.918	96.81
259.151	66.81
259.383	77.81
259.616	87.81
259.849	75.81
260.081	89.81
260.314	78.81
260.547	65.81
260.779	91.81
261.012	64.81
261.244	76.81
261.477	91.81
261.71	85.81
261.942	77.81
262.175	72.81
262.407	70.81
262.64	76.81
262.872	79.81
263.105	72.81
263.337	89.81
263.57	90.81
263.802	93.81
264.035	82.81
264.267	81.81
264.499	79.81
264.732	92.81
264.964	85.81
265.197	79.81
265.429	98.81
265.661	78.81
265.894	93.81
266.126	93.81
266.358	77.81
266.591	79.81
266.823	76.81
267.055	75.81
267.287	90.81
267.52	91.81
267.752	89.81
267.984	80.81
268.216	85.81
268.448	90.81
268.681	78.81
268.913	91.81
269.145	70.81
269.377	76.81
269.609	88.81
269.841	86.81
270.073	70.81
270.306	79.81
270.538	78.81
270.77	88.81
271.002	94.81
271.234	85.81
271.466	108.81
271.698	83.81
271.93	93.81
272.162	89.81
272.394	91.81
272.626	85.81
272.858	86.81
273.09	88.81
273.322	82.81
273.553	78.81
273.785	86.81
274.017	83.81
274.249	77.81
274.481	82.81
274.713	88.81
274.945	83.81
275.176	77.81
275.408	86.81
275.64	86.81
275.872	66.81
276.104	82.81
276.335	87.81
276.567	80.81
276.799	91.81
277.031	69.81
277.262	98.81
277.494	93.81
277.726	86.81
277.957	86.81
278.189	77.81
278.421	76.81
278.652	75.81
278.884	74.81
279.115	70.81
279.347	81.81
279.579	79.81
279.81	81.81
280.042	89.81
280.273	80.81
280.505	84.81
280.736	91.81
280.968	89.81
281.199	92.81
281.431	86.81
281.662	77.81
281.894	85.81
282.125	88.81
282.356	83.81
282.588	70.81
282.819	78.81
283.051	80.81
283.282	78.81
283.513	86.81
283.745	73.81
283.976	98.81
284.207	75.81
284.439	90.81
284.67	74.81
284.901	84.81
285.132	76.81
285.364	80.81
285.595	84.81
285.826	80.81
286.057	91.81
286.288	80.81
286.52	84.81
286.751	93.81
286.982	75.81
287.213	91.81
287.444	82.81
287.675	92.81
287.906	75.81
288.138	95.81
288.369	94.81
288.6	86.81
288.831	77.81
289.062	90.81
289.293	86.81
289.524	82.81
289.755	74.81
289.986	87.81
290.217	99.81
290.448	80.81
290.679	89.81
290.91	87.81
291.141	85.81
291.371	86.81
291.602	96.81
291.833	84.81
292.064	91.81
292.295	93.81
292.526	82.81
292.757	84.81
292.987	81.81
293.218	93.81
293.449	86.81
293.68	78.81
293.91	83.81
294.141	90.81
294.372	73.81
294.603	88.81
294.833	79.81
295.064	92.81
295.295	81.81
295.525	88.81
295.756	86.81
295.987	78.81
296.217	91.81
296.448	88.81
296.679	89.81
296.909	91.81
297.14	92.81
297.37	97.81
297.601	91.81
297.831	87.81
298.062	101.81
298.292	97.81
298.523	84.81
298.753	71.81
298.984	93.81
299.214	89.81
299.445	85.81
299.675	84.81
299.905	82.81
300.136	84.81
300.366	84.81
300.597	80.81
300.827	79.81
301.057	78.81
301.288	96.81
301.518	90.81
301.748	94.81
301.979	81.81
302.209	87.81
302.439	85.81
302.669	92.81
302.9	88.81
303.13	85.81
303.36	90.81
303.59	77.81
303.82	97.81
304.051	96.81
304.281	105.81
304.511	87.81
304.741	92.81
304.971	90.81
305.201	83.81
305.431	94.81
305.661	86.81
305.891	75.81
306.121	74.81
306.352	75.81
306.582	86.81
306.812	91.81
307.042	87.81
307.272	92.81
307.502	85.81
307.731	78.81
307.961	85.81
308.191	73.81
308.421	83.81
308.651	85.81
308.881	68.81
309.111	81.81
309.341	88.81
309.571	97.81
309.8	81.81
310.03	75.81
310.26	86.81
310.49	79.81
310.72	85.81
310.949	93.81
311.179	98.81
311.409	72.81
311.639	91.81
311.868	97.81
312.098	97.81
312.328	75.81
312.557	87.81
312.787	72.81
313.017	92.81
313.246	102.81
313.476	67.81
313.706	82.81
313.935	94.81
314.165	96.81
314.394	70.81
314.624	103.81
314.853	77.81
315.083	72.81
315.312	82.81
315.542	99.81
315.771	82.81
316.001	96.81
316.23	82.81
316.46	96.81
316.689	84.81
316.919	85.81
317.148	89.81
317.377	86.81
317.607	83.81
317.836	86.81
318.065	75.81
318.295	77.81
318.524	86.81
318.753	81.81
318.983	86.81
319.212	78.81
319.441	75.81
319.67	84.81
319.9	81.81
320.129	88.81
320.358	81.81
320.587	75.81
320.816	84.81
321.046	88.81
321.275	94.81
321.504	91.81
321.733	89.81
321.962	91.81
322.191	79.81
322.42	91.81
322.649	76.81
322.878	93.81
323.108	94.81
323.337	68.81
323.566	83.81
323.795	97.81
324.024	81.81
324.253	92.81
324.482	83.81
324.71	95.81
324.939	97.81
325.168	80.81
325.397	86.81
325.626	90.81
325.855	85.81
326.084	82.81
326.313	88.81
326.542	84.81
326.77	81.81
326.999	87.81
327.228	77.81
327.457	90.81
327.686	87.81
327.914	76.81
328.143	89.81
328.372	87.81
328.6	74.81
328.829	89.81
329.058	75.81
329.287	76.81
329.515	90.81
329.744	88.81
329.972	79.81
330.201	101.81
330.43	99.81
330.658	91.81
330.887	85.81
331.115	77.81
331.344	79.81
331.572	81.81
331.801	86.81
332.03	67.81
332.258	70.81
332.486	90.81
332.715	70.81
332.943	77.81
333.172	83.81
333.4	92.81
333.629	95.81
333.857	80.81
334.085	78.81
334.314	85.81
334.542	69.81
334.771	76.81
334.999	88.81
335.227	100.81
335.455	90.81
335.684	85.81
335.912	80.81
336.14	84.81
336.369	90.81
336.597	84.81
336.825	84.81
337.053	93.81
337.281	83.81
337.51	81.81
337.738	81.81
337.966	84.81
338.194	84.81
338.422	78.81
338.65	88.81
338.878	87.81
339.106	84.81
339.334	85.81
339.562	85.81
339.79	94.81
340.018	67.81
340.246	90.81
340.474	86.81
340.702	83.81
340.93	86.81
341.158	81.81
341.386	93.81
341.614	90.81
341.842	70.81
342.07	75.81
342.298	80.81
342.526	75.81
342.754	74.81
342.981	84.81
343.209	86.81
343.437	95.81
343.665	85.81
343.893	87.81
344.12	85.81
344.348	98.81
344.576	77.81
344.804	81.81
345.031	96.81
345.259	89.81
345.487	80.81
345.714	77.81
345.942	72.81
346.17	96.81
346.397	71.81
346.625	91.81
346.853	88.81
347.08	80.81
347.308	105.81
347.535	85.81
347.763	91.81
347.99	98.81
348.218	91.81
348.445	83.81
348.673	86.81
348.9	82.81
349.128	97.81
349.355	84.81
349.583	78.81
349.81	82.81
350.037	88.81
350.265	83.81
350.492	78.81
350.72	94.81
350.947	76.81
351.174	86.81
351.402	81.81
351.629	102.81
351.856	89.81
352.083	80.81
352.311	88.81
352.538	89.81
352.765	81.81
352.992	89.81
353.22	87.81
353.447	69.81
353.674	97.81
353.901	92.81
354.128	84.81
354.355	81.81
354.583	87.81
354.81	81.81
355.037	82.81
355.264	85.81
355.491	91.81
355.718	76.81
355.945	87.81
356.172	81.81
356.399	95.81
356.626	80.81
356.853	84.81
357.08	71.81
357.307	71.81
357.534	90.81
357.761	80.81
357.988	90.81
358.215	93.81
358.441	94.81
358.668	92.81
358.895	84.81
359.122	78.81
359.349	86.81
359.576	89.81
359.802	80.81
360.029	82.81
360.256	92.81
360.483	84.81
360.709	88.81
360.936	74.81
361.163	88.81
361.39	102.81
361.616	81.81
361.843	83.81
362.07	86.81
362.296	90.81
362.523	67.81
362.749	84.81
362.976	89.81
363.203	101.81
363.429	95.81
363.656	96.81
363.882	79.81
364.109	86.81
364.335	81.81
364.562	84.81
364.788	92.81
365.015	94.81
365.241	77.81
365.468	75.81
365.694	96.81
365.92	86.81
366.147	85.81
366.373	90.81
366.599	95.81
366.826	79.81
367.052	87.81
367.278	88.81
367.505	92.81
367.731	91.81
367.957	90.81
368.184	95.81
368.41	101.81
368.636	91.81
368.862	84.81
369.089	96.81
369.315	75.81
369.541	81.81
369.767	80.81
369.993	100.81
370.219	97.81
370.445	92.81
370.672	90.81
370.898	77.81
371.124	85.81
371.35	91.81
371.576	85.81
371.802	93.81
372.028	90.81
372.254	82.81
372.48	90.81
372.706	77.81
372.932	88.81
373.158	103.81
373.384	89.81
373.61	98.81
373.835	87.81
374.061	93.81
374.287	83.81
374.513	109.81
374.739	102.81
374.965	106.81
375.191	105.81
375.416	90.81
375.642	96.81
375.868	87.81
376.094	83.81
376.319	100.81
376.545	87.81
376.771	108.81
376.997	84.81
377.222	100.81
377.448	92.81
377.674	92.81
377.899	101.81
378.125	97.81
378.35	94.81
378.576	103.81
378.802	92.81
379.027	92.81
379.253	96.81
379.478	97.81
379.704	100.81
379.929	103.81
380.155	82.81
380.38	80.81
380.606	91.81
380.831	81.81
381.057	108.81
381.282	98.81
381.507	111.81
381.733	116.81
381.958	80.81
382.184	98.81
382.409	82.81
382.634	99.81
382.86	101.81
383.085	95.81
383.31	102.81
383.535	103.81
383.761	87.81
383.986	103.81
384.211	105.81
384.436	101.81
384.662	108.81
384.887	91.81
385.112	94.81
385.337	89.81
385.562	112.81
385.787	104.81
386.013	105.81
386.238	96.81
386.463	96.81
386.688	87.81
386.913	106.81
387.138	103.81
387.363	96.81
387.588	93.81
387.813	91.81
388.038	102.81
388.263	105.81
388.488	97.81
388.713	106.81
388.938	114.81
389.163	107.81
389.387	116.81
389.612	99.81
389.837	92.81
390.062	94.81
390.287	118.81
390.512	103.81
390.736	106.81
390.961	106.81
391.186	90.81
391.411	108.81
391.636	105.81
391.86	101.81
392.085	109.81
392.31	116.81
392.534	96.81
392.759	105.81
392.984	107.81
393.208	89.81
393.433	99.81
393.658	113.81
393.882	115.81
394.107	122.81
394.331	96.81
394.556	108.81
394.78	107.81
395.005	101.81
395.229	105.81
395.454	104.81
395.678	112.81
395.903	115.81
396.127	92.81
396.352	130.81
396.576	100.81
396.801	114.81
397.025	107.81
397.249	103.81
397.474	105.81
397.698	114.81
397.922	114.81
398.147	101.81
398.371	104.81
398.595	104.81
398.82	108.81
399.044	112.81
399.268	115.81
399.492	114.81
399.717	102.81
399.941	96.81
400.165	129.81
400.389	103.81
400.613	120.81
400.837	112.81
401.062	124.81
401.286	113.81
401.51	108.81
401.734	99.81
401.958	110.81
402.182	128.81
402.406	129.81
402.63	128.81
402.854	109.81
403.078	116.81
403.302	98.81
403.526	107.81
403.75	112.81
403.974	92.81
404.198	116.81
404.422	125.81
404.645	118.81
404.869	125.81
405.093	105.81
405.317	127.81
405.541	130.81
405.765	126.81
405.988	133.81
406.212	132.81
406.436	104.81
406.66	131.81
406.883	116.81
407.107	115.81
407.331	125.81
407.555	107.81
407.778	113.81
408.002	104.81
408.226	117.81
408.449	120.81
408.673	103.81
408.896	101.81
409.12	118.81
409.344	113.81
409.567	101.81
409.791	134.81
410.014	123.81
410.238	123.81
410.461	126.81
410.685	114.81
410.908	116.81
411.132	114.81
411.355	109.81
411.578	121.81
411.802	124.81
412.025	117.81
412.249	113.81
412.472	125.81
412.695	144.81
412.919	101.81
413.142	126.81
413.365	131.81
413.589	127.81
413.812	131.81
414.035	121.81
414.258	123.81
414.482	124.81
414.705	121.81
414.928	128.81
415.151	121.81
415.374	128.81
415.597	116.81
415.821	123.81
416.044	122.81
416.267	118.81
416.49	143.81
416.713	121.81
416.936	123.81
417.159	120.81
417.382	131.81
417.605	133.81
417.828	115.81
418.051	109.81
418.274	125.81
418.497	131.81
418.72	139.81
418.943	125.81
419.166	127.81
419.389	113.81
419.611	135.81
419.834	144.81
420.057	157.81
420.28	120.81
420.503	131.81
420.726	122.81
420.948	128.81
421.171	140.81
421.394	139.81
421.617	136.81
421.839	148.81
422.062	146.81
422.285	125.81
422.507	126.81
422.73	135.81
422.953	126.81
423.175	121.81
423.398	141.81
423.621	122.81
423.843	138.81
424.066	145.81
424.288	146.81
424.511	142.81
424.733	132.81
424.956	143.81
425.178	142.81
425.401	124.81
425.623	135.81
425.846	125.81
426.068	128.81
426.291	126.81
426.513	129.81
426.735	129.81
426.958	137.81
427.18	136.81
427.402	137.81
427.625	152.81
427.847	138.81
428.069	133.81
428.292	116.81
428.514	116.81
428.736	132.81
428.958	126.81
429.181	134.81
429.403	124.81
429.625	126.81
429.847	125.81
430.069	121.81
430.292	148.81
430.514	136.81
430.736	122.81
430.958	116.81
431.18	128.81
431.402	132.81
431.624	128.81
431.846	127.81
432.068	103.81
432.29	100.81
432.512	102.81
432.734	125.81
432.956	139.81
433.178	135.81
433.4	130.81
433.622	137.81
433.844	125.81
434.066	126.81
434.287	111.81
434.509	94.81
434.731	97.81
434.953	118.81
435.175	120.81
435.397	127.81
435.618	124.81
435.84	125.81
436.062	117.81
436.284	140.81
436.505	130.81
436.727	136.81
436.949	139.81
437.17	132.81
437.392	122.81
437.614	122.81
437.835	113.81
438.057	101.81
438.278	120.81
438.5	120.81
438.721	138.81
438.943	142.81
439.165	121.81
439.386	125.81
439.608	132.81
439.829	151.81
440.05	146.81
440.272	141.81
440.493	147.81
440.715	118.81
440.936	136.81
441.158	144.81
441.379	146.81
441.6	133.81
441.822	149.81
442.043	140.81
442.264	136.81
442.486	160.81
442.707	140.81
442.928	136.81
443.149	138.81
443.371	146.81
443.592	146.81
443.813	153.81
444.034	145.81
444.255	143.81
444.476	138.81
444.698	140.81
444.919	157.81
445.14	251.81
445.361	208.81
445.582	135.81
445.803	148.81
446.024	155.81
446.245	142.81
446.466	145.81
446.687	136.81
446.908	156.81
447.129	160.81
447.35	141.81
447.571	142.81
447.792	148.81
448.013	146.81
448.234	125.81
448.455	142.81
448.675	125.81
448.896	153.81
449.117	142.81
449.338	132.81
449.559	133.81
449.779	152.81
450	130.81
450.221	124.81
450.442	144.81
450.662	136.81
450.883	134.81
451.104	137.81
451.324	128.81
451.545	139.81
451.766	137.81
451.986	127.81
452.207	127.81
452.428	116.81
452.648	123.81
452.869	113.81
453.089	115.81
453.31	104.81
453.53	123.81
453.751	99.81
453.971	114.81
454.192	114.81
454.412	108.81
454.633	98.81
454.853	136.81
455.073	106.81
455.294	117.81
455.514	116.81
455.734	101.81
455.955	120.81
456.175	116.81
456.395	118.81
456.616	97.81
456.836	111.81
457.056	106.81
457.276	96.81
457.497	107.81
457.717	101.81
457.937	108.81
458.157	102.81
458.377	114.81
458.598	103.81
458.818	102.81
459.038	91.81
459.258	78.81
459.478	85.81
459.698	101.81
459.918	110.81
460.138	109.81
460.358	119.81
460.578	114.81
460.798	106.81
461.018	120.81
461.238	123.81
461.458	94.81
461.678	108.81
461.898	125.81
462.118	118.81
462.338	123.81
462.558	107.81
462.777	128.81
462.997	116.81
463.217	109.81
463.437	108.81
463.657	110.81
463.876	108.81
464.096	105.81
464.316	113.81
464.536	113.81
464.755	105.81
464.975	122.81
465.195	114.81
465.414	109.81
465.634	109.81
465.854	108.81
466.073	118.81
466.293	141.81
466.512	133.81
466.732	128.81
466.951	136.81
467.171	124.81
467.391	122.81
467.61	130.81
467.829	124.81
468.049	140.81
468.268	126.81
468.488	142.81
468.707	131.81
468.927	124.81
469.146	136.81
469.365	131.81
469.585	142.81
469.804	140.81
470.023	144.81
470.243	140.81
470.462	146.81
470.681	136.81
470.901	140.81
471.12	128.81
471.339	152.81
471.558	139.81
471.777	147.81
471.997	127.81
472.216	116.81
472.435	114.81
472.654	116.81
472.873	109.81
473.092	109.81
473.311	113.81
473.53	126.81
473.749	139.81
473.968	143.81
474.187	121.81
474.406	124.81
474.625	124.81
474.844	134.81
475.063	131.81
475.282	138.81
475.501	108.81
475.72	132.81
475.939	128.81
476.158	129.81
476.377	126.81
476.596	112.81
476.814	123.81
477.033	98.81
477.252	113.81
477.471	126.81
477.69	128.81
477.908	130.81
478.127	141.81
478.346	135.81
478.564	128.81
478.783	142.81
479.002	145.81
479.22	132.81
479.439	134.81
479.658	113.81
479.876	107.81
480.095	109.81
480.313	115.81
480.532	104.81
480.751	112.81
480.969	81.81
481.188	89.81
481.406	96.81
481.624	99.81
481.843	92.81
482.061	90.81
482.28	123.81
482.498	114.81
482.717	121.81
482.935	121.81
483.153	134.81
483.372	141.81
483.59	153.81
483.808	147.81
484.027	137.81
484.245	125.81
484.463	145.81
484.681	147.81
484.9	134.81
485.118	152.81
485.336	116.81
485.554	109.81
485.772	107.81
485.99	106.81
486.209	106.81
486.427	108.81
486.645	118.81
486.863	143.81
487.081	155.81
487.299	131.81
487.517	132.81
487.735	145.81
487.953	189.81
488.171	196.81
488.389	164.81
488.607	157.81
488.825	136.81
489.043	124.81
489.261	136.81
489.479	145.81
489.696	148.81
489.914	157.81
490.132	139.81
490.35	134.81
490.568	161.81
490.786	171.81
491.003	185.81
491.221	179.81
491.439	196.81
491.657	186.81
491.874	212.81
492.092	219.81
492.31	213.81
492.527	237.81
492.745	218.81
492.963	213.81
493.18	205.81
493.398	185.81
493.615	174.81
493.833	185.81
494.05	187.81
494.268	165.81
494.485	182.81
494.703	177.81
494.92	169.81
495.138	176.81
495.355	168.81
495.573	181.81
495.79	166.81
496.008	157.81
496.225	156.81
496.442	157.81
496.66	159.81
496.877	178.81
497.094	169.81
497.312	169.81
497.529	159.81
497.746	137.81
497.963	135.81
498.181	127.81
498.398	129.81
498.615	111.81
498.832	130.81
499.049	112.81
499.267	123.81
499.484	130.81
499.701	139.81
499.918	153.81
500.135	122.81
500.352	120.81
500.569	145.81
500.786	131.81
501.003	161.81
501.22	147.81
501.437	137.81
501.654	135.81
501.871	123.81
502.088	121.81
502.305	138.81
502.522	128.81
502.739	140.81
502.956	127.81
503.172	126.81
503.389	125.81
503.606	133.81
503.823	128.81
504.04	141.81
504.256	128.81
504.473	116.81
504.69	118.81
504.907	120.81
505.123	130.81
505.34	116.81
505.557	118.81
505.773	126.81
505.99	131.81
506.207	117.81
506.423	114.81
506.64	117.81
506.856	128.81
507.073	121.81
507.289	135.81
507.506	119.81
507.722	117.81
507.939	128.81
508.155	122.81
508.372	112.81
508.588	123.81
508.805	107.81
509.021	102.81
509.238	113.81
509.454	106.81
509.67	108.81
509.887	91.81
510.103	87.81
510.319	94.81
510.536	98.81
510.752	90.81
510.968	90.81
511.184	91.81
511.401	95.81
