Data from Location2.07152019.Energy5.Lamp.07192019.3%Agarose_HRD10591_14-57-49-358.txt Node
Date: Fri Jul 19 14:57:49 EDT 2019
User: cochatt
Spectrometer: HR+D1059
Trigger mode: 1
Integration Time (sec): 1.000000E-1
Scans to average: 1
Electric dark correction enabled: true
Nonlinearity correction enabled: false
Boxcar width: 0
XAxis mode: Wavelengths
Number of Pixels in Spectrum: 2048
>>>>>Begin Spectral Data<<<<<
223.165	-10.56
223.4	-10.56
223.635	-10.56
223.869	-24.56
224.104	-19.56
224.338	-19.56
224.573	-13.56
224.808	-10.56
225.042	7.44
225.277	-5.56
225.511	-7.56
225.746	2.44
225.98	4.44
226.215	7.44
226.449	12.44
226.683	29.44
226.918	19.44
227.152	28.44
227.387	41.44
227.621	43.44
227.856	50.44
228.09	43.44
228.324	51.44
228.559	56.44
228.793	62.44
229.027	61.44
229.262	74.44
229.496	66.44
229.73	70.44
229.964	65.44
230.199	74.44
230.433	85.44
230.667	72.44
230.901	72.44
231.136	76.44
231.37	76.44
231.604	76.44
231.838	89.44
232.072	83.44
232.306	84.44
232.541	91.44
232.775	97.44
233.009	77.44
233.243	63.44
233.477	75.44
233.711	85.44
233.945	84.44
234.179	79.44
234.413	81.44
234.647	80.44
234.881	82.44
235.115	73.44
235.349	85.44
235.583	81.44
235.817	81.44
236.051	85.44
236.285	96.44
236.519	86.44
236.753	84.44
236.987	77.44
237.221	79.44
237.455	72.44
237.689	70.44
237.922	80.44
238.156	80.44
238.39	77.44
238.624	85.44
238.858	70.44
239.091	67.44
239.325	77.44
239.559	72.44
239.793	84.44
240.027	92.44
240.26	74.44
240.494	82.44
240.728	75.44
240.961	87.44
241.195	75.44
241.429	84.44
241.662	75.44
241.896	69.44
242.13	83.44
242.363	67.44
242.597	71.44
242.83	78.44
243.064	73.44
243.298	84.44
243.531	95.44
243.765	79.44
243.998	81.44
244.232	76.44
244.465	74.44
244.699	76.44
244.932	82.44
245.166	76.44
245.399	83.44
245.633	84.44
245.866	89.44
246.099	88.44
246.333	71.44
246.566	82.44
246.8	87.44
247.033	77.44
247.266	70.44
247.5	82.44
247.733	75.44
247.966	86.44
248.2	89.44
248.433	88.44
248.666	79.44
248.899	71.44
249.133	88.44
249.366	73.44
249.599	61.44
249.832	70.44
250.066	88.44
250.299	80.44
250.532	86.44
250.765	76.44
250.998	71.44
251.231	89.44
251.465	73.44
251.698	76.44
251.931	91.44
252.164	74.44
252.397	80.44
252.63	79.44
252.863	83.44
253.096	81.44
253.329	77.44
253.562	66.44
253.795	75.44
254.028	75.44
254.261	84.44
254.494	82.44
254.727	86.44
254.96	81.44
255.193	70.44
255.426	73.44
255.659	84.44
255.892	77.44
256.124	80.44
256.357	77.44
256.59	86.44
256.823	74.44
257.056	83.44
257.289	72.44
257.521	77.44
257.754	79.44
257.987	74.44
258.22	81.44
258.452	72.44
258.685	87.44
258.918	77.44
259.151	83.44
259.383	91.44
259.616	98.44
259.849	81.44
260.081	82.44
260.314	82.44
260.547	84.44
260.779	76.44
261.012	78.44
261.244	75.44
261.477	79.44
261.71	87.44
261.942	80.44
262.175	80.44
262.407	76.44
262.64	70.44
262.872	76.44
263.105	64.44
263.337	88.44
263.57	75.44
263.802	82.44
264.035	85.44
264.267	83.44
264.499	80.44
264.732	86.44
264.964	77.44
265.197	85.44
265.429	69.44
265.661	88.44
265.894	77.44
266.126	106.44
266.358	77.44
266.591	63.44
266.823	94.44
267.055	81.44
267.287	83.44
267.52	85.44
267.752	84.44
267.984	94.44
268.216	70.44
268.448	98.44
268.681	94.44
268.913	75.44
269.145	76.44
269.377	75.44
269.609	77.44
269.841	68.44
270.073	85.44
270.306	89.44
270.538	95.44
270.77	100.44
271.002	86.44
271.234	96.44
271.466	79.44
271.698	91.44
271.93	89.44
272.162	81.44
272.394	81.44
272.626	77.44
272.858	69.44
273.09	83.44
273.322	96.44
273.553	75.44
273.785	82.44
274.017	71.44
274.249	86.44
274.481	77.44
274.713	83.44
274.945	76.44
275.176	74.44
275.408	102.44
275.64	83.44
275.872	89.44
276.104	84.44
276.335	77.44
276.567	68.44
276.799	85.44
277.031	90.44
277.262	76.44
277.494	85.44
277.726	78.44
277.957	105.44
278.189	89.44
278.421	76.44
278.652	69.44
278.884	90.44
279.115	87.44
279.347	84.44
279.579	90.44
279.81	86.44
280.042	87.44
280.273	90.44
280.505	83.44
280.736	78.44
280.968	93.44
281.199	71.44
281.431	80.44
281.662	95.44
281.894	80.44
282.125	89.44
282.356	84.44
282.588	72.44
282.819	89.44
283.051	75.44
283.282	78.44
283.513	79.44
283.745	88.44
283.976	82.44
284.207	88.44
284.439	81.44
284.67	83.44
284.901	67.44
285.132	87.44
285.364	85.44
285.595	63.44
285.826	67.44
286.057	83.44
286.288	84.44
286.52	87.44
286.751	78.44
286.982	95.44
287.213	83.44
287.444	76.44
287.675	83.44
287.906	95.44
288.138	78.44
288.369	83.44
288.6	78.44
288.831	85.44
289.062	94.44
289.293	90.44
289.524	76.44
289.755	84.44
289.986	74.44
290.217	82.44
290.448	81.44
290.679	93.44
290.91	104.44
291.141	84.44
291.371	87.44
291.602	88.44
291.833	79.44
292.064	82.44
292.295	94.44
292.526	82.44
292.757	72.44
292.987	77.44
293.218	87.44
293.449	91.44
293.68	82.44
293.91	79.44
294.141	77.44
294.372	78.44
294.603	94.44
294.833	90.44
295.064	72.44
295.295	82.44
295.525	73.44
295.756	91.44
295.987	82.44
296.217	87.44
296.448	70.44
296.679	90.44
296.909	82.44
297.14	82.44
297.37	83.44
297.601	80.44
297.831	84.44
298.062	83.44
298.292	87.44
298.523	85.44
298.753	67.44
298.984	90.44
299.214	83.44
299.445	89.44
299.675	80.44
299.905	76.44
300.136	87.44
300.366	82.44
300.597	97.44
300.827	90.44
301.057	83.44
301.288	93.44
301.518	71.44
301.748	73.44
301.979	77.44
302.209	83.44
302.439	92.44
302.669	88.44
302.9	82.44
303.13	76.44
303.36	99.44
303.59	75.44
303.82	72.44
304.051	91.44
304.281	92.44
304.511	89.44
304.741	82.44
304.971	93.44
305.201	96.44
305.431	77.44
305.661	78.44
305.891	77.44
306.121	73.44
306.352	80.44
306.582	97.44
306.812	81.44
307.042	95.44
307.272	75.44
307.502	84.44
307.731	89.44
307.961	89.44
308.191	84.44
308.421	85.44
308.651	93.44
308.881	100.44
309.111	85.44
309.341	73.44
309.571	85.44
309.8	96.44
310.03	83.44
310.26	90.44
310.49	90.44
310.72	98.44
310.949	74.44
311.179	86.44
311.409	77.44
311.639	78.44
311.868	85.44
312.098	92.44
312.328	82.44
312.557	77.44
312.787	88.44
313.017	82.44
313.246	89.44
313.476	89.44
313.706	84.44
313.935	90.44
314.165	96.44
314.394	67.44
314.624	85.44
314.853	69.44
315.083	89.44
315.312	78.44
315.542	73.44
315.771	77.44
316.001	98.44
316.23	87.44
316.46	93.44
316.689	78.44
316.919	77.44
317.148	95.44
317.377	88.44
317.607	78.44
317.836	96.44
318.065	90.44
318.295	88.44
318.524	83.44
318.753	82.44
318.983	84.44
319.212	89.44
319.441	92.44
319.67	71.44
319.9	71.44
320.129	91.44
320.358	81.44
320.587	86.44
320.816	86.44
321.046	79.44
321.275	89.44
321.504	89.44
321.733	73.44
321.962	84.44
322.191	82.44
322.42	92.44
322.649	87.44
322.878	76.44
323.108	86.44
323.337	80.44
323.566	86.44
323.795	81.44
324.024	83.44
324.253	86.44
324.482	82.44
324.71	94.44
324.939	97.44
325.168	76.44
325.397	92.44
325.626	87.44
325.855	94.44
326.084	81.44
326.313	91.44
326.542	83.44
326.77	76.44
326.999	84.44
327.228	88.44
327.457	85.44
327.686	87.44
327.914	88.44
328.143	90.44
328.372	76.44
328.6	91.44
328.829	84.44
329.058	83.44
329.287	87.44
329.515	99.44
329.744	69.44
329.972	73.44
330.201	88.44
330.43	88.44
330.658	80.44
330.887	91.44
331.115	88.44
331.344	76.44
331.572	85.44
331.801	81.44
332.03	82.44
332.258	87.44
332.486	87.44
332.715	79.44
332.943	88.44
333.172	76.44
333.4	85.44
333.629	84.44
333.857	83.44
334.085	74.44
334.314	91.44
334.542	84.44
334.771	80.44
334.999	91.44
335.227	72.44
335.455	83.44
335.684	78.44
335.912	84.44
336.14	82.44
336.369	88.44
336.597	83.44
336.825	96.44
337.053	101.44
337.281	82.44
337.51	90.44
337.738	90.44
337.966	84.44
338.194	85.44
338.422	81.44
338.65	93.44
338.878	99.44
339.106	77.44
339.334	100.44
339.562	77.44
339.79	93.44
340.018	100.44
340.246	84.44
340.474	56.44
340.702	83.44
340.93	81.44
341.158	72.44
341.386	78.44
341.614	84.44
341.842	96.44
342.07	80.44
342.298	83.44
342.526	95.44
342.754	77.44
342.981	73.44
343.209	96.44
343.437	85.44
343.665	87.44
343.893	87.44
344.12	111.44
344.348	85.44
344.576	78.44
344.804	81.44
345.031	97.44
345.259	82.44
345.487	100.44
345.714	89.44
345.942	75.44
346.17	82.44
346.397	89.44
346.625	68.44
346.853	86.44
347.08	92.44
347.308	81.44
347.535	84.44
347.763	81.44
347.99	93.44
348.218	83.44
348.445	83.44
348.673	85.44
348.9	87.44
349.128	83.44
349.355	91.44
349.583	82.44
349.81	90.44
350.037	78.44
350.265	77.44
350.492	87.44
350.72	80.44
350.947	83.44
351.174	100.44
351.402	90.44
351.629	85.44
351.856	89.44
352.083	87.44
352.311	91.44
352.538	97.44
352.765	75.44
352.992	74.44
353.22	90.44
353.447	74.44
353.674	87.44
353.901	103.44
354.128	80.44
354.355	83.44
354.583	98.44
354.81	95.44
355.037	90.44
355.264	90.44
355.491	73.44
355.718	104.44
355.945	86.44
356.172	89.44
356.399	67.44
356.626	77.44
356.853	85.44
357.08	73.44
357.307	96.44
357.534	93.44
357.761	67.44
357.988	81.44
358.215	92.44
358.441	110.44
358.668	88.44
358.895	81.44
359.122	95.44
359.349	79.44
359.576	81.44
359.802	80.44
360.029	79.44
360.256	85.44
360.483	75.44
360.709	94.44
360.936	91.44
361.163	86.44
361.39	79.44
361.616	76.44
361.843	84.44
362.07	89.44
362.296	87.44
362.523	77.44
362.749	82.44
362.976	82.44
363.203	108.44
363.429	102.44
363.656	73.44
363.882	95.44
364.109	96.44
364.335	99.44
364.562	76.44
364.788	84.44
365.015	94.44
365.241	90.44
365.468	92.44
365.694	83.44
365.92	93.44
366.147	85.44
366.373	80.44
366.599	88.44
366.826	99.44
367.052	76.44
367.278	92.44
367.505	84.44
367.731	109.44
367.957	93.44
368.184	85.44
368.41	90.44
368.636	85.44
368.862	82.44
369.089	99.44
369.315	99.44
369.541	83.44
369.767	100.44
369.993	76.44
370.219	77.44
370.445	82.44
370.672	81.44
370.898	86.44
371.124	83.44
371.35	93.44
371.576	89.44
371.802	91.44
372.028	84.44
372.254	82.44
372.48	99.44
372.706	89.44
372.932	89.44
373.158	91.44
373.384	93.44
373.61	102.44
373.835	99.44
374.061	72.44
374.287	82.44
374.513	100.44
374.739	90.44
374.965	98.44
375.191	92.44
375.416	113.44
375.642	76.44
375.868	101.44
376.094	115.44
376.319	94.44
376.545	87.44
376.771	70.44
376.997	89.44
377.222	87.44
377.448	108.44
377.674	92.44
377.899	90.44
378.125	85.44
378.35	87.44
378.576	102.44
378.802	109.44
379.027	113.44
379.253	98.44
379.478	99.44
379.704	95.44
379.929	87.44
380.155	111.44
380.38	83.44
380.606	93.44
380.831	107.44
381.057	89.44
381.282	103.44
381.507	95.44
381.733	100.44
381.958	101.44
382.184	100.44
382.409	101.44
382.634	100.44
382.86	92.44
383.085	98.44
383.31	106.44
383.535	95.44
383.761	95.44
383.986	94.44
384.211	85.44
384.436	93.44
384.662	82.44
384.887	93.44
385.112	98.44
385.337	100.44
385.562	95.44
385.787	88.44
386.013	110.44
386.238	97.44
386.463	117.44
386.688	101.44
386.913	101.44
387.138	105.44
387.363	101.44
387.588	96.44
387.813	98.44
388.038	99.44
388.263	104.44
388.488	92.44
388.713	97.44
388.938	101.44
389.163	96.44
389.387	112.44
389.612	97.44
389.837	99.44
390.062	99.44
390.287	117.44
390.512	99.44
390.736	108.44
390.961	109.44
391.186	117.44
391.411	109.44
391.636	113.44
391.86	114.44
392.085	107.44
392.31	105.44
392.534	103.44
392.759	114.44
392.984	105.44
393.208	122.44
393.433	110.44
393.658	116.44
393.882	108.44
394.107	113.44
394.331	93.44
394.556	106.44
394.78	107.44
395.005	106.44
395.229	114.44
395.454	107.44
395.678	114.44
395.903	108.44
396.127	108.44
396.352	108.44
396.576	101.44
396.801	119.44
397.025	111.44
397.249	119.44
397.474	112.44
397.698	113.44
397.922	107.44
398.147	115.44
398.371	89.44
398.595	115.44
398.82	108.44
399.044	105.44
399.268	109.44
399.492	120.44
399.717	112.44
399.941	127.44
400.165	129.44
400.389	111.44
400.613	106.44
400.837	107.44
401.062	104.44
401.286	109.44
401.51	114.44
401.734	118.44
401.958	109.44
402.182	108.44
402.406	114.44
402.63	121.44
402.854	112.44
403.078	124.44
403.302	108.44
403.526	115.44
403.75	105.44
403.974	118.44
404.198	121.44
404.422	114.44
404.645	112.44
404.869	119.44
405.093	117.44
405.317	123.44
405.541	124.44
405.765	119.44
405.988	124.44
406.212	100.44
406.436	115.44
406.66	122.44
406.883	121.44
407.107	124.44
407.331	119.44
407.555	123.44
407.778	115.44
408.002	120.44
408.226	109.44
408.449	119.44
408.673	105.44
408.896	111.44
409.12	122.44
409.344	121.44
409.567	122.44
409.791	121.44
410.014	124.44
410.238	127.44
410.461	122.44
410.685	122.44
410.908	131.44
411.132	128.44
411.355	117.44
411.578	124.44
411.802	105.44
412.025	121.44
412.249	123.44
412.472	132.44
412.695	124.44
412.919	121.44
413.142	125.44
413.365	124.44
413.589	117.44
413.812	127.44
414.035	129.44
414.258	132.44
414.482	122.44
414.705	130.44
414.928	121.44
415.151	133.44
415.374	140.44
415.597	119.44
415.821	124.44
416.044	144.44
416.267	139.44
416.49	123.44
416.713	140.44
416.936	115.44
417.159	125.44
417.382	135.44
417.605	128.44
417.828	132.44
418.051	141.44
418.274	132.44
418.497	126.44
418.72	135.44
418.943	135.44
419.166	132.44
419.389	139.44
419.611	141.44
419.834	144.44
420.057	136.44
420.28	129.44
420.503	128.44
420.726	116.44
420.948	143.44
421.171	140.44
421.394	153.44
421.617	142.44
421.839	140.44
422.062	138.44
422.285	138.44
422.507	135.44
422.73	124.44
422.953	121.44
423.175	131.44
423.398	139.44
423.621	127.44
423.843	131.44
424.066	135.44
424.288	131.44
424.511	143.44
424.733	131.44
424.956	148.44
425.178	145.44
425.401	147.44
425.623	148.44
425.846	123.44
426.068	135.44
426.291	130.44
426.513	128.44
426.735	136.44
426.958	132.44
427.18	139.44
427.402	136.44
427.625	144.44
427.847	141.44
428.069	133.44
428.292	128.44
428.514	142.44
428.736	126.44
428.958	129.44
429.181	139.44
429.403	113.44
429.625	120.44
429.847	121.44
430.069	133.44
430.292	136.44
430.514	133.44
430.736	122.44
430.958	137.44
431.18	122.44
431.402	134.44
431.624	126.44
431.846	104.44
432.068	103.44
432.29	95.44
432.512	114.44
432.734	133.44
432.956	138.44
433.178	148.44
433.4	123.44
433.622	145.44
433.844	123.44
434.066	126.44
434.287	100.44
434.509	99.44
434.731	99.44
434.953	124.44
435.175	130.44
435.397	124.44
435.618	101.44
435.84	106.44
436.062	112.44
436.284	118.44
436.505	140.44
436.727	127.44
436.949	131.44
437.17	129.44
437.392	139.44
437.614	117.44
437.835	90.44
438.057	102.44
438.278	120.44
438.5	122.44
438.721	122.44
438.943	149.44
439.165	159.44
439.386	135.44
439.608	138.44
439.829	148.44
440.05	154.44
440.272	139.44
440.493	145.44
440.715	139.44
440.936	146.44
441.158	137.44
441.379	147.44
441.6	145.44
441.822	124.44
442.043	129.44
442.264	143.44
442.486	155.44
442.707	134.44
442.928	141.44
443.149	151.44
443.371	150.44
443.592	155.44
443.813	143.44
444.034	141.44
444.255	155.44
444.476	121.44
444.698	128.44
444.919	152.44
445.14	210.44
445.361	190.44
445.582	137.44
445.803	139.44
446.024	150.44
446.245	140.44
446.466	154.44
446.687	146.44
446.908	154.44
447.129	163.44
447.35	171.44
447.571	162.44
447.792	153.44
448.013	153.44
448.234	148.44
448.455	139.44
448.675	133.44
448.896	147.44
449.117	141.44
449.338	133.44
449.559	144.44
449.779	140.44
450	148.44
450.221	141.44
450.442	148.44
450.662	133.44
450.883	139.44
451.104	132.44
451.324	140.44
451.545	129.44
451.766	127.44
451.986	125.44
452.207	127.44
452.428	117.44
452.648	135.44
452.869	121.44
453.089	121.44
453.31	124.44
453.53	104.44
453.751	111.44
453.971	105.44
454.192	104.44
454.412	107.44
454.633	126.44
454.853	118.44
455.073	118.44
455.294	129.44
455.514	122.44
455.734	109.44
455.955	132.44
456.175	115.44
456.395	101.44
456.616	111.44
456.836	108.44
457.056	112.44
457.276	113.44
457.497	106.44
457.717	104.44
457.937	119.44
458.157	119.44
458.377	125.44
458.598	96.44
458.818	89.44
459.038	89.44
459.258	84.44
459.478	72.44
459.698	81.44
459.918	93.44
460.138	102.44
460.358	106.44
460.578	115.44
460.798	109.44
461.018	106.44
461.238	115.44
461.458	127.44
461.678	122.44
461.898	114.44
462.118	110.44
462.338	126.44
462.558	106.44
462.777	113.44
462.997	115.44
463.217	104.44
463.437	107.44
463.657	113.44
463.876	119.44
464.096	107.44
464.316	98.44
464.536	114.44
464.755	118.44
464.975	118.44
465.195	112.44
465.414	127.44
465.634	108.44
465.854	121.44
466.073	121.44
466.293	120.44
466.512	127.44
466.732	126.44
466.951	132.44
467.171	112.44
467.391	115.44
467.61	125.44
467.829	134.44
468.049	132.44
468.268	147.44
468.488	115.44
468.707	120.44
468.927	145.44
469.146	141.44
469.365	151.44
469.585	142.44
469.804	127.44
470.023	154.44
470.243	145.44
470.462	130.44
470.681	139.44
470.901	131.44
471.12	155.44
471.339	141.44
471.558	144.44
471.777	141.44
471.997	148.44
472.216	131.44
472.435	115.44
472.654	133.44
472.873	108.44
473.092	122.44
473.311	125.44
473.53	117.44
473.749	139.44
473.968	130.44
474.187	124.44
474.406	129.44
474.625	129.44
474.844	137.44
475.063	144.44
475.282	127.44
475.501	120.44
475.72	127.44
475.939	127.44
476.158	124.44
476.377	127.44
476.596	122.44
476.814	119.44
477.033	103.44
477.252	114.44
477.471	119.44
477.69	128.44
477.908	140.44
478.127	133.44
478.346	140.44
478.564	139.44
478.783	154.44
479.002	127.44
479.22	125.44
479.439	130.44
479.658	114.44
479.876	111.44
480.095	111.44
480.313	103.44
480.532	131.44
480.751	100.44
480.969	100.44
481.188	93.44
481.406	90.44
481.624	84.44
481.843	72.44
482.061	114.44
482.28	111.44
482.498	101.44
482.717	101.44
482.935	113.44
483.153	139.44
483.372	154.44
483.59	137.44
483.808	140.44
484.027	124.44
484.245	124.44
484.463	137.44
484.681	141.44
484.9	153.44
485.118	137.44
485.336	132.44
485.554	104.44
485.772	115.44
485.99	97.44
486.209	117.44
486.427	127.44
486.645	120.44
486.863	130.44
487.081	123.44
487.299	132.44
487.517	121.44
487.735	150.44
487.953	185.44
488.171	176.44
488.389	171.44
488.607	153.44
488.825	142.44
489.043	122.44
489.261	115.44
489.479	125.44
489.696	150.44
489.914	134.44
490.132	129.44
490.35	141.44
490.568	159.44
490.786	185.44
491.003	181.44
491.221	184.44
491.439	198.44
491.657	196.44
491.874	204.44
492.092	209.44
492.31	229.44
492.527	233.44
492.745	204.44
492.963	215.44
493.18	203.44
493.398	199.44
493.615	163.44
493.833	172.44
494.05	185.44
494.268	182.44
494.485	171.44
494.703	178.44
494.92	173.44
495.138	169.44
495.355	169.44
495.573	174.44
495.79	182.44
496.008	168.44
496.225	163.44
496.442	166.44
496.66	178.44
496.877	163.44
497.094	173.44
497.312	148.44
497.529	138.44
497.746	147.44
497.963	147.44
498.181	135.44
498.398	136.44
498.615	144.44
498.832	120.44
499.049	105.44
499.267	122.44
499.484	117.44
499.701	124.44
499.918	123.44
500.135	133.44
500.352	136.44
500.569	135.44
500.786	140.44
501.003	140.44
501.22	143.44
501.437	131.44
501.654	142.44
501.871	118.44
502.088	142.44
502.305	128.44
502.522	128.44
502.739	132.44
502.956	116.44
503.172	131.44
503.389	121.44
503.606	119.44
503.823	134.44
504.04	137.44
504.256	137.44
504.473	121.44
504.69	125.44
504.907	121.44
505.123	123.44
505.34	125.44
505.557	118.44
505.773	137.44
505.99	128.44
506.207	106.44
506.423	124.44
506.64	123.44
506.856	99.44
507.073	113.44
507.289	115.44
507.506	127.44
507.722	129.44
507.939	122.44
508.155	117.44
508.372	116.44
508.588	121.44
508.805	115.44
509.021	98.44
509.238	106.44
509.454	116.44
509.67	100.44
509.887	95.44
510.103	101.44
510.319	98.44
510.536	90.44
510.752	77.44
510.968	76.44
511.184	91.44
511.401	91.44
