Data from Location2.07152019.Energy5.Lamp.07192019.3%Agarose_HRD10591_14-57-09-358.txt Node
Date: Fri Jul 19 14:57:09 EDT 2019
User: cochatt
Spectrometer: HR+D1059
Trigger mode: 1
Integration Time (sec): 1.000000E-1
Scans to average: 1
Electric dark correction enabled: true
Nonlinearity correction enabled: false
Boxcar width: 0
XAxis mode: Wavelengths
Number of Pixels in Spectrum: 2048
>>>>>Begin Spectral Data<<<<<
223.165	-10.75
223.4	-10.75
223.635	-10.75
223.869	-18.75
224.104	-18.75
224.338	-11.75
224.573	-16.75
224.808	1.25
225.042	-13.75
225.277	-2.75
225.511	4.25
225.746	-5.75
225.98	-3.75
226.215	10.25
226.449	12.25
226.683	29.25
226.918	17.25
227.152	28.25
227.387	29.25
227.621	41.25
227.856	51.25
228.09	46.25
228.324	49.25
228.559	38.25
228.793	52.25
229.027	62.25
229.262	60.25
229.496	63.25
229.73	68.25
229.964	90.25
230.199	81.25
230.433	86.25
230.667	75.25
230.901	83.25
231.136	74.25
231.37	86.25
231.604	74.25
231.838	80.25
232.072	83.25
232.306	62.25
232.541	78.25
232.775	78.25
233.009	83.25
233.243	74.25
233.477	72.25
233.711	93.25
233.945	89.25
234.179	80.25
234.413	83.25
234.647	89.25
234.881	83.25
235.115	85.25
235.349	75.25
235.583	80.25
235.817	78.25
236.051	80.25
236.285	89.25
236.519	81.25
236.753	66.25
236.987	73.25
237.221	77.25
237.455	83.25
237.689	79.25
237.922	88.25
238.156	79.25
238.39	69.25
238.624	79.25
238.858	78.25
239.091	86.25
239.325	81.25
239.559	79.25
239.793	79.25
240.027	90.25
240.26	74.25
240.494	69.25
240.728	74.25
240.961	79.25
241.195	78.25
241.429	86.25
241.662	88.25
241.896	80.25
242.13	71.25
242.363	86.25
242.597	65.25
242.83	82.25
243.064	75.25
243.298	77.25
243.531	84.25
243.765	89.25
243.998	69.25
244.232	81.25
244.465	86.25
244.699	78.25
244.932	68.25
245.166	72.25
245.399	73.25
245.633	75.25
245.866	83.25
246.099	83.25
246.333	73.25
246.566	84.25
246.8	73.25
247.033	83.25
247.266	70.25
247.5	82.25
247.733	73.25
247.966	66.25
248.2	73.25
248.433	85.25
248.666	79.25
248.899	91.25
249.133	87.25
249.366	86.25
249.599	82.25
249.832	78.25
250.066	86.25
250.299	92.25
250.532	81.25
250.765	97.25
250.998	82.25
251.231	75.25
251.465	81.25
251.698	73.25
251.931	80.25
252.164	85.25
252.397	77.25
252.63	90.25
252.863	89.25
253.096	79.25
253.329	81.25
253.562	78.25
253.795	68.25
254.028	80.25
254.261	89.25
254.494	96.25
254.727	87.25
254.96	73.25
255.193	79.25
255.426	71.25
255.659	69.25
255.892	83.25
256.124	66.25
256.357	70.25
256.59	84.25
256.823	85.25
257.056	89.25
257.289	90.25
257.521	82.25
257.754	85.25
257.987	79.25
258.22	70.25
258.452	75.25
258.685	83.25
258.918	88.25
259.151	83.25
259.383	73.25
259.616	82.25
259.849	86.25
260.081	97.25
260.314	83.25
260.547	86.25
260.779	83.25
261.012	87.25
261.244	77.25
261.477	70.25
261.71	94.25
261.942	85.25
262.175	86.25
262.407	89.25
262.64	77.25
262.872	70.25
263.105	83.25
263.337	90.25
263.57	74.25
263.802	90.25
264.035	86.25
264.267	82.25
264.499	90.25
264.732	83.25
264.964	86.25
265.197	78.25
265.429	90.25
265.661	86.25
265.894	90.25
266.126	83.25
266.358	86.25
266.591	96.25
266.823	71.25
267.055	91.25
267.287	81.25
267.52	72.25
267.752	81.25
267.984	89.25
268.216	86.25
268.448	83.25
268.681	80.25
268.913	81.25
269.145	88.25
269.377	85.25
269.609	89.25
269.841	90.25
270.073	95.25
270.306	89.25
270.538	78.25
270.77	89.25
271.002	72.25
271.234	82.25
271.466	98.25
271.698	87.25
271.93	86.25
272.162	80.25
272.394	92.25
272.626	82.25
272.858	90.25
273.09	90.25
273.322	83.25
273.553	91.25
273.785	86.25
274.017	72.25
274.249	91.25
274.481	86.25
274.713	88.25
274.945	79.25
275.176	81.25
275.408	85.25
275.64	84.25
275.872	107.25
276.104	81.25
276.335	95.25
276.567	89.25
276.799	80.25
277.031	87.25
277.262	75.25
277.494	99.25
277.726	95.25
277.957	87.25
278.189	89.25
278.421	69.25
278.652	83.25
278.884	81.25
279.115	87.25
279.347	79.25
279.579	70.25
279.81	91.25
280.042	90.25
280.273	84.25
280.505	74.25
280.736	91.25
280.968	79.25
281.199	78.25
281.431	71.25
281.662	91.25
281.894	92.25
282.125	87.25
282.356	90.25
282.588	88.25
282.819	98.25
283.051	85.25
283.282	81.25
283.513	84.25
283.745	78.25
283.976	69.25
284.207	86.25
284.439	91.25
284.67	93.25
284.901	87.25
285.132	77.25
285.364	76.25
285.595	78.25
285.826	84.25
286.057	87.25
286.288	84.25
286.52	88.25
286.751	87.25
286.982	107.25
287.213	100.25
287.444	83.25
287.675	71.25
287.906	90.25
288.138	88.25
288.369	91.25
288.6	77.25
288.831	78.25
289.062	84.25
289.293	78.25
289.524	87.25
289.755	89.25
289.986	78.25
290.217	87.25
290.448	87.25
290.679	85.25
290.91	88.25
291.141	70.25
291.371	92.25
291.602	76.25
291.833	85.25
292.064	91.25
292.295	93.25
292.526	85.25
292.757	70.25
292.987	78.25
293.218	89.25
293.449	73.25
293.68	92.25
293.91	77.25
294.141	68.25
294.372	79.25
294.603	99.25
294.833	78.25
295.064	80.25
295.295	76.25
295.525	89.25
295.756	82.25
295.987	86.25
296.217	101.25
296.448	95.25
296.679	77.25
296.909	85.25
297.14	106.25
297.37	90.25
297.601	85.25
297.831	89.25
298.062	101.25
298.292	86.25
298.523	85.25
298.753	83.25
298.984	88.25
299.214	93.25
299.445	86.25
299.675	97.25
299.905	97.25
300.136	87.25
300.366	89.25
300.597	76.25
300.827	90.25
301.057	80.25
301.288	92.25
301.518	90.25
301.748	88.25
301.979	78.25
302.209	88.25
302.439	83.25
302.669	87.25
302.9	90.25
303.13	103.25
303.36	90.25
303.59	82.25
303.82	92.25
304.051	89.25
304.281	77.25
304.511	91.25
304.741	89.25
304.971	110.25
305.201	90.25
305.431	92.25
305.661	91.25
305.891	100.25
306.121	94.25
306.352	84.25
306.582	69.25
306.812	76.25
307.042	80.25
307.272	73.25
307.502	75.25
307.731	90.25
307.961	86.25
308.191	100.25
308.421	81.25
308.651	85.25
308.881	90.25
309.111	71.25
309.341	93.25
309.571	89.25
309.8	108.25
310.03	74.25
310.26	82.25
310.49	92.25
310.72	97.25
310.949	85.25
311.179	89.25
311.409	89.25
311.639	76.25
311.868	98.25
312.098	83.25
312.328	82.25
312.557	74.25
312.787	97.25
313.017	87.25
313.246	87.25
313.476	82.25
313.706	78.25
313.935	97.25
314.165	92.25
314.394	89.25
314.624	78.25
314.853	94.25
315.083	83.25
315.312	88.25
315.542	85.25
315.771	94.25
316.001	103.25
316.23	89.25
316.46	90.25
316.689	77.25
316.919	77.25
317.148	92.25
317.377	80.25
317.607	89.25
317.836	92.25
318.065	99.25
318.295	92.25
318.524	90.25
318.753	101.25
318.983	87.25
319.212	87.25
319.441	89.25
319.67	84.25
319.9	78.25
320.129	92.25
320.358	85.25
320.587	97.25
320.816	92.25
321.046	81.25
321.275	90.25
321.504	103.25
321.733	82.25
321.962	77.25
322.191	96.25
322.42	76.25
322.649	108.25
322.878	85.25
323.108	93.25
323.337	88.25
323.566	86.25
323.795	83.25
324.024	90.25
324.253	83.25
324.482	95.25
324.71	82.25
324.939	104.25
325.168	87.25
325.397	94.25
325.626	85.25
325.855	68.25
326.084	81.25
326.313	79.25
326.542	79.25
326.77	92.25
326.999	90.25
327.228	77.25
327.457	83.25
327.686	83.25
327.914	97.25
328.143	89.25
328.372	83.25
328.6	87.25
328.829	82.25
329.058	82.25
329.287	85.25
329.515	88.25
329.744	106.25
329.972	86.25
330.201	78.25
330.43	88.25
330.658	102.25
330.887	97.25
331.115	82.25
331.344	86.25
331.572	84.25
331.801	95.25
332.03	87.25
332.258	76.25
332.486	84.25
332.715	92.25
332.943	98.25
333.172	93.25
333.4	86.25
333.629	72.25
333.857	90.25
334.085	88.25
334.314	86.25
334.542	100.25
334.771	86.25
334.999	83.25
335.227	83.25
335.455	82.25
335.684	93.25
335.912	85.25
336.14	77.25
336.369	80.25
336.597	83.25
336.825	79.25
337.053	65.25
337.281	90.25
337.51	91.25
337.738	87.25
337.966	83.25
338.194	91.25
338.422	87.25
338.65	88.25
338.878	76.25
339.106	87.25
339.334	87.25
339.562	72.25
339.79	90.25
340.018	84.25
340.246	82.25
340.474	97.25
340.702	90.25
340.93	81.25
341.158	79.25
341.386	83.25
341.614	76.25
341.842	77.25
342.07	93.25
342.298	101.25
342.526	80.25
342.754	87.25
342.981	86.25
343.209	85.25
343.437	91.25
343.665	89.25
343.893	81.25
344.12	96.25
344.348	95.25
344.576	82.25
344.804	94.25
345.031	86.25
345.259	94.25
345.487	94.25
345.714	83.25
345.942	90.25
346.17	92.25
346.397	81.25
346.625	88.25
346.853	74.25
347.08	89.25
347.308	80.25
347.535	80.25
347.763	79.25
347.99	98.25
348.218	88.25
348.445	94.25
348.673	90.25
348.9	97.25
349.128	88.25
349.355	69.25
349.583	83.25
349.81	90.25
350.037	90.25
350.265	84.25
350.492	97.25
350.72	86.25
350.947	81.25
351.174	89.25
351.402	76.25
351.629	84.25
351.856	80.25
352.083	93.25
352.311	87.25
352.538	99.25
352.765	102.25
352.992	91.25
353.22	85.25
353.447	85.25
353.674	84.25
353.901	93.25
354.128	98.25
354.355	89.25
354.583	82.25
354.81	83.25
355.037	75.25
355.264	86.25
355.491	92.25
355.718	71.25
355.945	76.25
356.172	76.25
356.399	90.25
356.626	73.25
356.853	79.25
357.08	95.25
357.307	97.25
357.534	84.25
357.761	96.25
357.988	92.25
358.215	84.25
358.441	79.25
358.668	94.25
358.895	84.25
359.122	92.25
359.349	82.25
359.576	84.25
359.802	73.25
360.029	99.25
360.256	91.25
360.483	81.25
360.709	87.25
360.936	95.25
361.163	82.25
361.39	91.25
361.616	81.25
361.843	91.25
362.07	91.25
362.296	78.25
362.523	76.25
362.749	92.25
362.976	87.25
363.203	108.25
363.429	92.25
363.656	93.25
363.882	87.25
364.109	83.25
364.335	88.25
364.562	76.25
364.788	89.25
365.015	91.25
365.241	83.25
365.468	97.25
365.694	84.25
365.92	85.25
366.147	82.25
366.373	85.25
366.599	87.25
366.826	84.25
367.052	84.25
367.278	89.25
367.505	89.25
367.731	113.25
367.957	88.25
368.184	79.25
368.41	102.25
368.636	93.25
368.862	95.25
369.089	96.25
369.315	98.25
369.541	86.25
369.767	98.25
369.993	88.25
370.219	107.25
370.445	90.25
370.672	92.25
370.898	102.25
371.124	110.25
371.35	105.25
371.576	93.25
371.802	86.25
372.028	97.25
372.254	105.25
372.48	104.25
372.706	109.25
372.932	111.25
373.158	100.25
373.384	91.25
373.61	102.25
373.835	97.25
374.061	83.25
374.287	85.25
374.513	79.25
374.739	96.25
374.965	81.25
375.191	86.25
375.416	100.25
375.642	76.25
375.868	99.25
376.094	88.25
376.319	99.25
376.545	109.25
376.771	105.25
376.997	95.25
377.222	88.25
377.448	100.25
377.674	86.25
377.899	91.25
378.125	102.25
378.35	90.25
378.576	98.25
378.802	93.25
379.027	97.25
379.253	99.25
379.478	88.25
379.704	106.25
379.929	97.25
380.155	100.25
380.38	110.25
380.606	105.25
380.831	79.25
381.057	99.25
381.282	100.25
381.507	101.25
381.733	121.25
381.958	89.25
382.184	97.25
382.409	101.25
382.634	98.25
382.86	117.25
383.085	106.25
383.31	113.25
383.535	89.25
383.761	110.25
383.986	96.25
384.211	108.25
384.436	103.25
384.662	102.25
384.887	95.25
385.112	113.25
385.337	93.25
385.562	92.25
385.787	85.25
386.013	107.25
386.238	111.25
386.463	106.25
386.688	96.25
386.913	86.25
387.138	104.25
387.363	109.25
387.588	117.25
387.813	97.25
388.038	94.25
388.263	121.25
388.488	101.25
388.713	107.25
388.938	109.25
389.163	102.25
389.387	101.25
389.612	105.25
389.837	100.25
390.062	104.25
390.287	110.25
390.512	106.25
390.736	103.25
390.961	92.25
391.186	113.25
391.411	117.25
391.636	107.25
391.86	118.25
392.085	121.25
392.31	113.25
392.534	93.25
392.759	105.25
392.984	107.25
393.208	100.25
393.433	106.25
393.658	91.25
393.882	105.25
394.107	93.25
394.331	104.25
394.556	114.25
394.78	97.25
395.005	115.25
395.229	101.25
395.454	121.25
395.678	117.25
395.903	110.25
396.127	104.25
396.352	111.25
396.576	115.25
396.801	115.25
397.025	98.25
397.249	123.25
397.474	107.25
397.698	124.25
397.922	113.25
398.147	117.25
398.371	93.25
398.595	116.25
398.82	122.25
399.044	111.25
399.268	113.25
399.492	110.25
399.717	119.25
399.941	113.25
400.165	106.25
400.389	118.25
400.613	102.25
400.837	113.25
401.062	101.25
401.286	121.25
401.51	105.25
401.734	104.25
401.958	106.25
402.182	100.25
402.406	119.25
402.63	114.25
402.854	117.25
403.078	106.25
403.302	118.25
403.526	125.25
403.75	107.25
403.974	109.25
404.198	126.25
404.422	117.25
404.645	111.25
404.869	119.25
405.093	100.25
405.317	109.25
405.541	107.25
405.765	122.25
405.988	122.25
406.212	122.25
406.436	128.25
406.66	121.25
406.883	127.25
407.107	117.25
407.331	129.25
407.555	133.25
407.778	121.25
408.002	125.25
408.226	117.25
408.449	113.25
408.673	129.25
408.896	114.25
409.12	125.25
409.344	126.25
409.567	117.25
409.791	111.25
410.014	133.25
410.238	127.25
410.461	124.25
410.685	114.25
410.908	127.25
411.132	128.25
411.355	119.25
411.578	123.25
411.802	145.25
412.025	133.25
412.249	128.25
412.472	134.25
412.695	125.25
412.919	123.25
413.142	116.25
413.365	119.25
413.589	113.25
413.812	133.25
414.035	115.25
414.258	115.25
414.482	110.25
414.705	129.25
414.928	125.25
415.151	122.25
415.374	129.25
415.597	126.25
415.821	129.25
416.044	135.25
416.267	131.25
416.49	126.25
416.713	133.25
416.936	134.25
417.159	136.25
417.382	124.25
417.605	120.25
417.828	134.25
418.051	125.25
418.274	141.25
418.497	123.25
418.72	141.25
418.943	128.25
419.166	123.25
419.389	125.25
419.611	123.25
419.834	135.25
420.057	139.25
420.28	150.25
420.503	131.25
420.726	145.25
420.948	135.25
421.171	129.25
421.394	131.25
421.617	142.25
421.839	126.25
422.062	133.25
422.285	156.25
422.507	133.25
422.73	139.25
422.953	133.25
423.175	132.25
423.398	116.25
423.621	138.25
423.843	129.25
424.066	117.25
424.288	125.25
424.511	143.25
424.733	154.25
424.956	147.25
425.178	141.25
425.401	130.25
425.623	126.25
425.846	146.25
426.068	117.25
426.291	137.25
426.513	131.25
426.735	132.25
426.958	146.25
427.18	126.25
427.402	132.25
427.625	142.25
427.847	140.25
428.069	137.25
428.292	136.25
428.514	133.25
428.736	123.25
428.958	145.25
429.181	148.25
429.403	119.25
429.625	136.25
429.847	121.25
430.069	130.25
430.292	143.25
430.514	127.25
430.736	133.25
430.958	126.25
431.18	133.25
431.402	130.25
431.624	124.25
431.846	122.25
432.068	94.25
432.29	107.25
432.512	120.25
432.734	134.25
432.956	133.25
433.178	114.25
433.4	143.25
433.622	148.25
433.844	140.25
434.066	134.25
434.287	99.25
434.509	85.25
434.731	90.25
434.953	111.25
435.175	122.25
435.397	123.25
435.618	109.25
435.84	110.25
436.062	119.25
436.284	129.25
436.505	128.25
436.727	123.25
436.949	129.25
437.17	141.25
437.392	141.25
437.614	123.25
437.835	116.25
438.057	122.25
438.278	117.25
438.5	121.25
438.721	129.25
438.943	124.25
439.165	138.25
439.386	136.25
439.608	148.25
439.829	137.25
440.05	139.25
440.272	137.25
440.493	152.25
440.715	155.25
440.936	133.25
441.158	148.25
441.379	147.25
441.6	142.25
441.822	141.25
442.043	147.25
442.264	139.25
442.486	150.25
442.707	141.25
442.928	142.25
443.149	133.25
443.371	146.25
443.592	141.25
443.813	146.25
444.034	143.25
444.255	137.25
444.476	133.25
444.698	131.25
444.919	142.25
445.14	266.25
445.361	200.25
445.582	139.25
445.803	143.25
446.024	140.25
446.245	150.25
446.466	161.25
446.687	159.25
446.908	158.25
447.129	158.25
447.35	144.25
447.571	162.25
447.792	155.25
448.013	138.25
448.234	131.25
448.455	131.25
448.675	134.25
448.896	136.25
449.117	133.25
449.338	143.25
449.559	150.25
449.779	157.25
450	140.25
450.221	137.25
450.442	150.25
450.662	119.25
450.883	147.25
451.104	137.25
451.324	131.25
451.545	136.25
451.766	141.25
451.986	139.25
452.207	125.25
452.428	128.25
452.648	127.25
452.869	115.25
453.089	106.25
453.31	123.25
453.53	113.25
453.751	108.25
453.971	98.25
454.192	98.25
454.412	117.25
454.633	111.25
454.853	125.25
455.073	123.25
455.294	111.25
455.514	135.25
455.734	130.25
455.955	124.25
456.175	118.25
456.395	115.25
456.616	103.25
456.836	103.25
457.056	130.25
457.276	117.25
457.497	113.25
457.717	113.25
457.937	117.25
458.157	133.25
458.377	109.25
458.598	93.25
458.818	98.25
459.038	80.25
459.258	103.25
459.478	99.25
459.698	87.25
459.918	90.25
460.138	94.25
460.358	115.25
460.578	117.25
460.798	131.25
461.018	116.25
461.238	109.25
461.458	125.25
461.678	100.25
461.898	126.25
462.118	121.25
462.338	113.25
462.558	116.25
462.777	106.25
462.997	121.25
463.217	105.25
463.437	106.25
463.657	100.25
463.876	114.25
464.096	117.25
464.316	113.25
464.536	103.25
464.755	123.25
464.975	131.25
465.195	118.25
465.414	128.25
465.634	106.25
465.854	110.25
466.073	121.25
466.293	121.25
466.512	119.25
466.732	140.25
466.951	131.25
467.171	127.25
467.391	131.25
467.61	128.25
467.829	135.25
468.049	133.25
468.268	126.25
468.488	129.25
468.707	129.25
468.927	133.25
469.146	141.25
469.365	140.25
469.585	133.25
469.804	150.25
470.023	127.25
470.243	139.25
470.462	150.25
470.681	141.25
470.901	152.25
471.12	145.25
471.339	137.25
471.558	129.25
471.777	147.25
471.997	135.25
472.216	129.25
472.435	129.25
472.654	108.25
472.873	122.25
473.092	111.25
473.311	135.25
473.53	134.25
473.749	127.25
473.968	129.25
474.187	135.25
474.406	115.25
474.625	138.25
474.844	113.25
475.063	129.25
475.282	120.25
475.501	127.25
475.72	118.25
475.939	134.25
476.158	125.25
476.377	131.25
476.596	124.25
476.814	115.25
477.033	112.25
477.252	110.25
477.471	109.25
477.69	123.25
477.908	131.25
478.127	143.25
478.346	137.25
478.564	135.25
478.783	134.25
479.002	135.25
479.22	135.25
479.439	133.25
479.658	130.25
479.876	122.25
480.095	107.25
480.313	118.25
480.532	110.25
480.751	99.25
480.969	81.25
481.188	84.25
481.406	96.25
481.624	86.25
481.843	80.25
482.061	71.25
482.28	116.25
482.498	125.25
482.717	105.25
482.935	125.25
483.153	136.25
483.372	135.25
483.59	138.25
483.808	143.25
484.027	141.25
484.245	141.25
484.463	147.25
484.681	160.25
484.9	128.25
485.118	149.25
485.336	150.25
485.554	117.25
485.772	108.25
485.99	114.25
486.209	116.25
486.427	111.25
486.645	122.25
486.863	131.25
487.081	145.25
487.299	143.25
487.517	135.25
487.735	153.25
487.953	187.25
488.171	174.25
488.389	161.25
488.607	142.25
488.825	140.25
489.043	121.25
489.261	143.25
489.479	141.25
489.696	126.25
489.914	143.25
490.132	148.25
490.35	141.25
490.568	146.25
490.786	170.25
491.003	187.25
491.221	186.25
491.439	202.25
491.657	194.25
491.874	209.25
492.092	209.25
492.31	238.25
492.527	223.25
492.745	207.25
492.963	210.25
493.18	188.25
493.398	169.25
493.615	179.25
493.833	171.25
494.05	152.25
494.268	180.25
494.485	159.25
494.703	197.25
494.92	173.25
495.138	165.25
495.355	182.25
495.573	186.25
495.79	157.25
496.008	181.25
496.225	167.25
496.442	150.25
496.66	161.25
496.877	154.25
497.094	146.25
497.312	158.25
497.529	147.25
497.746	155.25
497.963	134.25
498.181	131.25
498.398	126.25
498.615	109.25
498.832	111.25
499.049	121.25
499.267	127.25
499.484	124.25
499.701	151.25
499.918	134.25
500.135	129.25
500.352	139.25
500.569	130.25
500.786	134.25
501.003	155.25
501.22	159.25
501.437	129.25
501.654	139.25
501.871	127.25
502.088	141.25
502.305	131.25
502.522	127.25
502.739	137.25
502.956	125.25
503.172	127.25
503.389	127.25
503.606	110.25
503.823	113.25
504.04	121.25
504.256	126.25
504.473	124.25
504.69	115.25
504.907	132.25
505.123	120.25
505.34	108.25
505.557	121.25
505.773	121.25
505.99	138.25
506.207	115.25
506.423	117.25
506.64	134.25
506.856	131.25
507.073	102.25
507.289	124.25
507.506	121.25
507.722	125.25
507.939	132.25
508.155	119.25
508.372	103.25
508.588	101.25
508.805	102.25
509.021	105.25
509.238	92.25
509.454	113.25
509.67	106.25
509.887	102.25
510.103	89.25
510.319	103.25
510.536	88.25
510.752	88.25
510.968	98.25
