Data from Location2.07152019.Energy5.Lamp.07192019.3%Agarose_HRD10591_14-55-57-359.txt Node
Date: Fri Jul 19 14:55:57 EDT 2019
User: cochatt
Spectrometer: HR+D1059
Trigger mode: 1
Integration Time (sec): 1.000000E-1
Scans to average: 1
Electric dark correction enabled: true
Nonlinearity correction enabled: false
Boxcar width: 0
XAxis mode: Wavelengths
Number of Pixels in Spectrum: 2048
>>>>>Begin Spectral Data<<<<<
223.165	-28.31
223.4	-28.31
223.635	-28.31
223.869	-15.31
224.104	-18.31
224.338	-17.31
224.573	-16.31
224.808	-21.31
225.042	0.69
225.277	-4.31
225.511	-2.31
225.746	-6.31
225.98	15.69
226.215	25.69
226.449	21.69
226.683	21.69
226.918	28.69
227.152	15.69
227.387	41.69
227.621	34.69
227.856	31.69
228.09	45.69
228.324	54.69
228.559	43.69
228.793	48.69
229.027	59.69
229.262	77.69
229.496	70.69
229.73	61.69
229.964	65.69
230.199	60.69
230.433	89.69
230.667	78.69
230.901	63.69
231.136	74.69
231.37	88.69
231.604	82.69
231.838	84.69
232.072	69.69
232.306	67.69
232.541	85.69
232.775	68.69
233.009	76.69
233.243	83.69
233.477	76.69
233.711	81.69
233.945	92.69
234.179	87.69
234.413	87.69
234.647	72.69
234.881	81.69
235.115	68.69
235.349	91.69
235.583	76.69
235.817	79.69
236.051	64.69
236.285	73.69
236.519	76.69
236.753	86.69
236.987	82.69
237.221	82.69
237.455	93.69
237.689	82.69
237.922	71.69
238.156	68.69
238.39	58.69
238.624	68.69
238.858	87.69
239.091	73.69
239.325	77.69
239.559	74.69
239.793	76.69
240.027	66.69
240.26	65.69
240.494	76.69
240.728	63.69
240.961	76.69
241.195	71.69
241.429	85.69
241.662	74.69
241.896	73.69
242.13	73.69
242.363	89.69
242.597	81.69
242.83	86.69
243.064	71.69
243.298	76.69
243.531	71.69
243.765	76.69
243.998	89.69
244.232	75.69
244.465	81.69
244.699	63.69
244.932	72.69
245.166	66.69
245.399	80.69
245.633	80.69
245.866	73.69
246.099	88.69
246.333	81.69
246.566	81.69
246.8	70.69
247.033	78.69
247.266	68.69
247.5	76.69
247.733	64.69
247.966	87.69
248.2	73.69
248.433	72.69
248.666	77.69
248.899	93.69
249.133	76.69
249.366	88.69
249.599	83.69
249.832	91.69
250.066	80.69
250.299	85.69
250.532	88.69
250.765	75.69
250.998	81.69
251.231	76.69
251.465	77.69
251.698	77.69
251.931	71.69
252.164	87.69
252.397	84.69
252.63	67.69
252.863	69.69
253.096	80.69
253.329	86.69
253.562	81.69
253.795	88.69
254.028	82.69
254.261	87.69
254.494	103.69
254.727	80.69
254.96	87.69
255.193	80.69
255.426	78.69
255.659	91.69
255.892	78.69
256.124	93.69
256.357	74.69
256.59	79.69
256.823	72.69
257.056	87.69
257.289	88.69
257.521	74.69
257.754	62.69
257.987	81.69
258.22	84.69
258.452	67.69
258.685	71.69
258.918	81.69
259.151	95.69
259.383	75.69
259.616	84.69
259.849	91.69
260.081	76.69
260.314	82.69
260.547	87.69
260.779	81.69
261.012	75.69
261.244	85.69
261.477	74.69
261.71	91.69
261.942	77.69
262.175	83.69
262.407	94.69
262.64	68.69
262.872	68.69
263.105	80.69
263.337	77.69
263.57	83.69
263.802	83.69
264.035	77.69
264.267	79.69
264.499	80.69
264.732	84.69
264.964	85.69
265.197	76.69
265.429	80.69
265.661	87.69
265.894	88.69
266.126	77.69
266.358	81.69
266.591	82.69
266.823	87.69
267.055	82.69
267.287	64.69
267.52	88.69
267.752	68.69
267.984	92.69
268.216	86.69
268.448	78.69
268.681	77.69
268.913	75.69
269.145	77.69
269.377	82.69
269.609	79.69
269.841	76.69
270.073	81.69
270.306	85.69
270.538	91.69
270.77	94.69
271.002	77.69
271.234	93.69
271.466	85.69
271.698	81.69
271.93	86.69
272.162	80.69
272.394	86.69
272.626	91.69
272.858	91.69
273.09	91.69
273.322	85.69
273.553	79.69
273.785	89.69
274.017	82.69
274.249	79.69
274.481	97.69
274.713	79.69
274.945	85.69
275.176	87.69
275.408	82.69
275.64	95.69
275.872	93.69
276.104	94.69
276.335	84.69
276.567	80.69
276.799	98.69
277.031	90.69
277.262	95.69
277.494	87.69
277.726	104.69
277.957	86.69
278.189	73.69
278.421	84.69
278.652	65.69
278.884	85.69
279.115	69.69
279.347	75.69
279.579	102.69
279.81	81.69
280.042	84.69
280.273	66.69
280.505	89.69
280.736	74.69
280.968	93.69
281.199	78.69
281.431	90.69
281.662	85.69
281.894	87.69
282.125	80.69
282.356	95.69
282.588	81.69
282.819	82.69
283.051	80.69
283.282	59.69
283.513	81.69
283.745	72.69
283.976	87.69
284.207	81.69
284.439	77.69
284.67	77.69
284.901	88.69
285.132	81.69
285.364	93.69
285.595	80.69
285.826	80.69
286.057	83.69
286.288	86.69
286.52	80.69
286.751	92.69
286.982	81.69
287.213	87.69
287.444	86.69
287.675	81.69
287.906	85.69
288.138	90.69
288.369	99.69
288.6	79.69
288.831	83.69
289.062	94.69
289.293	73.69
289.524	105.69
289.755	84.69
289.986	91.69
290.217	94.69
290.448	78.69
290.679	93.69
290.91	81.69
291.141	86.69
291.371	79.69
291.602	84.69
291.833	75.69
292.064	72.69
292.295	81.69
292.526	65.69
292.757	86.69
292.987	79.69
293.218	81.69
293.449	80.69
293.68	89.69
293.91	85.69
294.141	77.69
294.372	79.69
294.603	87.69
294.833	86.69
295.064	68.69
295.295	88.69
295.525	82.69
295.756	81.69
295.987	93.69
296.217	80.69
296.448	74.69
296.679	82.69
296.909	75.69
297.14	77.69
297.37	83.69
297.601	88.69
297.831	71.69
298.062	105.69
298.292	102.69
298.523	77.69
298.753	92.69
298.984	90.69
299.214	85.69
299.445	85.69
299.675	87.69
299.905	112.69
300.136	97.69
300.366	87.69
300.597	95.69
300.827	75.69
301.057	96.69
301.288	69.69
301.518	84.69
301.748	81.69
301.979	89.69
302.209	76.69
302.439	91.69
302.669	81.69
302.9	84.69
303.13	83.69
303.36	94.69
303.59	79.69
303.82	85.69
304.051	86.69
304.281	84.69
304.511	82.69
304.741	87.69
304.971	92.69
305.201	82.69
305.431	82.69
305.661	96.69
305.891	81.69
306.121	88.69
306.352	96.69
306.582	97.69
306.812	83.69
307.042	87.69
307.272	76.69
307.502	93.69
307.731	82.69
307.961	79.69
308.191	81.69
308.421	81.69
308.651	88.69
308.881	77.69
309.111	69.69
309.341	82.69
309.571	70.69
309.8	77.69
310.03	83.69
310.26	86.69
310.49	73.69
310.72	94.69
310.949	75.69
311.179	75.69
311.409	88.69
311.639	93.69
311.868	91.69
312.098	78.69
312.328	82.69
312.557	87.69
312.787	87.69
313.017	79.69
313.246	88.69
313.476	76.69
313.706	78.69
313.935	73.69
314.165	83.69
314.394	76.69
314.624	83.69
314.853	94.69
315.083	86.69
315.312	78.69
315.542	97.69
315.771	84.69
316.001	80.69
316.23	91.69
316.46	85.69
316.689	88.69
316.919	91.69
317.148	89.69
317.377	94.69
317.607	85.69
317.836	86.69
318.065	71.69
318.295	74.69
318.524	70.69
318.753	83.69
318.983	92.69
319.212	86.69
319.441	81.69
319.67	81.69
319.9	93.69
320.129	87.69
320.358	87.69
320.587	102.69
320.816	88.69
321.046	81.69
321.275	89.69
321.504	79.69
321.733	95.69
321.962	84.69
322.191	96.69
322.42	91.69
322.649	94.69
322.878	81.69
323.108	82.69
323.337	88.69
323.566	67.69
323.795	82.69
324.024	84.69
324.253	60.69
324.482	97.69
324.71	83.69
324.939	79.69
325.168	88.69
325.397	81.69
325.626	86.69
325.855	93.69
326.084	92.69
326.313	88.69
326.542	82.69
326.77	77.69
326.999	79.69
327.228	86.69
327.457	81.69
327.686	74.69
327.914	92.69
328.143	85.69
328.372	91.69
328.6	79.69
328.829	81.69
329.058	91.69
329.287	80.69
329.515	91.69
329.744	76.69
329.972	88.69
330.201	73.69
330.43	98.69
330.658	89.69
330.887	78.69
331.115	72.69
331.344	89.69
331.572	82.69
331.801	90.69
332.03	83.69
332.258	82.69
332.486	72.69
332.715	78.69
332.943	76.69
333.172	88.69
333.4	94.69
333.629	87.69
333.857	82.69
334.085	75.69
334.314	92.69
334.542	75.69
334.771	80.69
334.999	87.69
335.227	80.69
335.455	83.69
335.684	91.69
335.912	77.69
336.14	71.69
336.369	86.69
336.597	70.69
336.825	92.69
337.053	79.69
337.281	96.69
337.51	90.69
337.738	91.69
337.966	69.69
338.194	89.69
338.422	79.69
338.65	84.69
338.878	102.69
339.106	92.69
339.334	83.69
339.562	74.69
339.79	94.69
340.018	78.69
340.246	85.69
340.474	74.69
340.702	86.69
340.93	95.69
341.158	87.69
341.386	82.69
341.614	96.69
341.842	82.69
342.07	75.69
342.298	82.69
342.526	83.69
342.754	90.69
342.981	80.69
343.209	88.69
343.437	81.69
343.665	86.69
343.893	78.69
344.12	76.69
344.348	85.69
344.576	86.69
344.804	92.69
345.031	75.69
345.259	85.69
345.487	89.69
345.714	100.69
345.942	96.69
346.17	94.69
346.397	80.69
346.625	76.69
346.853	83.69
347.08	80.69
347.308	89.69
347.535	94.69
347.763	75.69
347.99	81.69
348.218	95.69
348.445	78.69
348.673	91.69
348.9	85.69
349.128	82.69
349.355	79.69
349.583	82.69
349.81	74.69
350.037	93.69
350.265	86.69
350.492	78.69
350.72	85.69
350.947	108.69
351.174	94.69
351.402	87.69
351.629	84.69
351.856	72.69
352.083	71.69
352.311	90.69
352.538	99.69
352.765	91.69
352.992	76.69
353.22	82.69
353.447	79.69
353.674	86.69
353.901	74.69
354.128	71.69
354.355	76.69
354.583	94.69
354.81	91.69
355.037	83.69
355.264	78.69
355.491	78.69
355.718	80.69
355.945	92.69
356.172	83.69
356.399	73.69
356.626	89.69
356.853	79.69
357.08	87.69
357.307	82.69
357.534	94.69
357.761	71.69
357.988	87.69
358.215	86.69
358.441	92.69
358.668	84.69
358.895	84.69
359.122	87.69
359.349	77.69
359.576	82.69
359.802	75.69
360.029	93.69
360.256	90.69
360.483	76.69
360.709	74.69
360.936	80.69
361.163	76.69
361.39	83.69
361.616	82.69
361.843	79.69
362.07	83.69
362.296	89.69
362.523	99.69
362.749	86.69
362.976	92.69
363.203	88.69
363.429	87.69
363.656	75.69
363.882	90.69
364.109	74.69
364.335	90.69
364.562	99.69
364.788	78.69
365.015	74.69
365.241	79.69
365.468	84.69
365.694	68.69
365.92	88.69
366.147	96.69
366.373	82.69
366.599	91.69
366.826	76.69
367.052	79.69
367.278	92.69
367.505	87.69
367.731	79.69
367.957	80.69
368.184	75.69
368.41	91.69
368.636	91.69
368.862	90.69
369.089	80.69
369.315	83.69
369.541	88.69
369.767	90.69
369.993	95.69
370.219	104.69
370.445	68.69
370.672	99.69
370.898	93.69
371.124	96.69
371.35	82.69
371.576	89.69
371.802	98.69
372.028	81.69
372.254	92.69
372.48	90.69
372.706	77.69
372.932	94.69
373.158	93.69
373.384	100.69
373.61	103.69
373.835	88.69
374.061	95.69
374.287	85.69
374.513	99.69
374.739	90.69
374.965	105.69
375.191	89.69
375.416	81.69
375.642	90.69
375.868	95.69
376.094	94.69
376.319	92.69
376.545	91.69
376.771	100.69
376.997	107.69
377.222	96.69
377.448	98.69
377.674	89.69
377.899	90.69
378.125	89.69
378.35	83.69
378.576	111.69
378.802	106.69
379.027	102.69
379.253	99.69
379.478	100.69
379.704	99.69
379.929	110.69
380.155	80.69
380.38	79.69
380.606	114.69
380.831	105.69
381.057	90.69
381.282	95.69
381.507	88.69
381.733	99.69
381.958	96.69
382.184	95.69
382.409	89.69
382.634	87.69
382.86	82.69
383.085	104.69
383.31	113.69
383.535	91.69
383.761	100.69
383.986	103.69
384.211	89.69
384.436	92.69
384.662	103.69
384.887	80.69
385.112	89.69
385.337	106.69
385.562	95.69
385.787	107.69
386.013	104.69
386.238	102.69
386.463	87.69
386.688	97.69
386.913	89.69
387.138	104.69
387.363	106.69
387.588	104.69
387.813	121.69
388.038	103.69
388.263	86.69
388.488	112.69
388.713	104.69
388.938	99.69
389.163	103.69
389.387	105.69
389.612	92.69
389.837	103.69
390.062	100.69
390.287	104.69
390.512	107.69
390.736	108.69
390.961	106.69
391.186	101.69
391.411	102.69
391.636	97.69
391.86	89.69
392.085	99.69
392.31	117.69
392.534	113.69
392.759	95.69
392.984	113.69
393.208	91.69
393.433	96.69
393.658	105.69
393.882	106.69
394.107	105.69
394.331	106.69
394.556	102.69
394.78	104.69
395.005	108.69
395.229	106.69
395.454	96.69
395.678	113.69
395.903	99.69
396.127	115.69
396.352	112.69
396.576	102.69
396.801	115.69
397.025	91.69
397.249	102.69
397.474	112.69
397.698	100.69
397.922	105.69
398.147	118.69
398.371	117.69
398.595	108.69
398.82	111.69
399.044	105.69
399.268	106.69
399.492	121.69
399.717	121.69
399.941	108.69
400.165	109.69
400.389	108.69
400.613	105.69
400.837	96.69
401.062	105.69
401.286	98.69
401.51	102.69
401.734	104.69
401.958	123.69
402.182	107.69
402.406	101.69
402.63	125.69
402.854	115.69
403.078	112.69
403.302	123.69
403.526	111.69
403.75	106.69
403.974	114.69
404.198	105.69
404.422	113.69
404.645	113.69
404.869	112.69
405.093	128.69
405.317	121.69
405.541	119.69
405.765	119.69
405.988	108.69
406.212	112.69
406.436	113.69
406.66	120.69
406.883	108.69
407.107	114.69
407.331	113.69
407.555	111.69
407.778	121.69
408.002	121.69
408.226	129.69
408.449	120.69
408.673	117.69
408.896	121.69
409.12	135.69
409.344	126.69
409.567	108.69
409.791	123.69
410.014	137.69
410.238	124.69
410.461	134.69
410.685	112.69
410.908	118.69
411.132	116.69
411.355	99.69
411.578	124.69
411.802	128.69
412.025	132.69
412.249	138.69
412.472	139.69
412.695	118.69
412.919	106.69
413.142	125.69
413.365	135.69
413.589	120.69
413.812	121.69
414.035	121.69
414.258	115.69
414.482	113.69
414.705	129.69
414.928	119.69
415.151	125.69
415.374	108.69
415.597	104.69
415.821	120.69
416.044	129.69
416.267	118.69
416.49	135.69
416.713	144.69
416.936	126.69
417.159	131.69
417.382	125.69
417.605	120.69
417.828	127.69
418.051	141.69
418.274	136.69
418.497	130.69
418.72	131.69
418.943	133.69
419.166	140.69
419.389	137.69
419.611	131.69
419.834	134.69
420.057	145.69
420.28	123.69
420.503	130.69
420.726	142.69
420.948	133.69
421.171	137.69
421.394	125.69
421.617	139.69
421.839	164.69
422.062	137.69
422.285	135.69
422.507	147.69
422.73	117.69
422.953	130.69
423.175	131.69
423.398	125.69
423.621	116.69
423.843	127.69
424.066	135.69
424.288	139.69
424.511	132.69
424.733	144.69
424.956	150.69
425.178	137.69
425.401	133.69
425.623	136.69
425.846	123.69
426.068	127.69
426.291	128.69
426.513	122.69
426.735	112.69
426.958	128.69
427.18	131.69
427.402	122.69
427.625	125.69
427.847	136.69
428.069	128.69
428.292	124.69
428.514	119.69
428.736	123.69
428.958	131.69
429.181	132.69
429.403	122.69
429.625	121.69
429.847	125.69
430.069	141.69
430.292	127.69
430.514	121.69
430.736	126.69
430.958	118.69
431.18	132.69
431.402	131.69
431.624	127.69
431.846	110.69
432.068	101.69
432.29	94.69
432.512	119.69
432.734	101.69
432.956	137.69
433.178	132.69
433.4	129.69
433.622	141.69
433.844	141.69
434.066	128.69
434.287	104.69
434.509	97.69
434.731	116.69
434.953	111.69
435.175	126.69
435.397	131.69
435.618	129.69
435.84	109.69
436.062	119.69
436.284	136.69
436.505	107.69
436.727	127.69
436.949	132.69
437.17	121.69
437.392	123.69
437.614	119.69
437.835	119.69
438.057	121.69
438.278	119.69
438.5	138.69
438.721	155.69
438.943	138.69
439.165	144.69
439.386	137.69
439.608	124.69
439.829	129.69
440.05	128.69
440.272	143.69
440.493	152.69
440.715	153.69
440.936	142.69
441.158	133.69
441.379	146.69
441.6	144.69
441.822	140.69
442.043	142.69
442.264	148.69
442.486	139.69
442.707	127.69
442.928	133.69
443.149	129.69
443.371	144.69
443.592	138.69
443.813	141.69
444.034	138.69
444.255	140.69
444.476	161.69
444.698	132.69
444.919	142.69
445.14	259.69
445.361	199.69
445.582	147.69
445.803	135.69
446.024	151.69
446.245	177.69
446.466	141.69
446.687	142.69
446.908	145.69
447.129	152.69
447.35	153.69
447.571	129.69
447.792	155.69
448.013	135.69
448.234	140.69
448.455	131.69
448.675	135.69
448.896	120.69
449.117	130.69
449.338	139.69
449.559	136.69
449.779	153.69
450	159.69
450.221	139.69
450.442	151.69
450.662	126.69
450.883	130.69
451.104	146.69
451.324	119.69
451.545	133.69
451.766	130.69
451.986	124.69
452.207	124.69
452.428	120.69
452.648	139.69
452.869	113.69
453.089	114.69
453.31	108.69
453.53	104.69
453.751	106.69
453.971	92.69
454.192	112.69
454.412	119.69
454.633	111.69
454.853	108.69
455.073	129.69
455.294	127.69
455.514	129.69
455.734	116.69
455.955	115.69
456.175	123.69
456.395	127.69
456.616	125.69
456.836	121.69
457.056	103.69
457.276	89.69
457.497	112.69
457.717	97.69
457.937	119.69
458.157	113.69
458.377	95.69
458.598	127.69
458.818	95.69
459.038	90.69
459.258	86.69
459.478	86.69
459.698	90.69
459.918	105.69
460.138	101.69
460.358	118.69
460.578	115.69
460.798	122.69
461.018	105.69
461.238	113.69
461.458	127.69
461.678	117.69
461.898	112.69
462.118	107.69
462.338	122.69
462.558	115.69
462.777	100.69
462.997	119.69
463.217	100.69
463.437	122.69
463.657	118.69
463.876	99.69
464.096	109.69
464.316	101.69
464.536	114.69
464.755	116.69
464.975	129.69
465.195	129.69
465.414	122.69
465.634	127.69
465.854	112.69
466.073	107.69
466.293	127.69
466.512	113.69
466.732	127.69
466.951	135.69
467.171	130.69
467.391	124.69
467.61	133.69
467.829	136.69
468.049	136.69
468.268	142.69
468.488	129.69
468.707	143.69
468.927	121.69
469.146	127.69
469.365	134.69
469.585	142.69
469.804	152.69
470.023	131.69
470.243	147.69
470.462	155.69
470.681	152.69
470.901	127.69
471.12	145.69
471.339	136.69
471.558	145.69
471.777	143.69
471.997	146.69
472.216	134.69
472.435	115.69
472.654	109.69
472.873	106.69
473.092	97.69
473.311	120.69
473.53	116.69
473.749	127.69
473.968	133.69
474.187	128.69
474.406	115.69
474.625	138.69
474.844	139.69
475.063	131.69
475.282	118.69
475.501	106.69
475.72	112.69
475.939	133.69
476.158	125.69
476.377	129.69
476.596	125.69
476.814	117.69
477.033	116.69
477.252	111.69
477.471	120.69
477.69	139.69
477.908	129.69
478.127	146.69
478.346	139.69
478.564	129.69
478.783	157.69
479.002	144.69
479.22	135.69
479.439	145.69
479.658	128.69
479.876	114.69
480.095	115.69
480.313	127.69
480.532	132.69
480.751	121.69
480.969	92.69
481.188	81.69
481.406	70.69
481.624	89.69
481.843	97.69
482.061	103.69
482.28	113.69
482.498	122.69
482.717	115.69
482.935	116.69
483.153	157.69
483.372	153.69
483.59	161.69
483.808	142.69
484.027	121.69
484.245	151.69
484.463	151.69
484.681	166.69
484.9	149.69
485.118	144.69
485.336	129.69
485.554	102.69
485.772	117.69
485.99	110.69
486.209	102.69
486.427	114.69
486.645	122.69
486.863	128.69
487.081	140.69
487.299	147.69
487.517	149.69
487.735	154.69
487.953	188.69
488.171	187.69
488.389	168.69
488.607	162.69
488.825	139.69
489.043	116.69
489.261	135.69
489.479	132.69
489.696	147.69
489.914	155.69
490.132	123.69
490.35	134.69
490.568	161.69
490.786	175.69
491.003	169.69
491.221	173.69
491.439	182.69
491.657	184.69
491.874	205.69
492.092	229.69
492.31	215.69
492.527	217.69
492.745	214.69
492.963	197.69
493.18	173.69
493.398	183.69
493.615	175.69
493.833	177.69
494.05	189.69
494.268	172.69
494.485	170.69
494.703	164.69
494.92	164.69
495.138	167.69
495.355	168.69
495.573	170.69
495.79	171.69
496.008	161.69
496.225	163.69
496.442	164.69
496.66	169.69
496.877	165.69
497.094	160.69
497.312	171.69
497.529	151.69
497.746	158.69
497.963	129.69
498.181	123.69
498.398	126.69
498.615	116.69
498.832	126.69
499.049	112.69
499.267	117.69
499.484	122.69
499.701	131.69
499.918	128.69
500.135	142.69
500.352	129.69
500.569	162.69
500.786	145.69
501.003	147.69
501.22	139.69
501.437	125.69
501.654	133.69
501.871	139.69
502.088	132.69
502.305	137.69
502.522	128.69
502.739	117.69
502.956	116.69
503.172	122.69
503.389	120.69
503.606	107.69
503.823	127.69
504.04	125.69
504.256	108.69
504.473	101.69
504.69	112.69
504.907	117.69
505.123	122.69
505.34	111.69
505.557	108.69
505.773	118.69
505.99	113.69
506.207	132.69
506.423	121.69
506.64	119.69
506.856	130.69
507.073	119.69
507.289	106.69
507.506	114.69
507.722	120.69
507.939	123.69
508.155	122.69
508.372	123.69
508.588	118.69
508.805	103.69
509.021	101.69
509.238	101.69
509.454	105.69
509.67	103.69
509.887	103.69
510.103	98.69
510.319	92.69
510.536	96.69
510.752	88.69
510.968	99.69
511.184	77.69
511.401	79.69
