Data from Location2.07152019.Energy5.Lamp.07192019.3%Agarose_HRD10591_14-56-45-358.txt Node
Date: Fri Jul 19 14:56:45 EDT 2019
User: cochatt
Spectrometer: HR+D1059
Trigger mode: 1
Integration Time (sec): 1.000000E-1
Scans to average: 1
Electric dark correction enabled: true
Nonlinearity correction enabled: false
Boxcar width: 0
XAxis mode: Wavelengths
Number of Pixels in Spectrum: 2048
>>>>>Begin Spectral Data<<<<<
223.165	-17
223.4	-17
223.635	-17
223.869	-24
224.104	-11
224.338	-6
224.573	-18
224.808	-14
225.042	-17
225.277	-14
225.511	1
225.746	9
225.98	4
226.215	15
226.449	17
226.683	19
226.918	23
227.152	33
227.387	24
227.621	43
227.856	54
228.09	53
228.324	44
228.559	59
228.793	59
229.027	60
229.262	67
229.496	63
229.73	76
229.964	66
230.199	80
230.433	80
230.667	90
230.901	85
231.136	67
231.37	83
231.604	98
231.838	82
232.072	85
232.306	92
232.541	83
232.775	83
233.009	91
233.243	75
233.477	83
233.711	82
233.945	71
234.179	89
234.413	89
234.647	67
234.881	85
235.115	80
235.349	84
235.583	76
235.817	75
236.051	89
236.285	89
236.519	68
236.753	86
236.987	92
237.221	76
237.455	95
237.689	83
237.922	68
238.156	76
238.39	82
238.624	68
238.858	93
239.091	83
239.325	78
239.559	80
239.793	73
240.027	79
240.26	72
240.494	85
240.728	74
240.961	94
241.195	78
241.429	67
241.662	73
241.896	80
242.13	82
242.363	68
242.597	74
242.83	65
243.064	83
243.298	85
243.531	89
243.765	88
243.998	75
244.232	60
244.465	66
244.699	74
244.932	82
245.166	74
245.399	71
245.633	78
245.866	77
246.099	81
246.333	77
246.566	79
246.8	80
247.033	83
247.266	75
247.5	72
247.733	76
247.966	83
248.2	83
248.433	89
248.666	86
248.899	80
249.133	97
249.366	91
249.599	86
249.832	87
250.066	72
250.299	80
250.532	85
250.765	79
250.998	78
251.231	72
251.465	89
251.698	77
251.931	82
252.164	74
252.397	71
252.63	84
252.863	88
253.096	87
253.329	82
253.562	87
253.795	89
254.028	90
254.261	87
254.494	93
254.727	86
254.96	71
255.193	72
255.426	74
255.659	92
255.892	91
256.124	80
256.357	87
256.59	79
256.823	70
257.056	72
257.289	87
257.521	77
257.754	81
257.987	72
258.22	79
258.452	80
258.685	77
258.918	66
259.151	86
259.383	80
259.616	75
259.849	85
260.081	74
260.314	80
260.547	78
260.779	77
261.012	88
261.244	76
261.477	94
261.71	84
261.942	86
262.175	76
262.407	83
262.64	68
262.872	75
263.105	86
263.337	91
263.57	96
263.802	93
264.035	85
264.267	86
264.499	74
264.732	73
264.964	92
265.197	89
265.429	90
265.661	85
265.894	98
266.126	84
266.358	94
266.591	92
266.823	88
267.055	95
267.287	77
267.52	90
267.752	90
267.984	90
268.216	73
268.448	79
268.681	81
268.913	87
269.145	98
269.377	86
269.609	93
269.841	100
270.073	80
270.306	86
270.538	87
270.77	78
271.002	87
271.234	79
271.466	86
271.698	90
271.93	101
272.162	92
272.394	87
272.626	84
272.858	80
273.09	81
273.322	78
273.553	61
273.785	85
274.017	94
274.249	93
274.481	86
274.713	81
274.945	82
275.176	75
275.408	87
275.64	80
275.872	85
276.104	85
276.335	97
276.567	91
276.799	83
277.031	81
277.262	85
277.494	95
277.726	91
277.957	86
278.189	90
278.421	84
278.652	82
278.884	91
279.115	89
279.347	90
279.579	94
279.81	99
280.042	89
280.273	101
280.505	94
280.736	66
280.968	93
281.199	84
281.431	78
281.662	82
281.894	89
282.125	81
282.356	62
282.588	80
282.819	83
283.051	91
283.282	93
283.513	101
283.745	99
283.976	93
284.207	83
284.439	95
284.67	86
284.901	87
285.132	88
285.364	85
285.595	95
285.826	87
286.057	76
286.288	95
286.52	96
286.751	90
286.982	98
287.213	97
287.444	88
287.675	77
287.906	100
288.138	79
288.369	87
288.6	86
288.831	94
289.062	84
289.293	77
289.524	82
289.755	81
289.986	92
290.217	83
290.448	90
290.679	84
290.91	80
291.141	99
291.371	97
291.602	87
291.833	80
292.064	97
292.295	96
292.526	103
292.757	80
292.987	98
293.218	87
293.449	84
293.68	89
293.91	97
294.141	64
294.372	80
294.603	83
294.833	88
295.064	99
295.295	80
295.525	96
295.756	92
295.987	81
296.217	80
296.448	83
296.679	90
296.909	98
297.14	99
297.37	81
297.601	64
297.831	89
298.062	88
298.292	84
298.523	107
298.753	70
298.984	84
299.214	93
299.445	84
299.675	70
299.905	79
300.136	76
300.366	78
300.597	94
300.827	91
301.057	83
301.288	96
301.518	84
301.748	96
301.979	99
302.209	86
302.439	76
302.669	79
302.9	82
303.13	85
303.36	98
303.59	80
303.82	90
304.051	87
304.281	90
304.511	92
304.741	81
304.971	95
305.201	82
305.431	72
305.661	85
305.891	81
306.121	81
306.352	101
306.582	85
306.812	83
307.042	95
307.272	94
307.502	92
307.731	84
307.961	94
308.191	86
308.421	100
308.651	92
308.881	102
309.111	93
309.341	88
309.571	88
309.8	92
310.03	82
310.26	91
310.49	94
310.72	78
310.949	86
311.179	80
311.409	85
311.639	93
311.868	98
312.098	78
312.328	94
312.557	85
312.787	75
313.017	94
313.246	88
313.476	87
313.706	85
313.935	81
314.165	84
314.394	86
314.624	86
314.853	96
315.083	87
315.312	96
315.542	93
315.771	95
316.001	88
316.23	85
316.46	89
316.689	78
316.919	95
317.148	86
317.377	88
317.607	89
317.836	88
318.065	98
318.295	78
318.524	68
318.753	87
318.983	83
319.212	87
319.441	91
319.67	86
319.9	69
320.129	86
320.358	90
320.587	102
320.816	86
321.046	78
321.275	82
321.504	76
321.733	92
321.962	81
322.191	87
322.42	94
322.649	87
322.878	92
323.108	83
323.337	86
323.566	90
323.795	73
324.024	86
324.253	86
324.482	77
324.71	88
324.939	80
325.168	86
325.397	80
325.626	82
325.855	96
326.084	84
326.313	92
326.542	75
326.77	86
326.999	95
327.228	90
327.457	96
327.686	79
327.914	83
328.143	95
328.372	87
328.6	87
328.829	94
329.058	90
329.287	84
329.515	89
329.744	89
329.972	82
330.201	91
330.43	69
330.658	82
330.887	88
331.115	92
331.344	87
331.572	96
331.801	83
332.03	78
332.258	96
332.486	84
332.715	87
332.943	83
333.172	80
333.4	81
333.629	89
333.857	99
334.085	96
334.314	77
334.542	72
334.771	90
334.999	82
335.227	96
335.455	103
335.684	94
335.912	90
336.14	89
336.369	87
336.597	85
336.825	94
337.053	81
337.281	78
337.51	82
337.738	89
337.966	90
338.194	93
338.422	88
338.65	87
338.878	81
339.106	87
339.334	78
339.562	78
339.79	75
340.018	87
340.246	81
340.474	86
340.702	77
340.93	90
341.158	79
341.386	77
341.614	77
341.842	93
342.07	81
342.298	92
342.526	80
342.754	104
342.981	91
343.209	95
343.437	93
343.665	96
343.893	90
344.12	87
344.348	89
344.576	92
344.804	95
345.031	90
345.259	84
345.487	100
345.714	96
345.942	76
346.17	87
346.397	99
346.625	67
346.853	95
347.08	87
347.308	81
347.535	94
347.763	79
347.99	108
348.218	95
348.445	91
348.673	92
348.9	78
349.128	90
349.355	101
349.583	83
349.81	90
350.037	92
350.265	84
350.492	83
350.72	86
350.947	95
351.174	78
351.402	86
351.629	81
351.856	85
352.083	88
352.311	84
352.538	83
352.765	83
352.992	86
353.22	88
353.447	84
353.674	82
353.901	87
354.128	81
354.355	75
354.583	88
354.81	89
355.037	92
355.264	87
355.491	81
355.718	91
355.945	84
356.172	85
356.399	85
356.626	86
356.853	84
357.08	90
357.307	82
357.534	84
357.761	70
357.988	106
358.215	90
358.441	88
358.668	90
358.895	98
359.122	77
359.349	75
359.576	84
359.802	81
360.029	89
360.256	94
360.483	90
360.709	81
360.936	82
361.163	88
361.39	92
361.616	66
361.843	93
362.07	88
362.296	86
362.523	99
362.749	86
362.976	89
363.203	79
363.429	91
363.656	89
363.882	93
364.109	83
364.335	92
364.562	90
364.788	88
365.015	104
365.241	84
365.468	84
365.694	90
365.92	96
366.147	99
366.373	97
366.599	73
366.826	94
367.052	99
367.278	92
367.505	84
367.731	86
367.957	101
368.184	87
368.41	91
368.636	80
368.862	92
369.089	93
369.315	96
369.541	97
369.767	92
369.993	103
370.219	92
370.445	92
370.672	101
370.898	93
371.124	90
371.35	98
371.576	102
371.802	87
372.028	102
372.254	88
372.48	86
372.706	100
372.932	103
373.158	86
373.384	108
373.61	109
373.835	92
374.061	83
374.287	90
374.513	91
374.739	99
374.965	93
375.191	95
375.416	88
375.642	110
375.868	96
376.094	77
376.319	85
376.545	96
376.771	91
376.997	84
377.222	93
377.448	95
377.674	96
377.899	83
378.125	102
378.35	96
378.576	108
378.802	100
379.027	95
379.253	89
379.478	91
379.704	101
379.929	99
380.155	89
380.38	94
380.606	98
380.831	104
381.057	119
381.282	88
381.507	99
381.733	96
381.958	106
382.184	96
382.409	106
382.634	98
382.86	106
383.085	111
383.31	96
383.535	104
383.761	105
383.986	95
384.211	101
384.436	106
384.662	105
384.887	94
385.112	101
385.337	101
385.562	108
385.787	100
386.013	111
386.238	103
386.463	100
386.688	111
386.913	105
387.138	103
387.363	93
387.588	108
387.813	95
388.038	95
388.263	111
388.488	114
388.713	101
388.938	102
389.163	106
389.387	100
389.612	108
389.837	97
390.062	104
390.287	100
390.512	113
390.736	106
390.961	103
391.186	95
391.411	110
391.636	100
391.86	110
392.085	124
392.31	107
392.534	107
392.759	118
392.984	117
393.208	109
393.433	114
393.658	106
393.882	100
394.107	118
394.331	107
394.556	100
394.78	107
395.005	113
395.229	102
395.454	104
395.678	105
395.903	100
396.127	107
396.352	106
396.576	99
396.801	99
397.025	119
397.249	115
397.474	109
397.698	102
397.922	100
398.147	116
398.371	109
398.595	105
398.82	109
399.044	117
399.268	126
399.492	119
399.717	120
399.941	129
400.165	107
400.389	123
400.613	112
400.837	116
401.062	107
401.286	95
401.51	105
401.734	114
401.958	110
402.182	97
402.406	118
402.63	117
402.854	116
403.078	115
403.302	117
403.526	120
403.75	101
403.974	134
404.198	131
404.422	120
404.645	116
404.869	125
405.093	120
405.317	117
405.541	123
405.765	117
405.988	114
406.212	130
406.436	129
406.66	117
406.883	102
407.107	126
407.331	113
407.555	114
407.778	100
408.002	128
408.226	121
408.449	108
408.673	104
408.896	120
409.12	108
409.344	111
409.567	135
409.791	119
410.014	119
410.238	123
410.461	115
410.685	122
410.908	129
411.132	127
411.355	140
411.578	119
411.802	125
412.025	132
412.249	126
412.472	128
412.695	130
412.919	101
413.142	118
413.365	115
413.589	131
413.812	127
414.035	122
414.258	118
414.482	119
414.705	125
414.928	122
415.151	134
415.374	128
415.597	126
415.821	131
416.044	122
416.267	117
416.49	141
416.713	138
416.936	129
417.159	138
417.382	132
417.605	140
417.828	130
418.051	141
418.274	138
418.497	110
418.72	132
418.943	130
419.166	135
419.389	142
419.611	123
419.834	128
420.057	129
420.28	137
420.503	126
420.726	131
420.948	140
421.171	137
421.394	142
421.617	139
421.839	140
422.062	151
422.285	130
422.507	130
422.73	131
422.953	137
423.175	131
423.398	128
423.621	130
423.843	136
424.066	142
424.288	144
424.511	147
424.733	141
424.956	136
425.178	127
425.401	130
425.623	142
425.846	141
426.068	142
426.291	121
426.513	132
426.735	158
426.958	132
427.18	146
427.402	134
427.625	139
427.847	132
428.069	142
428.292	133
428.514	132
428.736	126
428.958	122
429.181	129
429.403	135
429.625	120
429.847	122
430.069	141
430.292	138
430.514	136
430.736	134
430.958	139
431.18	130
431.402	134
431.624	124
431.846	118
432.068	84
432.29	117
432.512	104
432.734	135
432.956	134
433.178	130
433.4	139
433.622	134
433.844	142
434.066	126
434.287	97
434.509	99
434.731	110
434.953	96
435.175	126
435.397	116
435.618	122
435.84	116
436.062	124
436.284	125
436.505	126
436.727	132
436.949	123
437.17	142
437.392	134
437.614	136
437.835	112
438.057	120
438.278	108
438.5	124
438.721	128
438.943	137
439.165	126
439.386	146
439.608	139
439.829	126
440.05	143
440.272	151
440.493	138
440.715	134
440.936	148
441.158	151
441.379	139
441.6	144
441.822	153
442.043	150
442.264	138
442.486	142
442.707	145
442.928	131
443.149	128
443.371	131
443.592	142
443.813	126
444.034	138
444.255	139
444.476	141
444.698	160
444.919	139
445.14	276
445.361	206
445.582	145
445.803	143
446.024	154
446.245	138
446.466	164
446.687	163
446.908	150
447.129	157
447.35	160
447.571	146
447.792	150
448.013	136
448.234	152
448.455	139
448.675	145
448.896	156
449.117	143
449.338	144
449.559	148
449.779	138
450	142
450.221	151
450.442	152
450.662	126
450.883	138
451.104	143
451.324	126
451.545	127
451.766	120
451.986	126
452.207	114
452.428	116
452.648	131
452.869	119
453.089	119
453.31	111
453.53	115
453.751	106
453.971	96
454.192	101
454.412	100
454.633	130
454.853	123
455.073	124
455.294	131
455.514	132
455.734	120
455.955	124
456.175	118
456.395	114
456.616	114
456.836	108
457.056	116
457.276	110
457.497	122
457.717	104
457.937	105
458.157	115
458.377	101
458.598	94
458.818	93
459.038	88
459.258	82
459.478	89
459.698	95
459.918	93
460.138	110
460.358	107
460.578	104
460.798	106
461.018	123
461.238	124
461.458	140
461.678	118
461.898	124
462.118	117
462.338	125
462.558	129
462.777	111
462.997	127
463.217	122
463.437	117
463.657	104
463.876	108
464.096	132
464.316	120
464.536	108
464.755	118
464.975	123
465.195	114
465.414	116
465.634	130
465.854	130
466.073	127
466.293	124
466.512	134
466.732	143
466.951	126
467.171	124
467.391	139
467.61	133
467.829	139
468.049	132
468.268	135
468.488	131
468.707	135
468.927	141
469.146	143
469.365	139
469.585	136
469.804	148
470.023	150
470.243	156
470.462	142
470.681	150
470.901	143
471.12	146
471.339	134
471.558	152
471.777	129
471.997	125
472.216	120
472.435	122
472.654	130
472.873	106
473.092	96
473.311	119
473.53	134
473.749	139
473.968	126
474.187	123
474.406	114
474.625	125
474.844	130
475.063	135
475.282	129
475.501	119
475.72	114
475.939	124
476.158	120
476.377	117
476.596	124
476.814	124
477.033	115
477.252	104
477.471	132
477.69	130
477.908	132
478.127	144
478.346	132
478.564	134
478.783	126
479.002	136
479.22	137
479.439	150
479.658	134
479.876	126
480.095	115
480.313	117
480.532	117
480.751	115
480.969	105
481.188	85
481.406	88
481.624	91
481.843	102
482.061	95
482.28	108
482.498	130
482.717	99
482.935	118
483.153	158
483.372	153
483.59	145
483.808	136
484.027	137
484.245	127
484.463	144
484.681	150
484.9	152
485.118	134
485.336	140
485.554	103
485.772	109
485.99	100
486.209	125
486.427	101
486.645	114
486.863	151
487.081	142
487.299	146
487.517	140
487.735	164
487.953	187
488.171	175
488.389	156
488.607	152
488.825	154
489.043	150
489.261	144
489.479	157
489.696	145
489.914	140
490.132	149
490.35	154
490.568	166
490.786	168
491.003	176
491.221	182
491.439	198
491.657	214
491.874	195
492.092	216
492.31	242
492.527	224
492.745	212
492.963	206
493.18	195
493.398	174
493.615	175
493.833	199
494.05	173
494.268	170
494.485	167
494.703	187
494.92	178
495.138	182
495.355	179
495.573	174
495.79	155
496.008	164
496.225	182
496.442	168
496.66	174
496.877	162
497.094	163
497.312	171
497.529	170
497.746	153
497.963	155
498.181	142
498.398	136
498.615	127
498.832	114
499.049	111
499.267	124
499.484	128
499.701	132
499.918	147
500.135	148
500.352	157
500.569	141
500.786	147
501.003	152
501.22	149
501.437	147
501.654	140
501.871	130
502.088	130
502.305	130
502.522	143
502.739	126
502.956	111
503.172	127
503.389	132
503.606	123
503.823	123
504.04	125
504.256	126
504.473	122
504.69	115
504.907	131
505.123	140
505.34	133
505.557	128
505.773	125
505.99	124
506.207	107
506.423	133
506.64	124
506.856	118
507.073	122
507.289	122
507.506	132
507.722	135
507.939	120
508.155	126
508.372	111
508.588	116
508.805	130
509.021	134
509.238	106
509.454	100
509.67	107
509.887	102
510.103	94
510.319	95
510.536	103
510.752	77
510.968	78
511.184	75
511.401	94
511.617	94
511.833	91
512.049	107
512.265	96
512.481	101
512.698	102
512.914	108
513.13	92
513.346	104
513.562	100
513.778	106
513.994	96
514.21	104
514.426	102
514.642	99
514.858	107
515.074	83
515.29	99
515.506	91
515.721	91
515.937	92
516.153	110
516.369	88
516.585	96
516.801	87
517.016	94
517.232	92
517.448	98
517.664	104
517.879	105
518.095	106
518.311	101
518.527	92
518.742	97
518.958	99
519.173	105
519.389	116
519.605	118
519.82	104
520.036	106
520.251	116
520.467	118
520.682	103
520.898	115
521.113	100
521.329	99
521.544	90
521.76	92
521.975	101
522.19	89
522.406	102
522.621	109
522.836	104
523.052	107
523.267	107
523.482	110
523.698	119
523.913	113
524.128	123
524.343	120
524.559	122
524.774	112
524.989	115
525.204	131
525.419	117
525.634	97
525.849	116
526.064	122
526.28	99
526.495	88
526.71	92
526.925	86
527.14	90
527.355	98
527.57	91
527.785	84
527.999	101
528.214	104
528.429	115
528.644	121
528.859	131
529.074	144
529.289	141
529.503	148
529.718	142
529.933	124
530.148	116
530.363	94
530.577	78
530.792	93
531.007	86
531.221	94
531.436	81
531.651	83
531.865	70
532.08	97
532.295	86
532.509	96
532.724	96
532.938	92
533.153	91
533.367	118
533.582	124
533.796	128
534.011	111
534.225	104
534.44	91
534.654	103
534.868	90
535.083	109
535.297	97
535.511	100
535.726	95
535.94	109
536.154	91
536.369	92
536.583	96
536.797	94
537.011	80
537.225	91
537.44	90
537.654	99
537.868	95
538.082	106
538.296	103
538.51	105
538.724	125
538.938	127
539.153	139
539.367	138
539.581	107
539.795	95
540.009	109
540.222	99
540.436	96
540.65	109
540.864	126
541.078	127
541.292	149
541.506	160
541.72	181
541.934	197
542.147	198
542.361	191
542.575	165
542.789	156
543.002	139
543.216	130
543.43	125
543.644	124
543.857	150
544.071	150
544.285	140
544.498	164
544.712	170
544.925	164
545.139	167
545.352	162
545.566	174
545.779	154
545.993	156
546.206	190
546.42	185
546.633	169
546.847	166
547.06	157
547.274	155
547.487	175
547.7	187
547.914	172
548.127	170
548.34	158
548.554	151
548.767	158
548.98	156
549.193	152
549.407	167
549.62	155
549.833	164
550.046	153
550.259	157
550.473	149
550.686	155
550.899	158
551.112	147
551.325	149
551.538	135
551.751	132
551.964	114
552.177	147
552.39	124
552.603	144
552.816	132
553.029	158
553.242	148
553.455	166
553.667	145
553.88	169
554.093	158
554.306	161
554.519	152
554.732	144
554.944	156
555.157	143
555.37	162
555.583	151
555.795	149
556.008	147
556.221	136
556.433	130
556.646	143
556.859	120
557.071	144
557.284	130
557.496	156
557.709	159
557.921	138
558.134	144
558.346	150
558.559	123
558.771	143
558.984	150
559.196	135
559.409	127
559.621	124
559.833	126
560.046	122
560.258	130
560.47	127
560.683	138
560.895	128
561.107	136
561.32	142
561.532	140
561.744	130
561.956	143
562.168	133
562.381	124
562.593	126
562.805	123
563.017	134
563.229	118
563.441	114
563.653	138
563.865	124
564.077	131
564.289	134
564.501	132
564.713	125
564.925	123
565.137	125
565.349	122
565.561	131
565.773	126
565.985	123
566.197	117
566.408	115
566.62	125
566.832	128
567.044	125
567.255	119
567.467	114
567.679	105
567.891	118
568.102	101
568.314	105
568.526	88
568.737	82
568.949	96
569.161	92
569.372	85
569.584	94
569.795	85
570.007	83
570.218	94
570.43	100
570.641	101
570.853	104
571.064	100
571.276	100
571.487	108
571.698	100
571.91	95
572.121	105
572.333	92
572.544	87
572.755	108
572.966	100
573.178	100
573.389	90
573.6	65
573.811	103
574.023	84
574.234	97
574.445	93
574.656	100
574.867	90
575.078	89
575.289	106
575.501	88
575.712	98
575.923	84
