Data from Location2.07152019.Energy5.Lamp.07192019.3%Agarose_HRD10591_14-58-24-359.txt Node
Date: Fri Jul 19 14:58:24 EDT 2019
User: cochatt
Spectrometer: HR+D1059
Trigger mode: 1
Integration Time (sec): 1.000000E-1
Scans to average: 1
Electric dark correction enabled: true
Nonlinearity correction enabled: false
Boxcar width: 0
XAxis mode: Wavelengths
Number of Pixels in Spectrum: 2048
>>>>>Begin Spectral Data<<<<<
223.165	-26.56
223.4	-26.56
223.635	-26.56
223.869	-6.56
224.104	-16.56
224.338	-16.56
224.573	-1.56
224.808	1.44
225.042	-17.56
225.277	-3.56
225.511	-12.56
225.746	1.44
225.98	8.44
226.215	4.44
226.449	9.44
226.683	26.44
226.918	28.44
227.152	21.44
227.387	30.44
227.621	31.44
227.856	52.44
228.09	44.44
228.324	43.44
228.559	37.44
228.793	62.44
229.027	63.44
229.262	67.44
229.496	63.44
229.73	74.44
229.964	68.44
230.199	65.44
230.433	76.44
230.667	70.44
230.901	59.44
231.136	86.44
231.37	85.44
231.604	83.44
231.838	89.44
232.072	78.44
232.306	92.44
232.541	76.44
232.775	77.44
233.009	83.44
233.243	85.44
233.477	89.44
233.711	61.44
233.945	74.44
234.179	69.44
234.413	84.44
234.647	93.44
234.881	75.44
235.115	81.44
235.349	74.44
235.583	74.44
235.817	76.44
236.051	87.44
236.285	83.44
236.519	80.44
236.753	76.44
236.987	79.44
237.221	80.44
237.455	75.44
237.689	81.44
237.922	60.44
238.156	64.44
238.39	71.44
238.624	82.44
238.858	77.44
239.091	72.44
239.325	79.44
239.559	84.44
239.793	80.44
240.027	72.44
240.26	76.44
240.494	71.44
240.728	83.44
240.961	82.44
241.195	75.44
241.429	58.44
241.662	77.44
241.896	85.44
242.13	81.44
242.363	73.44
242.597	80.44
242.83	80.44
243.064	74.44
243.298	77.44
243.531	73.44
243.765	83.44
243.998	76.44
244.232	77.44
244.465	63.44
244.699	63.44
244.932	76.44
245.166	80.44
245.399	72.44
245.633	84.44
245.866	71.44
246.099	67.44
246.333	80.44
246.566	83.44
246.8	82.44
247.033	92.44
247.266	71.44
247.5	81.44
247.733	84.44
247.966	87.44
248.2	77.44
248.433	80.44
248.666	76.44
248.899	91.44
249.133	82.44
249.366	70.44
249.599	74.44
249.832	83.44
250.066	71.44
250.299	83.44
250.532	95.44
250.765	79.44
250.998	68.44
251.231	83.44
251.465	80.44
251.698	71.44
251.931	80.44
252.164	71.44
252.397	81.44
252.63	75.44
252.863	69.44
253.096	78.44
253.329	83.44
253.562	84.44
253.795	76.44
254.028	81.44
254.261	79.44
254.494	88.44
254.727	82.44
254.96	73.44
255.193	80.44
255.426	76.44
255.659	78.44
255.892	81.44
256.124	70.44
256.357	65.44
256.59	82.44
256.823	68.44
257.056	89.44
257.289	77.44
257.521	81.44
257.754	84.44
257.987	83.44
258.22	79.44
258.452	95.44
258.685	72.44
258.918	78.44
259.151	80.44
259.383	89.44
259.616	79.44
259.849	79.44
260.081	81.44
260.314	80.44
260.547	85.44
260.779	83.44
261.012	73.44
261.244	81.44
261.477	83.44
261.71	80.44
261.942	96.44
262.175	87.44
262.407	89.44
262.64	92.44
262.872	73.44
263.105	81.44
263.337	80.44
263.57	91.44
263.802	79.44
264.035	67.44
264.267	84.44
264.499	76.44
264.732	80.44
264.964	65.44
265.197	73.44
265.429	86.44
265.661	86.44
265.894	95.44
266.126	92.44
266.358	83.44
266.591	67.44
266.823	81.44
267.055	83.44
267.287	83.44
267.52	63.44
267.752	90.44
267.984	86.44
268.216	73.44
268.448	82.44
268.681	96.44
268.913	76.44
269.145	83.44
269.377	81.44
269.609	75.44
269.841	75.44
270.073	73.44
270.306	69.44
270.538	83.44
270.77	81.44
271.002	89.44
271.234	82.44
271.466	82.44
271.698	82.44
271.93	80.44
272.162	74.44
272.394	79.44
272.626	75.44
272.858	78.44
273.09	87.44
273.322	80.44
273.553	88.44
273.785	73.44
274.017	81.44
274.249	89.44
274.481	82.44
274.713	71.44
274.945	89.44
275.176	96.44
275.408	85.44
275.64	90.44
275.872	69.44
276.104	79.44
276.335	86.44
276.567	67.44
276.799	78.44
277.031	87.44
277.262	82.44
277.494	97.44
277.726	81.44
277.957	86.44
278.189	85.44
278.421	83.44
278.652	97.44
278.884	89.44
279.115	84.44
279.347	80.44
279.579	75.44
279.81	81.44
280.042	77.44
280.273	91.44
280.505	74.44
280.736	80.44
280.968	85.44
281.199	77.44
281.431	78.44
281.662	67.44
281.894	87.44
282.125	89.44
282.356	86.44
282.588	76.44
282.819	83.44
283.051	81.44
283.282	79.44
283.513	88.44
283.745	86.44
283.976	94.44
284.207	87.44
284.439	98.44
284.67	84.44
284.901	87.44
285.132	91.44
285.364	81.44
285.595	84.44
285.826	93.44
286.057	71.44
286.288	90.44
286.52	81.44
286.751	81.44
286.982	91.44
287.213	81.44
287.444	84.44
287.675	69.44
287.906	92.44
288.138	89.44
288.369	92.44
288.6	73.44
288.831	69.44
289.062	85.44
289.293	74.44
289.524	87.44
289.755	96.44
289.986	87.44
290.217	91.44
290.448	80.44
290.679	77.44
290.91	96.44
291.141	88.44
291.371	88.44
291.602	85.44
291.833	68.44
292.064	87.44
292.295	97.44
292.526	82.44
292.757	80.44
292.987	80.44
293.218	51.44
293.449	80.44
293.68	82.44
293.91	90.44
294.141	82.44
294.372	85.44
294.603	102.44
294.833	87.44
295.064	89.44
295.295	89.44
295.525	80.44
295.756	85.44
295.987	87.44
296.217	87.44
296.448	90.44
296.679	75.44
296.909	70.44
297.14	84.44
297.37	84.44
297.601	83.44
297.831	84.44
298.062	94.44
298.292	96.44
298.523	94.44
298.753	88.44
298.984	74.44
299.214	85.44
299.445	71.44
299.675	94.44
299.905	103.44
300.136	101.44
300.366	85.44
300.597	95.44
300.827	81.44
301.057	89.44
301.288	100.44
301.518	73.44
301.748	89.44
301.979	88.44
302.209	73.44
302.439	91.44
302.669	77.44
302.9	94.44
303.13	89.44
303.36	79.44
303.59	88.44
303.82	80.44
304.051	86.44
304.281	76.44
304.511	93.44
304.741	101.44
304.971	86.44
305.201	79.44
305.431	86.44
305.661	79.44
305.891	84.44
306.121	76.44
306.352	93.44
306.582	92.44
306.812	97.44
307.042	94.44
307.272	90.44
307.502	77.44
307.731	82.44
307.961	80.44
308.191	88.44
308.421	73.44
308.651	76.44
308.881	85.44
309.111	92.44
309.341	86.44
309.571	91.44
309.8	80.44
310.03	84.44
310.26	90.44
310.49	86.44
310.72	91.44
310.949	75.44
311.179	67.44
311.409	97.44
311.639	82.44
311.868	92.44
312.098	97.44
312.328	83.44
312.557	96.44
312.787	90.44
313.017	97.44
313.246	86.44
313.476	92.44
313.706	98.44
313.935	86.44
314.165	76.44
314.394	89.44
314.624	85.44
314.853	91.44
315.083	79.44
315.312	91.44
315.542	78.44
315.771	83.44
316.001	96.44
316.23	72.44
316.46	85.44
316.689	97.44
316.919	93.44
317.148	92.44
317.377	86.44
317.607	79.44
317.836	68.44
318.065	84.44
318.295	87.44
318.524	83.44
318.753	88.44
318.983	84.44
319.212	84.44
319.441	84.44
319.67	67.44
319.9	66.44
320.129	90.44
320.358	81.44
320.587	78.44
320.816	84.44
321.046	89.44
321.275	80.44
321.504	77.44
321.733	83.44
321.962	84.44
322.191	88.44
322.42	70.44
322.649	83.44
322.878	85.44
323.108	91.44
323.337	99.44
323.566	95.44
323.795	106.44
324.024	89.44
324.253	110.44
324.482	81.44
324.71	96.44
324.939	85.44
325.168	83.44
325.397	95.44
325.626	94.44
325.855	90.44
326.084	87.44
326.313	73.44
326.542	75.44
326.77	96.44
326.999	83.44
327.228	88.44
327.457	100.44
327.686	75.44
327.914	90.44
328.143	88.44
328.372	65.44
328.6	91.44
328.829	99.44
329.058	85.44
329.287	86.44
329.515	78.44
329.744	93.44
329.972	94.44
330.201	88.44
330.43	100.44
330.658	72.44
330.887	92.44
331.115	88.44
331.344	81.44
331.572	78.44
331.801	90.44
332.03	87.44
332.258	86.44
332.486	85.44
332.715	73.44
332.943	84.44
333.172	82.44
333.4	91.44
333.629	80.44
333.857	81.44
334.085	99.44
334.314	90.44
334.542	87.44
334.771	77.44
334.999	73.44
335.227	104.44
335.455	91.44
335.684	77.44
335.912	88.44
336.14	73.44
336.369	89.44
336.597	83.44
336.825	91.44
337.053	73.44
337.281	90.44
337.51	77.44
337.738	93.44
337.966	73.44
338.194	79.44
338.422	95.44
338.65	81.44
338.878	80.44
339.106	83.44
339.334	84.44
339.562	85.44
339.79	83.44
340.018	88.44
340.246	81.44
340.474	86.44
340.702	92.44
340.93	77.44
341.158	87.44
341.386	86.44
341.614	84.44
341.842	84.44
342.07	77.44
342.298	93.44
342.526	87.44
342.754	74.44
342.981	83.44
343.209	82.44
343.437	78.44
343.665	73.44
343.893	72.44
344.12	83.44
344.348	82.44
344.576	90.44
344.804	82.44
345.031	80.44
345.259	89.44
345.487	89.44
345.714	93.44
345.942	81.44
346.17	81.44
346.397	89.44
346.625	75.44
346.853	99.44
347.08	85.44
347.308	86.44
347.535	77.44
347.763	74.44
347.99	87.44
348.218	77.44
348.445	90.44
348.673	83.44
348.9	94.44
349.128	86.44
349.355	74.44
349.583	97.44
349.81	91.44
350.037	94.44
350.265	80.44
350.492	83.44
350.72	84.44
350.947	81.44
351.174	84.44
351.402	78.44
351.629	89.44
351.856	69.44
352.083	81.44
352.311	85.44
352.538	85.44
352.765	87.44
352.992	67.44
353.22	86.44
353.447	77.44
353.674	82.44
353.901	88.44
354.128	91.44
354.355	67.44
354.583	81.44
354.81	83.44
355.037	77.44
355.264	87.44
355.491	73.44
355.718	96.44
355.945	80.44
356.172	95.44
356.399	93.44
356.626	72.44
356.853	71.44
357.08	80.44
357.307	82.44
357.534	84.44
357.761	91.44
357.988	87.44
358.215	96.44
358.441	83.44
358.668	78.44
358.895	79.44
359.122	89.44
359.349	85.44
359.576	81.44
359.802	89.44
360.029	91.44
360.256	105.44
360.483	84.44
360.709	75.44
360.936	83.44
361.163	80.44
361.39	81.44
361.616	89.44
361.843	98.44
362.07	90.44
362.296	92.44
362.523	98.44
362.749	83.44
362.976	68.44
363.203	85.44
363.429	81.44
363.656	96.44
363.882	92.44
364.109	91.44
364.335	81.44
364.562	80.44
364.788	86.44
365.015	89.44
365.241	72.44
365.468	92.44
365.694	89.44
365.92	87.44
366.147	80.44
366.373	76.44
366.599	89.44
366.826	94.44
367.052	71.44
367.278	72.44
367.505	92.44
367.731	90.44
367.957	83.44
368.184	90.44
368.41	84.44
368.636	85.44
368.862	88.44
369.089	74.44
369.315	85.44
369.541	97.44
369.767	90.44
369.993	74.44
370.219	89.44
370.445	91.44
370.672	107.44
370.898	95.44
371.124	90.44
371.35	85.44
371.576	97.44
371.802	86.44
372.028	98.44
372.254	94.44
372.48	88.44
372.706	94.44
372.932	93.44
373.158	98.44
373.384	96.44
373.61	91.44
373.835	102.44
374.061	87.44
374.287	85.44
374.513	99.44
374.739	85.44
374.965	89.44
375.191	90.44
375.416	98.44
375.642	103.44
375.868	93.44
376.094	92.44
376.319	91.44
376.545	95.44
376.771	97.44
376.997	96.44
377.222	111.44
377.448	97.44
377.674	99.44
377.899	75.44
378.125	92.44
378.35	100.44
378.576	90.44
378.802	76.44
379.027	96.44
379.253	94.44
379.478	97.44
379.704	88.44
379.929	100.44
380.155	88.44
380.38	86.44
380.606	109.44
380.831	78.44
381.057	90.44
381.282	93.44
381.507	99.44
381.733	90.44
381.958	81.44
382.184	76.44
382.409	88.44
382.634	110.44
382.86	95.44
383.085	97.44
383.31	81.44
383.535	102.44
383.761	93.44
383.986	107.44
384.211	104.44
384.436	91.44
384.662	98.44
384.887	95.44
385.112	80.44
385.337	78.44
385.562	104.44
385.787	88.44
386.013	115.44
386.238	100.44
386.463	96.44
386.688	116.44
386.913	104.44
387.138	93.44
387.363	83.44
387.588	103.44
387.813	90.44
388.038	95.44
388.263	103.44
388.488	107.44
388.713	94.44
388.938	95.44
389.163	95.44
389.387	93.44
389.612	99.44
389.837	125.44
390.062	101.44
390.287	103.44
390.512	106.44
390.736	101.44
390.961	104.44
391.186	107.44
391.411	96.44
391.636	101.44
391.86	99.44
392.085	107.44
392.31	114.44
392.534	84.44
392.759	105.44
392.984	97.44
393.208	103.44
393.433	99.44
393.658	103.44
393.882	109.44
394.107	106.44
394.331	107.44
394.556	115.44
394.78	101.44
395.005	93.44
395.229	103.44
395.454	106.44
395.678	108.44
395.903	115.44
396.127	111.44
396.352	93.44
396.576	102.44
396.801	104.44
397.025	111.44
397.249	113.44
397.474	115.44
397.698	93.44
397.922	106.44
398.147	102.44
398.371	105.44
398.595	101.44
398.82	114.44
399.044	107.44
399.268	100.44
399.492	98.44
399.717	109.44
399.941	112.44
400.165	95.44
400.389	107.44
400.613	109.44
400.837	116.44
401.062	103.44
401.286	103.44
401.51	114.44
401.734	127.44
401.958	117.44
402.182	108.44
402.406	114.44
402.63	111.44
402.854	122.44
403.078	105.44
403.302	111.44
403.526	120.44
403.75	115.44
403.974	111.44
404.198	135.44
404.422	119.44
404.645	114.44
404.869	113.44
405.093	121.44
405.317	126.44
405.541	117.44
405.765	116.44
405.988	119.44
406.212	132.44
406.436	115.44
406.66	121.44
406.883	100.44
407.107	123.44
407.331	117.44
407.555	117.44
407.778	128.44
408.002	122.44
408.226	118.44
408.449	129.44
408.673	124.44
408.896	107.44
409.12	125.44
409.344	120.44
409.567	123.44
409.791	115.44
410.014	128.44
410.238	117.44
410.461	128.44
410.685	117.44
410.908	117.44
411.132	130.44
411.355	125.44
411.578	125.44
411.802	121.44
412.025	123.44
412.249	117.44
412.472	120.44
412.695	114.44
412.919	125.44
413.142	123.44
413.365	124.44
413.589	129.44
413.812	124.44
414.035	119.44
414.258	130.44
414.482	108.44
414.705	124.44
414.928	116.44
415.151	113.44
415.374	110.44
415.597	95.44
415.821	134.44
416.044	127.44
416.267	135.44
416.49	125.44
416.713	123.44
416.936	120.44
417.159	129.44
417.382	124.44
417.605	128.44
417.828	123.44
418.051	138.44
418.274	136.44
418.497	128.44
418.72	149.44
418.943	136.44
419.166	129.44
419.389	153.44
419.611	130.44
419.834	129.44
420.057	132.44
420.28	133.44
420.503	119.44
420.726	134.44
420.948	131.44
421.171	146.44
421.394	139.44
421.617	148.44
421.839	136.44
422.062	129.44
422.285	116.44
422.507	120.44
422.73	114.44
422.953	118.44
423.175	120.44
423.398	124.44
423.621	144.44
423.843	132.44
424.066	136.44
424.288	132.44
424.511	147.44
424.733	145.44
424.956	143.44
425.178	130.44
425.401	123.44
425.623	124.44
425.846	143.44
426.068	126.44
426.291	116.44
426.513	121.44
426.735	116.44
426.958	141.44
427.18	108.44
427.402	128.44
427.625	143.44
427.847	131.44
428.069	125.44
428.292	130.44
428.514	143.44
428.736	117.44
428.958	126.44
429.181	125.44
429.403	125.44
429.625	123.44
429.847	115.44
430.069	121.44
430.292	120.44
430.514	127.44
430.736	135.44
430.958	123.44
431.18	121.44
431.402	128.44
431.624	98.44
431.846	98.44
432.068	100.44
432.29	102.44
432.512	112.44
432.734	100.44
432.956	132.44
433.178	137.44
433.4	139.44
433.622	131.44
433.844	124.44
434.066	124.44
434.287	116.44
434.509	92.44
434.731	111.44
434.953	111.44
435.175	123.44
435.397	119.44
435.618	124.44
435.84	112.44
436.062	131.44
436.284	114.44
436.505	135.44
436.727	139.44
436.949	119.44
437.17	141.44
437.392	124.44
437.614	135.44
437.835	106.44
438.057	99.44
438.278	116.44
438.5	120.44
438.721	130.44
438.943	133.44
439.165	138.44
439.386	132.44
439.608	124.44
439.829	153.44
440.05	138.44
440.272	129.44
440.493	139.44
440.715	145.44
440.936	131.44
441.158	141.44
441.379	136.44
441.6	157.44
441.822	163.44
442.043	135.44
442.264	147.44
442.486	139.44
442.707	126.44
442.928	145.44
443.149	141.44
443.371	139.44
443.592	136.44
443.813	132.44
444.034	132.44
444.255	128.44
444.476	145.44
444.698	135.44
444.919	141.44
445.14	281.44
445.361	201.44
445.582	132.44
445.803	139.44
446.024	127.44
446.245	164.44
446.466	151.44
446.687	123.44
446.908	166.44
447.129	123.44
447.35	145.44
447.571	145.44
447.792	142.44
448.013	158.44
448.234	137.44
448.455	129.44
448.675	137.44
448.896	138.44
449.117	141.44
449.338	131.44
449.559	124.44
449.779	143.44
450	118.44
450.221	133.44
450.442	128.44
450.662	138.44
450.883	125.44
451.104	125.44
451.324	127.44
451.545	125.44
451.766	121.44
451.986	141.44
452.207	128.44
452.428	122.44
452.648	125.44
452.869	119.44
453.089	116.44
453.31	110.44
453.53	114.44
453.751	108.44
453.971	86.44
454.192	114.44
454.412	111.44
454.633	115.44
454.853	118.44
455.073	113.44
455.294	118.44
455.514	123.44
455.734	121.44
455.955	104.44
456.175	101.44
456.395	112.44
456.616	129.44
456.836	118.44
457.056	107.44
457.276	101.44
457.497	112.44
457.717	123.44
457.937	111.44
458.157	113.44
458.377	105.44
458.598	95.44
458.818	94.44
459.038	85.44
459.258	84.44
459.478	94.44
459.698	92.44
459.918	102.44
460.138	105.44
460.358	115.44
460.578	99.44
460.798	101.44
461.018	108.44
461.238	125.44
461.458	122.44
461.678	108.44
461.898	112.44
462.118	112.44
462.338	98.44
462.558	111.44
462.777	113.44
462.997	103.44
463.217	97.44
463.437	111.44
463.657	87.44
463.876	100.44
464.096	124.44
464.316	102.44
464.536	91.44
464.755	112.44
464.975	112.44
465.195	100.44
465.414	119.44
465.634	108.44
465.854	118.44
466.073	136.44
466.293	125.44
466.512	135.44
466.732	127.44
466.951	123.44
467.171	124.44
467.391	129.44
467.61	124.44
467.829	123.44
468.049	126.44
468.268	143.44
468.488	121.44
468.707	152.44
468.927	120.44
469.146	119.44
469.365	130.44
469.585	131.44
469.804	126.44
470.023	144.44
470.243	149.44
470.462	139.44
470.681	143.44
470.901	147.44
471.12	123.44
471.339	138.44
471.558	142.44
471.777	132.44
471.997	138.44
472.216	133.44
472.435	113.44
472.654	115.44
472.873	104.44
473.092	116.44
473.311	121.44
473.53	129.44
473.749	124.44
473.968	129.44
474.187	121.44
474.406	111.44
474.625	127.44
474.844	137.44
475.063	127.44
475.282	138.44
475.501	111.44
475.72	120.44
475.939	122.44
476.158	119.44
476.377	119.44
476.596	116.44
476.814	113.44
477.033	113.44
477.252	100.44
477.471	125.44
477.69	136.44
477.908	128.44
478.127	145.44
478.346	146.44
478.564	133.44
478.783	141.44
479.002	148.44
479.22	146.44
479.439	130.44
479.658	124.44
479.876	118.44
480.095	108.44
480.313	117.44
480.532	123.44
480.751	117.44
480.969	107.44
481.188	92.44
481.406	82.44
481.624	77.44
481.843	87.44
482.061	87.44
482.28	121.44
482.498	116.44
482.717	117.44
482.935	112.44
483.153	120.44
483.372	146.44
483.59	163.44
483.808	129.44
484.027	136.44
484.245	135.44
484.463	144.44
484.681	145.44
484.9	152.44
485.118	153.44
485.336	124.44
485.554	104.44
485.772	87.44
485.99	109.44
486.209	104.44
486.427	111.44
486.645	119.44
486.863	133.44
487.081	141.44
487.299	139.44
487.517	140.44
487.735	147.44
487.953	194.44
488.171	163.44
488.389	162.44
488.607	155.44
488.825	139.44
489.043	118.44
489.261	143.44
489.479	134.44
489.696	139.44
489.914	171.44
490.132	147.44
490.35	161.44
490.568	149.44
490.786	171.44
491.003	165.44
491.221	182.44
491.439	204.44
491.657	190.44
491.874	195.44
492.092	216.44
492.31	236.44
492.527	197.44
492.745	208.44
492.963	196.44
493.18	195.44
493.398	179.44
493.615	167.44
493.833	157.44
494.05	172.44
494.268	179.44
494.485	171.44
494.703	174.44
494.92	181.44
495.138	163.44
495.355	159.44
495.573	160.44
495.79	146.44
496.008	168.44
496.225	168.44
496.442	161.44
496.66	180.44
496.877	165.44
497.094	163.44
497.312	156.44
497.529	163.44
497.746	145.44
497.963	143.44
498.181	141.44
498.398	127.44
498.615	115.44
498.832	120.44
499.049	127.44
499.267	105.44
499.484	125.44
499.701	135.44
499.918	131.44
500.135	143.44
500.352	141.44
500.569	136.44
500.786	159.44
501.003	136.44
501.22	147.44
501.437	139.44
501.654	130.44
501.871	140.44
502.088	131.44
502.305	133.44
502.522	124.44
502.739	130.44
502.956	128.44
503.172	124.44
503.389	125.44
503.606	131.44
503.823	130.44
504.04	122.44
504.256	131.44
504.473	118.44
504.69	114.44
504.907	124.44
505.123	120.44
505.34	122.44
505.557	123.44
505.773	131.44
505.99	114.44
506.207	114.44
506.423	128.44
506.64	117.44
506.856	118.44
507.073	121.44
507.289	127.44
507.506	117.44
507.722	118.44
507.939	125.44
508.155	124.44
508.372	113.44
508.588	114.44
508.805	104.44
509.021	113.44
509.238	104.44
509.454	102.44
509.67	95.44
509.887	114.44
510.103	99.44
510.319	92.44
510.536	85.44
510.752	91.44
510.968	103.44
511.184	82.44
511.401	99.44
511.617	94.44
511.833	82.44
