Data from Location2.07152019.Energy5.Lamp.07192019.3%Agarose_HRD10591_14-56-54-359.txt Node
Date: Fri Jul 19 14:56:54 EDT 2019
User: cochatt
Spectrometer: HR+D1059
Trigger mode: 1
Integration Time (sec): 1.000000E-1
Scans to average: 1
Electric dark correction enabled: true
Nonlinearity correction enabled: false
Boxcar width: 0
XAxis mode: Wavelengths
Number of Pixels in Spectrum: 2048
>>>>>Begin Spectral Data<<<<<
223.165	-8.38
223.4	-8.38
223.635	-8.38
223.869	-4.38
224.104	-2.38
224.338	-24.38
224.573	-20.38
224.808	0.62
225.042	-6.38
225.277	-15.38
225.511	-8.38
225.746	8.62
225.98	8.62
226.215	16.62
226.449	0.62
226.683	24.62
226.918	15.62
227.152	14.62
227.387	48.62
227.621	40.62
227.856	50.62
228.09	44.62
228.324	54.62
228.559	71.62
228.793	60.62
229.027	59.62
229.262	75.62
229.496	81.62
229.73	62.62
229.964	66.62
230.199	76.62
230.433	83.62
230.667	89.62
230.901	76.62
231.136	73.62
231.37	73.62
231.604	90.62
231.838	75.62
232.072	88.62
232.306	90.62
232.541	77.62
232.775	75.62
233.009	89.62
233.243	86.62
233.477	88.62
233.711	80.62
233.945	89.62
234.179	80.62
234.413	90.62
234.647	86.62
234.881	81.62
235.115	97.62
235.349	89.62
235.583	77.62
235.817	82.62
236.051	74.62
236.285	70.62
236.519	70.62
236.753	80.62
236.987	84.62
237.221	73.62
237.455	78.62
237.689	84.62
237.922	68.62
238.156	84.62
238.39	82.62
238.624	79.62
238.858	75.62
239.091	78.62
239.325	81.62
239.559	88.62
239.793	73.62
240.027	78.62
240.26	75.62
240.494	71.62
240.728	72.62
240.961	91.62
241.195	85.62
241.429	69.62
241.662	74.62
241.896	84.62
242.13	79.62
242.363	81.62
242.597	89.62
242.83	83.62
243.064	75.62
243.298	77.62
243.531	86.62
243.765	93.62
243.998	73.62
244.232	68.62
244.465	77.62
244.699	76.62
244.932	84.62
245.166	82.62
245.399	81.62
245.633	76.62
245.866	77.62
246.099	70.62
246.333	82.62
246.566	86.62
246.8	88.62
247.033	83.62
247.266	71.62
247.5	86.62
247.733	78.62
247.966	78.62
248.2	92.62
248.433	79.62
248.666	86.62
248.899	81.62
249.133	77.62
249.366	87.62
249.599	86.62
249.832	72.62
250.066	73.62
250.299	83.62
250.532	73.62
250.765	83.62
250.998	104.62
251.231	93.62
251.465	78.62
251.698	81.62
251.931	88.62
252.164	98.62
252.397	90.62
252.63	82.62
252.863	84.62
253.096	76.62
253.329	76.62
253.562	80.62
253.795	80.62
254.028	91.62
254.261	84.62
254.494	80.62
254.727	80.62
254.96	83.62
255.193	79.62
255.426	71.62
255.659	80.62
255.892	73.62
256.124	78.62
256.357	85.62
256.59	83.62
256.823	77.62
257.056	83.62
257.289	75.62
257.521	78.62
257.754	80.62
257.987	87.62
258.22	88.62
258.452	80.62
258.685	86.62
258.918	76.62
259.151	95.62
259.383	87.62
259.616	88.62
259.849	68.62
260.081	84.62
260.314	77.62
260.547	80.62
260.779	78.62
261.012	78.62
261.244	69.62
261.477	79.62
261.71	82.62
261.942	80.62
262.175	84.62
262.407	88.62
262.64	76.62
262.872	99.62
263.105	83.62
263.337	82.62
263.57	73.62
263.802	77.62
264.035	89.62
264.267	82.62
264.499	68.62
264.732	91.62
264.964	97.62
265.197	98.62
265.429	90.62
265.661	97.62
265.894	78.62
266.126	82.62
266.358	78.62
266.591	93.62
266.823	80.62
267.055	78.62
267.287	72.62
267.52	83.62
267.752	88.62
267.984	88.62
268.216	85.62
268.448	82.62
268.681	85.62
268.913	88.62
269.145	90.62
269.377	99.62
269.609	90.62
269.841	86.62
270.073	88.62
270.306	67.62
270.538	92.62
270.77	78.62
271.002	92.62
271.234	90.62
271.466	78.62
271.698	76.62
271.93	96.62
272.162	90.62
272.394	81.62
272.626	84.62
272.858	96.62
273.09	100.62
273.322	83.62
273.553	84.62
273.785	78.62
274.017	92.62
274.249	86.62
274.481	82.62
274.713	68.62
274.945	84.62
275.176	72.62
275.408	65.62
275.64	92.62
275.872	78.62
276.104	81.62
276.335	82.62
276.567	79.62
276.799	80.62
277.031	88.62
277.262	89.62
277.494	90.62
277.726	82.62
277.957	83.62
278.189	68.62
278.421	80.62
278.652	82.62
278.884	78.62
279.115	80.62
279.347	76.62
279.579	89.62
279.81	83.62
280.042	77.62
280.273	65.62
280.505	95.62
280.736	80.62
280.968	93.62
281.199	89.62
281.431	89.62
281.662	75.62
281.894	85.62
282.125	86.62
282.356	84.62
282.588	91.62
282.819	106.62
283.051	73.62
283.282	81.62
283.513	71.62
283.745	81.62
283.976	93.62
284.207	83.62
284.439	75.62
284.67	78.62
284.901	71.62
285.132	76.62
285.364	82.62
285.595	82.62
285.826	83.62
286.057	76.62
286.288	78.62
286.52	82.62
286.751	79.62
286.982	81.62
287.213	71.62
287.444	85.62
287.675	73.62
287.906	84.62
288.138	81.62
288.369	90.62
288.6	96.62
288.831	80.62
289.062	84.62
289.293	92.62
289.524	71.62
289.755	78.62
289.986	78.62
290.217	94.62
290.448	81.62
290.679	95.62
290.91	90.62
291.141	89.62
291.371	75.62
291.602	84.62
291.833	98.62
292.064	94.62
292.295	86.62
292.526	82.62
292.757	88.62
292.987	103.62
293.218	92.62
293.449	86.62
293.68	93.62
293.91	80.62
294.141	97.62
294.372	87.62
294.603	93.62
294.833	78.62
295.064	87.62
295.295	81.62
295.525	90.62
295.756	94.62
295.987	99.62
296.217	86.62
296.448	85.62
296.679	77.62
296.909	85.62
297.14	80.62
297.37	86.62
297.601	81.62
297.831	94.62
298.062	89.62
298.292	79.62
298.523	82.62
298.753	84.62
298.984	99.62
299.214	91.62
299.445	91.62
299.675	73.62
299.905	77.62
300.136	97.62
300.366	76.62
300.597	76.62
300.827	74.62
301.057	72.62
301.288	78.62
301.518	94.62
301.748	85.62
301.979	78.62
302.209	86.62
302.439	85.62
302.669	75.62
302.9	84.62
303.13	80.62
303.36	81.62
303.59	89.62
303.82	77.62
304.051	86.62
304.281	81.62
304.511	78.62
304.741	87.62
304.971	74.62
305.201	81.62
305.431	85.62
305.661	92.62
305.891	87.62
306.121	103.62
306.352	93.62
306.582	89.62
306.812	92.62
307.042	82.62
307.272	76.62
307.502	85.62
307.731	83.62
307.961	86.62
308.191	83.62
308.421	69.62
308.651	79.62
308.881	86.62
309.111	90.62
309.341	93.62
309.571	83.62
309.8	88.62
310.03	90.62
310.26	70.62
310.49	90.62
310.72	89.62
310.949	77.62
311.179	73.62
311.409	90.62
311.639	84.62
311.868	84.62
312.098	82.62
312.328	81.62
312.557	88.62
312.787	85.62
313.017	87.62
313.246	67.62
313.476	91.62
313.706	85.62
313.935	101.62
314.165	90.62
314.394	96.62
314.624	86.62
314.853	100.62
315.083	84.62
315.312	85.62
315.542	98.62
315.771	89.62
316.001	75.62
316.23	88.62
316.46	74.62
316.689	73.62
316.919	79.62
317.148	97.62
317.377	94.62
317.607	92.62
317.836	92.62
318.065	88.62
318.295	73.62
318.524	80.62
318.753	93.62
318.983	85.62
319.212	97.62
319.441	80.62
319.67	86.62
319.9	105.62
320.129	80.62
320.358	81.62
320.587	93.62
320.816	83.62
321.046	82.62
321.275	100.62
321.504	79.62
321.733	84.62
321.962	100.62
322.191	102.62
322.42	95.62
322.649	82.62
322.878	82.62
323.108	86.62
323.337	91.62
323.566	73.62
323.795	72.62
324.024	86.62
324.253	78.62
324.482	69.62
324.71	85.62
324.939	82.62
325.168	67.62
325.397	69.62
325.626	83.62
325.855	81.62
326.084	83.62
326.313	92.62
326.542	101.62
326.77	87.62
326.999	83.62
327.228	93.62
327.457	89.62
327.686	90.62
327.914	91.62
328.143	98.62
328.372	71.62
328.6	96.62
328.829	90.62
329.058	87.62
329.287	87.62
329.515	85.62
329.744	77.62
329.972	76.62
330.201	83.62
330.43	91.62
330.658	93.62
330.887	77.62
331.115	85.62
331.344	96.62
331.572	93.62
331.801	88.62
332.03	78.62
332.258	91.62
332.486	86.62
332.715	93.62
332.943	67.62
333.172	86.62
333.4	97.62
333.629	86.62
333.857	97.62
334.085	89.62
334.314	94.62
334.542	92.62
334.771	96.62
334.999	90.62
335.227	81.62
335.455	93.62
335.684	88.62
335.912	83.62
336.14	87.62
336.369	86.62
336.597	93.62
336.825	92.62
337.053	86.62
337.281	91.62
337.51	88.62
337.738	88.62
337.966	88.62
338.194	91.62
338.422	84.62
338.65	83.62
338.878	87.62
339.106	83.62
339.334	81.62
339.562	97.62
339.79	84.62
340.018	78.62
340.246	75.62
340.474	74.62
340.702	87.62
340.93	80.62
341.158	98.62
341.386	86.62
341.614	84.62
341.842	85.62
342.07	82.62
342.298	104.62
342.526	92.62
342.754	84.62
342.981	70.62
343.209	81.62
343.437	95.62
343.665	92.62
343.893	75.62
344.12	81.62
344.348	92.62
344.576	79.62
344.804	88.62
345.031	97.62
345.259	88.62
345.487	76.62
345.714	79.62
345.942	77.62
346.17	85.62
346.397	90.62
346.625	77.62
346.853	88.62
347.08	69.62
347.308	91.62
347.535	83.62
347.763	78.62
347.99	73.62
348.218	96.62
348.445	77.62
348.673	89.62
348.9	76.62
349.128	77.62
349.355	83.62
349.583	81.62
349.81	94.62
350.037	86.62
350.265	88.62
350.492	68.62
350.72	74.62
350.947	94.62
351.174	93.62
351.402	90.62
351.629	84.62
351.856	80.62
352.083	77.62
352.311	85.62
352.538	87.62
352.765	85.62
352.992	88.62
353.22	100.62
353.447	90.62
353.674	77.62
353.901	87.62
354.128	79.62
354.355	85.62
354.583	78.62
354.81	87.62
355.037	86.62
355.264	79.62
355.491	77.62
355.718	88.62
355.945	74.62
356.172	86.62
356.399	87.62
356.626	74.62
356.853	72.62
357.08	75.62
357.307	92.62
357.534	102.62
357.761	81.62
357.988	80.62
358.215	100.62
358.441	88.62
358.668	85.62
358.895	85.62
359.122	82.62
359.349	84.62
359.576	86.62
359.802	78.62
360.029	94.62
360.256	73.62
360.483	93.62
360.709	78.62
360.936	93.62
361.163	88.62
361.39	82.62
361.616	86.62
361.843	88.62
362.07	98.62
362.296	86.62
362.523	88.62
362.749	74.62
362.976	84.62
363.203	97.62
363.429	87.62
363.656	71.62
363.882	74.62
364.109	76.62
364.335	91.62
364.562	89.62
364.788	91.62
365.015	85.62
365.241	81.62
365.468	78.62
365.694	82.62
365.92	85.62
366.147	88.62
366.373	100.62
366.599	81.62
366.826	94.62
367.052	75.62
367.278	94.62
367.505	79.62
367.731	93.62
367.957	87.62
368.184	90.62
368.41	91.62
368.636	97.62
368.862	104.62
369.089	88.62
369.315	95.62
369.541	93.62
369.767	89.62
369.993	89.62
370.219	75.62
370.445	96.62
370.672	90.62
370.898	93.62
371.124	84.62
371.35	89.62
371.576	97.62
371.802	87.62
372.028	95.62
372.254	89.62
372.48	84.62
372.706	92.62
372.932	87.62
373.158	94.62
373.384	90.62
373.61	107.62
373.835	99.62
374.061	92.62
374.287	89.62
374.513	90.62
374.739	94.62
374.965	100.62
375.191	82.62
375.416	90.62
375.642	87.62
375.868	88.62
376.094	97.62
376.319	94.62
376.545	96.62
376.771	84.62
376.997	117.62
377.222	106.62
377.448	87.62
377.674	106.62
377.899	91.62
378.125	85.62
378.35	84.62
378.576	89.62
378.802	99.62
379.027	96.62
379.253	99.62
379.478	91.62
379.704	93.62
379.929	96.62
380.155	102.62
380.38	88.62
380.606	99.62
380.831	101.62
381.057	99.62
381.282	91.62
381.507	93.62
381.733	93.62
381.958	99.62
382.184	95.62
382.409	98.62
382.634	98.62
382.86	102.62
383.085	91.62
383.31	90.62
383.535	113.62
383.761	86.62
383.986	106.62
384.211	110.62
384.436	95.62
384.662	99.62
384.887	99.62
385.112	104.62
385.337	85.62
385.562	87.62
385.787	96.62
386.013	100.62
386.238	107.62
386.463	100.62
386.688	108.62
386.913	95.62
387.138	108.62
387.363	101.62
387.588	102.62
387.813	98.62
388.038	98.62
388.263	82.62
388.488	91.62
388.713	100.62
388.938	102.62
389.163	104.62
389.387	99.62
389.612	75.62
389.837	115.62
390.062	100.62
390.287	107.62
390.512	102.62
390.736	100.62
390.961	93.62
391.186	104.62
391.411	83.62
391.636	118.62
391.86	111.62
392.085	105.62
392.31	107.62
392.534	114.62
392.759	104.62
392.984	99.62
393.208	107.62
393.433	90.62
393.658	100.62
393.882	100.62
394.107	98.62
394.331	118.62
394.556	107.62
394.78	82.62
395.005	114.62
395.229	116.62
395.454	102.62
395.678	119.62
395.903	109.62
396.127	115.62
396.352	119.62
396.576	117.62
396.801	98.62
397.025	107.62
397.249	99.62
397.474	112.62
397.698	96.62
397.922	108.62
398.147	101.62
398.371	110.62
398.595	102.62
398.82	115.62
399.044	113.62
399.268	119.62
399.492	116.62
399.717	106.62
399.941	103.62
400.165	116.62
400.389	109.62
400.613	121.62
400.837	122.62
401.062	107.62
401.286	96.62
401.51	120.62
401.734	109.62
401.958	130.62
402.182	119.62
402.406	116.62
402.63	112.62
402.854	114.62
403.078	108.62
403.302	116.62
403.526	114.62
403.75	103.62
403.974	106.62
404.198	116.62
404.422	120.62
404.645	105.62
404.869	114.62
405.093	115.62
405.317	120.62
405.541	123.62
405.765	123.62
405.988	130.62
406.212	123.62
406.436	119.62
406.66	128.62
406.883	112.62
407.107	108.62
407.331	124.62
407.555	117.62
407.778	115.62
408.002	113.62
408.226	114.62
408.449	122.62
408.673	120.62
408.896	138.62
409.12	120.62
409.344	126.62
409.567	133.62
409.791	128.62
410.014	122.62
410.238	124.62
410.461	136.62
410.685	121.62
410.908	122.62
411.132	125.62
411.355	116.62
411.578	118.62
411.802	105.62
412.025	112.62
412.249	124.62
412.472	115.62
412.695	125.62
412.919	126.62
413.142	115.62
413.365	122.62
413.589	122.62
413.812	115.62
414.035	124.62
414.258	123.62
414.482	124.62
414.705	128.62
414.928	123.62
415.151	121.62
415.374	133.62
415.597	126.62
415.821	131.62
416.044	140.62
416.267	130.62
416.49	131.62
416.713	139.62
416.936	106.62
417.159	123.62
417.382	128.62
417.605	120.62
417.828	132.62
418.051	122.62
418.274	132.62
418.497	114.62
418.72	125.62
418.943	132.62
419.166	134.62
419.389	123.62
419.611	126.62
419.834	142.62
420.057	128.62
420.28	135.62
420.503	138.62
420.726	125.62
420.948	120.62
421.171	137.62
421.394	136.62
421.617	139.62
421.839	130.62
422.062	153.62
422.285	132.62
422.507	125.62
422.73	136.62
422.953	130.62
423.175	124.62
423.398	119.62
423.621	120.62
423.843	145.62
424.066	136.62
424.288	141.62
424.511	128.62
424.733	158.62
424.956	148.62
425.178	139.62
425.401	157.62
425.623	126.62
425.846	134.62
426.068	137.62
426.291	137.62
426.513	131.62
426.735	127.62
426.958	136.62
427.18	129.62
427.402	120.62
427.625	126.62
427.847	122.62
428.069	126.62
428.292	122.62
428.514	128.62
428.736	128.62
428.958	131.62
429.181	123.62
429.403	125.62
429.625	118.62
429.847	130.62
430.069	132.62
430.292	140.62
430.514	136.62
430.736	120.62
430.958	140.62
431.18	128.62
431.402	129.62
431.624	138.62
431.846	112.62
432.068	97.62
432.29	93.62
432.512	110.62
432.734	124.62
432.956	145.62
433.178	131.62
433.4	132.62
433.622	139.62
433.844	132.62
434.066	124.62
434.287	110.62
434.509	96.62
434.731	102.62
434.953	103.62
435.175	112.62
435.397	131.62
435.618	118.62
435.84	120.62
436.062	116.62
436.284	126.62
436.505	130.62
436.727	118.62
436.949	129.62
437.17	134.62
437.392	126.62
437.614	128.62
437.835	120.62
438.057	121.62
438.278	121.62
438.5	128.62
438.721	132.62
438.943	139.62
439.165	137.62
439.386	127.62
439.608	144.62
439.829	145.62
440.05	145.62
440.272	150.62
440.493	152.62
440.715	156.62
440.936	141.62
441.158	130.62
441.379	148.62
441.6	149.62
441.822	148.62
442.043	138.62
442.264	143.62
442.486	145.62
442.707	146.62
442.928	140.62
443.149	141.62
443.371	141.62
443.592	130.62
443.813	149.62
444.034	148.62
444.255	129.62
444.476	138.62
444.698	150.62
444.919	150.62
445.14	288.62
445.361	189.62
445.582	153.62
445.803	164.62
446.024	137.62
446.245	163.62
446.466	145.62
446.687	165.62
446.908	161.62
447.129	153.62
447.35	156.62
447.571	147.62
447.792	145.62
448.013	133.62
448.234	144.62
448.455	124.62
448.675	143.62
448.896	138.62
449.117	136.62
449.338	134.62
449.559	121.62
449.779	136.62
450	126.62
450.221	142.62
450.442	134.62
450.662	130.62
450.883	147.62
451.104	150.62
451.324	134.62
451.545	126.62
451.766	130.62
451.986	133.62
452.207	136.62
452.428	125.62
452.648	122.62
452.869	120.62
453.089	111.62
453.31	107.62
453.53	112.62
453.751	107.62
453.971	101.62
454.192	97.62
454.412	106.62
454.633	116.62
454.853	118.62
455.073	122.62
455.294	118.62
455.514	128.62
455.734	120.62
455.955	116.62
456.175	116.62
456.395	117.62
456.616	119.62
456.836	116.62
457.056	105.62
457.276	123.62
457.497	118.62
457.717	120.62
457.937	106.62
458.157	106.62
458.377	96.62
458.598	96.62
458.818	82.62
459.038	85.62
459.258	86.62
459.478	80.62
459.698	94.62
459.918	115.62
460.138	98.62
460.358	117.62
460.578	128.62
460.798	117.62
461.018	112.62
461.238	119.62
461.458	115.62
461.678	125.62
461.898	119.62
462.118	124.62
462.338	118.62
462.558	114.62
462.777	114.62
462.997	109.62
463.217	114.62
463.437	129.62
463.657	113.62
463.876	103.62
464.096	110.62
464.316	128.62
464.536	122.62
464.755	111.62
464.975	104.62
465.195	112.62
465.414	125.62
465.634	115.62
465.854	128.62
466.073	120.62
466.293	132.62
466.512	130.62
466.732	130.62
466.951	145.62
467.171	133.62
467.391	130.62
467.61	128.62
467.829	123.62
468.049	139.62
468.268	136.62
468.488	133.62
468.707	137.62
468.927	117.62
469.146	136.62
469.365	132.62
469.585	134.62
469.804	131.62
470.023	131.62
470.243	136.62
470.462	146.62
470.681	155.62
470.901	142.62
471.12	130.62
471.339	138.62
471.558	136.62
471.777	139.62
471.997	128.62
472.216	116.62
472.435	129.62
472.654	125.62
472.873	117.62
473.092	112.62
473.311	111.62
473.53	122.62
473.749	130.62
473.968	134.62
474.187	126.62
474.406	127.62
474.625	120.62
474.844	143.62
475.063	130.62
475.282	131.62
475.501	116.62
475.72	121.62
475.939	134.62
476.158	140.62
476.377	138.62
476.596	126.62
476.814	122.62
477.033	112.62
477.252	107.62
477.471	128.62
477.69	148.62
477.908	139.62
478.127	149.62
478.346	130.62
478.564	146.62
478.783	134.62
479.002	138.62
479.22	142.62
479.439	132.62
479.658	114.62
479.876	128.62
480.095	99.62
480.313	126.62
480.532	128.62
480.751	104.62
480.969	94.62
481.188	92.62
481.406	90.62
481.624	91.62
481.843	92.62
482.061	92.62
482.28	105.62
482.498	106.62
482.717	105.62
482.935	125.62
483.153	135.62
483.372	155.62
483.59	152.62
483.808	141.62
484.027	138.62
484.245	140.62
484.463	146.62
484.681	161.62
484.9	142.62
485.118	150.62
485.336	147.62
485.554	121.62
485.772	98.62
485.99	121.62
486.209	108.62
486.427	103.62
486.645	122.62
486.863	132.62
487.081	144.62
487.299	135.62
487.517	142.62
487.735	154.62
487.953	193.62
488.171	186.62
488.389	162.62
488.607	156.62
488.825	146.62
489.043	131.62
489.261	136.62
489.479	139.62
489.696	149.62
489.914	137.62
490.132	131.62
490.35	155.62
490.568	174.62
490.786	147.62
491.003	164.62
491.221	179.62
491.439	186.62
491.657	188.62
491.874	204.62
492.092	206.62
492.31	239.62
492.527	228.62
492.745	219.62
492.963	192.62
493.18	188.62
493.398	184.62
493.615	184.62
493.833	176.62
494.05	189.62
494.268	172.62
494.485	172.62
494.703	178.62
494.92	173.62
495.138	166.62
495.355	178.62
495.573	185.62
495.79	170.62
496.008	156.62
496.225	176.62
496.442	162.62
496.66	180.62
496.877	165.62
497.094	165.62
497.312	164.62
497.529	154.62
497.746	158.62
497.963	139.62
498.181	124.62
498.398	123.62
498.615	137.62
498.832	118.62
499.049	139.62
499.267	122.62
499.484	139.62
499.701	131.62
499.918	148.62
500.135	150.62
500.352	139.62
500.569	148.62
500.786	148.62
501.003	147.62
501.22	148.62
501.437	141.62
501.654	143.62
501.871	126.62
502.088	130.62
502.305	133.62
502.522	113.62
502.739	139.62
502.956	128.62
503.172	125.62
503.389	128.62
503.606	124.62
503.823	128.62
504.04	129.62
504.256	135.62
504.473	124.62
504.69	120.62
504.907	104.62
505.123	129.62
505.34	128.62
505.557	120.62
505.773	115.62
505.99	130.62
506.207	120.62
506.423	125.62
506.64	133.62
506.856	114.62
507.073	110.62
507.289	124.62
507.506	121.62
507.722	128.62
507.939	121.62
508.155	95.62
508.372	120.62
508.588	117.62
508.805	115.62
509.021	116.62
509.238	106.62
509.454	114.62
509.67	97.62
509.887	105.62
510.103	96.62
510.319	85.62
510.536	104.62
510.752	87.62
510.968	83.62
511.184	94.62
511.401	71.62
511.617	80.62
