Data from Location2.07152019.Energy5.Lamp.07192019.3%Agarose_HRD10591_14-56-20-359.txt Node
Date: Fri Jul 19 14:56:20 EDT 2019
User: cochatt
Spectrometer: HR+D1059
Trigger mode: 1
Integration Time (sec): 1.000000E-1
Scans to average: 1
Electric dark correction enabled: true
Nonlinearity correction enabled: false
Boxcar width: 0
XAxis mode: Wavelengths
Number of Pixels in Spectrum: 2048
>>>>>Begin Spectral Data<<<<<
223.165	-19.62
223.4	-19.62
223.635	-19.62
223.869	-14.62
224.104	-27.62
224.338	-6.62
224.573	-21.62
224.808	-18.62
225.042	-15.62
225.277	-15.62
225.511	3.38
225.746	2.38
225.98	7.38
226.215	10.38
226.449	17.38
226.683	20.38
226.918	40.38
227.152	38.38
227.387	34.38
227.621	38.38
227.856	44.38
228.09	51.38
228.324	52.38
228.559	71.38
228.793	50.38
229.027	67.38
229.262	71.38
229.496	79.38
229.73	66.38
229.964	62.38
230.199	84.38
230.433	83.38
230.667	63.38
230.901	88.38
231.136	93.38
231.37	76.38
231.604	83.38
231.838	76.38
232.072	76.38
232.306	69.38
232.541	81.38
232.775	105.38
233.009	90.38
233.243	73.38
233.477	91.38
233.711	79.38
233.945	84.38
234.179	80.38
234.413	81.38
234.647	73.38
234.881	89.38
235.115	72.38
235.349	90.38
235.583	91.38
235.817	81.38
236.051	74.38
236.285	69.38
236.519	72.38
236.753	68.38
236.987	86.38
237.221	56.38
237.455	85.38
237.689	73.38
237.922	91.38
238.156	82.38
238.39	68.38
238.624	76.38
238.858	87.38
239.091	62.38
239.325	69.38
239.559	80.38
239.793	84.38
240.027	89.38
240.26	74.38
240.494	72.38
240.728	69.38
240.961	96.38
241.195	80.38
241.429	82.38
241.662	64.38
241.896	74.38
242.13	89.38
242.363	69.38
242.597	67.38
242.83	84.38
243.064	75.38
243.298	89.38
243.531	77.38
243.765	79.38
243.998	70.38
244.232	69.38
244.465	74.38
244.699	82.38
244.932	71.38
245.166	90.38
245.399	78.38
245.633	93.38
245.866	82.38
246.099	74.38
246.333	86.38
246.566	84.38
246.8	74.38
247.033	84.38
247.266	64.38
247.5	80.38
247.733	78.38
247.966	69.38
248.2	68.38
248.433	70.38
248.666	95.38
248.899	88.38
249.133	78.38
249.366	85.38
249.599	86.38
249.832	74.38
250.066	87.38
250.299	82.38
250.532	83.38
250.765	92.38
250.998	59.38
251.231	82.38
251.465	78.38
251.698	77.38
251.931	91.38
252.164	71.38
252.397	84.38
252.63	81.38
252.863	83.38
253.096	81.38
253.329	80.38
253.562	92.38
253.795	69.38
254.028	91.38
254.261	84.38
254.494	77.38
254.727	75.38
254.96	83.38
255.193	64.38
255.426	85.38
255.659	76.38
255.892	83.38
256.124	81.38
256.357	74.38
256.59	86.38
256.823	84.38
257.056	76.38
257.289	73.38
257.521	84.38
257.754	82.38
257.987	85.38
258.22	96.38
258.452	86.38
258.685	84.38
258.918	78.38
259.151	67.38
259.383	71.38
259.616	80.38
259.849	73.38
260.081	82.38
260.314	77.38
260.547	87.38
260.779	72.38
261.012	83.38
261.244	90.38
261.477	91.38
261.71	84.38
261.942	77.38
262.175	87.38
262.407	89.38
262.64	92.38
262.872	78.38
263.105	85.38
263.337	75.38
263.57	85.38
263.802	87.38
264.035	76.38
264.267	89.38
264.499	76.38
264.732	79.38
264.964	98.38
265.197	82.38
265.429	85.38
265.661	93.38
265.894	67.38
266.126	73.38
266.358	77.38
266.591	89.38
266.823	84.38
267.055	70.38
267.287	81.38
267.52	84.38
267.752	83.38
267.984	88.38
268.216	89.38
268.448	80.38
268.681	85.38
268.913	91.38
269.145	101.38
269.377	74.38
269.609	81.38
269.841	77.38
270.073	74.38
270.306	68.38
270.538	86.38
270.77	82.38
271.002	83.38
271.234	89.38
271.466	94.38
271.698	81.38
271.93	78.38
272.162	95.38
272.394	92.38
272.626	82.38
272.858	63.38
273.09	76.38
273.322	72.38
273.553	79.38
273.785	94.38
274.017	90.38
274.249	89.38
274.481	93.38
274.713	77.38
274.945	86.38
275.176	77.38
275.408	80.38
275.64	85.38
275.872	84.38
276.104	91.38
276.335	92.38
276.567	76.38
276.799	77.38
277.031	82.38
277.262	90.38
277.494	87.38
277.726	92.38
277.957	93.38
278.189	84.38
278.421	82.38
278.652	93.38
278.884	85.38
279.115	76.38
279.347	81.38
279.579	76.38
279.81	81.38
280.042	81.38
280.273	78.38
280.505	86.38
280.736	86.38
280.968	100.38
281.199	90.38
281.431	88.38
281.662	82.38
281.894	89.38
282.125	85.38
282.356	84.38
282.588	81.38
282.819	83.38
283.051	80.38
283.282	97.38
283.513	89.38
283.745	84.38
283.976	82.38
284.207	70.38
284.439	73.38
284.67	81.38
284.901	93.38
285.132	78.38
285.364	78.38
285.595	73.38
285.826	92.38
286.057	87.38
286.288	92.38
286.52	91.38
286.751	93.38
286.982	104.38
287.213	76.38
287.444	81.38
287.675	78.38
287.906	96.38
288.138	76.38
288.369	77.38
288.6	87.38
288.831	80.38
289.062	79.38
289.293	77.38
289.524	101.38
289.755	86.38
289.986	91.38
290.217	90.38
290.448	84.38
290.679	81.38
290.91	96.38
291.141	72.38
291.371	82.38
291.602	86.38
291.833	92.38
292.064	75.38
292.295	88.38
292.526	82.38
292.757	81.38
292.987	85.38
293.218	76.38
293.449	90.38
293.68	87.38
293.91	90.38
294.141	88.38
294.372	96.38
294.603	88.38
294.833	93.38
295.064	85.38
295.295	90.38
295.525	108.38
295.756	97.38
295.987	82.38
296.217	90.38
296.448	92.38
296.679	80.38
296.909	80.38
297.14	89.38
297.37	85.38
297.601	76.38
297.831	84.38
298.062	91.38
298.292	85.38
298.523	80.38
298.753	88.38
298.984	81.38
299.214	97.38
299.445	81.38
299.675	89.38
299.905	76.38
300.136	91.38
300.366	82.38
300.597	70.38
300.827	84.38
301.057	86.38
301.288	84.38
301.518	95.38
301.748	85.38
301.979	88.38
302.209	80.38
302.439	82.38
302.669	81.38
302.9	77.38
303.13	88.38
303.36	78.38
303.59	89.38
303.82	95.38
304.051	88.38
304.281	87.38
304.511	79.38
304.741	84.38
304.971	84.38
305.201	83.38
305.431	74.38
305.661	89.38
305.891	90.38
306.121	91.38
306.352	80.38
306.582	83.38
306.812	92.38
307.042	81.38
307.272	93.38
307.502	84.38
307.731	91.38
307.961	94.38
308.191	91.38
308.421	98.38
308.651	82.38
308.881	93.38
309.111	82.38
309.341	85.38
309.571	97.38
309.8	87.38
310.03	86.38
310.26	78.38
310.49	83.38
310.72	75.38
310.949	82.38
311.179	89.38
311.409	95.38
311.639	86.38
311.868	82.38
312.098	98.38
312.328	84.38
312.557	89.38
312.787	74.38
313.017	74.38
313.246	93.38
313.476	93.38
313.706	69.38
313.935	81.38
314.165	75.38
314.394	92.38
314.624	84.38
314.853	80.38
315.083	89.38
315.312	89.38
315.542	90.38
315.771	79.38
316.001	95.38
316.23	68.38
316.46	75.38
316.689	88.38
316.919	65.38
317.148	98.38
317.377	92.38
317.607	87.38
317.836	79.38
318.065	77.38
318.295	89.38
318.524	76.38
318.753	70.38
318.983	77.38
319.212	89.38
319.441	96.38
319.67	101.38
319.9	85.38
320.129	84.38
320.358	78.38
320.587	85.38
320.816	78.38
321.046	90.38
321.275	97.38
321.504	80.38
321.733	82.38
321.962	85.38
322.191	90.38
322.42	70.38
322.649	80.38
322.878	88.38
323.108	80.38
323.337	77.38
323.566	75.38
323.795	90.38
324.024	82.38
324.253	80.38
324.482	77.38
324.71	102.38
324.939	76.38
325.168	78.38
325.397	67.38
325.626	87.38
325.855	92.38
326.084	92.38
326.313	84.38
326.542	85.38
326.77	89.38
326.999	83.38
327.228	77.38
327.457	94.38
327.686	78.38
327.914	83.38
328.143	78.38
328.372	93.38
328.6	94.38
328.829	81.38
329.058	86.38
329.287	96.38
329.515	83.38
329.744	73.38
329.972	87.38
330.201	79.38
330.43	100.38
330.658	94.38
330.887	73.38
331.115	100.38
331.344	78.38
331.572	77.38
331.801	79.38
332.03	83.38
332.258	68.38
332.486	76.38
332.715	80.38
332.943	103.38
333.172	87.38
333.4	86.38
333.629	102.38
333.857	75.38
334.085	90.38
334.314	101.38
334.542	87.38
334.771	88.38
334.999	82.38
335.227	86.38
335.455	85.38
335.684	102.38
335.912	85.38
336.14	74.38
336.369	84.38
336.597	76.38
336.825	109.38
337.053	76.38
337.281	89.38
337.51	89.38
337.738	82.38
337.966	77.38
338.194	92.38
338.422	83.38
338.65	77.38
338.878	89.38
339.106	75.38
339.334	95.38
339.562	85.38
339.79	82.38
340.018	82.38
340.246	92.38
340.474	103.38
340.702	70.38
340.93	89.38
341.158	74.38
341.386	72.38
341.614	84.38
341.842	76.38
342.07	72.38
342.298	100.38
342.526	85.38
342.754	89.38
342.981	91.38
343.209	86.38
343.437	92.38
343.665	92.38
343.893	81.38
344.12	90.38
344.348	93.38
344.576	88.38
344.804	96.38
345.031	89.38
345.259	78.38
345.487	85.38
345.714	96.38
345.942	81.38
346.17	84.38
346.397	92.38
346.625	81.38
346.853	106.38
347.08	84.38
347.308	92.38
347.535	72.38
347.763	83.38
347.99	91.38
348.218	89.38
348.445	84.38
348.673	85.38
348.9	92.38
349.128	88.38
349.355	86.38
349.583	88.38
349.81	91.38
350.037	84.38
350.265	72.38
350.492	95.38
350.72	71.38
350.947	92.38
351.174	85.38
351.402	84.38
351.629	88.38
351.856	86.38
352.083	73.38
352.311	90.38
352.538	80.38
352.765	89.38
352.992	86.38
353.22	83.38
353.447	74.38
353.674	94.38
353.901	84.38
354.128	82.38
354.355	80.38
354.583	82.38
354.81	86.38
355.037	90.38
355.264	86.38
355.491	85.38
355.718	89.38
355.945	97.38
356.172	80.38
356.399	80.38
356.626	77.38
356.853	69.38
357.08	96.38
357.307	95.38
357.534	90.38
357.761	84.38
357.988	78.38
358.215	91.38
358.441	83.38
358.668	94.38
358.895	73.38
359.122	90.38
359.349	90.38
359.576	90.38
359.802	90.38
360.029	66.38
360.256	76.38
360.483	85.38
360.709	84.38
360.936	90.38
361.163	78.38
361.39	91.38
361.616	74.38
361.843	94.38
362.07	80.38
362.296	84.38
362.523	75.38
362.749	95.38
362.976	99.38
363.203	87.38
363.429	82.38
363.656	84.38
363.882	79.38
364.109	101.38
364.335	77.38
364.562	93.38
364.788	74.38
365.015	84.38
365.241	86.38
365.468	84.38
365.694	92.38
365.92	98.38
366.147	96.38
366.373	87.38
366.599	82.38
366.826	88.38
367.052	86.38
367.278	95.38
367.505	91.38
367.731	98.38
367.957	78.38
368.184	86.38
368.41	100.38
368.636	93.38
368.862	91.38
369.089	99.38
369.315	92.38
369.541	87.38
369.767	93.38
369.993	75.38
370.219	81.38
370.445	93.38
370.672	86.38
370.898	86.38
371.124	91.38
371.35	87.38
371.576	103.38
371.802	90.38
372.028	94.38
372.254	93.38
372.48	94.38
372.706	102.38
372.932	94.38
373.158	93.38
373.384	100.38
373.61	89.38
373.835	96.38
374.061	98.38
374.287	82.38
374.513	85.38
374.739	91.38
374.965	96.38
375.191	97.38
375.416	105.38
375.642	100.38
375.868	105.38
376.094	92.38
376.319	102.38
376.545	89.38
376.771	97.38
376.997	88.38
377.222	77.38
377.448	94.38
377.674	98.38
377.899	94.38
378.125	94.38
378.35	94.38
378.576	102.38
378.802	92.38
379.027	92.38
379.253	93.38
379.478	69.38
379.704	93.38
379.929	84.38
380.155	88.38
380.38	98.38
380.606	86.38
380.831	92.38
381.057	90.38
381.282	77.38
381.507	113.38
381.733	90.38
381.958	97.38
382.184	91.38
382.409	93.38
382.634	97.38
382.86	94.38
383.085	94.38
383.31	100.38
383.535	100.38
383.761	97.38
383.986	99.38
384.211	93.38
384.436	109.38
384.662	98.38
384.887	105.38
385.112	91.38
385.337	85.38
385.562	98.38
385.787	100.38
386.013	104.38
386.238	97.38
386.463	88.38
386.688	99.38
386.913	100.38
387.138	110.38
387.363	105.38
387.588	104.38
387.813	106.38
388.038	99.38
388.263	105.38
388.488	106.38
388.713	93.38
388.938	92.38
389.163	112.38
389.387	96.38
389.612	104.38
389.837	111.38
390.062	103.38
390.287	95.38
390.512	100.38
390.736	112.38
390.961	92.38
391.186	99.38
391.411	96.38
391.636	116.38
391.86	117.38
392.085	100.38
392.31	105.38
392.534	92.38
392.759	113.38
392.984	106.38
393.208	107.38
393.433	94.38
393.658	109.38
393.882	105.38
394.107	101.38
394.331	113.38
394.556	107.38
394.78	107.38
395.005	108.38
395.229	97.38
395.454	115.38
395.678	98.38
395.903	99.38
396.127	107.38
396.352	108.38
396.576	96.38
396.801	98.38
397.025	101.38
397.249	106.38
397.474	124.38
397.698	104.38
397.922	110.38
398.147	100.38
398.371	122.38
398.595	112.38
398.82	105.38
399.044	99.38
399.268	117.38
399.492	121.38
399.717	123.38
399.941	122.38
400.165	118.38
400.389	118.38
400.613	118.38
400.837	115.38
401.062	93.38
401.286	104.38
401.51	113.38
401.734	115.38
401.958	117.38
402.182	113.38
402.406	109.38
402.63	112.38
402.854	111.38
403.078	119.38
403.302	115.38
403.526	117.38
403.75	120.38
403.974	99.38
404.198	100.38
404.422	121.38
404.645	119.38
404.869	110.38
405.093	129.38
405.317	116.38
405.541	122.38
405.765	135.38
405.988	128.38
406.212	104.38
406.436	130.38
406.66	134.38
406.883	126.38
407.107	133.38
407.331	114.38
407.555	104.38
407.778	108.38
408.002	112.38
408.226	112.38
408.449	106.38
408.673	116.38
408.896	124.38
409.12	136.38
409.344	117.38
409.567	126.38
409.791	130.38
410.014	120.38
410.238	132.38
410.461	115.38
410.685	122.38
410.908	126.38
411.132	146.38
411.355	133.38
411.578	115.38
411.802	125.38
412.025	120.38
412.249	112.38
412.472	129.38
412.695	128.38
412.919	134.38
413.142	116.38
413.365	126.38
413.589	128.38
413.812	124.38
414.035	115.38
414.258	118.38
414.482	120.38
414.705	128.38
414.928	125.38
415.151	132.38
415.374	125.38
415.597	112.38
415.821	127.38
416.044	131.38
416.267	127.38
416.49	130.38
416.713	131.38
416.936	135.38
417.159	135.38
417.382	135.38
417.605	138.38
417.828	140.38
418.051	150.38
418.274	134.38
418.497	145.38
418.72	137.38
418.943	133.38
419.166	130.38
419.389	132.38
419.611	140.38
419.834	128.38
420.057	140.38
420.28	123.38
420.503	143.38
420.726	123.38
420.948	121.38
421.171	124.38
421.394	134.38
421.617	137.38
421.839	134.38
422.062	143.38
422.285	128.38
422.507	126.38
422.73	130.38
422.953	103.38
423.175	122.38
423.398	122.38
423.621	119.38
423.843	126.38
424.066	134.38
424.288	150.38
424.511	147.38
424.733	151.38
424.956	141.38
425.178	132.38
425.401	129.38
425.623	142.38
425.846	140.38
426.068	138.38
426.291	128.38
426.513	129.38
426.735	141.38
426.958	145.38
427.18	149.38
427.402	146.38
427.625	126.38
427.847	128.38
428.069	128.38
428.292	105.38
428.514	139.38
428.736	117.38
428.958	128.38
429.181	133.38
429.403	138.38
429.625	133.38
429.847	130.38
430.069	137.38
430.292	136.38
430.514	148.38
430.736	133.38
430.958	129.38
431.18	146.38
431.402	125.38
431.624	121.38
431.846	113.38
432.068	104.38
432.29	104.38
432.512	109.38
432.734	125.38
432.956	112.38
433.178	138.38
433.4	129.38
433.622	128.38
433.844	138.38
434.066	122.38
434.287	119.38
434.509	87.38
434.731	88.38
434.953	112.38
435.175	126.38
435.397	126.38
435.618	116.38
435.84	117.38
436.062	110.38
436.284	128.38
436.505	135.38
436.727	140.38
436.949	123.38
437.17	128.38
437.392	123.38
437.614	123.38
437.835	109.38
438.057	128.38
438.278	116.38
438.5	114.38
438.721	128.38
438.943	141.38
439.165	141.38
439.386	121.38
439.608	160.38
439.829	149.38
440.05	128.38
440.272	146.38
440.493	157.38
440.715	125.38
440.936	140.38
441.158	120.38
441.379	130.38
441.6	148.38
441.822	138.38
442.043	141.38
442.264	133.38
442.486	141.38
442.707	137.38
442.928	128.38
443.149	140.38
443.371	127.38
443.592	138.38
443.813	139.38
444.034	154.38
444.255	158.38
444.476	140.38
444.698	137.38
444.919	129.38
445.14	276.38
445.361	200.38
445.582	154.38
445.803	148.38
446.024	148.38
446.245	132.38
446.466	152.38
446.687	172.38
446.908	148.38
447.129	153.38
447.35	144.38
447.571	136.38
447.792	147.38
448.013	142.38
448.234	128.38
448.455	144.38
448.675	132.38
448.896	140.38
449.117	156.38
449.338	126.38
449.559	129.38
449.779	135.38
450	128.38
450.221	145.38
450.442	120.38
450.662	127.38
450.883	132.38
451.104	142.38
451.324	123.38
451.545	133.38
451.766	131.38
451.986	124.38
452.207	135.38
452.428	128.38
452.648	131.38
452.869	120.38
453.089	109.38
453.31	127.38
453.53	116.38
453.751	118.38
453.971	118.38
454.192	114.38
454.412	106.38
454.633	106.38
454.853	129.38
455.073	102.38
455.294	134.38
455.514	124.38
455.734	128.38
455.955	111.38
456.175	121.38
456.395	107.38
456.616	118.38
456.836	122.38
457.056	124.38
457.276	94.38
457.497	119.38
457.717	101.38
457.937	105.38
458.157	109.38
458.377	104.38
458.598	92.38
458.818	93.38
459.038	105.38
459.258	88.38
459.478	104.38
459.698	86.38
459.918	92.38
460.138	97.38
460.358	106.38
460.578	129.38
460.798	129.38
461.018	125.38
461.238	124.38
461.458	104.38
461.678	115.38
461.898	108.38
462.118	126.38
462.338	113.38
462.558	119.38
462.777	114.38
462.997	111.38
463.217	106.38
463.437	114.38
463.657	125.38
463.876	102.38
464.096	101.38
464.316	110.38
464.536	122.38
464.755	129.38
464.975	115.38
465.195	129.38
465.414	123.38
465.634	122.38
465.854	116.38
466.073	128.38
466.293	133.38
466.512	120.38
466.732	151.38
466.951	135.38
467.171	139.38
467.391	122.38
467.61	128.38
467.829	128.38
468.049	133.38
468.268	143.38
468.488	121.38
468.707	133.38
468.927	140.38
469.146	143.38
469.365	141.38
469.585	131.38
469.804	140.38
470.023	145.38
470.243	141.38
470.462	139.38
470.681	144.38
470.901	147.38
471.12	156.38
471.339	135.38
471.558	142.38
471.777	143.38
471.997	137.38
472.216	139.38
472.435	112.38
472.654	117.38
472.873	108.38
473.092	106.38
473.311	125.38
473.53	112.38
473.749	123.38
473.968	126.38
474.187	124.38
474.406	121.38
474.625	124.38
474.844	126.38
475.063	133.38
475.282	122.38
475.501	108.38
475.72	122.38
475.939	139.38
476.158	116.38
476.377	133.38
476.596	122.38
476.814	124.38
477.033	101.38
477.252	117.38
477.471	134.38
477.69	124.38
477.908	146.38
478.127	132.38
478.346	137.38
478.564	130.38
478.783	130.38
479.002	157.38
479.22	144.38
479.439	150.38
479.658	131.38
479.876	112.38
480.095	108.38
480.313	124.38
480.532	116.38
480.751	104.38
480.969	101.38
481.188	92.38
481.406	95.38
481.624	84.38
481.843	100.38
482.061	96.38
482.28	122.38
482.498	116.38
482.717	102.38
482.935	122.38
483.153	138.38
483.372	155.38
483.59	152.38
483.808	140.38
484.027	145.38
484.245	128.38
484.463	138.38
484.681	156.38
484.9	148.38
485.118	142.38
485.336	129.38
485.554	120.38
485.772	105.38
485.99	108.38
486.209	125.38
486.427	105.38
486.645	132.38
486.863	136.38
487.081	138.38
487.299	125.38
487.517	139.38
487.735	170.38
487.953	167.38
488.171	178.38
488.389	176.38
488.607	164.38
488.825	143.38
489.043	133.38
489.261	145.38
489.479	152.38
489.696	162.38
489.914	143.38
490.132	152.38
490.35	156.38
490.568	177.38
490.786	162.38
491.003	169.38
491.221	180.38
491.439	188.38
491.657	198.38
491.874	204.38
492.092	224.38
492.31	232.38
492.527	244.38
492.745	221.38
492.963	201.38
493.18	191.38
493.398	191.38
493.615	186.38
493.833	183.38
494.05	188.38
494.268	186.38
494.485	168.38
494.703	184.38
494.92	174.38
495.138	176.38
495.355	174.38
495.573	164.38
495.79	172.38
496.008	171.38
496.225	187.38
496.442	159.38
496.66	166.38
496.877	171.38
497.094	185.38
497.312	165.38
497.529	160.38
497.746	144.38
497.963	131.38
498.181	138.38
498.398	129.38
498.615	109.38
498.832	122.38
499.049	106.38
499.267	111.38
499.484	133.38
499.701	128.38
499.918	143.38
500.135	136.38
500.352	138.38
500.569	162.38
500.786	147.38
501.003	144.38
501.22	137.38
501.437	134.38
501.654	139.38
501.871	151.38
502.088	123.38
502.305	122.38
502.522	128.38
502.739	134.38
502.956	126.38
503.172	124.38
503.389	131.38
503.606	117.38
503.823	112.38
504.04	110.38
504.256	132.38
504.473	115.38
504.69	131.38
504.907	120.38
505.123	107.38
505.34	120.38
505.557	117.38
505.773	122.38
505.99	109.38
506.207	132.38
506.423	118.38
506.64	119.38
506.856	133.38
507.073	124.38
507.289	123.38
507.506	125.38
507.722	120.38
507.939	112.38
508.155	109.38
508.372	124.38
508.588	118.38
508.805	114.38
509.021	110.38
509.238	105.38
509.454	101.38
509.67	91.38
509.887	93.38
510.103	105.38
510.319	110.38
510.536	93.38
510.752	84.38
510.968	95.38
511.184	90.38
511.401	84.38
