Data from Location2.07152019.Energy5.Lamp.07192019.3%Agarose_HRD10591_14-58-48-359.txt Node
Date: Fri Jul 19 14:58:48 EDT 2019
User: cochatt
Spectrometer: HR+D1059
Trigger mode: 1
Integration Time (sec): 1.000000E-1
Scans to average: 1
Electric dark correction enabled: true
Nonlinearity correction enabled: false
Boxcar width: 0
XAxis mode: Wavelengths
Number of Pixels in Spectrum: 2048
>>>>>Begin Spectral Data<<<<<
223.165	-22.25
223.4	-22.25
223.635	-22.25
223.869	-25.25
224.104	-22.25
224.338	-11.25
224.573	-20.25
224.808	-10.25
225.042	-5.25
225.277	-13.25
225.511	-5.25
225.746	7.75
225.98	8.75
226.215	10.75
226.449	16.75
226.683	33.75
226.918	20.75
227.152	36.75
227.387	36.75
227.621	17.75
227.856	38.75
228.09	51.75
228.324	48.75
228.559	60.75
228.793	61.75
229.027	54.75
229.262	63.75
229.496	53.75
229.73	71.75
229.964	65.75
230.199	55.75
230.433	66.75
230.667	74.75
230.901	66.75
231.136	77.75
231.37	81.75
231.604	67.75
231.838	63.75
232.072	75.75
232.306	79.75
232.541	90.75
232.775	86.75
233.009	71.75
233.243	84.75
233.477	65.75
233.711	89.75
233.945	86.75
234.179	87.75
234.413	81.75
234.647	86.75
234.881	79.75
235.115	87.75
235.349	76.75
235.583	90.75
235.817	82.75
236.051	70.75
236.285	79.75
236.519	89.75
236.753	84.75
236.987	71.75
237.221	82.75
237.455	72.75
237.689	84.75
237.922	78.75
238.156	76.75
238.39	86.75
238.624	90.75
238.858	75.75
239.091	78.75
239.325	80.75
239.559	78.75
239.793	75.75
240.027	79.75
240.26	82.75
240.494	78.75
240.728	73.75
240.961	80.75
241.195	70.75
241.429	74.75
241.662	72.75
241.896	74.75
242.13	80.75
242.363	74.75
242.597	76.75
242.83	73.75
243.064	76.75
243.298	88.75
243.531	73.75
243.765	76.75
243.998	67.75
244.232	68.75
244.465	75.75
244.699	90.75
244.932	78.75
245.166	80.75
245.399	61.75
245.633	90.75
245.866	72.75
246.099	85.75
246.333	76.75
246.566	75.75
246.8	66.75
247.033	80.75
247.266	79.75
247.5	86.75
247.733	68.75
247.966	80.75
248.2	86.75
248.433	79.75
248.666	78.75
248.899	78.75
249.133	95.75
249.366	90.75
249.599	83.75
249.832	86.75
250.066	78.75
250.299	69.75
250.532	73.75
250.765	73.75
250.998	70.75
251.231	75.75
251.465	60.75
251.698	77.75
251.931	77.75
252.164	69.75
252.397	81.75
252.63	72.75
252.863	81.75
253.096	73.75
253.329	79.75
253.562	64.75
253.795	74.75
254.028	83.75
254.261	85.75
254.494	70.75
254.727	85.75
254.96	71.75
255.193	73.75
255.426	86.75
255.659	74.75
255.892	82.75
256.124	74.75
256.357	77.75
256.59	80.75
256.823	76.75
257.056	84.75
257.289	92.75
257.521	74.75
257.754	67.75
257.987	88.75
258.22	75.75
258.452	78.75
258.685	70.75
258.918	85.75
259.151	68.75
259.383	91.75
259.616	97.75
259.849	73.75
260.081	84.75
260.314	92.75
260.547	74.75
260.779	90.75
261.012	81.75
261.244	73.75
261.477	76.75
261.71	75.75
261.942	87.75
262.175	82.75
262.407	85.75
262.64	77.75
262.872	76.75
263.105	80.75
263.337	74.75
263.57	80.75
263.802	74.75
264.035	95.75
264.267	82.75
264.499	74.75
264.732	73.75
264.964	72.75
265.197	85.75
265.429	87.75
265.661	93.75
265.894	80.75
266.126	78.75
266.358	69.75
266.591	74.75
266.823	88.75
267.055	74.75
267.287	92.75
267.52	95.75
267.752	77.75
267.984	82.75
268.216	87.75
268.448	69.75
268.681	75.75
268.913	86.75
269.145	87.75
269.377	74.75
269.609	87.75
269.841	80.75
270.073	88.75
270.306	76.75
270.538	82.75
270.77	76.75
271.002	57.75
271.234	82.75
271.466	86.75
271.698	89.75
271.93	71.75
272.162	73.75
272.394	80.75
272.626	86.75
272.858	92.75
273.09	56.75
273.322	76.75
273.553	54.75
273.785	83.75
274.017	88.75
274.249	84.75
274.481	86.75
274.713	79.75
274.945	65.75
275.176	77.75
275.408	88.75
275.64	65.75
275.872	80.75
276.104	78.75
276.335	94.75
276.567	70.75
276.799	79.75
277.031	83.75
277.262	82.75
277.494	85.75
277.726	82.75
277.957	79.75
278.189	82.75
278.421	81.75
278.652	87.75
278.884	94.75
279.115	84.75
279.347	87.75
279.579	89.75
279.81	74.75
280.042	79.75
280.273	80.75
280.505	75.75
280.736	80.75
280.968	96.75
281.199	76.75
281.431	93.75
281.662	79.75
281.894	84.75
282.125	82.75
282.356	86.75
282.588	89.75
282.819	84.75
283.051	88.75
283.282	81.75
283.513	96.75
283.745	85.75
283.976	83.75
284.207	84.75
284.439	83.75
284.67	88.75
284.901	81.75
285.132	73.75
285.364	81.75
285.595	86.75
285.826	77.75
286.057	92.75
286.288	72.75
286.52	89.75
286.751	86.75
286.982	89.75
287.213	84.75
287.444	77.75
287.675	73.75
287.906	94.75
288.138	82.75
288.369	83.75
288.6	83.75
288.831	75.75
289.062	65.75
289.293	71.75
289.524	72.75
289.755	81.75
289.986	85.75
290.217	92.75
290.448	72.75
290.679	82.75
290.91	91.75
291.141	88.75
291.371	85.75
291.602	89.75
291.833	89.75
292.064	83.75
292.295	81.75
292.526	100.75
292.757	88.75
292.987	86.75
293.218	90.75
293.449	89.75
293.68	95.75
293.91	91.75
294.141	77.75
294.372	76.75
294.603	78.75
294.833	85.75
295.064	80.75
295.295	89.75
295.525	78.75
295.756	82.75
295.987	78.75
296.217	71.75
296.448	89.75
296.679	78.75
296.909	66.75
297.14	79.75
297.37	76.75
297.601	92.75
297.831	82.75
298.062	88.75
298.292	75.75
298.523	83.75
298.753	80.75
298.984	85.75
299.214	97.75
299.445	83.75
299.675	89.75
299.905	89.75
300.136	89.75
300.366	66.75
300.597	80.75
300.827	74.75
301.057	86.75
301.288	100.75
301.518	79.75
301.748	80.75
301.979	88.75
302.209	80.75
302.439	75.75
302.669	78.75
302.9	69.75
303.13	77.75
303.36	66.75
303.59	90.75
303.82	78.75
304.051	84.75
304.281	96.75
304.511	87.75
304.741	82.75
304.971	75.75
305.201	78.75
305.431	74.75
305.661	76.75
305.891	82.75
306.121	84.75
306.352	85.75
306.582	78.75
306.812	74.75
307.042	93.75
307.272	80.75
307.502	85.75
307.731	88.75
307.961	89.75
308.191	73.75
308.421	94.75
308.651	77.75
308.881	86.75
309.111	86.75
309.341	73.75
309.571	77.75
309.8	76.75
310.03	77.75
310.26	84.75
310.49	82.75
310.72	96.75
310.949	77.75
311.179	80.75
311.409	74.75
311.639	91.75
311.868	87.75
312.098	76.75
312.328	80.75
312.557	77.75
312.787	87.75
313.017	85.75
313.246	82.75
313.476	91.75
313.706	68.75
313.935	91.75
314.165	83.75
314.394	82.75
314.624	75.75
314.853	80.75
315.083	87.75
315.312	87.75
315.542	99.75
315.771	79.75
316.001	79.75
316.23	86.75
316.46	82.75
316.689	69.75
316.919	78.75
317.148	69.75
317.377	79.75
317.607	97.75
317.836	83.75
318.065	86.75
318.295	85.75
318.524	85.75
318.753	80.75
318.983	90.75
319.212	81.75
319.441	79.75
319.67	85.75
319.9	79.75
320.129	84.75
320.358	102.75
320.587	80.75
320.816	97.75
321.046	75.75
321.275	71.75
321.504	90.75
321.733	99.75
321.962	89.75
322.191	85.75
322.42	92.75
322.649	70.75
322.878	91.75
323.108	72.75
323.337	81.75
323.566	89.75
323.795	85.75
324.024	78.75
324.253	89.75
324.482	85.75
324.71	90.75
324.939	74.75
325.168	94.75
325.397	92.75
325.626	89.75
325.855	69.75
326.084	76.75
326.313	76.75
326.542	73.75
326.77	88.75
326.999	90.75
327.228	84.75
327.457	92.75
327.686	83.75
327.914	80.75
328.143	89.75
328.372	85.75
328.6	86.75
328.829	89.75
329.058	66.75
329.287	80.75
329.515	71.75
329.744	76.75
329.972	78.75
330.201	77.75
330.43	80.75
330.658	66.75
330.887	92.75
331.115	77.75
331.344	71.75
331.572	87.75
331.801	82.75
332.03	71.75
332.258	71.75
332.486	68.75
332.715	80.75
332.943	83.75
333.172	88.75
333.4	82.75
333.629	73.75
333.857	81.75
334.085	77.75
334.314	74.75
334.542	88.75
334.771	80.75
334.999	71.75
335.227	80.75
335.455	82.75
335.684	83.75
335.912	87.75
336.14	85.75
336.369	101.75
336.597	72.75
336.825	78.75
337.053	63.75
337.281	66.75
337.51	80.75
337.738	88.75
337.966	75.75
338.194	77.75
338.422	91.75
338.65	87.75
338.878	79.75
339.106	76.75
339.334	88.75
339.562	82.75
339.79	78.75
340.018	76.75
340.246	76.75
340.474	82.75
340.702	76.75
340.93	88.75
341.158	87.75
341.386	73.75
341.614	82.75
341.842	81.75
342.07	63.75
342.298	75.75
342.526	89.75
342.754	81.75
342.981	85.75
343.209	90.75
343.437	77.75
343.665	75.75
343.893	83.75
344.12	94.75
344.348	93.75
344.576	93.75
344.804	80.75
345.031	76.75
345.259	86.75
345.487	84.75
345.714	94.75
345.942	85.75
346.17	67.75
346.397	90.75
346.625	81.75
346.853	81.75
347.08	62.75
347.308	81.75
347.535	86.75
347.763	84.75
347.99	82.75
348.218	60.75
348.445	96.75
348.673	78.75
348.9	86.75
349.128	102.75
349.355	88.75
349.583	85.75
349.81	79.75
350.037	80.75
350.265	82.75
350.492	93.75
350.72	71.75
350.947	61.75
351.174	84.75
351.402	89.75
351.629	98.75
351.856	85.75
352.083	87.75
352.311	80.75
352.538	74.75
352.765	66.75
352.992	81.75
353.22	82.75
353.447	83.75
353.674	86.75
353.901	78.75
354.128	84.75
354.355	81.75
354.583	92.75
354.81	80.75
355.037	98.75
355.264	72.75
355.491	74.75
355.718	76.75
355.945	87.75
356.172	92.75
356.399	80.75
356.626	64.75
356.853	77.75
357.08	86.75
357.307	82.75
357.534	78.75
357.761	80.75
357.988	94.75
358.215	95.75
358.441	67.75
358.668	84.75
358.895	70.75
359.122	79.75
359.349	71.75
359.576	77.75
359.802	71.75
360.029	64.75
360.256	90.75
360.483	85.75
360.709	78.75
360.936	82.75
361.163	78.75
361.39	79.75
361.616	93.75
361.843	78.75
362.07	74.75
362.296	88.75
362.523	76.75
362.749	77.75
362.976	73.75
363.203	82.75
363.429	74.75
363.656	86.75
363.882	81.75
364.109	82.75
364.335	80.75
364.562	81.75
364.788	80.75
365.015	72.75
365.241	76.75
365.468	80.75
365.694	76.75
365.92	71.75
366.147	89.75
366.373	78.75
366.599	73.75
366.826	82.75
367.052	99.75
367.278	86.75
367.505	97.75
367.731	92.75
367.957	81.75
368.184	85.75
368.41	78.75
368.636	86.75
368.862	89.75
369.089	93.75
369.315	74.75
369.541	83.75
369.767	93.75
369.993	90.75
370.219	90.75
370.445	84.75
370.672	91.75
370.898	78.75
371.124	89.75
371.35	86.75
371.576	86.75
371.802	82.75
372.028	95.75
372.254	90.75
372.48	86.75
372.706	79.75
372.932	90.75
373.158	95.75
373.384	84.75
373.61	93.75
373.835	107.75
374.061	79.75
374.287	71.75
374.513	82.75
374.739	88.75
374.965	106.75
375.191	66.75
375.416	71.75
375.642	86.75
375.868	100.75
376.094	93.75
376.319	92.75
376.545	95.75
376.771	85.75
376.997	93.75
377.222	88.75
377.448	85.75
377.674	92.75
377.899	76.75
378.125	86.75
378.35	94.75
378.576	86.75
378.802	99.75
379.027	83.75
379.253	96.75
379.478	92.75
379.704	88.75
379.929	92.75
380.155	80.75
380.38	81.75
380.606	86.75
380.831	93.75
381.057	105.75
381.282	98.75
381.507	96.75
381.733	97.75
381.958	87.75
382.184	86.75
382.409	95.75
382.634	110.75
382.86	81.75
383.085	108.75
383.31	99.75
383.535	97.75
383.761	83.75
383.986	75.75
384.211	87.75
384.436	90.75
384.662	88.75
384.887	97.75
385.112	104.75
385.337	106.75
385.562	97.75
385.787	89.75
386.013	105.75
386.238	95.75
386.463	100.75
386.688	99.75
386.913	95.75
387.138	102.75
387.363	111.75
387.588	98.75
387.813	90.75
388.038	109.75
388.263	91.75
388.488	100.75
388.713	90.75
388.938	84.75
389.163	84.75
389.387	91.75
389.612	91.75
389.837	100.75
390.062	93.75
390.287	84.75
390.512	102.75
390.736	105.75
390.961	105.75
391.186	124.75
391.411	100.75
391.636	90.75
391.86	101.75
392.085	99.75
392.31	106.75
392.534	112.75
392.759	113.75
392.984	111.75
393.208	103.75
393.433	101.75
393.658	97.75
393.882	103.75
394.107	97.75
394.331	103.75
394.556	88.75
394.78	112.75
395.005	95.75
395.229	106.75
395.454	98.75
395.678	109.75
395.903	106.75
396.127	106.75
396.352	108.75
396.576	109.75
396.801	109.75
397.025	101.75
397.249	116.75
397.474	118.75
397.698	111.75
397.922	111.75
398.147	110.75
398.371	117.75
398.595	111.75
398.82	118.75
399.044	110.75
399.268	99.75
399.492	110.75
399.717	105.75
399.941	104.75
400.165	104.75
400.389	101.75
400.613	101.75
400.837	105.75
401.062	109.75
401.286	103.75
401.51	129.75
401.734	101.75
401.958	110.75
402.182	115.75
402.406	119.75
402.63	106.75
402.854	106.75
403.078	96.75
403.302	101.75
403.526	106.75
403.75	123.75
403.974	122.75
404.198	108.75
404.422	105.75
404.645	101.75
404.869	114.75
405.093	129.75
405.317	102.75
405.541	134.75
405.765	120.75
405.988	128.75
406.212	120.75
406.436	109.75
406.66	115.75
406.883	117.75
407.107	100.75
407.331	100.75
407.555	103.75
407.778	110.75
408.002	114.75
408.226	112.75
408.449	125.75
408.673	121.75
408.896	126.75
409.12	112.75
409.344	121.75
409.567	116.75
409.791	120.75
410.014	115.75
410.238	126.75
410.461	130.75
410.685	133.75
410.908	117.75
411.132	118.75
411.355	115.75
411.578	129.75
411.802	122.75
412.025	126.75
412.249	136.75
412.472	112.75
412.695	108.75
412.919	110.75
413.142	117.75
413.365	106.75
413.589	104.75
413.812	113.75
414.035	133.75
414.258	109.75
414.482	123.75
414.705	125.75
414.928	135.75
415.151	113.75
415.374	112.75
415.597	120.75
415.821	120.75
416.044	128.75
416.267	118.75
416.49	127.75
416.713	120.75
416.936	128.75
417.159	120.75
417.382	94.75
417.605	124.75
417.828	120.75
418.051	122.75
418.274	123.75
418.497	115.75
418.72	122.75
418.943	128.75
419.166	124.75
419.389	127.75
419.611	142.75
419.834	111.75
420.057	124.75
420.28	150.75
420.503	136.75
420.726	130.75
420.948	136.75
421.171	141.75
421.394	139.75
421.617	139.75
421.839	138.75
422.062	134.75
422.285	126.75
422.507	136.75
422.73	121.75
422.953	119.75
423.175	137.75
423.398	127.75
423.621	131.75
423.843	130.75
424.066	134.75
424.288	129.75
424.511	139.75
424.733	132.75
424.956	128.75
425.178	139.75
425.401	144.75
425.623	123.75
425.846	134.75
426.068	123.75
426.291	110.75
426.513	122.75
426.735	139.75
426.958	128.75
427.18	118.75
427.402	125.75
427.625	124.75
427.847	108.75
428.069	130.75
428.292	132.75
428.514	120.75
428.736	132.75
428.958	117.75
429.181	133.75
429.403	136.75
429.625	114.75
429.847	131.75
430.069	119.75
430.292	133.75
430.514	126.75
430.736	123.75
430.958	121.75
431.18	120.75
431.402	133.75
431.624	110.75
431.846	102.75
432.068	90.75
432.29	105.75
432.512	111.75
432.734	125.75
432.956	124.75
433.178	120.75
433.4	137.75
433.622	142.75
433.844	132.75
434.066	119.75
434.287	94.75
434.509	94.75
434.731	95.75
434.953	108.75
435.175	108.75
435.397	126.75
435.618	124.75
435.84	119.75
436.062	104.75
436.284	109.75
436.505	134.75
436.727	127.75
436.949	128.75
437.17	122.75
437.392	118.75
437.614	108.75
437.835	108.75
438.057	116.75
438.278	120.75
438.5	123.75
438.721	127.75
438.943	130.75
439.165	131.75
439.386	137.75
439.608	123.75
439.829	136.75
440.05	147.75
440.272	137.75
440.493	139.75
440.715	142.75
440.936	144.75
441.158	153.75
441.379	144.75
441.6	121.75
441.822	136.75
442.043	128.75
442.264	133.75
442.486	138.75
442.707	146.75
442.928	136.75
443.149	133.75
443.371	120.75
443.592	129.75
443.813	151.75
444.034	145.75
444.255	122.75
444.476	118.75
444.698	142.75
444.919	145.75
445.14	242.75
445.361	209.75
445.582	144.75
445.803	159.75
446.024	133.75
446.245	157.75
446.466	145.75
446.687	161.75
446.908	169.75
447.129	143.75
447.35	142.75
447.571	132.75
447.792	146.75
448.013	142.75
448.234	146.75
448.455	133.75
448.675	128.75
448.896	135.75
449.117	124.75
449.338	124.75
449.559	129.75
449.779	144.75
450	142.75
450.221	125.75
450.442	134.75
450.662	131.75
450.883	136.75
451.104	132.75
451.324	120.75
451.545	119.75
451.766	140.75
451.986	118.75
452.207	124.75
452.428	126.75
452.648	117.75
452.869	110.75
453.089	112.75
453.31	130.75
453.53	115.75
453.751	103.75
453.971	94.75
454.192	92.75
454.412	109.75
454.633	128.75
454.853	109.75
455.073	120.75
455.294	123.75
455.514	121.75
455.734	125.75
455.955	124.75
456.175	115.75
456.395	112.75
456.616	114.75
456.836	100.75
457.056	97.75
457.276	98.75
457.497	100.75
457.717	108.75
457.937	114.75
458.157	116.75
458.377	113.75
458.598	104.75
458.818	92.75
459.038	88.75
459.258	90.75
459.478	90.75
459.698	88.75
459.918	105.75
460.138	105.75
460.358	104.75
460.578	109.75
460.798	108.75
461.018	116.75
461.238	100.75
461.458	111.75
461.678	113.75
461.898	114.75
462.118	119.75
462.338	117.75
462.558	108.75
462.777	102.75
462.997	114.75
463.217	99.75
463.437	108.75
463.657	118.75
463.876	104.75
464.096	113.75
464.316	112.75
464.536	117.75
464.755	128.75
464.975	122.75
465.195	119.75
465.414	121.75
465.634	118.75
465.854	100.75
466.073	112.75
466.293	110.75
466.512	117.75
466.732	129.75
466.951	108.75
467.171	124.75
467.391	133.75
467.61	116.75
467.829	130.75
468.049	132.75
468.268	139.75
468.488	126.75
468.707	130.75
468.927	127.75
469.146	145.75
469.365	143.75
469.585	129.75
469.804	151.75
470.023	125.75
470.243	132.75
470.462	136.75
470.681	131.75
470.901	136.75
471.12	141.75
471.339	138.75
471.558	141.75
471.777	126.75
471.997	130.75
472.216	132.75
472.435	120.75
472.654	101.75
472.873	100.75
473.092	115.75
473.311	133.75
473.53	120.75
473.749	129.75
473.968	122.75
474.187	115.75
474.406	119.75
474.625	121.75
474.844	124.75
475.063	108.75
475.282	116.75
475.501	120.75
475.72	113.75
475.939	124.75
476.158	129.75
476.377	128.75
476.596	129.75
476.814	112.75
477.033	108.75
477.252	118.75
477.471	130.75
477.69	130.75
477.908	129.75
478.127	133.75
478.346	134.75
478.564	141.75
478.783	113.75
479.002	132.75
479.22	136.75
479.439	139.75
479.658	120.75
479.876	125.75
480.095	102.75
480.313	112.75
480.532	112.75
480.751	103.75
480.969	103.75
481.188	99.75
481.406	101.75
481.624	90.75
481.843	92.75
482.061	88.75
482.28	115.75
482.498	122.75
482.717	113.75
482.935	119.75
483.153	138.75
483.372	135.75
483.59	131.75
483.808	134.75
484.027	132.75
484.245	132.75
484.463	137.75
484.681	155.75
484.9	153.75
485.118	135.75
485.336	135.75
485.554	108.75
485.772	109.75
485.99	97.75
486.209	109.75
486.427	116.75
486.645	112.75
486.863	142.75
487.081	128.75
487.299	131.75
487.517	138.75
487.735	178.75
487.953	177.75
488.171	173.75
488.389	161.75
488.607	153.75
488.825	139.75
489.043	117.75
489.261	131.75
489.479	136.75
489.696	137.75
489.914	145.75
490.132	138.75
490.35	141.75
490.568	155.75
490.786	175.75
491.003	172.75
491.221	167.75
491.439	189.75
491.657	184.75
491.874	218.75
492.092	209.75
492.31	226.75
492.527	220.75
492.745	192.75
492.963	200.75
493.18	193.75
493.398	157.75
493.615	190.75
493.833	166.75
494.05	167.75
494.268	182.75
494.485	165.75
494.703	158.75
494.92	181.75
495.138	184.75
495.355	177.75
495.573	165.75
495.79	161.75
496.008	168.75
496.225	184.75
496.442	177.75
496.66	156.75
496.877	166.75
497.094	158.75
497.312	157.75
497.529	159.75
497.746	151.75
497.963	151.75
498.181	132.75
498.398	122.75
498.615	114.75
498.832	120.75
499.049	108.75
499.267	138.75
499.484	124.75
499.701	123.75
499.918	128.75
500.135	157.75
500.352	148.75
500.569	154.75
500.786	141.75
501.003	156.75
501.22	152.75
501.437	139.75
501.654	116.75
501.871	136.75
502.088	129.75
502.305	121.75
502.522	121.75
502.739	132.75
502.956	128.75
503.172	133.75
503.389	132.75
503.606	110.75
503.823	119.75
504.04	132.75
504.256	130.75
504.473	103.75
504.69	116.75
504.907	128.75
505.123	115.75
505.34	122.75
505.557	123.75
505.773	128.75
505.99	124.75
506.207	135.75
506.423	124.75
506.64	128.75
506.856	122.75
507.073	112.75
507.289	114.75
507.506	113.75
507.722	109.75
507.939	116.75
508.155	107.75
508.372	109.75
508.588	105.75
508.805	98.75
509.021	121.75
509.238	104.75
509.454	90.75
509.67	94.75
509.887	104.75
510.103	88.75
510.319	81.75
510.536	98.75
510.752	86.75
510.968	80.75
511.184	86.75
511.401	105.75
511.617	94.75
511.833	87.75
