Data from Location2.07152019.Energy5.Lamp.07192019.3%Agarose_HRD10591_14-57-14-359.txt Node
Date: Fri Jul 19 14:57:14 EDT 2019
User: cochatt
Spectrometer: HR+D1059
Trigger mode: 1
Integration Time (sec): 1.000000E-1
Scans to average: 1
Electric dark correction enabled: true
Nonlinearity correction enabled: false
Boxcar width: 0
XAxis mode: Wavelengths
Number of Pixels in Spectrum: 2048
>>>>>Begin Spectral Data<<<<<
223.165	-10.94
223.4	-10.94
223.635	-10.94
223.869	-28.94
224.104	-14.94
224.338	-25.94
224.573	-12.94
224.808	0.06
225.042	5.06
225.277	-5.94
225.511	-0.94
225.746	11.06
225.98	5.06
226.215	21.06
226.449	-3.94
226.683	15.06
226.918	21.06
227.152	26.06
227.387	45.06
227.621	39.06
227.856	47.06
228.09	42.06
228.324	43.06
228.559	58.06
228.793	66.06
229.027	64.06
229.262	61.06
229.496	70.06
229.73	64.06
229.964	70.06
230.199	77.06
230.433	73.06
230.667	81.06
230.901	77.06
231.136	85.06
231.37	71.06
231.604	98.06
231.838	92.06
232.072	92.06
232.306	100.06
232.541	87.06
232.775	76.06
233.009	80.06
233.243	85.06
233.477	92.06
233.711	74.06
233.945	90.06
234.179	90.06
234.413	79.06
234.647	85.06
234.881	76.06
235.115	76.06
235.349	82.06
235.583	81.06
235.817	93.06
236.051	88.06
236.285	93.06
236.519	89.06
236.753	90.06
236.987	77.06
237.221	74.06
237.455	69.06
237.689	85.06
237.922	69.06
238.156	82.06
238.39	76.06
238.624	73.06
238.858	56.06
239.091	86.06
239.325	69.06
239.559	89.06
239.793	72.06
240.027	68.06
240.26	76.06
240.494	80.06
240.728	76.06
240.961	61.06
241.195	72.06
241.429	84.06
241.662	71.06
241.896	79.06
242.13	69.06
242.363	69.06
242.597	74.06
242.83	73.06
243.064	84.06
243.298	84.06
243.531	78.06
243.765	95.06
243.998	84.06
244.232	76.06
244.465	71.06
244.699	90.06
244.932	79.06
245.166	88.06
245.399	92.06
245.633	94.06
245.866	84.06
246.099	78.06
246.333	78.06
246.566	79.06
246.8	70.06
247.033	75.06
247.266	77.06
247.5	71.06
247.733	79.06
247.966	69.06
248.2	71.06
248.433	76.06
248.666	75.06
248.899	90.06
249.133	92.06
249.366	80.06
249.599	81.06
249.832	87.06
250.066	95.06
250.299	82.06
250.532	77.06
250.765	85.06
250.998	84.06
251.231	88.06
251.465	81.06
251.698	69.06
251.931	87.06
252.164	97.06
252.397	88.06
252.63	89.06
252.863	88.06
253.096	68.06
253.329	74.06
253.562	96.06
253.795	85.06
254.028	81.06
254.261	68.06
254.494	85.06
254.727	88.06
254.96	96.06
255.193	74.06
255.426	94.06
255.659	84.06
255.892	80.06
256.124	62.06
256.357	77.06
256.59	71.06
256.823	75.06
257.056	87.06
257.289	77.06
257.521	80.06
257.754	65.06
257.987	86.06
258.22	73.06
258.452	90.06
258.685	97.06
258.918	79.06
259.151	68.06
259.383	71.06
259.616	97.06
259.849	92.06
260.081	66.06
260.314	89.06
260.547	81.06
260.779	79.06
261.012	79.06
261.244	86.06
261.477	103.06
261.71	82.06
261.942	85.06
262.175	81.06
262.407	80.06
262.64	73.06
262.872	88.06
263.105	92.06
263.337	94.06
263.57	81.06
263.802	83.06
264.035	93.06
264.267	79.06
264.499	81.06
264.732	86.06
264.964	92.06
265.197	92.06
265.429	81.06
265.661	83.06
265.894	83.06
266.126	76.06
266.358	89.06
266.591	84.06
266.823	79.06
267.055	77.06
267.287	86.06
267.52	77.06
267.752	69.06
267.984	60.06
268.216	75.06
268.448	89.06
268.681	86.06
268.913	98.06
269.145	89.06
269.377	94.06
269.609	97.06
269.841	68.06
270.073	77.06
270.306	77.06
270.538	79.06
270.77	86.06
271.002	98.06
271.234	85.06
271.466	88.06
271.698	81.06
271.93	87.06
272.162	69.06
272.394	93.06
272.626	84.06
272.858	88.06
273.09	84.06
273.322	79.06
273.553	94.06
273.785	91.06
274.017	81.06
274.249	89.06
274.481	79.06
274.713	78.06
274.945	88.06
275.176	92.06
275.408	91.06
275.64	85.06
275.872	79.06
276.104	87.06
276.335	76.06
276.567	81.06
276.799	98.06
277.031	93.06
277.262	83.06
277.494	88.06
277.726	92.06
277.957	84.06
278.189	86.06
278.421	86.06
278.652	82.06
278.884	85.06
279.115	75.06
279.347	94.06
279.579	91.06
279.81	77.06
280.042	79.06
280.273	81.06
280.505	105.06
280.736	84.06
280.968	78.06
281.199	72.06
281.431	75.06
281.662	77.06
281.894	79.06
282.125	92.06
282.356	93.06
282.588	83.06
282.819	93.06
283.051	74.06
283.282	86.06
283.513	83.06
283.745	95.06
283.976	73.06
284.207	96.06
284.439	99.06
284.67	100.06
284.901	92.06
285.132	90.06
285.364	75.06
285.595	83.06
285.826	77.06
286.057	84.06
286.288	82.06
286.52	84.06
286.751	84.06
286.982	88.06
287.213	88.06
287.444	75.06
287.675	81.06
287.906	90.06
288.138	63.06
288.369	91.06
288.6	93.06
288.831	80.06
289.062	87.06
289.293	102.06
289.524	86.06
289.755	75.06
289.986	82.06
290.217	93.06
290.448	93.06
290.679	91.06
290.91	79.06
291.141	94.06
291.371	86.06
291.602	74.06
291.833	89.06
292.064	73.06
292.295	76.06
292.526	81.06
292.757	89.06
292.987	67.06
293.218	94.06
293.449	89.06
293.68	84.06
293.91	85.06
294.141	90.06
294.372	93.06
294.603	76.06
294.833	84.06
295.064	77.06
295.295	77.06
295.525	82.06
295.756	88.06
295.987	97.06
296.217	95.06
296.448	99.06
296.679	80.06
296.909	106.06
297.14	89.06
297.37	93.06
297.601	83.06
297.831	83.06
298.062	78.06
298.292	93.06
298.523	85.06
298.753	69.06
298.984	86.06
299.214	83.06
299.445	90.06
299.675	83.06
299.905	75.06
300.136	77.06
300.366	88.06
300.597	99.06
300.827	92.06
301.057	91.06
301.288	87.06
301.518	73.06
301.748	78.06
301.979	66.06
302.209	76.06
302.439	78.06
302.669	80.06
302.9	77.06
303.13	89.06
303.36	89.06
303.59	82.06
303.82	90.06
304.051	78.06
304.281	90.06
304.511	88.06
304.741	84.06
304.971	79.06
305.201	91.06
305.431	89.06
305.661	94.06
305.891	82.06
306.121	73.06
306.352	87.06
306.582	88.06
306.812	79.06
307.042	86.06
307.272	87.06
307.502	85.06
307.731	102.06
307.961	95.06
308.191	97.06
308.421	75.06
308.651	93.06
308.881	97.06
309.111	97.06
309.341	70.06
309.571	87.06
309.8	97.06
310.03	92.06
310.26	83.06
310.49	79.06
310.72	89.06
310.949	91.06
311.179	89.06
311.409	72.06
311.639	91.06
311.868	77.06
312.098	79.06
312.328	87.06
312.557	72.06
312.787	98.06
313.017	94.06
313.246	69.06
313.476	76.06
313.706	87.06
313.935	84.06
314.165	89.06
314.394	80.06
314.624	83.06
314.853	82.06
315.083	70.06
315.312	89.06
315.542	96.06
315.771	94.06
316.001	89.06
316.23	97.06
316.46	95.06
316.689	91.06
316.919	79.06
317.148	91.06
317.377	91.06
317.607	94.06
317.836	82.06
318.065	85.06
318.295	86.06
318.524	82.06
318.753	79.06
318.983	92.06
319.212	89.06
319.441	91.06
319.67	85.06
319.9	73.06
320.129	83.06
320.358	94.06
320.587	85.06
320.816	83.06
321.046	72.06
321.275	83.06
321.504	91.06
321.733	89.06
321.962	79.06
322.191	94.06
322.42	78.06
322.649	73.06
322.878	83.06
323.108	96.06
323.337	80.06
323.566	78.06
323.795	84.06
324.024	86.06
324.253	79.06
324.482	80.06
324.71	85.06
324.939	83.06
325.168	85.06
325.397	88.06
325.626	82.06
325.855	92.06
326.084	86.06
326.313	82.06
326.542	78.06
326.77	89.06
326.999	74.06
327.228	78.06
327.457	77.06
327.686	85.06
327.914	86.06
328.143	83.06
328.372	70.06
328.6	95.06
328.829	102.06
329.058	78.06
329.287	90.06
329.515	72.06
329.744	70.06
329.972	88.06
330.201	86.06
330.43	83.06
330.658	77.06
330.887	95.06
331.115	93.06
331.344	81.06
331.572	106.06
331.801	85.06
332.03	107.06
332.258	89.06
332.486	93.06
332.715	81.06
332.943	96.06
333.172	85.06
333.4	85.06
333.629	95.06
333.857	90.06
334.085	73.06
334.314	90.06
334.542	88.06
334.771	90.06
334.999	78.06
335.227	82.06
335.455	76.06
335.684	104.06
335.912	91.06
336.14	79.06
336.369	90.06
336.597	84.06
336.825	97.06
337.053	84.06
337.281	94.06
337.51	95.06
337.738	92.06
337.966	103.06
338.194	88.06
338.422	76.06
338.65	101.06
338.878	87.06
339.106	90.06
339.334	105.06
339.562	84.06
339.79	88.06
340.018	93.06
340.246	95.06
340.474	94.06
340.702	94.06
340.93	83.06
341.158	89.06
341.386	98.06
341.614	85.06
341.842	95.06
342.07	92.06
342.298	71.06
342.526	79.06
342.754	89.06
342.981	98.06
343.209	80.06
343.437	81.06
343.665	90.06
343.893	97.06
344.12	83.06
344.348	92.06
344.576	99.06
344.804	84.06
345.031	79.06
345.259	94.06
345.487	76.06
345.714	70.06
345.942	82.06
346.17	74.06
346.397	84.06
346.625	98.06
346.853	83.06
347.08	88.06
347.308	84.06
347.535	89.06
347.763	92.06
347.99	87.06
348.218	84.06
348.445	88.06
348.673	85.06
348.9	88.06
349.128	91.06
349.355	72.06
349.583	77.06
349.81	84.06
350.037	90.06
350.265	89.06
350.492	95.06
350.72	90.06
350.947	89.06
351.174	88.06
351.402	85.06
351.629	93.06
351.856	81.06
352.083	90.06
352.311	84.06
352.538	78.06
352.765	90.06
352.992	84.06
353.22	80.06
353.447	83.06
353.674	89.06
353.901	99.06
354.128	107.06
354.355	96.06
354.583	77.06
354.81	80.06
355.037	85.06
355.264	81.06
355.491	84.06
355.718	86.06
355.945	99.06
356.172	75.06
356.399	83.06
356.626	82.06
356.853	81.06
357.08	91.06
357.307	79.06
357.534	88.06
357.761	83.06
357.988	100.06
358.215	91.06
358.441	93.06
358.668	95.06
358.895	97.06
359.122	87.06
359.349	92.06
359.576	88.06
359.802	87.06
360.029	96.06
360.256	104.06
360.483	79.06
360.709	94.06
360.936	93.06
361.163	76.06
361.39	90.06
361.616	93.06
361.843	92.06
362.07	95.06
362.296	84.06
362.523	84.06
362.749	86.06
362.976	84.06
363.203	94.06
363.429	75.06
363.656	92.06
363.882	76.06
364.109	91.06
364.335	89.06
364.562	85.06
364.788	92.06
365.015	81.06
365.241	83.06
365.468	94.06
365.694	91.06
365.92	97.06
366.147	94.06
366.373	87.06
366.599	93.06
366.826	86.06
367.052	84.06
367.278	78.06
367.505	81.06
367.731	90.06
367.957	97.06
368.184	78.06
368.41	78.06
368.636	92.06
368.862	107.06
369.089	89.06
369.315	95.06
369.541	93.06
369.767	111.06
369.993	92.06
370.219	91.06
370.445	95.06
370.672	89.06
370.898	97.06
371.124	94.06
371.35	92.06
371.576	87.06
371.802	84.06
372.028	83.06
372.254	92.06
372.48	110.06
372.706	99.06
372.932	98.06
373.158	105.06
373.384	95.06
373.61	100.06
373.835	97.06
374.061	93.06
374.287	102.06
374.513	98.06
374.739	84.06
374.965	96.06
375.191	84.06
375.416	95.06
375.642	95.06
375.868	102.06
376.094	87.06
376.319	94.06
376.545	98.06
376.771	89.06
376.997	90.06
377.222	102.06
377.448	88.06
377.674	93.06
377.899	106.06
378.125	98.06
378.35	100.06
378.576	105.06
378.802	100.06
379.027	90.06
379.253	99.06
379.478	90.06
379.704	98.06
379.929	87.06
380.155	91.06
380.38	89.06
380.606	94.06
380.831	103.06
381.057	112.06
381.282	113.06
381.507	99.06
381.733	101.06
381.958	108.06
382.184	94.06
382.409	96.06
382.634	89.06
382.86	106.06
383.085	101.06
383.31	101.06
383.535	99.06
383.761	89.06
383.986	110.06
384.211	101.06
384.436	99.06
384.662	99.06
384.887	87.06
385.112	91.06
385.337	104.06
385.562	96.06
385.787	87.06
386.013	103.06
386.238	115.06
386.463	86.06
386.688	109.06
386.913	108.06
387.138	108.06
387.363	115.06
387.588	113.06
387.813	99.06
388.038	105.06
388.263	101.06
388.488	108.06
388.713	95.06
388.938	89.06
389.163	95.06
389.387	99.06
389.612	111.06
389.837	106.06
390.062	102.06
390.287	110.06
390.512	95.06
390.736	100.06
390.961	106.06
391.186	97.06
391.411	113.06
391.636	93.06
391.86	108.06
392.085	115.06
392.31	108.06
392.534	120.06
392.759	121.06
392.984	102.06
393.208	125.06
393.433	108.06
393.658	91.06
393.882	110.06
394.107	90.06
394.331	115.06
394.556	104.06
394.78	105.06
395.005	116.06
395.229	97.06
395.454	115.06
395.678	105.06
395.903	108.06
396.127	99.06
396.352	108.06
396.576	105.06
396.801	123.06
397.025	89.06
397.249	110.06
397.474	120.06
397.698	119.06
397.922	103.06
398.147	102.06
398.371	105.06
398.595	123.06
398.82	117.06
399.044	118.06
399.268	112.06
399.492	107.06
399.717	117.06
399.941	125.06
400.165	120.06
400.389	116.06
400.613	107.06
400.837	121.06
401.062	101.06
401.286	109.06
401.51	114.06
401.734	114.06
401.958	123.06
402.182	117.06
402.406	118.06
402.63	123.06
402.854	107.06
403.078	122.06
403.302	136.06
403.526	121.06
403.75	104.06
403.974	124.06
404.198	109.06
404.422	107.06
404.645	120.06
404.869	117.06
405.093	106.06
405.317	108.06
405.541	120.06
405.765	118.06
405.988	122.06
406.212	111.06
406.436	122.06
406.66	118.06
406.883	121.06
407.107	97.06
407.331	121.06
407.555	122.06
407.778	129.06
408.002	133.06
408.226	128.06
408.449	126.06
408.673	116.06
408.896	131.06
409.12	119.06
409.344	125.06
409.567	109.06
409.791	127.06
410.014	127.06
410.238	126.06
410.461	136.06
410.685	128.06
410.908	123.06
411.132	132.06
411.355	123.06
411.578	125.06
411.802	124.06
412.025	133.06
412.249	127.06
412.472	121.06
412.695	126.06
412.919	122.06
413.142	126.06
413.365	130.06
413.589	128.06
413.812	107.06
414.035	125.06
414.258	117.06
414.482	113.06
414.705	124.06
414.928	118.06
415.151	123.06
415.374	140.06
415.597	141.06
415.821	140.06
416.044	128.06
416.267	122.06
416.49	121.06
416.713	121.06
416.936	118.06
417.159	128.06
417.382	108.06
417.605	125.06
417.828	125.06
418.051	132.06
418.274	142.06
418.497	131.06
418.72	136.06
418.943	140.06
419.166	145.06
419.389	140.06
419.611	149.06
419.834	138.06
420.057	135.06
420.28	142.06
420.503	118.06
420.726	144.06
420.948	137.06
421.171	121.06
421.394	142.06
421.617	154.06
421.839	145.06
422.062	131.06
422.285	137.06
422.507	129.06
422.73	130.06
422.953	129.06
423.175	131.06
423.398	138.06
423.621	136.06
423.843	132.06
424.066	124.06
424.288	135.06
424.511	146.06
424.733	148.06
424.956	131.06
425.178	153.06
425.401	150.06
425.623	136.06
425.846	135.06
426.068	134.06
426.291	118.06
426.513	147.06
426.735	123.06
426.958	121.06
427.18	133.06
427.402	136.06
427.625	135.06
427.847	127.06
428.069	125.06
428.292	127.06
428.514	143.06
428.736	122.06
428.958	138.06
429.181	137.06
429.403	137.06
429.625	125.06
429.847	125.06
430.069	123.06
430.292	139.06
430.514	134.06
430.736	141.06
430.958	136.06
431.18	141.06
431.402	133.06
431.624	132.06
431.846	113.06
432.068	93.06
432.29	94.06
432.512	121.06
432.734	115.06
432.956	122.06
433.178	140.06
433.4	151.06
433.622	140.06
433.844	131.06
434.066	128.06
434.287	109.06
434.509	105.06
434.731	101.06
434.953	132.06
435.175	129.06
435.397	129.06
435.618	128.06
435.84	120.06
436.062	113.06
436.284	116.06
436.505	130.06
436.727	132.06
436.949	149.06
437.17	137.06
437.392	129.06
437.614	121.06
437.835	111.06
438.057	107.06
438.278	116.06
438.5	117.06
438.721	133.06
438.943	139.06
439.165	137.06
439.386	145.06
439.608	153.06
439.829	146.06
440.05	163.06
440.272	135.06
440.493	137.06
440.715	151.06
440.936	145.06
441.158	141.06
441.379	156.06
441.6	158.06
441.822	154.06
442.043	148.06
442.264	153.06
442.486	167.06
442.707	149.06
442.928	146.06
443.149	133.06
443.371	139.06
443.592	142.06
443.813	149.06
444.034	137.06
444.255	139.06
444.476	135.06
444.698	147.06
444.919	138.06
445.14	268.06
445.361	201.06
445.582	151.06
445.803	149.06
446.024	143.06
446.245	156.06
446.466	162.06
446.687	167.06
446.908	154.06
447.129	143.06
447.35	165.06
447.571	146.06
447.792	151.06
448.013	143.06
448.234	142.06
448.455	145.06
448.675	143.06
448.896	151.06
449.117	138.06
449.338	133.06
449.559	153.06
449.779	131.06
450	138.06
450.221	131.06
450.442	144.06
450.662	132.06
450.883	151.06
451.104	135.06
451.324	145.06
451.545	136.06
451.766	133.06
451.986	126.06
452.207	126.06
452.428	134.06
452.648	137.06
452.869	135.06
453.089	91.06
453.31	110.06
453.53	116.06
453.751	115.06
453.971	102.06
454.192	119.06
454.412	110.06
454.633	120.06
454.853	125.06
455.073	124.06
455.294	121.06
455.514	117.06
455.734	123.06
455.955	122.06
456.175	128.06
456.395	118.06
456.616	110.06
456.836	109.06
457.056	106.06
457.276	105.06
457.497	98.06
457.717	113.06
457.937	113.06
458.157	117.06
458.377	111.06
458.598	104.06
458.818	114.06
459.038	95.06
459.258	89.06
459.478	86.06
459.698	79.06
459.918	99.06
460.138	114.06
460.358	129.06
460.578	113.06
460.798	130.06
461.018	122.06
461.238	105.06
461.458	115.06
461.678	117.06
461.898	109.06
462.118	125.06
462.338	123.06
462.558	110.06
462.777	122.06
462.997	123.06
463.217	122.06
463.437	113.06
463.657	94.06
463.876	108.06
464.096	118.06
464.316	105.06
464.536	105.06
464.755	119.06
464.975	125.06
465.195	119.06
465.414	123.06
465.634	129.06
465.854	125.06
466.073	113.06
466.293	139.06
466.512	136.06
466.732	142.06
466.951	137.06
467.171	133.06
467.391	134.06
467.61	131.06
467.829	149.06
468.049	141.06
468.268	129.06
468.488	140.06
468.707	129.06
468.927	138.06
469.146	138.06
469.365	151.06
469.585	149.06
469.804	141.06
470.023	143.06
470.243	148.06
470.462	149.06
470.681	143.06
470.901	140.06
471.12	145.06
471.339	136.06
471.558	142.06
471.777	126.06
471.997	129.06
472.216	132.06
472.435	108.06
472.654	110.06
472.873	97.06
473.092	119.06
473.311	122.06
473.53	123.06
473.749	140.06
473.968	116.06
474.187	113.06
474.406	116.06
474.625	131.06
474.844	130.06
475.063	115.06
475.282	116.06
475.501	106.06
475.72	131.06
475.939	117.06
476.158	121.06
476.377	139.06
476.596	139.06
476.814	119.06
477.033	112.06
477.252	120.06
477.471	130.06
477.69	136.06
477.908	131.06
478.127	167.06
478.346	157.06
478.564	143.06
478.783	148.06
479.002	140.06
479.22	135.06
479.439	136.06
479.658	119.06
479.876	118.06
480.095	107.06
480.313	125.06
480.532	122.06
480.751	107.06
480.969	107.06
481.188	104.06
481.406	90.06
481.624	96.06
481.843	91.06
482.061	116.06
482.28	108.06
482.498	121.06
482.717	110.06
482.935	118.06
483.153	151.06
483.372	162.06
483.59	159.06
483.808	144.06
484.027	130.06
484.245	128.06
484.463	140.06
484.681	159.06
484.9	136.06
485.118	151.06
485.336	124.06
485.554	127.06
485.772	107.06
485.99	121.06
486.209	103.06
486.427	97.06
486.645	124.06
486.863	139.06
487.081	143.06
487.299	129.06
487.517	139.06
487.735	154.06
487.953	182.06
488.171	195.06
488.389	182.06
488.607	156.06
488.825	150.06
489.043	157.06
489.261	146.06
489.479	135.06
489.696	149.06
489.914	139.06
490.132	157.06
490.35	139.06
490.568	166.06
490.786	157.06
491.003	189.06
491.221	179.06
491.439	196.06
491.657	189.06
491.874	193.06
492.092	212.06
492.31	231.06
492.527	234.06
492.745	207.06
492.963	217.06
493.18	201.06
493.398	189.06
493.615	186.06
493.833	197.06
494.05	163.06
494.268	168.06
494.485	176.06
494.703	167.06
494.92	187.06
495.138	179.06
495.355	185.06
495.573	166.06
495.79	175.06
496.008	171.06
496.225	183.06
496.442	174.06
496.66	165.06
496.877	149.06
497.094	177.06
497.312	153.06
497.529	168.06
497.746	158.06
497.963	153.06
498.181	141.06
498.398	137.06
498.615	125.06
498.832	111.06
499.049	126.06
499.267	123.06
499.484	127.06
499.701	140.06
499.918	147.06
500.135	129.06
500.352	151.06
500.569	143.06
500.786	130.06
501.003	149.06
501.22	148.06
501.437	156.06
501.654	155.06
501.871	141.06
502.088	118.06
502.305	143.06
502.522	134.06
502.739	133.06
502.956	135.06
503.172	136.06
503.389	136.06
503.606	122.06
503.823	130.06
504.04	123.06
504.256	133.06
504.473	115.06
504.69	121.06
504.907	134.06
505.123	115.06
505.34	125.06
505.557	127.06
505.773	115.06
505.99	143.06
506.207	137.06
506.423	115.06
506.64	118.06
506.856	117.06
507.073	119.06
507.289	130.06
507.506	117.06
507.722	123.06
507.939	130.06
508.155	121.06
508.372	117.06
508.588	120.06
508.805	124.06
509.021	115.06
509.238	107.06
509.454	101.06
509.67	105.06
509.887	92.06
510.103	101.06
510.319	90.06
510.536	90.06
510.752	89.06
510.968	93.06
511.184	90.06
