Data from Location2.07152019.Energy5.Lamp.07192019.3%Agarose_HRD10591_14-56-06-359.txt Node
Date: Fri Jul 19 14:56:06 EDT 2019
User: cochatt
Spectrometer: HR+D1059
Trigger mode: 1
Integration Time (sec): 1.000000E-1
Scans to average: 1
Electric dark correction enabled: true
Nonlinearity correction enabled: false
Boxcar width: 0
XAxis mode: Wavelengths
Number of Pixels in Spectrum: 2048
>>>>>Begin Spectral Data<<<<<
223.165	-6.94
223.4	-6.94
223.635	-6.94
223.869	-18.94
224.104	-22.94
224.338	-14.94
224.573	-14.94
224.808	-1.94
225.042	-12.94
225.277	-4.94
225.511	-1.94
225.746	10.06
225.98	-5.94
226.215	1.06
226.449	22.06
226.683	27.06
226.918	20.06
227.152	26.06
227.387	39.06
227.621	44.06
227.856	45.06
228.09	51.06
228.324	50.06
228.559	62.06
228.793	69.06
229.027	81.06
229.262	71.06
229.496	72.06
229.73	74.06
229.964	71.06
230.199	72.06
230.433	72.06
230.667	79.06
230.901	72.06
231.136	69.06
231.37	63.06
231.604	81.06
231.838	87.06
232.072	79.06
232.306	79.06
232.541	83.06
232.775	74.06
233.009	76.06
233.243	88.06
233.477	74.06
233.711	85.06
233.945	83.06
234.179	79.06
234.413	86.06
234.647	80.06
234.881	80.06
235.115	75.06
235.349	75.06
235.583	89.06
235.817	82.06
236.051	85.06
236.285	79.06
236.519	81.06
236.753	79.06
236.987	81.06
237.221	75.06
237.455	70.06
237.689	66.06
237.922	85.06
238.156	75.06
238.39	78.06
238.624	83.06
238.858	85.06
239.091	82.06
239.325	74.06
239.559	64.06
239.793	77.06
240.027	74.06
240.26	71.06
240.494	82.06
240.728	74.06
240.961	71.06
241.195	74.06
241.429	66.06
241.662	61.06
241.896	76.06
242.13	57.06
242.363	70.06
242.597	70.06
242.83	89.06
243.064	76.06
243.298	92.06
243.531	82.06
243.765	73.06
243.998	82.06
244.232	73.06
244.465	71.06
244.699	78.06
244.932	76.06
245.166	84.06
245.399	86.06
245.633	86.06
245.866	77.06
246.099	93.06
246.333	80.06
246.566	79.06
246.8	72.06
247.033	76.06
247.266	75.06
247.5	73.06
247.733	82.06
247.966	81.06
248.2	71.06
248.433	74.06
248.666	77.06
248.899	70.06
249.133	88.06
249.366	94.06
249.599	77.06
249.832	64.06
250.066	90.06
250.299	77.06
250.532	62.06
250.765	84.06
250.998	65.06
251.231	69.06
251.465	77.06
251.698	75.06
251.931	77.06
252.164	86.06
252.397	77.06
252.63	77.06
252.863	78.06
253.096	71.06
253.329	77.06
253.562	88.06
253.795	73.06
254.028	86.06
254.261	83.06
254.494	74.06
254.727	96.06
254.96	79.06
255.193	68.06
255.426	88.06
255.659	68.06
255.892	84.06
256.124	71.06
256.357	75.06
256.59	78.06
256.823	80.06
257.056	84.06
257.289	85.06
257.521	81.06
257.754	89.06
257.987	81.06
258.22	75.06
258.452	77.06
258.685	71.06
258.918	71.06
259.151	81.06
259.383	83.06
259.616	65.06
259.849	85.06
260.081	94.06
260.314	82.06
260.547	75.06
260.779	74.06
261.012	71.06
261.244	90.06
261.477	97.06
261.71	84.06
261.942	87.06
262.175	80.06
262.407	78.06
262.64	91.06
262.872	79.06
263.105	79.06
263.337	83.06
263.57	81.06
263.802	78.06
264.035	81.06
264.267	68.06
264.499	76.06
264.732	90.06
264.964	91.06
265.197	95.06
265.429	80.06
265.661	92.06
265.894	82.06
266.126	86.06
266.358	92.06
266.591	74.06
266.823	79.06
267.055	73.06
267.287	83.06
267.52	83.06
267.752	79.06
267.984	76.06
268.216	92.06
268.448	83.06
268.681	72.06
268.913	87.06
269.145	90.06
269.377	78.06
269.609	71.06
269.841	81.06
270.073	68.06
270.306	93.06
270.538	78.06
270.77	84.06
271.002	87.06
271.234	84.06
271.466	77.06
271.698	87.06
271.93	85.06
272.162	76.06
272.394	83.06
272.626	88.06
272.858	70.06
273.09	71.06
273.322	88.06
273.553	92.06
273.785	68.06
274.017	88.06
274.249	84.06
274.481	65.06
274.713	89.06
274.945	80.06
275.176	81.06
275.408	76.06
275.64	82.06
275.872	84.06
276.104	76.06
276.335	88.06
276.567	82.06
276.799	79.06
277.031	85.06
277.262	92.06
277.494	81.06
277.726	86.06
277.957	87.06
278.189	86.06
278.421	69.06
278.652	81.06
278.884	84.06
279.115	82.06
279.347	88.06
279.579	78.06
279.81	99.06
280.042	90.06
280.273	76.06
280.505	84.06
280.736	90.06
280.968	83.06
281.199	86.06
281.431	87.06
281.662	97.06
281.894	70.06
282.125	78.06
282.356	94.06
282.588	83.06
282.819	83.06
283.051	72.06
283.282	68.06
283.513	83.06
283.745	77.06
283.976	75.06
284.207	79.06
284.439	82.06
284.67	94.06
284.901	74.06
285.132	85.06
285.364	79.06
285.595	83.06
285.826	89.06
286.057	90.06
286.288	85.06
286.52	80.06
286.751	106.06
286.982	100.06
287.213	93.06
287.444	81.06
287.675	87.06
287.906	86.06
288.138	73.06
288.369	86.06
288.6	94.06
288.831	88.06
289.062	90.06
289.293	91.06
289.524	77.06
289.755	71.06
289.986	80.06
290.217	79.06
290.448	76.06
290.679	83.06
290.91	88.06
291.141	81.06
291.371	74.06
291.602	79.06
291.833	69.06
292.064	97.06
292.295	77.06
292.526	70.06
292.757	68.06
292.987	88.06
293.218	82.06
293.449	82.06
293.68	74.06
293.91	81.06
294.141	77.06
294.372	81.06
294.603	83.06
294.833	70.06
295.064	75.06
295.295	88.06
295.525	79.06
295.756	103.06
295.987	84.06
296.217	82.06
296.448	93.06
296.679	85.06
296.909	84.06
297.14	84.06
297.37	90.06
297.601	87.06
297.831	75.06
298.062	84.06
298.292	96.06
298.523	79.06
298.753	88.06
298.984	81.06
299.214	81.06
299.445	86.06
299.675	89.06
299.905	75.06
300.136	81.06
300.366	81.06
300.597	76.06
300.827	83.06
301.057	79.06
301.288	83.06
301.518	87.06
301.748	75.06
301.979	83.06
302.209	98.06
302.439	85.06
302.669	83.06
302.9	90.06
303.13	91.06
303.36	87.06
303.59	79.06
303.82	83.06
304.051	84.06
304.281	94.06
304.511	78.06
304.741	65.06
304.971	81.06
305.201	72.06
305.431	81.06
305.661	78.06
305.891	95.06
306.121	88.06
306.352	87.06
306.582	72.06
306.812	86.06
307.042	96.06
307.272	85.06
307.502	74.06
307.731	102.06
307.961	76.06
308.191	86.06
308.421	95.06
308.651	86.06
308.881	75.06
309.111	83.06
309.341	92.06
309.571	71.06
309.8	99.06
310.03	86.06
310.26	75.06
310.49	87.06
310.72	70.06
310.949	94.06
311.179	86.06
311.409	79.06
311.639	88.06
311.868	81.06
312.098	87.06
312.328	85.06
312.557	91.06
312.787	82.06
313.017	85.06
313.246	85.06
313.476	96.06
313.706	78.06
313.935	89.06
314.165	81.06
314.394	84.06
314.624	82.06
314.853	86.06
315.083	83.06
315.312	88.06
315.542	100.06
315.771	100.06
316.001	76.06
316.23	90.06
316.46	86.06
316.689	75.06
316.919	73.06
317.148	81.06
317.377	91.06
317.607	108.06
317.836	86.06
318.065	92.06
318.295	89.06
318.524	93.06
318.753	76.06
318.983	98.06
319.212	73.06
319.441	96.06
319.67	87.06
319.9	81.06
320.129	100.06
320.358	93.06
320.587	88.06
320.816	71.06
321.046	99.06
321.275	86.06
321.504	90.06
321.733	85.06
321.962	86.06
322.191	82.06
322.42	81.06
322.649	90.06
322.878	97.06
323.108	79.06
323.337	87.06
323.566	83.06
323.795	63.06
324.024	83.06
324.253	85.06
324.482	83.06
324.71	85.06
324.939	78.06
325.168	82.06
325.397	74.06
325.626	80.06
325.855	84.06
326.084	89.06
326.313	70.06
326.542	94.06
326.77	89.06
326.999	81.06
327.228	80.06
327.457	82.06
327.686	85.06
327.914	88.06
328.143	81.06
328.372	79.06
328.6	84.06
328.829	82.06
329.058	79.06
329.287	75.06
329.515	84.06
329.744	74.06
329.972	71.06
330.201	69.06
330.43	91.06
330.658	84.06
330.887	81.06
331.115	67.06
331.344	73.06
331.572	83.06
331.801	96.06
332.03	98.06
332.258	90.06
332.486	87.06
332.715	72.06
332.943	83.06
333.172	80.06
333.4	82.06
333.629	82.06
333.857	74.06
334.085	83.06
334.314	90.06
334.542	90.06
334.771	72.06
334.999	85.06
335.227	79.06
335.455	83.06
335.684	93.06
335.912	70.06
336.14	77.06
336.369	82.06
336.597	86.06
336.825	83.06
337.053	74.06
337.281	80.06
337.51	91.06
337.738	96.06
337.966	83.06
338.194	75.06
338.422	88.06
338.65	90.06
338.878	88.06
339.106	83.06
339.334	102.06
339.562	82.06
339.79	74.06
340.018	88.06
340.246	89.06
340.474	82.06
340.702	87.06
340.93	79.06
341.158	95.06
341.386	75.06
341.614	77.06
341.842	88.06
342.07	85.06
342.298	99.06
342.526	88.06
342.754	93.06
342.981	79.06
343.209	102.06
343.437	79.06
343.665	92.06
343.893	78.06
344.12	90.06
344.348	79.06
344.576	78.06
344.804	88.06
345.031	88.06
345.259	83.06
345.487	88.06
345.714	75.06
345.942	78.06
346.17	79.06
346.397	82.06
346.625	73.06
346.853	75.06
347.08	71.06
347.308	85.06
347.535	79.06
347.763	95.06
347.99	70.06
348.218	74.06
348.445	81.06
348.673	91.06
348.9	70.06
349.128	86.06
349.355	76.06
349.583	76.06
349.81	86.06
350.037	75.06
350.265	101.06
350.492	97.06
350.72	90.06
350.947	85.06
351.174	84.06
351.402	80.06
351.629	83.06
351.856	95.06
352.083	77.06
352.311	101.06
352.538	80.06
352.765	83.06
352.992	83.06
353.22	90.06
353.447	70.06
353.674	88.06
353.901	78.06
354.128	74.06
354.355	94.06
354.583	86.06
354.81	82.06
355.037	78.06
355.264	91.06
355.491	80.06
355.718	92.06
355.945	76.06
356.172	94.06
356.399	76.06
356.626	86.06
356.853	68.06
357.08	81.06
357.307	81.06
357.534	85.06
357.761	86.06
357.988	80.06
358.215	85.06
358.441	83.06
358.668	80.06
358.895	97.06
359.122	81.06
359.349	82.06
359.576	75.06
359.802	75.06
360.029	73.06
360.256	104.06
360.483	85.06
360.709	82.06
360.936	87.06
361.163	87.06
361.39	88.06
361.616	95.06
361.843	90.06
362.07	75.06
362.296	88.06
362.523	75.06
362.749	81.06
362.976	74.06
363.203	81.06
363.429	77.06
363.656	87.06
363.882	86.06
364.109	74.06
364.335	95.06
364.562	76.06
364.788	77.06
365.015	89.06
365.241	86.06
365.468	75.06
365.694	79.06
365.92	82.06
366.147	82.06
366.373	90.06
366.599	83.06
366.826	87.06
367.052	74.06
367.278	88.06
367.505	95.06
367.731	88.06
367.957	85.06
368.184	90.06
368.41	94.06
368.636	90.06
368.862	84.06
369.089	93.06
369.315	86.06
369.541	79.06
369.767	85.06
369.993	93.06
370.219	103.06
370.445	90.06
370.672	90.06
370.898	88.06
371.124	106.06
371.35	90.06
371.576	72.06
371.802	82.06
372.028	88.06
372.254	102.06
372.48	94.06
372.706	94.06
372.932	89.06
373.158	79.06
373.384	94.06
373.61	84.06
373.835	103.06
374.061	80.06
374.287	92.06
374.513	90.06
374.739	105.06
374.965	93.06
375.191	94.06
375.416	98.06
375.642	88.06
375.868	94.06
376.094	104.06
376.319	84.06
376.545	86.06
376.771	88.06
376.997	94.06
377.222	97.06
377.448	99.06
377.674	82.06
377.899	81.06
378.125	71.06
378.35	89.06
378.576	103.06
378.802	100.06
379.027	89.06
379.253	90.06
379.478	76.06
379.704	82.06
379.929	88.06
380.155	87.06
380.38	86.06
380.606	90.06
380.831	95.06
381.057	96.06
381.282	96.06
381.507	88.06
381.733	115.06
381.958	111.06
382.184	99.06
382.409	97.06
382.634	100.06
382.86	95.06
383.085	91.06
383.31	96.06
383.535	115.06
383.761	100.06
383.986	106.06
384.211	103.06
384.436	89.06
384.662	101.06
384.887	102.06
385.112	86.06
385.337	91.06
385.562	96.06
385.787	100.06
386.013	108.06
386.238	90.06
386.463	99.06
386.688	92.06
386.913	95.06
387.138	106.06
387.363	98.06
387.588	106.06
387.813	100.06
388.038	104.06
388.263	100.06
388.488	104.06
388.713	95.06
388.938	98.06
389.163	109.06
389.387	92.06
389.612	87.06
389.837	100.06
390.062	93.06
390.287	107.06
390.512	105.06
390.736	119.06
390.961	102.06
391.186	105.06
391.411	109.06
391.636	101.06
391.86	93.06
392.085	105.06
392.31	98.06
392.534	111.06
392.759	120.06
392.984	96.06
393.208	98.06
393.433	114.06
393.658	103.06
393.882	113.06
394.107	106.06
394.331	101.06
394.556	101.06
394.78	113.06
395.005	95.06
395.229	105.06
395.454	99.06
395.678	104.06
395.903	97.06
396.127	118.06
396.352	113.06
396.576	96.06
396.801	109.06
397.025	95.06
397.249	109.06
397.474	95.06
397.698	118.06
397.922	109.06
398.147	117.06
398.371	104.06
398.595	113.06
398.82	106.06
399.044	119.06
399.268	115.06
399.492	108.06
399.717	107.06
399.941	104.06
400.165	96.06
400.389	114.06
400.613	113.06
400.837	121.06
401.062	101.06
401.286	112.06
401.51	100.06
401.734	103.06
401.958	112.06
402.182	105.06
402.406	115.06
402.63	77.06
402.854	100.06
403.078	109.06
403.302	99.06
403.526	102.06
403.75	119.06
403.974	110.06
404.198	115.06
404.422	122.06
404.645	105.06
404.869	121.06
405.093	120.06
405.317	121.06
405.541	118.06
405.765	111.06
405.988	114.06
406.212	129.06
406.436	133.06
406.66	114.06
406.883	115.06
407.107	123.06
407.331	127.06
407.555	121.06
407.778	123.06
408.002	113.06
408.226	122.06
408.449	110.06
408.673	141.06
408.896	119.06
409.12	124.06
409.344	114.06
409.567	112.06
409.791	114.06
410.014	118.06
410.238	110.06
410.461	130.06
410.685	118.06
410.908	120.06
411.132	138.06
411.355	121.06
411.578	116.06
411.802	126.06
412.025	127.06
412.249	115.06
412.472	119.06
412.695	111.06
412.919	110.06
413.142	127.06
413.365	128.06
413.589	120.06
413.812	126.06
414.035	114.06
414.258	140.06
414.482	117.06
414.705	116.06
414.928	131.06
415.151	120.06
415.374	121.06
415.597	120.06
415.821	126.06
416.044	125.06
416.267	116.06
416.49	121.06
416.713	128.06
416.936	126.06
417.159	121.06
417.382	120.06
417.605	126.06
417.828	115.06
418.051	111.06
418.274	127.06
418.497	112.06
418.72	133.06
418.943	125.06
419.166	122.06
419.389	129.06
419.611	130.06
419.834	139.06
420.057	132.06
420.28	130.06
420.503	123.06
420.726	148.06
420.948	133.06
421.171	127.06
421.394	140.06
421.617	150.06
421.839	152.06
422.062	140.06
422.285	132.06
422.507	132.06
422.73	120.06
422.953	125.06
423.175	113.06
423.398	117.06
423.621	130.06
423.843	148.06
424.066	140.06
424.288	134.06
424.511	126.06
424.733	132.06
424.956	147.06
425.178	129.06
425.401	134.06
425.623	137.06
425.846	133.06
426.068	127.06
426.291	122.06
426.513	123.06
426.735	121.06
426.958	125.06
427.18	143.06
427.402	122.06
427.625	129.06
427.847	122.06
428.069	125.06
428.292	125.06
428.514	126.06
428.736	126.06
428.958	120.06
429.181	121.06
429.403	118.06
429.625	121.06
429.847	127.06
430.069	123.06
430.292	133.06
430.514	134.06
430.736	137.06
430.958	137.06
431.18	130.06
431.402	125.06
431.624	119.06
431.846	102.06
432.068	104.06
432.29	101.06
432.512	110.06
432.734	139.06
432.956	127.06
433.178	125.06
433.4	136.06
433.622	138.06
433.844	129.06
434.066	129.06
434.287	127.06
434.509	94.06
434.731	101.06
434.953	113.06
435.175	131.06
435.397	136.06
435.618	126.06
435.84	103.06
436.062	114.06
436.284	123.06
436.505	121.06
436.727	123.06
436.949	132.06
437.17	114.06
437.392	119.06
437.614	131.06
437.835	106.06
438.057	103.06
438.278	113.06
438.5	108.06
438.721	134.06
438.943	137.06
439.165	143.06
439.386	127.06
439.608	140.06
439.829	158.06
440.05	137.06
440.272	134.06
440.493	146.06
440.715	138.06
440.936	154.06
441.158	128.06
441.379	139.06
441.6	145.06
441.822	159.06
442.043	151.06
442.264	125.06
442.486	127.06
442.707	128.06
442.928	138.06
443.149	135.06
443.371	140.06
443.592	131.06
443.813	141.06
444.034	135.06
444.255	147.06
444.476	134.06
444.698	149.06
444.919	127.06
445.14	234.06
445.361	190.06
445.582	150.06
445.803	158.06
446.024	134.06
446.245	140.06
446.466	133.06
446.687	143.06
446.908	148.06
447.129	151.06
447.35	146.06
447.571	137.06
447.792	139.06
448.013	149.06
448.234	134.06
448.455	137.06
448.675	133.06
448.896	146.06
449.117	137.06
449.338	139.06
449.559	140.06
449.779	135.06
450	150.06
450.221	122.06
450.442	140.06
450.662	125.06
450.883	122.06
451.104	140.06
451.324	133.06
451.545	139.06
451.766	125.06
451.986	133.06
452.207	141.06
452.428	114.06
452.648	139.06
452.869	121.06
453.089	116.06
453.31	104.06
453.53	111.06
453.751	91.06
453.971	98.06
454.192	114.06
454.412	111.06
454.633	123.06
454.853	106.06
455.073	101.06
455.294	121.06
455.514	121.06
455.734	122.06
455.955	129.06
456.175	110.06
456.395	99.06
456.616	97.06
456.836	105.06
457.056	117.06
457.276	106.06
457.497	102.06
457.717	106.06
457.937	92.06
458.157	95.06
458.377	97.06
458.598	94.06
458.818	95.06
459.038	83.06
459.258	86.06
459.478	79.06
459.698	94.06
459.918	93.06
460.138	106.06
460.358	113.06
460.578	101.06
460.798	123.06
461.018	106.06
461.238	120.06
461.458	111.06
461.678	114.06
461.898	117.06
462.118	105.06
462.338	120.06
462.558	96.06
462.777	124.06
462.997	116.06
463.217	111.06
463.437	108.06
463.657	99.06
463.876	93.06
464.096	103.06
464.316	122.06
464.536	121.06
464.755	121.06
464.975	107.06
465.195	122.06
465.414	119.06
465.634	123.06
465.854	122.06
466.073	118.06
466.293	116.06
466.512	119.06
466.732	121.06
466.951	133.06
467.171	142.06
467.391	135.06
467.61	134.06
467.829	147.06
468.049	134.06
468.268	137.06
468.488	148.06
468.707	150.06
468.927	127.06
469.146	154.06
469.365	135.06
469.585	123.06
469.804	143.06
470.023	152.06
470.243	152.06
470.462	133.06
470.681	145.06
470.901	137.06
471.12	131.06
471.339	156.06
471.558	131.06
471.777	153.06
471.997	142.06
472.216	131.06
472.435	118.06
472.654	98.06
472.873	105.06
473.092	120.06
473.311	127.06
473.53	137.06
473.749	137.06
473.968	122.06
474.187	133.06
474.406	112.06
474.625	118.06
474.844	125.06
475.063	135.06
475.282	120.06
475.501	118.06
475.72	121.06
475.939	117.06
476.158	136.06
476.377	129.06
476.596	105.06
476.814	100.06
477.033	107.06
477.252	114.06
477.471	131.06
477.69	125.06
477.908	146.06
478.127	139.06
478.346	135.06
478.564	135.06
478.783	140.06
479.002	135.06
479.22	145.06
479.439	125.06
479.658	123.06
479.876	112.06
480.095	116.06
480.313	119.06
480.532	118.06
480.751	122.06
480.969	86.06
481.188	86.06
481.406	82.06
481.624	77.06
481.843	75.06
482.061	107.06
482.28	113.06
482.498	125.06
482.717	105.06
482.935	125.06
483.153	132.06
483.372	156.06
483.59	147.06
483.808	144.06
484.027	123.06
484.245	141.06
484.463	151.06
484.681	161.06
484.9	147.06
485.118	130.06
485.336	132.06
485.554	112.06
485.772	104.06
485.99	109.06
486.209	117.06
486.427	117.06
486.645	122.06
486.863	138.06
487.081	138.06
487.299	145.06
487.517	135.06
487.735	168.06
487.953	184.06
488.171	179.06
488.389	160.06
488.607	149.06
488.825	120.06
489.043	122.06
489.261	142.06
489.479	135.06
489.696	138.06
489.914	135.06
490.132	147.06
490.35	147.06
490.568	162.06
490.786	148.06
491.003	185.06
491.221	181.06
491.439	182.06
491.657	187.06
491.874	221.06
492.092	203.06
492.31	249.06
492.527	214.06
492.745	198.06
492.963	187.06
493.18	197.06
493.398	184.06
493.615	167.06
493.833	175.06
494.05	183.06
494.268	187.06
494.485	165.06
494.703	171.06
494.92	164.06
495.138	173.06
495.355	170.06
495.573	177.06
495.79	173.06
496.008	164.06
496.225	158.06
496.442	164.06
496.66	179.06
496.877	163.06
497.094	165.06
497.312	157.06
497.529	153.06
497.746	173.06
497.963	151.06
498.181	132.06
498.398	122.06
498.615	121.06
498.832	118.06
499.049	109.06
499.267	119.06
499.484	130.06
499.701	134.06
499.918	153.06
500.135	136.06
500.352	139.06
500.569	138.06
500.786	149.06
501.003	127.06
501.22	157.06
501.437	152.06
501.654	129.06
501.871	137.06
502.088	133.06
502.305	134.06
502.522	125.06
502.739	139.06
502.956	130.06
503.172	126.06
503.389	123.06
503.606	123.06
503.823	117.06
504.04	113.06
504.256	121.06
504.473	120.06
504.69	113.06
504.907	128.06
505.123	119.06
505.34	109.06
505.557	120.06
505.773	121.06
505.99	130.06
506.207	114.06
506.423	114.06
506.64	112.06
506.856	122.06
507.073	110.06
507.289	128.06
507.506	122.06
507.722	110.06
507.939	127.06
508.155	119.06
508.372	105.06
508.588	102.06
508.805	115.06
509.021	121.06
509.238	104.06
509.454	91.06
509.67	110.06
509.887	98.06
510.103	93.06
510.319	97.06
510.536	94.06
510.752	88.06
510.968	95.06
511.184	82.06
511.401	80.06
511.617	98.06
