Data from Location2.07152019.Energy5.Lamp.07192019.3%Agarose_HRD10591_14-56-52-359.txt Node
Date: Fri Jul 19 14:56:52 EDT 2019
User: cochatt
Spectrometer: HR+D1059
Trigger mode: 1
Integration Time (sec): 1.000000E-1
Scans to average: 1
Electric dark correction enabled: true
Nonlinearity correction enabled: false
Boxcar width: 0
XAxis mode: Wavelengths
Number of Pixels in Spectrum: 2048
>>>>>Begin Spectral Data<<<<<
223.165	1.44
223.4	1.44
223.635	1.44
223.869	-19.56
224.104	-35.56
224.338	-11.56
224.573	-27.56
224.808	-16.56
225.042	0.44
225.277	0.44
225.511	-3.56
225.746	10.44
225.98	-1.56
226.215	7.44
226.449	25.44
226.683	14.44
226.918	19.44
227.152	36.44
227.387	18.44
227.621	37.44
227.856	49.44
228.09	55.44
228.324	41.44
228.559	45.44
228.793	72.44
229.027	54.44
229.262	60.44
229.496	73.44
229.73	58.44
229.964	62.44
230.199	70.44
230.433	81.44
230.667	93.44
230.901	82.44
231.136	93.44
231.37	81.44
231.604	79.44
231.838	84.44
232.072	84.44
232.306	87.44
232.541	66.44
232.775	81.44
233.009	96.44
233.243	77.44
233.477	90.44
233.711	72.44
233.945	72.44
234.179	81.44
234.413	88.44
234.647	78.44
234.881	76.44
235.115	88.44
235.349	94.44
235.583	84.44
235.817	77.44
236.051	76.44
236.285	71.44
236.519	76.44
236.753	71.44
236.987	78.44
237.221	92.44
237.455	80.44
237.689	74.44
237.922	76.44
238.156	73.44
238.39	75.44
238.624	86.44
238.858	75.44
239.091	70.44
239.325	82.44
239.559	79.44
239.793	75.44
240.027	81.44
240.26	85.44
240.494	83.44
240.728	71.44
240.961	69.44
241.195	66.44
241.429	87.44
241.662	72.44
241.896	74.44
242.13	83.44
242.363	63.44
242.597	90.44
242.83	64.44
243.064	77.44
243.298	79.44
243.531	84.44
243.765	68.44
243.998	75.44
244.232	67.44
244.465	82.44
244.699	75.44
244.932	76.44
245.166	82.44
245.399	66.44
245.633	83.44
245.866	82.44
246.099	70.44
246.333	95.44
246.566	84.44
246.8	84.44
247.033	76.44
247.266	70.44
247.5	75.44
247.733	73.44
247.966	75.44
248.2	75.44
248.433	70.44
248.666	84.44
248.899	84.44
249.133	67.44
249.366	94.44
249.599	81.44
249.832	71.44
250.066	82.44
250.299	78.44
250.532	63.44
250.765	90.44
250.998	63.44
251.231	83.44
251.465	78.44
251.698	81.44
251.931	95.44
252.164	82.44
252.397	69.44
252.63	85.44
252.863	82.44
253.096	74.44
253.329	76.44
253.562	82.44
253.795	78.44
254.028	72.44
254.261	86.44
254.494	81.44
254.727	82.44
254.96	83.44
255.193	80.44
255.426	84.44
255.659	69.44
255.892	80.44
256.124	81.44
256.357	67.44
256.59	74.44
256.823	88.44
257.056	77.44
257.289	89.44
257.521	77.44
257.754	96.44
257.987	72.44
258.22	90.44
258.452	85.44
258.685	85.44
258.918	79.44
259.151	87.44
259.383	75.44
259.616	85.44
259.849	85.44
260.081	89.44
260.314	71.44
260.547	77.44
260.779	79.44
261.012	66.44
261.244	73.44
261.477	75.44
261.71	74.44
261.942	84.44
262.175	80.44
262.407	90.44
262.64	84.44
262.872	76.44
263.105	73.44
263.337	79.44
263.57	74.44
263.802	78.44
264.035	84.44
264.267	79.44
264.499	74.44
264.732	73.44
264.964	80.44
265.197	87.44
265.429	75.44
265.661	77.44
265.894	92.44
266.126	79.44
266.358	83.44
266.591	83.44
266.823	84.44
267.055	82.44
267.287	87.44
267.52	79.44
267.752	75.44
267.984	89.44
268.216	82.44
268.448	84.44
268.681	72.44
268.913	78.44
269.145	76.44
269.377	91.44
269.609	84.44
269.841	87.44
270.073	70.44
270.306	85.44
270.538	95.44
270.77	86.44
271.002	76.44
271.234	86.44
271.466	81.44
271.698	81.44
271.93	80.44
272.162	92.44
272.394	88.44
272.626	76.44
272.858	76.44
273.09	87.44
273.322	86.44
273.553	83.44
273.785	94.44
274.017	80.44
274.249	81.44
274.481	79.44
274.713	78.44
274.945	90.44
275.176	85.44
275.408	79.44
275.64	86.44
275.872	86.44
276.104	98.44
276.335	89.44
276.567	84.44
276.799	72.44
277.031	81.44
277.262	93.44
277.494	88.44
277.726	77.44
277.957	83.44
278.189	67.44
278.421	95.44
278.652	88.44
278.884	84.44
279.115	84.44
279.347	80.44
279.579	77.44
279.81	80.44
280.042	86.44
280.273	82.44
280.505	82.44
280.736	81.44
280.968	87.44
281.199	89.44
281.431	85.44
281.662	75.44
281.894	74.44
282.125	91.44
282.356	88.44
282.588	88.44
282.819	76.44
283.051	79.44
283.282	90.44
283.513	87.44
283.745	78.44
283.976	77.44
284.207	91.44
284.439	71.44
284.67	84.44
284.901	79.44
285.132	82.44
285.364	77.44
285.595	70.44
285.826	71.44
286.057	92.44
286.288	78.44
286.52	74.44
286.751	90.44
286.982	76.44
287.213	86.44
287.444	77.44
287.675	77.44
287.906	75.44
288.138	74.44
288.369	85.44
288.6	100.44
288.831	83.44
289.062	94.44
289.293	80.44
289.524	78.44
289.755	87.44
289.986	82.44
290.217	85.44
290.448	89.44
290.679	97.44
290.91	98.44
291.141	88.44
291.371	81.44
291.602	75.44
291.833	74.44
292.064	85.44
292.295	82.44
292.526	79.44
292.757	76.44
292.987	98.44
293.218	95.44
293.449	77.44
293.68	71.44
293.91	76.44
294.141	88.44
294.372	89.44
294.603	82.44
294.833	81.44
295.064	88.44
295.295	106.44
295.525	88.44
295.756	85.44
295.987	90.44
296.217	70.44
296.448	75.44
296.679	93.44
296.909	79.44
297.14	67.44
297.37	83.44
297.601	79.44
297.831	78.44
298.062	82.44
298.292	83.44
298.523	87.44
298.753	79.44
298.984	88.44
299.214	94.44
299.445	103.44
299.675	100.44
299.905	95.44
300.136	84.44
300.366	81.44
300.597	85.44
300.827	87.44
301.057	90.44
301.288	84.44
301.518	77.44
301.748	85.44
301.979	84.44
302.209	87.44
302.439	77.44
302.669	79.44
302.9	74.44
303.13	82.44
303.36	90.44
303.59	84.44
303.82	92.44
304.051	81.44
304.281	91.44
304.511	87.44
304.741	89.44
304.971	86.44
305.201	88.44
305.431	85.44
305.661	84.44
305.891	92.44
306.121	89.44
306.352	91.44
306.582	83.44
306.812	79.44
307.042	84.44
307.272	83.44
307.502	80.44
307.731	88.44
307.961	89.44
308.191	93.44
308.421	83.44
308.651	87.44
308.881	80.44
309.111	88.44
309.341	88.44
309.571	85.44
309.8	83.44
310.03	70.44
310.26	95.44
310.49	102.44
310.72	76.44
310.949	83.44
311.179	79.44
311.409	82.44
311.639	74.44
311.868	97.44
312.098	81.44
312.328	91.44
312.557	82.44
312.787	81.44
313.017	101.44
313.246	98.44
313.476	79.44
313.706	79.44
313.935	82.44
314.165	83.44
314.394	87.44
314.624	82.44
314.853	76.44
315.083	91.44
315.312	85.44
315.542	88.44
315.771	85.44
316.001	72.44
316.23	77.44
316.46	86.44
316.689	81.44
316.919	85.44
317.148	90.44
317.377	96.44
317.607	73.44
317.836	92.44
318.065	84.44
318.295	99.44
318.524	75.44
318.753	73.44
318.983	73.44
319.212	101.44
319.441	76.44
319.67	80.44
319.9	88.44
320.129	87.44
320.358	93.44
320.587	96.44
320.816	92.44
321.046	74.44
321.275	78.44
321.504	78.44
321.733	72.44
321.962	86.44
322.191	82.44
322.42	92.44
322.649	87.44
322.878	85.44
323.108	78.44
323.337	73.44
323.566	82.44
323.795	92.44
324.024	72.44
324.253	82.44
324.482	78.44
324.71	73.44
324.939	87.44
325.168	79.44
325.397	85.44
325.626	95.44
325.855	74.44
326.084	86.44
326.313	84.44
326.542	80.44
326.77	92.44
326.999	94.44
327.228	83.44
327.457	102.44
327.686	86.44
327.914	95.44
328.143	80.44
328.372	85.44
328.6	87.44
328.829	75.44
329.058	83.44
329.287	81.44
329.515	82.44
329.744	92.44
329.972	85.44
330.201	74.44
330.43	87.44
330.658	71.44
330.887	89.44
331.115	94.44
331.344	99.44
331.572	84.44
331.801	83.44
332.03	81.44
332.258	91.44
332.486	84.44
332.715	85.44
332.943	95.44
333.172	72.44
333.4	76.44
333.629	82.44
333.857	86.44
334.085	88.44
334.314	103.44
334.542	69.44
334.771	86.44
334.999	70.44
335.227	83.44
335.455	92.44
335.684	93.44
335.912	85.44
336.14	72.44
336.369	95.44
336.597	80.44
336.825	74.44
337.053	90.44
337.281	93.44
337.51	86.44
337.738	93.44
337.966	88.44
338.194	88.44
338.422	80.44
338.65	92.44
338.878	91.44
339.106	84.44
339.334	78.44
339.562	79.44
339.79	90.44
340.018	86.44
340.246	85.44
340.474	91.44
340.702	91.44
340.93	83.44
341.158	89.44
341.386	79.44
341.614	72.44
341.842	87.44
342.07	77.44
342.298	69.44
342.526	79.44
342.754	89.44
342.981	91.44
343.209	82.44
343.437	100.44
343.665	83.44
343.893	87.44
344.12	72.44
344.348	79.44
344.576	98.44
344.804	86.44
345.031	71.44
345.259	78.44
345.487	74.44
345.714	85.44
345.942	89.44
346.17	84.44
346.397	92.44
346.625	82.44
346.853	69.44
347.08	88.44
347.308	86.44
347.535	80.44
347.763	83.44
347.99	100.44
348.218	91.44
348.445	94.44
348.673	104.44
348.9	79.44
349.128	93.44
349.355	84.44
349.583	77.44
349.81	78.44
350.037	93.44
350.265	92.44
350.492	85.44
350.72	87.44
350.947	88.44
351.174	87.44
351.402	101.44
351.629	81.44
351.856	87.44
352.083	99.44
352.311	85.44
352.538	95.44
352.765	85.44
352.992	79.44
353.22	91.44
353.447	91.44
353.674	78.44
353.901	85.44
354.128	83.44
354.355	86.44
354.583	90.44
354.81	90.44
355.037	80.44
355.264	92.44
355.491	82.44
355.718	82.44
355.945	90.44
356.172	99.44
356.399	90.44
356.626	93.44
356.853	89.44
357.08	85.44
357.307	82.44
357.534	85.44
357.761	80.44
357.988	89.44
358.215	75.44
358.441	74.44
358.668	79.44
358.895	108.44
359.122	96.44
359.349	84.44
359.576	81.44
359.802	81.44
360.029	90.44
360.256	95.44
360.483	85.44
360.709	76.44
360.936	82.44
361.163	80.44
361.39	95.44
361.616	87.44
361.843	83.44
362.07	81.44
362.296	99.44
362.523	82.44
362.749	81.44
362.976	86.44
363.203	80.44
363.429	93.44
363.656	96.44
363.882	75.44
364.109	81.44
364.335	112.44
364.562	79.44
364.788	85.44
365.015	78.44
365.241	76.44
365.468	83.44
365.694	71.44
365.92	71.44
366.147	89.44
366.373	89.44
366.599	94.44
366.826	84.44
367.052	86.44
367.278	72.44
367.505	87.44
367.731	93.44
367.957	85.44
368.184	77.44
368.41	82.44
368.636	96.44
368.862	89.44
369.089	88.44
369.315	95.44
369.541	79.44
369.767	99.44
369.993	83.44
370.219	82.44
370.445	72.44
370.672	91.44
370.898	86.44
371.124	86.44
371.35	84.44
371.576	85.44
371.802	99.44
372.028	80.44
372.254	104.44
372.48	82.44
372.706	83.44
372.932	96.44
373.158	95.44
373.384	90.44
373.61	97.44
373.835	85.44
374.061	100.44
374.287	103.44
374.513	92.44
374.739	96.44
374.965	81.44
375.191	93.44
375.416	97.44
375.642	80.44
375.868	83.44
376.094	100.44
376.319	88.44
376.545	75.44
376.771	101.44
376.997	102.44
377.222	102.44
377.448	97.44
377.674	91.44
377.899	99.44
378.125	93.44
378.35	95.44
378.576	90.44
378.802	95.44
379.027	98.44
379.253	94.44
379.478	88.44
379.704	101.44
379.929	100.44
380.155	97.44
380.38	86.44
380.606	104.44
380.831	101.44
381.057	106.44
381.282	94.44
381.507	98.44
381.733	86.44
381.958	88.44
382.184	92.44
382.409	101.44
382.634	108.44
382.86	101.44
383.085	112.44
383.31	97.44
383.535	93.44
383.761	102.44
383.986	83.44
384.211	96.44
384.436	103.44
384.662	88.44
384.887	96.44
385.112	99.44
385.337	101.44
385.562	101.44
385.787	92.44
386.013	99.44
386.238	109.44
386.463	112.44
386.688	116.44
386.913	108.44
387.138	95.44
387.363	93.44
387.588	95.44
387.813	111.44
388.038	98.44
388.263	98.44
388.488	108.44
388.713	86.44
388.938	107.44
389.163	109.44
389.387	97.44
389.612	83.44
389.837	111.44
390.062	115.44
390.287	83.44
390.512	85.44
390.736	98.44
390.961	113.44
391.186	105.44
391.411	111.44
391.636	108.44
391.86	102.44
392.085	107.44
392.31	120.44
392.534	108.44
392.759	101.44
392.984	101.44
393.208	104.44
393.433	99.44
393.658	107.44
393.882	98.44
394.107	96.44
394.331	100.44
394.556	112.44
394.78	95.44
395.005	114.44
395.229	111.44
395.454	109.44
395.678	105.44
395.903	114.44
396.127	120.44
396.352	104.44
396.576	103.44
396.801	99.44
397.025	110.44
397.249	106.44
397.474	104.44
397.698	104.44
397.922	101.44
398.147	109.44
398.371	96.44
398.595	110.44
398.82	116.44
399.044	121.44
399.268	104.44
399.492	97.44
399.717	106.44
399.941	114.44
400.165	113.44
400.389	116.44
400.613	102.44
400.837	110.44
401.062	98.44
401.286	123.44
401.51	119.44
401.734	115.44
401.958	109.44
402.182	98.44
402.406	121.44
402.63	127.44
402.854	127.44
403.078	108.44
403.302	108.44
403.526	116.44
403.75	108.44
403.974	123.44
404.198	129.44
404.422	118.44
404.645	111.44
404.869	119.44
405.093	107.44
405.317	118.44
405.541	125.44
405.765	115.44
405.988	119.44
406.212	137.44
406.436	113.44
406.66	125.44
406.883	129.44
407.107	126.44
407.331	115.44
407.555	125.44
407.778	109.44
408.002	127.44
408.226	135.44
408.449	126.44
408.673	127.44
408.896	120.44
409.12	102.44
409.344	120.44
409.567	123.44
409.791	103.44
410.014	129.44
410.238	119.44
410.461	124.44
410.685	131.44
410.908	113.44
411.132	127.44
411.355	121.44
411.578	140.44
411.802	117.44
412.025	114.44
412.249	116.44
412.472	120.44
412.695	123.44
412.919	113.44
413.142	120.44
413.365	120.44
413.589	134.44
413.812	114.44
414.035	115.44
414.258	104.44
414.482	124.44
414.705	142.44
414.928	121.44
415.151	113.44
415.374	118.44
415.597	130.44
415.821	116.44
416.044	111.44
416.267	105.44
416.49	119.44
416.713	115.44
416.936	123.44
417.159	124.44
417.382	125.44
417.605	141.44
417.828	131.44
418.051	133.44
418.274	124.44
418.497	135.44
418.72	127.44
418.943	119.44
419.166	134.44
419.389	123.44
419.611	132.44
419.834	108.44
420.057	123.44
420.28	143.44
420.503	125.44
420.726	125.44
420.948	129.44
421.171	123.44
421.394	123.44
421.617	131.44
421.839	144.44
422.062	136.44
422.285	138.44
422.507	131.44
422.73	133.44
422.953	128.44
423.175	128.44
423.398	125.44
423.621	132.44
423.843	124.44
424.066	133.44
424.288	139.44
424.511	148.44
424.733	145.44
424.956	137.44
425.178	131.44
425.401	136.44
425.623	143.44
425.846	130.44
426.068	123.44
426.291	120.44
426.513	123.44
426.735	117.44
426.958	131.44
427.18	123.44
427.402	137.44
427.625	131.44
427.847	133.44
428.069	133.44
428.292	127.44
428.514	128.44
428.736	125.44
428.958	128.44
429.181	107.44
429.403	147.44
429.625	131.44
429.847	127.44
430.069	120.44
430.292	111.44
430.514	129.44
430.736	134.44
430.958	127.44
431.18	137.44
431.402	111.44
431.624	122.44
431.846	99.44
432.068	99.44
432.29	100.44
432.512	114.44
432.734	115.44
432.956	127.44
433.178	141.44
433.4	146.44
433.622	140.44
433.844	149.44
434.066	131.44
434.287	112.44
434.509	94.44
434.731	99.44
434.953	101.44
435.175	121.44
435.397	132.44
435.618	108.44
435.84	111.44
436.062	117.44
436.284	133.44
436.505	138.44
436.727	143.44
436.949	123.44
437.17	117.44
437.392	136.44
437.614	111.44
437.835	119.44
438.057	105.44
438.278	118.44
438.5	133.44
438.721	126.44
438.943	141.44
439.165	131.44
439.386	144.44
439.608	133.44
439.829	145.44
440.05	152.44
440.272	154.44
440.493	139.44
440.715	144.44
440.936	139.44
441.158	148.44
441.379	149.44
441.6	148.44
441.822	135.44
442.043	139.44
442.264	148.44
442.486	145.44
442.707	139.44
442.928	136.44
443.149	136.44
443.371	127.44
443.592	135.44
443.813	131.44
444.034	134.44
444.255	136.44
444.476	139.44
444.698	139.44
444.919	129.44
445.14	281.44
445.361	204.44
445.582	140.44
445.803	127.44
446.024	137.44
446.245	166.44
446.466	152.44
446.687	143.44
446.908	166.44
447.129	160.44
447.35	140.44
447.571	152.44
447.792	148.44
448.013	137.44
448.234	132.44
448.455	147.44
448.675	142.44
448.896	133.44
449.117	145.44
449.338	145.44
449.559	147.44
449.779	132.44
450	136.44
450.221	145.44
450.442	134.44
450.662	122.44
450.883	143.44
451.104	133.44
451.324	141.44
451.545	134.44
451.766	135.44
451.986	142.44
452.207	123.44
452.428	121.44
452.648	136.44
452.869	112.44
453.089	140.44
453.31	123.44
453.53	89.44
453.751	106.44
453.971	121.44
454.192	104.44
454.412	113.44
454.633	116.44
454.853	120.44
455.073	104.44
455.294	119.44
455.514	122.44
455.734	100.44
455.955	118.44
456.175	124.44
456.395	109.44
456.616	111.44
456.836	123.44
457.056	118.44
457.276	113.44
457.497	122.44
457.717	121.44
457.937	105.44
458.157	109.44
458.377	111.44
458.598	98.44
458.818	83.44
459.038	82.44
459.258	97.44
459.478	84.44
459.698	80.44
459.918	106.44
460.138	102.44
460.358	105.44
460.578	112.44
460.798	121.44
461.018	114.44
461.238	113.44
461.458	115.44
461.678	122.44
461.898	110.44
462.118	123.44
462.338	107.44
462.558	120.44
462.777	118.44
462.997	110.44
463.217	109.44
463.437	102.44
463.657	123.44
463.876	111.44
464.096	96.44
464.316	95.44
464.536	123.44
464.755	109.44
464.975	119.44
465.195	109.44
465.414	115.44
465.634	120.44
465.854	112.44
466.073	109.44
466.293	121.44
466.512	139.44
466.732	125.44
466.951	136.44
467.171	131.44
467.391	120.44
467.61	140.44
467.829	124.44
468.049	136.44
468.268	135.44
468.488	131.44
468.707	144.44
468.927	137.44
469.146	123.44
469.365	120.44
469.585	115.44
469.804	147.44
470.023	141.44
470.243	145.44
470.462	147.44
470.681	138.44
470.901	148.44
471.12	140.44
471.339	140.44
471.558	137.44
471.777	127.44
471.997	139.44
472.216	135.44
472.435	106.44
472.654	110.44
472.873	111.44
473.092	121.44
473.311	113.44
473.53	121.44
473.749	126.44
473.968	120.44
474.187	130.44
474.406	117.44
474.625	122.44
474.844	130.44
475.063	135.44
475.282	124.44
475.501	111.44
475.72	125.44
475.939	118.44
476.158	131.44
476.377	115.44
476.596	124.44
476.814	115.44
477.033	101.44
477.252	109.44
477.471	133.44
477.69	133.44
477.908	143.44
478.127	135.44
478.346	123.44
478.564	128.44
478.783	150.44
479.002	133.44
479.22	132.44
479.439	131.44
479.658	127.44
479.876	101.44
480.095	119.44
480.313	105.44
480.532	116.44
480.751	108.44
480.969	88.44
481.188	90.44
481.406	85.44
481.624	81.44
481.843	98.44
482.061	84.44
482.28	110.44
482.498	113.44
482.717	111.44
482.935	115.44
483.153	145.44
483.372	155.44
483.59	159.44
483.808	155.44
484.027	123.44
484.245	139.44
484.463	151.44
484.681	155.44
484.9	139.44
485.118	148.44
485.336	132.44
485.554	120.44
485.772	98.44
485.99	96.44
486.209	140.44
486.427	112.44
486.645	105.44
486.863	126.44
487.081	147.44
487.299	130.44
487.517	137.44
487.735	162.44
487.953	187.44
488.171	175.44
488.389	165.44
488.607	149.44
488.825	152.44
489.043	139.44
489.261	140.44
489.479	132.44
489.696	143.44
489.914	125.44
490.132	143.44
490.35	152.44
490.568	170.44
490.786	158.44
491.003	171.44
491.221	171.44
491.439	179.44
491.657	183.44
491.874	203.44
492.092	226.44
492.31	215.44
492.527	223.44
492.745	198.44
492.963	178.44
493.18	195.44
493.398	182.44
493.615	172.44
493.833	175.44
494.05	172.44
494.268	162.44
494.485	184.44
494.703	172.44
494.92	181.44
495.138	185.44
495.355	174.44
495.573	177.44
495.79	167.44
496.008	157.44
496.225	160.44
496.442	154.44
496.66	170.44
496.877	163.44
497.094	169.44
497.312	168.44
497.529	161.44
497.746	135.44
497.963	130.44
498.181	123.44
498.398	126.44
498.615	111.44
498.832	116.44
499.049	121.44
499.267	128.44
499.484	124.44
499.701	132.44
499.918	135.44
500.135	139.44
500.352	150.44
500.569	151.44
500.786	149.44
501.003	147.44
501.22	138.44
501.437	145.44
501.654	123.44
501.871	121.44
502.088	134.44
502.305	137.44
502.522	134.44
502.739	141.44
502.956	131.44
503.172	139.44
503.389	123.44
503.606	123.44
503.823	131.44
504.04	111.44
504.256	115.44
504.473	123.44
504.69	108.44
504.907	120.44
505.123	131.44
505.34	128.44
505.557	127.44
505.773	120.44
505.99	115.44
506.207	118.44
506.423	124.44
506.64	114.44
506.856	125.44
507.073	123.44
507.289	117.44
507.506	111.44
507.722	120.44
507.939	118.44
508.155	121.44
508.372	117.44
508.588	122.44
508.805	117.44
509.021	113.44
509.238	101.44
509.454	104.44
509.67	123.44
509.887	91.44
510.103	104.44
510.319	102.44
510.536	89.44
510.752	80.44
510.968	85.44
511.184	83.44
511.401	91.44
511.617	98.44
