Data from Location2.07152019.Energy5.Lamp.07192019.3%Agarose_HRD10591_14-58-28-359.txt Node
Date: Fri Jul 19 14:58:28 EDT 2019
User: cochatt
Spectrometer: HR+D1059
Trigger mode: 1
Integration Time (sec): 1.000000E-1
Scans to average: 1
Electric dark correction enabled: true
Nonlinearity correction enabled: false
Boxcar width: 0
XAxis mode: Wavelengths
Number of Pixels in Spectrum: 2048
>>>>>Begin Spectral Data<<<<<
223.165	-18.56
223.4	-18.56
223.635	-18.56
223.869	-19.56
224.104	-17.56
224.338	-15.56
224.573	-11.56
224.808	-16.56
225.042	-19.56
225.277	1.44
225.511	5.44
225.746	5.44
225.98	4.44
226.215	15.44
226.449	17.44
226.683	22.44
226.918	17.44
227.152	29.44
227.387	21.44
227.621	36.44
227.856	54.44
228.09	28.44
228.324	39.44
228.559	42.44
228.793	40.44
229.027	54.44
229.262	55.44
229.496	54.44
229.73	58.44
229.964	70.44
230.199	80.44
230.433	62.44
230.667	82.44
230.901	84.44
231.136	79.44
231.37	74.44
231.604	76.44
231.838	87.44
232.072	97.44
232.306	88.44
232.541	82.44
232.775	65.44
233.009	76.44
233.243	73.44
233.477	68.44
233.711	79.44
233.945	74.44
234.179	76.44
234.413	61.44
234.647	72.44
234.881	75.44
235.115	74.44
235.349	80.44
235.583	88.44
235.817	74.44
236.051	69.44
236.285	79.44
236.519	89.44
236.753	71.44
236.987	62.44
237.221	66.44
237.455	72.44
237.689	72.44
237.922	70.44
238.156	77.44
238.39	62.44
238.624	76.44
238.858	69.44
239.091	75.44
239.325	74.44
239.559	70.44
239.793	74.44
240.027	73.44
240.26	72.44
240.494	72.44
240.728	69.44
240.961	69.44
241.195	81.44
241.429	68.44
241.662	66.44
241.896	82.44
242.13	74.44
242.363	73.44
242.597	72.44
242.83	70.44
243.064	76.44
243.298	80.44
243.531	76.44
243.765	79.44
243.998	80.44
244.232	80.44
244.465	74.44
244.699	86.44
244.932	76.44
245.166	65.44
245.399	85.44
245.633	81.44
245.866	77.44
246.099	70.44
246.333	72.44
246.566	78.44
246.8	82.44
247.033	70.44
247.266	66.44
247.5	84.44
247.733	82.44
247.966	71.44
248.2	85.44
248.433	64.44
248.666	80.44
248.899	91.44
249.133	76.44
249.366	74.44
249.599	60.44
249.832	69.44
250.066	81.44
250.299	82.44
250.532	76.44
250.765	69.44
250.998	78.44
251.231	80.44
251.465	78.44
251.698	72.44
251.931	77.44
252.164	80.44
252.397	76.44
252.63	60.44
252.863	78.44
253.096	83.44
253.329	77.44
253.562	83.44
253.795	76.44
254.028	88.44
254.261	71.44
254.494	68.44
254.727	82.44
254.96	71.44
255.193	90.44
255.426	74.44
255.659	59.44
255.892	79.44
256.124	93.44
256.357	63.44
256.59	68.44
256.823	71.44
257.056	80.44
257.289	81.44
257.521	80.44
257.754	83.44
257.987	85.44
258.22	85.44
258.452	74.44
258.685	79.44
258.918	87.44
259.151	82.44
259.383	84.44
259.616	80.44
259.849	82.44
260.081	68.44
260.314	74.44
260.547	81.44
260.779	62.44
261.012	96.44
261.244	81.44
261.477	88.44
261.71	72.44
261.942	78.44
262.175	76.44
262.407	79.44
262.64	72.44
262.872	71.44
263.105	72.44
263.337	70.44
263.57	77.44
263.802	79.44
264.035	73.44
264.267	93.44
264.499	99.44
264.732	100.44
264.964	63.44
265.197	79.44
265.429	71.44
265.661	74.44
265.894	73.44
266.126	85.44
266.358	79.44
266.591	82.44
266.823	74.44
267.055	74.44
267.287	75.44
267.52	88.44
267.752	70.44
267.984	78.44
268.216	72.44
268.448	85.44
268.681	77.44
268.913	80.44
269.145	65.44
269.377	81.44
269.609	70.44
269.841	77.44
270.073	79.44
270.306	73.44
270.538	75.44
270.77	85.44
271.002	87.44
271.234	85.44
271.466	74.44
271.698	81.44
271.93	82.44
272.162	80.44
272.394	87.44
272.626	84.44
272.858	70.44
273.09	78.44
273.322	85.44
273.553	72.44
273.785	74.44
274.017	83.44
274.249	96.44
274.481	75.44
274.713	81.44
274.945	79.44
275.176	78.44
275.408	79.44
275.64	80.44
275.872	83.44
276.104	84.44
276.335	83.44
276.567	73.44
276.799	71.44
277.031	93.44
277.262	78.44
277.494	79.44
277.726	75.44
277.957	69.44
278.189	79.44
278.421	75.44
278.652	72.44
278.884	86.44
279.115	91.44
279.347	84.44
279.579	83.44
279.81	93.44
280.042	75.44
280.273	85.44
280.505	84.44
280.736	87.44
280.968	84.44
281.199	86.44
281.431	72.44
281.662	65.44
281.894	74.44
282.125	84.44
282.356	87.44
282.588	79.44
282.819	81.44
283.051	83.44
283.282	80.44
283.513	87.44
283.745	97.44
283.976	80.44
284.207	78.44
284.439	77.44
284.67	79.44
284.901	83.44
285.132	74.44
285.364	87.44
285.595	77.44
285.826	81.44
286.057	87.44
286.288	66.44
286.52	89.44
286.751	81.44
286.982	66.44
287.213	71.44
287.444	88.44
287.675	89.44
287.906	109.44
288.138	92.44
288.369	80.44
288.6	81.44
288.831	73.44
289.062	78.44
289.293	80.44
289.524	70.44
289.755	73.44
289.986	84.44
290.217	88.44
290.448	79.44
290.679	92.44
290.91	69.44
291.141	85.44
291.371	90.44
291.602	81.44
291.833	72.44
292.064	70.44
292.295	74.44
292.526	84.44
292.757	73.44
292.987	88.44
293.218	90.44
293.449	69.44
293.68	78.44
293.91	86.44
294.141	78.44
294.372	95.44
294.603	90.44
294.833	61.44
295.064	64.44
295.295	83.44
295.525	71.44
295.756	95.44
295.987	94.44
296.217	82.44
296.448	80.44
296.679	98.44
296.909	106.44
297.14	81.44
297.37	79.44
297.601	87.44
297.831	80.44
298.062	74.44
298.292	76.44
298.523	94.44
298.753	88.44
298.984	85.44
299.214	77.44
299.445	73.44
299.675	68.44
299.905	86.44
300.136	84.44
300.366	83.44
300.597	77.44
300.827	84.44
301.057	77.44
301.288	79.44
301.518	80.44
301.748	64.44
301.979	79.44
302.209	72.44
302.439	82.44
302.669	99.44
302.9	78.44
303.13	84.44
303.36	98.44
303.59	79.44
303.82	77.44
304.051	76.44
304.281	79.44
304.511	79.44
304.741	77.44
304.971	75.44
305.201	86.44
305.431	84.44
305.661	81.44
305.891	80.44
306.121	78.44
306.352	85.44
306.582	89.44
306.812	89.44
307.042	96.44
307.272	88.44
307.502	80.44
307.731	83.44
307.961	86.44
308.191	70.44
308.421	69.44
308.651	74.44
308.881	83.44
309.111	82.44
309.341	78.44
309.571	68.44
309.8	87.44
310.03	87.44
310.26	81.44
310.49	92.44
310.72	82.44
310.949	83.44
311.179	79.44
311.409	76.44
311.639	72.44
311.868	74.44
312.098	82.44
312.328	75.44
312.557	79.44
312.787	88.44
313.017	78.44
313.246	81.44
313.476	85.44
313.706	87.44
313.935	79.44
314.165	73.44
314.394	57.44
314.624	86.44
314.853	81.44
315.083	85.44
315.312	90.44
315.542	88.44
315.771	92.44
316.001	88.44
316.23	72.44
316.46	71.44
316.689	73.44
316.919	83.44
317.148	74.44
317.377	73.44
317.607	80.44
317.836	81.44
318.065	76.44
318.295	85.44
318.524	89.44
318.753	73.44
318.983	80.44
319.212	74.44
319.441	75.44
319.67	80.44
319.9	68.44
320.129	76.44
320.358	86.44
320.587	70.44
320.816	93.44
321.046	90.44
321.275	83.44
321.504	72.44
321.733	78.44
321.962	77.44
322.191	81.44
322.42	71.44
322.649	72.44
322.878	85.44
323.108	78.44
323.337	78.44
323.566	76.44
323.795	77.44
324.024	86.44
324.253	79.44
324.482	87.44
324.71	94.44
324.939	91.44
325.168	72.44
325.397	85.44
325.626	90.44
325.855	77.44
326.084	88.44
326.313	90.44
326.542	69.44
326.77	63.44
326.999	76.44
327.228	91.44
327.457	80.44
327.686	77.44
327.914	67.44
328.143	83.44
328.372	85.44
328.6	87.44
328.829	89.44
329.058	71.44
329.287	81.44
329.515	87.44
329.744	75.44
329.972	80.44
330.201	87.44
330.43	75.44
330.658	68.44
330.887	69.44
331.115	80.44
331.344	86.44
331.572	74.44
331.801	80.44
332.03	74.44
332.258	84.44
332.486	80.44
332.715	80.44
332.943	83.44
333.172	80.44
333.4	79.44
333.629	76.44
333.857	84.44
334.085	80.44
334.314	86.44
334.542	80.44
334.771	76.44
334.999	73.44
335.227	88.44
335.455	82.44
335.684	90.44
335.912	72.44
336.14	81.44
336.369	79.44
336.597	89.44
336.825	76.44
337.053	68.44
337.281	85.44
337.51	73.44
337.738	74.44
337.966	73.44
338.194	88.44
338.422	71.44
338.65	88.44
338.878	80.44
339.106	89.44
339.334	93.44
339.562	76.44
339.79	66.44
340.018	77.44
340.246	80.44
340.474	72.44
340.702	70.44
340.93	77.44
341.158	74.44
341.386	77.44
341.614	68.44
341.842	71.44
342.07	77.44
342.298	76.44
342.526	82.44
342.754	87.44
342.981	73.44
343.209	62.44
343.437	78.44
343.665	79.44
343.893	88.44
344.12	80.44
344.348	84.44
344.576	88.44
344.804	79.44
345.031	79.44
345.259	95.44
345.487	88.44
345.714	80.44
345.942	77.44
346.17	92.44
346.397	89.44
346.625	96.44
346.853	73.44
347.08	89.44
347.308	90.44
347.535	89.44
347.763	90.44
347.99	95.44
348.218	92.44
348.445	75.44
348.673	80.44
348.9	81.44
349.128	84.44
349.355	70.44
349.583	84.44
349.81	90.44
350.037	94.44
350.265	85.44
350.492	84.44
350.72	73.44
350.947	70.44
351.174	78.44
351.402	68.44
351.629	67.44
351.856	78.44
352.083	70.44
352.311	84.44
352.538	88.44
352.765	79.44
352.992	84.44
353.22	95.44
353.447	79.44
353.674	74.44
353.901	81.44
354.128	68.44
354.355	88.44
354.583	71.44
354.81	77.44
355.037	75.44
355.264	90.44
355.491	72.44
355.718	84.44
355.945	85.44
356.172	70.44
356.399	78.44
356.626	76.44
356.853	98.44
357.08	89.44
357.307	77.44
357.534	83.44
357.761	89.44
357.988	82.44
358.215	71.44
358.441	94.44
358.668	74.44
358.895	86.44
359.122	80.44
359.349	75.44
359.576	81.44
359.802	74.44
360.029	80.44
360.256	77.44
360.483	78.44
360.709	86.44
360.936	86.44
361.163	74.44
361.39	78.44
361.616	83.44
361.843	90.44
362.07	83.44
362.296	93.44
362.523	84.44
362.749	85.44
362.976	87.44
363.203	104.44
363.429	71.44
363.656	76.44
363.882	79.44
364.109	84.44
364.335	94.44
364.562	96.44
364.788	83.44
365.015	83.44
365.241	70.44
365.468	84.44
365.694	87.44
365.92	77.44
366.147	67.44
366.373	88.44
366.599	72.44
366.826	82.44
367.052	82.44
367.278	58.44
367.505	72.44
367.731	101.44
367.957	81.44
368.184	88.44
368.41	103.44
368.636	88.44
368.862	78.44
369.089	87.44
369.315	76.44
369.541	94.44
369.767	68.44
369.993	93.44
370.219	89.44
370.445	85.44
370.672	95.44
370.898	90.44
371.124	70.44
371.35	76.44
371.576	85.44
371.802	83.44
372.028	85.44
372.254	103.44
372.48	79.44
372.706	101.44
372.932	94.44
373.158	86.44
373.384	86.44
373.61	94.44
373.835	84.44
374.061	86.44
374.287	94.44
374.513	92.44
374.739	93.44
374.965	88.44
375.191	86.44
375.416	97.44
375.642	97.44
375.868	94.44
376.094	91.44
376.319	77.44
376.545	91.44
376.771	75.44
376.997	81.44
377.222	95.44
377.448	99.44
377.674	95.44
377.899	73.44
378.125	110.44
378.35	95.44
378.576	99.44
378.802	96.44
379.027	87.44
379.253	100.44
379.478	102.44
379.704	90.44
379.929	93.44
380.155	71.44
380.38	80.44
380.606	101.44
380.831	92.44
381.057	88.44
381.282	110.44
381.507	89.44
381.733	98.44
381.958	99.44
382.184	90.44
382.409	86.44
382.634	84.44
382.86	85.44
383.085	82.44
383.31	97.44
383.535	102.44
383.761	108.44
383.986	110.44
384.211	101.44
384.436	94.44
384.662	100.44
384.887	87.44
385.112	89.44
385.337	92.44
385.562	81.44
385.787	88.44
386.013	101.44
386.238	97.44
386.463	87.44
386.688	84.44
386.913	96.44
387.138	97.44
387.363	99.44
387.588	101.44
387.813	112.44
388.038	94.44
388.263	108.44
388.488	97.44
388.713	77.44
388.938	98.44
389.163	93.44
389.387	106.44
389.612	90.44
389.837	83.44
390.062	119.44
390.287	99.44
390.512	95.44
390.736	93.44
390.961	114.44
391.186	98.44
391.411	96.44
391.636	94.44
391.86	77.44
392.085	96.44
392.31	108.44
392.534	125.44
392.759	95.44
392.984	108.44
393.208	104.44
393.433	121.44
393.658	118.44
393.882	94.44
394.107	113.44
394.331	103.44
394.556	83.44
394.78	99.44
395.005	95.44
395.229	106.44
395.454	112.44
395.678	92.44
395.903	100.44
396.127	111.44
396.352	96.44
396.576	108.44
396.801	108.44
397.025	95.44
397.249	115.44
397.474	102.44
397.698	112.44
397.922	100.44
398.147	106.44
398.371	98.44
398.595	104.44
398.82	84.44
399.044	112.44
399.268	89.44
399.492	109.44
399.717	105.44
399.941	105.44
400.165	127.44
400.389	100.44
400.613	113.44
400.837	101.44
401.062	115.44
401.286	119.44
401.51	112.44
401.734	111.44
401.958	113.44
402.182	93.44
402.406	113.44
402.63	105.44
402.854	93.44
403.078	112.44
403.302	95.44
403.526	104.44
403.75	122.44
403.974	120.44
404.198	119.44
404.422	131.44
404.645	103.44
404.869	108.44
405.093	114.44
405.317	119.44
405.541	122.44
405.765	120.44
405.988	113.44
406.212	118.44
406.436	123.44
406.66	116.44
406.883	108.44
407.107	112.44
407.331	114.44
407.555	128.44
407.778	114.44
408.002	115.44
408.226	122.44
408.449	117.44
408.673	114.44
408.896	124.44
409.12	119.44
409.344	105.44
409.567	121.44
409.791	97.44
410.014	108.44
410.238	112.44
410.461	120.44
410.685	127.44
410.908	137.44
411.132	116.44
411.355	124.44
411.578	109.44
411.802	115.44
412.025	129.44
412.249	114.44
412.472	114.44
412.695	115.44
412.919	109.44
413.142	119.44
413.365	109.44
413.589	114.44
413.812	128.44
414.035	122.44
414.258	126.44
414.482	108.44
414.705	110.44
414.928	127.44
415.151	108.44
415.374	131.44
415.597	126.44
415.821	117.44
416.044	119.44
416.267	99.44
416.49	129.44
416.713	115.44
416.936	128.44
417.159	118.44
417.382	128.44
417.605	116.44
417.828	126.44
418.051	126.44
418.274	122.44
418.497	134.44
418.72	136.44
418.943	127.44
419.166	138.44
419.389	140.44
419.611	125.44
419.834	129.44
420.057	132.44
420.28	126.44
420.503	124.44
420.726	117.44
420.948	123.44
421.171	123.44
421.394	129.44
421.617	140.44
421.839	136.44
422.062	137.44
422.285	130.44
422.507	138.44
422.73	116.44
422.953	122.44
423.175	113.44
423.398	119.44
423.621	127.44
423.843	132.44
424.066	137.44
424.288	144.44
424.511	124.44
424.733	134.44
424.956	141.44
425.178	133.44
425.401	137.44
425.623	127.44
425.846	132.44
426.068	135.44
426.291	132.44
426.513	121.44
426.735	121.44
426.958	123.44
427.18	128.44
427.402	128.44
427.625	127.44
427.847	127.44
428.069	138.44
428.292	127.44
428.514	133.44
428.736	121.44
428.958	113.44
429.181	137.44
429.403	132.44
429.625	115.44
429.847	121.44
430.069	123.44
430.292	130.44
430.514	112.44
430.736	136.44
430.958	129.44
431.18	132.44
431.402	133.44
431.624	120.44
431.846	110.44
432.068	87.44
432.29	100.44
432.512	122.44
432.734	126.44
432.956	129.44
433.178	120.44
433.4	115.44
433.622	137.44
433.844	123.44
434.066	112.44
434.287	115.44
434.509	94.44
434.731	88.44
434.953	119.44
435.175	133.44
435.397	125.44
435.618	102.44
435.84	109.44
436.062	87.44
436.284	126.44
436.505	132.44
436.727	130.44
436.949	125.44
437.17	119.44
437.392	133.44
437.614	117.44
437.835	109.44
438.057	99.44
438.278	114.44
438.5	110.44
438.721	126.44
438.943	144.44
439.165	124.44
439.386	138.44
439.608	143.44
439.829	152.44
440.05	127.44
440.272	145.44
440.493	141.44
440.715	125.44
440.936	142.44
441.158	148.44
441.379	138.44
441.6	124.44
441.822	145.44
442.043	147.44
442.264	141.44
442.486	127.44
442.707	134.44
442.928	121.44
443.149	140.44
443.371	144.44
443.592	135.44
443.813	136.44
444.034	136.44
444.255	136.44
444.476	132.44
444.698	137.44
444.919	127.44
445.14	217.44
445.361	165.44
445.582	136.44
445.803	128.44
446.024	144.44
446.245	146.44
446.466	136.44
446.687	141.44
446.908	149.44
447.129	142.44
447.35	157.44
447.571	153.44
447.792	147.44
448.013	133.44
448.234	142.44
448.455	148.44
448.675	137.44
448.896	134.44
449.117	146.44
449.338	128.44
449.559	135.44
449.779	128.44
450	128.44
450.221	133.44
450.442	129.44
450.662	130.44
450.883	147.44
451.104	138.44
451.324	149.44
451.545	110.44
451.766	127.44
451.986	118.44
452.207	125.44
452.428	122.44
452.648	124.44
452.869	117.44
453.089	118.44
453.31	103.44
453.53	108.44
453.751	110.44
453.971	105.44
454.192	106.44
454.412	100.44
454.633	110.44
454.853	116.44
455.073	118.44
455.294	119.44
455.514	120.44
455.734	134.44
455.955	125.44
456.175	117.44
456.395	111.44
456.616	100.44
456.836	95.44
457.056	112.44
457.276	121.44
457.497	105.44
457.717	116.44
457.937	111.44
458.157	109.44
458.377	89.44
458.598	108.44
458.818	100.44
459.038	80.44
459.258	83.44
459.478	75.44
459.698	66.44
459.918	98.44
460.138	105.44
460.358	103.44
460.578	114.44
460.798	105.44
461.018	115.44
461.238	126.44
461.458	101.44
461.678	87.44
461.898	108.44
462.118	88.44
462.338	118.44
462.558	115.44
462.777	97.44
462.997	95.44
463.217	110.44
463.437	102.44
463.657	112.44
463.876	103.44
464.096	100.44
464.316	103.44
464.536	103.44
464.755	112.44
464.975	111.44
465.195	111.44
465.414	117.44
465.634	130.44
465.854	120.44
466.073	129.44
466.293	115.44
466.512	105.44
466.732	138.44
466.951	137.44
467.171	127.44
467.391	137.44
467.61	135.44
467.829	112.44
468.049	150.44
468.268	133.44
468.488	130.44
468.707	120.44
468.927	134.44
469.146	140.44
469.365	136.44
469.585	134.44
469.804	133.44
470.023	134.44
470.243	148.44
470.462	139.44
470.681	137.44
470.901	120.44
471.12	128.44
471.339	136.44
471.558	129.44
471.777	142.44
471.997	124.44
472.216	116.44
472.435	114.44
472.654	109.44
472.873	119.44
473.092	111.44
473.311	120.44
473.53	119.44
473.749	130.44
473.968	130.44
474.187	122.44
474.406	120.44
474.625	113.44
474.844	109.44
475.063	122.44
475.282	118.44
475.501	120.44
475.72	120.44
475.939	119.44
476.158	114.44
476.377	124.44
476.596	121.44
476.814	111.44
477.033	111.44
477.252	100.44
477.471	126.44
477.69	143.44
477.908	130.44
478.127	134.44
478.346	133.44
478.564	129.44
478.783	140.44
479.002	134.44
479.22	129.44
479.439	123.44
479.658	114.44
479.876	110.44
480.095	104.44
480.313	110.44
480.532	108.44
480.751	118.44
480.969	96.44
481.188	84.44
481.406	80.44
481.624	78.44
481.843	84.44
482.061	98.44
482.28	101.44
482.498	112.44
482.717	112.44
482.935	109.44
483.153	126.44
483.372	165.44
483.59	140.44
483.808	142.44
484.027	128.44
484.245	140.44
484.463	136.44
484.681	145.44
484.9	143.44
485.118	145.44
485.336	123.44
485.554	104.44
485.772	86.44
485.99	81.44
486.209	107.44
486.427	110.44
486.645	118.44
486.863	131.44
487.081	154.44
487.299	125.44
487.517	128.44
487.735	176.44
487.953	195.44
488.171	178.44
488.389	156.44
488.607	154.44
488.825	148.44
489.043	128.44
489.261	137.44
489.479	134.44
489.696	147.44
489.914	140.44
490.132	140.44
490.35	141.44
490.568	164.44
490.786	176.44
491.003	184.44
491.221	174.44
491.439	180.44
491.657	181.44
491.874	202.44
492.092	223.44
492.31	239.44
492.527	208.44
492.745	198.44
492.963	176.44
493.18	186.44
493.398	175.44
493.615	167.44
493.833	167.44
494.05	176.44
494.268	161.44
494.485	182.44
494.703	174.44
494.92	169.44
495.138	162.44
495.355	178.44
495.573	162.44
495.79	159.44
496.008	156.44
496.225	168.44
496.442	170.44
496.66	168.44
496.877	159.44
497.094	156.44
497.312	152.44
497.529	163.44
497.746	157.44
497.963	142.44
498.181	135.44
498.398	110.44
498.615	119.44
498.832	117.44
499.049	115.44
499.267	105.44
499.484	132.44
499.701	109.44
499.918	127.44
500.135	132.44
500.352	140.44
500.569	134.44
500.786	148.44
501.003	124.44
501.22	137.44
501.437	131.44
501.654	136.44
501.871	124.44
502.088	134.44
502.305	136.44
502.522	120.44
502.739	138.44
502.956	129.44
503.172	125.44
503.389	129.44
503.606	114.44
503.823	122.44
504.04	112.44
504.256	126.44
504.473	100.44
504.69	116.44
504.907	121.44
505.123	117.44
505.34	129.44
505.557	116.44
505.773	124.44
505.99	118.44
506.207	130.44
506.423	114.44
506.64	117.44
506.856	122.44
507.073	113.44
507.289	102.44
507.506	115.44
507.722	118.44
507.939	108.44
508.155	98.44
508.372	120.44
508.588	112.44
508.805	107.44
509.021	105.44
509.238	103.44
509.454	97.44
509.67	105.44
509.887	99.44
510.103	100.44
510.319	90.44
510.536	89.44
510.752	83.44
510.968	88.44
511.184	85.44
511.401	87.44
511.617	81.44
511.833	90.44
512.049	98.44
