Data from Location2.07152019.Energy5.Lamp.07192019.3%Agarose_HRD10591_14-57-07-360.txt Node
Date: Fri Jul 19 14:57:07 EDT 2019
User: cochatt
Spectrometer: HR+D1059
Trigger mode: 1
Integration Time (sec): 1.000000E-1
Scans to average: 1
Electric dark correction enabled: true
Nonlinearity correction enabled: false
Boxcar width: 0
XAxis mode: Wavelengths
Number of Pixels in Spectrum: 2048
>>>>>Begin Spectral Data<<<<<
223.165	-13.06
223.4	-13.06
223.635	-13.06
223.869	-9.06
224.104	-30.06
224.338	-5.06
224.573	-22.06
224.808	-19.06
225.042	-13.06
225.277	-0.06
225.511	-6.06
225.746	3.94
225.98	10.94
226.215	7.94
226.449	11.94
226.683	21.94
226.918	21.94
227.152	38.94
227.387	28.94
227.621	48.94
227.856	49.94
228.09	59.94
228.324	42.94
228.559	58.94
228.793	50.94
229.027	58.94
229.262	62.94
229.496	53.94
229.73	64.94
229.964	65.94
230.199	58.94
230.433	70.94
230.667	75.94
230.901	73.94
231.136	79.94
231.37	72.94
231.604	86.94
231.838	80.94
232.072	67.94
232.306	81.94
232.541	73.94
232.775	76.94
233.009	81.94
233.243	78.94
233.477	78.94
233.711	84.94
233.945	88.94
234.179	80.94
234.413	80.94
234.647	78.94
234.881	60.94
235.115	79.94
235.349	79.94
235.583	82.94
235.817	78.94
236.051	85.94
236.285	88.94
236.519	72.94
236.753	74.94
236.987	73.94
237.221	75.94
237.455	86.94
237.689	79.94
237.922	64.94
238.156	71.94
238.39	70.94
238.624	74.94
238.858	67.94
239.091	76.94
239.325	76.94
239.559	64.94
239.793	67.94
240.027	78.94
240.26	78.94
240.494	64.94
240.728	72.94
240.961	82.94
241.195	73.94
241.429	72.94
241.662	71.94
241.896	55.94
242.13	84.94
242.363	81.94
242.597	74.94
242.83	81.94
243.064	77.94
243.298	73.94
243.531	76.94
243.765	96.94
243.998	55.94
244.232	76.94
244.465	95.94
244.699	81.94
244.932	83.94
245.166	92.94
245.399	82.94
245.633	69.94
245.866	76.94
246.099	67.94
246.333	75.94
246.566	75.94
246.8	89.94
247.033	87.94
247.266	68.94
247.5	80.94
247.733	73.94
247.966	84.94
248.2	75.94
248.433	89.94
248.666	76.94
248.899	91.94
249.133	75.94
249.366	87.94
249.599	74.94
249.832	67.94
250.066	78.94
250.299	76.94
250.532	92.94
250.765	81.94
250.998	69.94
251.231	79.94
251.465	77.94
251.698	73.94
251.931	85.94
252.164	80.94
252.397	78.94
252.63	85.94
252.863	76.94
253.096	85.94
253.329	77.94
253.562	78.94
253.795	88.94
254.028	79.94
254.261	85.94
254.494	70.94
254.727	89.94
254.96	80.94
255.193	72.94
255.426	66.94
255.659	77.94
255.892	66.94
256.124	74.94
256.357	79.94
256.59	84.94
256.823	84.94
257.056	88.94
257.289	87.94
257.521	78.94
257.754	88.94
257.987	84.94
258.22	82.94
258.452	85.94
258.685	86.94
258.918	90.94
259.151	83.94
259.383	68.94
259.616	70.94
259.849	91.94
260.081	81.94
260.314	81.94
260.547	79.94
260.779	82.94
261.012	79.94
261.244	74.94
261.477	87.94
261.71	82.94
261.942	68.94
262.175	59.94
262.407	96.94
262.64	89.94
262.872	70.94
263.105	88.94
263.337	85.94
263.57	75.94
263.802	79.94
264.035	77.94
264.267	90.94
264.499	73.94
264.732	82.94
264.964	88.94
265.197	80.94
265.429	84.94
265.661	87.94
265.894	73.94
266.126	83.94
266.358	86.94
266.591	72.94
266.823	83.94
267.055	97.94
267.287	98.94
267.52	82.94
267.752	90.94
267.984	88.94
268.216	83.94
268.448	86.94
268.681	90.94
268.913	85.94
269.145	88.94
269.377	89.94
269.609	86.94
269.841	90.94
270.073	82.94
270.306	80.94
270.538	83.94
270.77	82.94
271.002	89.94
271.234	86.94
271.466	82.94
271.698	85.94
271.93	81.94
272.162	84.94
272.394	93.94
272.626	77.94
272.858	69.94
273.09	74.94
273.322	85.94
273.553	87.94
273.785	84.94
274.017	79.94
274.249	67.94
274.481	105.94
274.713	92.94
274.945	97.94
275.176	95.94
275.408	94.94
275.64	90.94
275.872	89.94
276.104	89.94
276.335	89.94
276.567	89.94
276.799	90.94
277.031	88.94
277.262	79.94
277.494	90.94
277.726	84.94
277.957	90.94
278.189	79.94
278.421	67.94
278.652	73.94
278.884	87.94
279.115	89.94
279.347	87.94
279.579	79.94
279.81	69.94
280.042	84.94
280.273	79.94
280.505	86.94
280.736	75.94
280.968	91.94
281.199	72.94
281.431	100.94
281.662	70.94
281.894	72.94
282.125	84.94
282.356	85.94
282.588	85.94
282.819	87.94
283.051	76.94
283.282	101.94
283.513	92.94
283.745	81.94
283.976	74.94
284.207	82.94
284.439	95.94
284.67	86.94
284.901	95.94
285.132	84.94
285.364	81.94
285.595	80.94
285.826	71.94
286.057	91.94
286.288	81.94
286.52	82.94
286.751	86.94
286.982	74.94
287.213	93.94
287.444	83.94
287.675	93.94
287.906	82.94
288.138	75.94
288.369	97.94
288.6	82.94
288.831	90.94
289.062	88.94
289.293	87.94
289.524	84.94
289.755	87.94
289.986	81.94
290.217	78.94
290.448	84.94
290.679	85.94
290.91	97.94
291.141	95.94
291.371	84.94
291.602	87.94
291.833	81.94
292.064	83.94
292.295	91.94
292.526	84.94
292.757	83.94
292.987	79.94
293.218	86.94
293.449	96.94
293.68	88.94
293.91	79.94
294.141	79.94
294.372	80.94
294.603	81.94
294.833	98.94
295.064	76.94
295.295	79.94
295.525	74.94
295.756	84.94
295.987	104.94
296.217	82.94
296.448	83.94
296.679	83.94
296.909	87.94
297.14	83.94
297.37	73.94
297.601	84.94
297.831	77.94
298.062	91.94
298.292	94.94
298.523	79.94
298.753	77.94
298.984	93.94
299.214	85.94
299.445	81.94
299.675	83.94
299.905	74.94
300.136	100.94
300.366	83.94
300.597	87.94
300.827	85.94
301.057	96.94
301.288	95.94
301.518	87.94
301.748	89.94
301.979	88.94
302.209	82.94
302.439	89.94
302.669	89.94
302.9	77.94
303.13	77.94
303.36	85.94
303.59	88.94
303.82	81.94
304.051	90.94
304.281	88.94
304.511	78.94
304.741	84.94
304.971	88.94
305.201	96.94
305.431	77.94
305.661	81.94
305.891	79.94
306.121	81.94
306.352	78.94
306.582	84.94
306.812	86.94
307.042	90.94
307.272	86.94
307.502	76.94
307.731	90.94
307.961	88.94
308.191	95.94
308.421	92.94
308.651	89.94
308.881	87.94
309.111	83.94
309.341	104.94
309.571	98.94
309.8	92.94
310.03	61.94
310.26	72.94
310.49	82.94
310.72	86.94
310.949	84.94
311.179	95.94
311.409	83.94
311.639	78.94
311.868	94.94
312.098	88.94
312.328	81.94
312.557	81.94
312.787	85.94
313.017	89.94
313.246	84.94
313.476	91.94
313.706	79.94
313.935	82.94
314.165	85.94
314.394	94.94
314.624	89.94
314.853	71.94
315.083	83.94
315.312	76.94
315.542	87.94
315.771	75.94
316.001	88.94
316.23	105.94
316.46	69.94
316.689	73.94
316.919	90.94
317.148	81.94
317.377	71.94
317.607	79.94
317.836	91.94
318.065	97.94
318.295	92.94
318.524	86.94
318.753	85.94
318.983	92.94
319.212	68.94
319.441	73.94
319.67	77.94
319.9	92.94
320.129	86.94
320.358	98.94
320.587	86.94
320.816	80.94
321.046	71.94
321.275	71.94
321.504	84.94
321.733	88.94
321.962	91.94
322.191	81.94
322.42	83.94
322.649	89.94
322.878	92.94
323.108	75.94
323.337	77.94
323.566	88.94
323.795	90.94
324.024	75.94
324.253	84.94
324.482	80.94
324.71	94.94
324.939	85.94
325.168	87.94
325.397	95.94
325.626	93.94
325.855	80.94
326.084	101.94
326.313	80.94
326.542	87.94
326.77	83.94
326.999	79.94
327.228	81.94
327.457	84.94
327.686	96.94
327.914	76.94
328.143	86.94
328.372	72.94
328.6	86.94
328.829	81.94
329.058	88.94
329.287	89.94
329.515	91.94
329.744	89.94
329.972	95.94
330.201	91.94
330.43	95.94
330.658	93.94
330.887	95.94
331.115	82.94
331.344	90.94
331.572	107.94
331.801	75.94
332.03	84.94
332.258	99.94
332.486	74.94
332.715	89.94
332.943	73.94
333.172	82.94
333.4	82.94
333.629	90.94
333.857	82.94
334.085	97.94
334.314	74.94
334.542	76.94
334.771	89.94
334.999	73.94
335.227	83.94
335.455	82.94
335.684	84.94
335.912	81.94
336.14	80.94
336.369	91.94
336.597	98.94
336.825	88.94
337.053	84.94
337.281	71.94
337.51	94.94
337.738	89.94
337.966	89.94
338.194	93.94
338.422	98.94
338.65	99.94
338.878	70.94
339.106	87.94
339.334	89.94
339.562	83.94
339.79	73.94
340.018	91.94
340.246	67.94
340.474	84.94
340.702	82.94
340.93	69.94
341.158	95.94
341.386	103.94
341.614	84.94
341.842	77.94
342.07	86.94
342.298	82.94
342.526	89.94
342.754	87.94
342.981	84.94
343.209	83.94
343.437	88.94
343.665	73.94
343.893	82.94
344.12	77.94
344.348	86.94
344.576	94.94
344.804	75.94
345.031	82.94
345.259	87.94
345.487	81.94
345.714	69.94
345.942	93.94
346.17	90.94
346.397	88.94
346.625	74.94
346.853	95.94
347.08	82.94
347.308	77.94
347.535	86.94
347.763	81.94
347.99	97.94
348.218	86.94
348.445	96.94
348.673	84.94
348.9	83.94
349.128	99.94
349.355	80.94
349.583	88.94
349.81	88.94
350.037	92.94
350.265	91.94
350.492	90.94
350.72	72.94
350.947	89.94
351.174	76.94
351.402	83.94
351.629	79.94
351.856	82.94
352.083	64.94
352.311	83.94
352.538	98.94
352.765	83.94
352.992	94.94
353.22	95.94
353.447	77.94
353.674	85.94
353.901	85.94
354.128	82.94
354.355	89.94
354.583	79.94
354.81	89.94
355.037	98.94
355.264	86.94
355.491	88.94
355.718	82.94
355.945	83.94
356.172	82.94
356.399	93.94
356.626	91.94
356.853	99.94
357.08	81.94
357.307	83.94
357.534	83.94
357.761	86.94
357.988	88.94
358.215	91.94
358.441	84.94
358.668	76.94
358.895	86.94
359.122	83.94
359.349	92.94
359.576	84.94
359.802	92.94
360.029	86.94
360.256	76.94
360.483	73.94
360.709	83.94
360.936	92.94
361.163	84.94
361.39	81.94
361.616	78.94
361.843	97.94
362.07	88.94
362.296	92.94
362.523	77.94
362.749	87.94
362.976	72.94
363.203	87.94
363.429	83.94
363.656	93.94
363.882	68.94
364.109	87.94
364.335	93.94
364.562	80.94
364.788	82.94
365.015	90.94
365.241	78.94
365.468	92.94
365.694	83.94
365.92	87.94
366.147	74.94
366.373	68.94
366.599	89.94
366.826	88.94
367.052	85.94
367.278	84.94
367.505	86.94
367.731	88.94
367.957	84.94
368.184	81.94
368.41	82.94
368.636	91.94
368.862	95.94
369.089	100.94
369.315	97.94
369.541	88.94
369.767	88.94
369.993	84.94
370.219	103.94
370.445	103.94
370.672	90.94
370.898	89.94
371.124	97.94
371.35	84.94
371.576	89.94
371.802	93.94
372.028	102.94
372.254	98.94
372.48	86.94
372.706	94.94
372.932	93.94
373.158	88.94
373.384	88.94
373.61	99.94
373.835	85.94
374.061	87.94
374.287	83.94
374.513	90.94
374.739	93.94
374.965	88.94
375.191	91.94
375.416	96.94
375.642	96.94
375.868	104.94
376.094	99.94
376.319	100.94
376.545	105.94
376.771	76.94
376.997	99.94
377.222	99.94
377.448	89.94
377.674	82.94
377.899	102.94
378.125	72.94
378.35	95.94
378.576	115.94
378.802	86.94
379.027	101.94
379.253	115.94
379.478	103.94
379.704	92.94
379.929	102.94
380.155	89.94
380.38	96.94
380.606	102.94
380.831	86.94
381.057	110.94
381.282	102.94
381.507	103.94
381.733	96.94
381.958	112.94
382.184	94.94
382.409	97.94
382.634	99.94
382.86	98.94
383.085	89.94
383.31	89.94
383.535	96.94
383.761	101.94
383.986	96.94
384.211	91.94
384.436	71.94
384.662	88.94
384.887	105.94
385.112	94.94
385.337	93.94
385.562	90.94
385.787	92.94
386.013	106.94
386.238	99.94
386.463	101.94
386.688	104.94
386.913	93.94
387.138	101.94
387.363	102.94
387.588	93.94
387.813	104.94
388.038	113.94
388.263	103.94
388.488	99.94
388.713	98.94
388.938	99.94
389.163	96.94
389.387	106.94
389.612	105.94
389.837	103.94
390.062	114.94
390.287	99.94
390.512	119.94
390.736	101.94
390.961	98.94
391.186	98.94
391.411	107.94
391.636	113.94
391.86	116.94
392.085	75.94
392.31	96.94
392.534	91.94
392.759	119.94
392.984	104.94
393.208	106.94
393.433	100.94
393.658	89.94
393.882	107.94
394.107	100.94
394.331	93.94
394.556	104.94
394.78	93.94
395.005	117.94
395.229	107.94
395.454	114.94
395.678	113.94
395.903	109.94
396.127	102.94
396.352	105.94
396.576	91.94
396.801	113.94
397.025	109.94
397.249	98.94
397.474	107.94
397.698	104.94
397.922	116.94
398.147	118.94
398.371	107.94
398.595	116.94
398.82	102.94
399.044	98.94
399.268	119.94
399.492	123.94
399.717	106.94
399.941	87.94
400.165	100.94
400.389	116.94
400.613	100.94
400.837	101.94
401.062	105.94
401.286	93.94
401.51	104.94
401.734	113.94
401.958	113.94
402.182	98.94
402.406	102.94
402.63	99.94
402.854	124.94
403.078	121.94
403.302	113.94
403.526	121.94
403.75	120.94
403.974	109.94
404.198	103.94
404.422	107.94
404.645	104.94
404.869	124.94
405.093	115.94
405.317	133.94
405.541	115.94
405.765	113.94
405.988	125.94
406.212	108.94
406.436	115.94
406.66	108.94
406.883	109.94
407.107	125.94
407.331	128.94
407.555	119.94
407.778	118.94
408.002	122.94
408.226	133.94
408.449	107.94
408.673	115.94
408.896	107.94
409.12	123.94
409.344	119.94
409.567	117.94
409.791	127.94
410.014	111.94
410.238	129.94
410.461	119.94
410.685	122.94
410.908	115.94
411.132	124.94
411.355	127.94
411.578	117.94
411.802	136.94
412.025	124.94
412.249	125.94
412.472	127.94
412.695	127.94
412.919	101.94
413.142	121.94
413.365	118.94
413.589	118.94
413.812	124.94
414.035	130.94
414.258	131.94
414.482	115.94
414.705	128.94
414.928	127.94
415.151	121.94
415.374	111.94
415.597	106.94
415.821	127.94
416.044	114.94
416.267	119.94
416.49	123.94
416.713	125.94
416.936	129.94
417.159	132.94
417.382	128.94
417.605	119.94
417.828	138.94
418.051	129.94
418.274	132.94
418.497	134.94
418.72	144.94
418.943	108.94
419.166	123.94
419.389	129.94
419.611	139.94
419.834	131.94
420.057	145.94
420.28	137.94
420.503	120.94
420.726	136.94
420.948	138.94
421.171	122.94
421.394	153.94
421.617	139.94
421.839	135.94
422.062	146.94
422.285	130.94
422.507	117.94
422.73	102.94
422.953	121.94
423.175	123.94
423.398	135.94
423.621	117.94
423.843	132.94
424.066	132.94
424.288	139.94
424.511	145.94
424.733	137.94
424.956	129.94
425.178	146.94
425.401	149.94
425.623	140.94
425.846	127.94
426.068	132.94
426.291	129.94
426.513	127.94
426.735	117.94
426.958	128.94
427.18	128.94
427.402	129.94
427.625	121.94
427.847	143.94
428.069	132.94
428.292	135.94
428.514	127.94
428.736	128.94
428.958	119.94
429.181	125.94
429.403	131.94
429.625	129.94
429.847	119.94
430.069	124.94
430.292	131.94
430.514	140.94
430.736	124.94
430.958	145.94
431.18	112.94
431.402	125.94
431.624	111.94
431.846	120.94
432.068	97.94
432.29	88.94
432.512	106.94
432.734	123.94
432.956	151.94
433.178	137.94
433.4	133.94
433.622	132.94
433.844	139.94
434.066	128.94
434.287	96.94
434.509	93.94
434.731	109.94
434.953	116.94
435.175	122.94
435.397	121.94
435.618	116.94
435.84	113.94
436.062	112.94
436.284	121.94
436.505	136.94
436.727	122.94
436.949	124.94
437.17	117.94
437.392	115.94
437.614	134.94
437.835	113.94
438.057	107.94
438.278	101.94
438.5	111.94
438.721	118.94
438.943	129.94
439.165	130.94
439.386	131.94
439.608	134.94
439.829	145.94
440.05	131.94
440.272	131.94
440.493	149.94
440.715	142.94
440.936	119.94
441.158	132.94
441.379	147.94
441.6	144.94
441.822	136.94
442.043	148.94
442.264	140.94
442.486	130.94
442.707	125.94
442.928	131.94
443.149	130.94
443.371	135.94
443.592	139.94
443.813	125.94
444.034	131.94
444.255	139.94
444.476	129.94
444.698	140.94
444.919	160.94
445.14	274.94
445.361	211.94
445.582	153.94
445.803	136.94
446.024	154.94
446.245	155.94
446.466	140.94
446.687	142.94
446.908	153.94
447.129	144.94
447.35	153.94
447.571	148.94
447.792	161.94
448.013	137.94
448.234	134.94
448.455	136.94
448.675	145.94
448.896	141.94
449.117	149.94
449.338	131.94
449.559	147.94
449.779	152.94
450	140.94
450.221	121.94
450.442	139.94
450.662	139.94
450.883	140.94
451.104	143.94
451.324	133.94
451.545	127.94
451.766	124.94
451.986	132.94
452.207	117.94
452.428	123.94
452.648	118.94
452.869	135.94
453.089	116.94
453.31	117.94
453.53	108.94
453.751	101.94
453.971	112.94
454.192	116.94
454.412	120.94
454.633	112.94
454.853	118.94
455.073	118.94
455.294	127.94
455.514	115.94
455.734	124.94
455.955	117.94
456.175	124.94
456.395	116.94
456.616	115.94
456.836	102.94
457.056	118.94
457.276	110.94
457.497	115.94
457.717	116.94
457.937	111.94
458.157	123.94
458.377	99.94
458.598	95.94
458.818	91.94
459.038	84.94
459.258	85.94
459.478	85.94
459.698	102.94
459.918	97.94
460.138	121.94
460.358	107.94
460.578	106.94
460.798	120.94
461.018	106.94
461.238	99.94
461.458	114.94
461.678	119.94
461.898	117.94
462.118	122.94
462.338	96.94
462.558	106.94
462.777	121.94
462.997	118.94
463.217	112.94
463.437	110.94
463.657	115.94
463.876	112.94
464.096	106.94
464.316	106.94
464.536	102.94
464.755	116.94
464.975	111.94
465.195	110.94
465.414	124.94
465.634	102.94
465.854	115.94
466.073	119.94
466.293	117.94
466.512	118.94
466.732	130.94
466.951	133.94
467.171	152.94
467.391	126.94
467.61	123.94
467.829	135.94
468.049	130.94
468.268	131.94
468.488	134.94
468.707	133.94
468.927	129.94
469.146	135.94
469.365	161.94
469.585	136.94
469.804	131.94
470.023	132.94
470.243	132.94
470.462	132.94
470.681	153.94
470.901	139.94
471.12	140.94
471.339	141.94
471.558	139.94
471.777	140.94
471.997	129.94
472.216	131.94
472.435	119.94
472.654	104.94
472.873	99.94
473.092	116.94
473.311	129.94
473.53	137.94
473.749	136.94
473.968	126.94
474.187	117.94
474.406	120.94
474.625	122.94
474.844	129.94
475.063	139.94
475.282	139.94
475.501	120.94
475.72	135.94
475.939	127.94
476.158	125.94
476.377	123.94
476.596	125.94
476.814	111.94
477.033	89.94
477.252	120.94
477.471	129.94
477.69	126.94
477.908	137.94
478.127	127.94
478.346	136.94
478.564	129.94
478.783	135.94
479.002	147.94
479.22	125.94
479.439	129.94
479.658	139.94
479.876	124.94
480.095	108.94
480.313	120.94
480.532	117.94
480.751	108.94
480.969	93.94
481.188	91.94
481.406	80.94
481.624	90.94
481.843	79.94
482.061	110.94
482.28	97.94
482.498	119.94
482.717	114.94
482.935	122.94
483.153	140.94
483.372	139.94
483.59	159.94
483.808	136.94
484.027	129.94
484.245	138.94
484.463	138.94
484.681	156.94
484.9	151.94
485.118	147.94
485.336	128.94
485.554	120.94
485.772	102.94
485.99	111.94
486.209	97.94
486.427	113.94
486.645	116.94
486.863	138.94
487.081	131.94
487.299	147.94
487.517	128.94
487.735	169.94
487.953	188.94
488.171	167.94
488.389	155.94
488.607	144.94
488.825	127.94
489.043	127.94
489.261	133.94
489.479	134.94
489.696	127.94
489.914	140.94
490.132	140.94
490.35	163.94
490.568	159.94
490.786	171.94
491.003	181.94
491.221	183.94
491.439	179.94
491.657	205.94
491.874	203.94
492.092	215.94
492.31	233.94
492.527	226.94
492.745	197.94
492.963	191.94
493.18	175.94
493.398	186.94
493.615	193.94
493.833	165.94
494.05	178.94
494.268	160.94
494.485	181.94
494.703	157.94
494.92	165.94
495.138	170.94
495.355	182.94
495.573	162.94
495.79	162.94
496.008	161.94
496.225	176.94
496.442	172.94
496.66	178.94
496.877	171.94
497.094	161.94
497.312	161.94
497.529	159.94
497.746	162.94
497.963	134.94
498.181	135.94
498.398	116.94
498.615	123.94
498.832	99.94
499.049	122.94
499.267	131.94
499.484	119.94
499.701	131.94
499.918	154.94
500.135	145.94
500.352	142.94
500.569	147.94
500.786	145.94
501.003	144.94
501.22	150.94
501.437	144.94
501.654	141.94
501.871	127.94
502.088	136.94
502.305	131.94
502.522	130.94
502.739	134.94
502.956	121.94
503.172	139.94
503.389	132.94
503.606	131.94
503.823	118.94
504.04	108.94
504.256	103.94
504.473	125.94
504.69	112.94
504.907	125.94
505.123	116.94
505.34	122.94
505.557	127.94
505.773	112.94
505.99	134.94
506.207	122.94
506.423	114.94
506.64	111.94
506.856	105.94
507.073	122.94
507.289	115.94
507.506	119.94
507.722	121.94
507.939	125.94
508.155	123.94
508.372	108.94
508.588	108.94
508.805	105.94
509.021	101.94
509.238	103.94
509.454	88.94
509.67	106.94
509.887	102.94
510.103	89.94
510.319	108.94
510.536	86.94
510.752	91.94
510.968	103.94
511.184	91.94
511.401	84.94
511.617	94.94
