Data from Location2.07152019.Energy5.Lamp.07192019.3%Agarose_HRD10591_14-57-45-358.txt Node
Date: Fri Jul 19 14:57:45 EDT 2019
User: cochatt
Spectrometer: HR+D1059
Trigger mode: 1
Integration Time (sec): 1.000000E-1
Scans to average: 1
Electric dark correction enabled: true
Nonlinearity correction enabled: false
Boxcar width: 0
XAxis mode: Wavelengths
Number of Pixels in Spectrum: 2048
>>>>>Begin Spectral Data<<<<<
223.165	-16.88
223.4	-16.88
223.635	-16.88
223.869	-14.88
224.104	-15.88
224.338	-17.88
224.573	-9.88
224.808	-7.88
225.042	-10.88
225.277	0.12
225.511	-15.88
225.746	13.12
225.98	-0.88
226.215	18.12
226.449	19.12
226.683	10.12
226.918	20.12
227.152	30.12
227.387	31.12
227.621	48.12
227.856	54.12
228.09	37.12
228.324	50.12
228.559	60.12
228.793	54.12
229.027	58.12
229.262	71.12
229.496	65.12
229.73	55.12
229.964	67.12
230.199	68.12
230.433	76.12
230.667	68.12
230.901	96.12
231.136	90.12
231.37	85.12
231.604	88.12
231.838	89.12
232.072	76.12
232.306	89.12
232.541	85.12
232.775	84.12
233.009	75.12
233.243	73.12
233.477	95.12
233.711	79.12
233.945	92.12
234.179	99.12
234.413	78.12
234.647	88.12
234.881	89.12
235.115	78.12
235.349	72.12
235.583	79.12
235.817	82.12
236.051	92.12
236.285	91.12
236.519	71.12
236.753	64.12
236.987	84.12
237.221	78.12
237.455	72.12
237.689	86.12
237.922	80.12
238.156	76.12
238.39	68.12
238.624	79.12
238.858	96.12
239.091	74.12
239.325	69.12
239.559	76.12
239.793	69.12
240.027	79.12
240.26	78.12
240.494	68.12
240.728	72.12
240.961	89.12
241.195	91.12
241.429	74.12
241.662	84.12
241.896	77.12
242.13	70.12
242.363	67.12
242.597	69.12
242.83	71.12
243.064	78.12
243.298	96.12
243.531	77.12
243.765	74.12
243.998	68.12
244.232	87.12
244.465	78.12
244.699	83.12
244.932	80.12
245.166	82.12
245.399	74.12
245.633	76.12
245.866	76.12
246.099	72.12
246.333	77.12
246.566	60.12
246.8	82.12
247.033	70.12
247.266	93.12
247.5	82.12
247.733	78.12
247.966	82.12
248.2	62.12
248.433	76.12
248.666	85.12
248.899	81.12
249.133	73.12
249.366	80.12
249.599	77.12
249.832	86.12
250.066	84.12
250.299	79.12
250.532	90.12
250.765	72.12
250.998	79.12
251.231	79.12
251.465	79.12
251.698	83.12
251.931	64.12
252.164	69.12
252.397	71.12
252.63	86.12
252.863	73.12
253.096	76.12
253.329	74.12
253.562	80.12
253.795	73.12
254.028	84.12
254.261	88.12
254.494	82.12
254.727	88.12
254.96	72.12
255.193	65.12
255.426	67.12
255.659	98.12
255.892	89.12
256.124	84.12
256.357	73.12
256.59	82.12
256.823	80.12
257.056	87.12
257.289	83.12
257.521	74.12
257.754	92.12
257.987	77.12
258.22	89.12
258.452	84.12
258.685	79.12
258.918	82.12
259.151	70.12
259.383	79.12
259.616	67.12
259.849	77.12
260.081	82.12
260.314	89.12
260.547	87.12
260.779	80.12
261.012	87.12
261.244	94.12
261.477	90.12
261.71	87.12
261.942	85.12
262.175	69.12
262.407	84.12
262.64	74.12
262.872	81.12
263.105	90.12
263.337	85.12
263.57	84.12
263.802	82.12
264.035	82.12
264.267	83.12
264.499	90.12
264.732	89.12
264.964	79.12
265.197	73.12
265.429	82.12
265.661	97.12
265.894	80.12
266.126	84.12
266.358	81.12
266.591	86.12
266.823	80.12
267.055	81.12
267.287	60.12
267.52	68.12
267.752	83.12
267.984	87.12
268.216	79.12
268.448	77.12
268.681	91.12
268.913	67.12
269.145	84.12
269.377	74.12
269.609	83.12
269.841	96.12
270.073	85.12
270.306	79.12
270.538	72.12
270.77	84.12
271.002	80.12
271.234	82.12
271.466	58.12
271.698	66.12
271.93	94.12
272.162	80.12
272.394	88.12
272.626	80.12
272.858	83.12
273.09	70.12
273.322	79.12
273.553	87.12
273.785	94.12
274.017	76.12
274.249	79.12
274.481	81.12
274.713	77.12
274.945	88.12
275.176	84.12
275.408	75.12
275.64	97.12
275.872	97.12
276.104	86.12
276.335	70.12
276.567	83.12
276.799	79.12
277.031	76.12
277.262	80.12
277.494	88.12
277.726	95.12
277.957	80.12
278.189	79.12
278.421	80.12
278.652	88.12
278.884	80.12
279.115	82.12
279.347	87.12
279.579	63.12
279.81	65.12
280.042	80.12
280.273	82.12
280.505	76.12
280.736	88.12
280.968	73.12
281.199	83.12
281.431	91.12
281.662	91.12
281.894	95.12
282.125	89.12
282.356	86.12
282.588	94.12
282.819	77.12
283.051	78.12
283.282	79.12
283.513	85.12
283.745	84.12
283.976	80.12
284.207	71.12
284.439	72.12
284.67	79.12
284.901	86.12
285.132	73.12
285.364	72.12
285.595	91.12
285.826	98.12
286.057	75.12
286.288	70.12
286.52	80.12
286.751	73.12
286.982	83.12
287.213	85.12
287.444	83.12
287.675	87.12
287.906	84.12
288.138	72.12
288.369	79.12
288.6	76.12
288.831	88.12
289.062	97.12
289.293	76.12
289.524	81.12
289.755	80.12
289.986	88.12
290.217	64.12
290.448	76.12
290.679	92.12
290.91	89.12
291.141	84.12
291.371	81.12
291.602	82.12
291.833	85.12
292.064	79.12
292.295	83.12
292.526	72.12
292.757	89.12
292.987	90.12
293.218	98.12
293.449	78.12
293.68	83.12
293.91	69.12
294.141	63.12
294.372	87.12
294.603	72.12
294.833	77.12
295.064	92.12
295.295	71.12
295.525	79.12
295.756	87.12
295.987	88.12
296.217	82.12
296.448	83.12
296.679	80.12
296.909	82.12
297.14	98.12
297.37	79.12
297.601	75.12
297.831	91.12
298.062	83.12
298.292	87.12
298.523	81.12
298.753	89.12
298.984	76.12
299.214	87.12
299.445	75.12
299.675	104.12
299.905	79.12
300.136	89.12
300.366	87.12
300.597	80.12
300.827	71.12
301.057	75.12
301.288	82.12
301.518	87.12
301.748	82.12
301.979	87.12
302.209	82.12
302.439	80.12
302.669	100.12
302.9	96.12
303.13	90.12
303.36	80.12
303.59	77.12
303.82	82.12
304.051	91.12
304.281	87.12
304.511	88.12
304.741	76.12
304.971	82.12
305.201	91.12
305.431	82.12
305.661	83.12
305.891	82.12
306.121	92.12
306.352	87.12
306.582	92.12
306.812	84.12
307.042	77.12
307.272	77.12
307.502	80.12
307.731	89.12
307.961	88.12
308.191	73.12
308.421	79.12
308.651	83.12
308.881	99.12
309.111	79.12
309.341	83.12
309.571	95.12
309.8	73.12
310.03	84.12
310.26	80.12
310.49	74.12
310.72	83.12
310.949	88.12
311.179	85.12
311.409	90.12
311.639	89.12
311.868	89.12
312.098	76.12
312.328	84.12
312.557	70.12
312.787	96.12
313.017	83.12
313.246	81.12
313.476	83.12
313.706	88.12
313.935	84.12
314.165	85.12
314.394	89.12
314.624	82.12
314.853	85.12
315.083	83.12
315.312	91.12
315.542	84.12
315.771	82.12
316.001	76.12
316.23	79.12
316.46	85.12
316.689	81.12
316.919	84.12
317.148	86.12
317.377	97.12
317.607	83.12
317.836	77.12
318.065	88.12
318.295	91.12
318.524	92.12
318.753	77.12
318.983	91.12
319.212	96.12
319.441	85.12
319.67	84.12
319.9	87.12
320.129	105.12
320.358	84.12
320.587	92.12
320.816	80.12
321.046	85.12
321.275	78.12
321.504	85.12
321.733	84.12
321.962	63.12
322.191	88.12
322.42	88.12
322.649	85.12
322.878	75.12
323.108	91.12
323.337	85.12
323.566	81.12
323.795	92.12
324.024	88.12
324.253	66.12
324.482	78.12
324.71	82.12
324.939	86.12
325.168	84.12
325.397	92.12
325.626	86.12
325.855	78.12
326.084	74.12
326.313	88.12
326.542	76.12
326.77	80.12
326.999	81.12
327.228	80.12
327.457	75.12
327.686	87.12
327.914	76.12
328.143	76.12
328.372	83.12
328.6	86.12
328.829	92.12
329.058	78.12
329.287	82.12
329.515	81.12
329.744	85.12
329.972	97.12
330.201	83.12
330.43	88.12
330.658	96.12
330.887	80.12
331.115	68.12
331.344	67.12
331.572	73.12
331.801	72.12
332.03	81.12
332.258	78.12
332.486	73.12
332.715	80.12
332.943	80.12
333.172	71.12
333.4	86.12
333.629	89.12
333.857	83.12
334.085	83.12
334.314	71.12
334.542	92.12
334.771	90.12
334.999	69.12
335.227	84.12
335.455	83.12
335.684	81.12
335.912	73.12
336.14	89.12
336.369	77.12
336.597	82.12
336.825	76.12
337.053	90.12
337.281	84.12
337.51	94.12
337.738	74.12
337.966	72.12
338.194	81.12
338.422	83.12
338.65	84.12
338.878	77.12
339.106	84.12
339.334	87.12
339.562	88.12
339.79	83.12
340.018	87.12
340.246	70.12
340.474	84.12
340.702	85.12
340.93	83.12
341.158	71.12
341.386	80.12
341.614	84.12
341.842	97.12
342.07	90.12
342.298	92.12
342.526	90.12
342.754	98.12
342.981	82.12
343.209	75.12
343.437	89.12
343.665	78.12
343.893	67.12
344.12	77.12
344.348	86.12
344.576	82.12
344.804	80.12
345.031	81.12
345.259	105.12
345.487	81.12
345.714	85.12
345.942	89.12
346.17	71.12
346.397	87.12
346.625	78.12
346.853	95.12
347.08	88.12
347.308	76.12
347.535	74.12
347.763	91.12
347.99	82.12
348.218	78.12
348.445	83.12
348.673	103.12
348.9	88.12
349.128	82.12
349.355	78.12
349.583	83.12
349.81	79.12
350.037	84.12
350.265	86.12
350.492	87.12
350.72	55.12
350.947	78.12
351.174	83.12
351.402	75.12
351.629	106.12
351.856	91.12
352.083	86.12
352.311	79.12
352.538	75.12
352.765	104.12
352.992	92.12
353.22	81.12
353.447	91.12
353.674	81.12
353.901	94.12
354.128	84.12
354.355	86.12
354.583	81.12
354.81	67.12
355.037	79.12
355.264	68.12
355.491	77.12
355.718	80.12
355.945	90.12
356.172	88.12
356.399	88.12
356.626	85.12
356.853	94.12
357.08	82.12
357.307	85.12
357.534	82.12
357.761	75.12
357.988	86.12
358.215	98.12
358.441	83.12
358.668	90.12
358.895	71.12
359.122	74.12
359.349	67.12
359.576	76.12
359.802	87.12
360.029	87.12
360.256	78.12
360.483	92.12
360.709	65.12
360.936	84.12
361.163	72.12
361.39	84.12
361.616	87.12
361.843	79.12
362.07	81.12
362.296	62.12
362.523	78.12
362.749	76.12
362.976	74.12
363.203	90.12
363.429	111.12
363.656	83.12
363.882	79.12
364.109	76.12
364.335	67.12
364.562	78.12
364.788	80.12
365.015	93.12
365.241	85.12
365.468	108.12
365.694	86.12
365.92	84.12
366.147	91.12
366.373	75.12
366.599	82.12
366.826	90.12
367.052	88.12
367.278	91.12
367.505	83.12
367.731	91.12
367.957	89.12
368.184	98.12
368.41	98.12
368.636	92.12
368.862	84.12
369.089	84.12
369.315	91.12
369.541	81.12
369.767	99.12
369.993	95.12
370.219	94.12
370.445	91.12
370.672	90.12
370.898	87.12
371.124	82.12
371.35	80.12
371.576	78.12
371.802	98.12
372.028	93.12
372.254	89.12
372.48	98.12
372.706	81.12
372.932	83.12
373.158	96.12
373.384	76.12
373.61	89.12
373.835	87.12
374.061	78.12
374.287	86.12
374.513	103.12
374.739	90.12
374.965	86.12
375.191	82.12
375.416	77.12
375.642	90.12
375.868	107.12
376.094	91.12
376.319	98.12
376.545	95.12
376.771	77.12
376.997	97.12
377.222	99.12
377.448	98.12
377.674	88.12
377.899	91.12
378.125	83.12
378.35	86.12
378.576	96.12
378.802	87.12
379.027	99.12
379.253	98.12
379.478	87.12
379.704	96.12
379.929	101.12
380.155	99.12
380.38	70.12
380.606	81.12
380.831	77.12
381.057	105.12
381.282	99.12
381.507	101.12
381.733	93.12
381.958	98.12
382.184	93.12
382.409	91.12
382.634	91.12
382.86	105.12
383.085	94.12
383.31	101.12
383.535	91.12
383.761	95.12
383.986	99.12
384.211	89.12
384.436	105.12
384.662	101.12
384.887	88.12
385.112	87.12
385.337	102.12
385.562	98.12
385.787	96.12
386.013	93.12
386.238	103.12
386.463	95.12
386.688	104.12
386.913	100.12
387.138	96.12
387.363	102.12
387.588	101.12
387.813	95.12
388.038	98.12
388.263	107.12
388.488	93.12
388.713	99.12
388.938	110.12
389.163	91.12
389.387	94.12
389.612	92.12
389.837	96.12
390.062	99.12
390.287	113.12
390.512	93.12
390.736	100.12
390.961	86.12
391.186	103.12
391.411	103.12
391.636	102.12
391.86	101.12
392.085	96.12
392.31	90.12
392.534	104.12
392.759	105.12
392.984	106.12
393.208	91.12
393.433	102.12
393.658	100.12
393.882	103.12
394.107	103.12
394.331	103.12
394.556	98.12
394.78	113.12
395.005	97.12
395.229	109.12
395.454	94.12
395.678	116.12
395.903	119.12
396.127	118.12
396.352	99.12
396.576	120.12
396.801	106.12
397.025	112.12
397.249	100.12
397.474	111.12
397.698	114.12
397.922	105.12
398.147	105.12
398.371	96.12
398.595	110.12
398.82	108.12
399.044	114.12
399.268	100.12
399.492	110.12
399.717	126.12
399.941	102.12
400.165	90.12
400.389	94.12
400.613	119.12
400.837	114.12
401.062	130.12
401.286	119.12
401.51	117.12
401.734	98.12
401.958	104.12
402.182	120.12
402.406	120.12
402.63	96.12
402.854	110.12
403.078	113.12
403.302	123.12
403.526	115.12
403.75	106.12
403.974	110.12
404.198	101.12
404.422	120.12
404.645	114.12
404.869	113.12
405.093	115.12
405.317	112.12
405.541	111.12
405.765	119.12
405.988	138.12
406.212	110.12
406.436	112.12
406.66	125.12
406.883	141.12
407.107	122.12
407.331	125.12
407.555	106.12
407.778	102.12
408.002	106.12
408.226	113.12
408.449	123.12
408.673	121.12
408.896	122.12
409.12	117.12
409.344	121.12
409.567	120.12
409.791	123.12
410.014	130.12
410.238	126.12
410.461	111.12
410.685	117.12
410.908	118.12
411.132	141.12
411.355	134.12
411.578	127.12
411.802	129.12
412.025	117.12
412.249	130.12
412.472	125.12
412.695	123.12
412.919	110.12
413.142	119.12
413.365	115.12
413.589	116.12
413.812	131.12
414.035	118.12
414.258	122.12
414.482	118.12
414.705	125.12
414.928	118.12
415.151	127.12
415.374	113.12
415.597	113.12
415.821	121.12
416.044	127.12
416.267	122.12
416.49	130.12
416.713	121.12
416.936	127.12
417.159	119.12
417.382	113.12
417.605	133.12
417.828	134.12
418.051	126.12
418.274	127.12
418.497	148.12
418.72	142.12
418.943	132.12
419.166	124.12
419.389	125.12
419.611	127.12
419.834	121.12
420.057	125.12
420.28	131.12
420.503	126.12
420.726	126.12
420.948	124.12
421.171	123.12
421.394	138.12
421.617	147.12
421.839	124.12
422.062	124.12
422.285	115.12
422.507	123.12
422.73	126.12
422.953	123.12
423.175	134.12
423.398	131.12
423.621	127.12
423.843	125.12
424.066	140.12
424.288	134.12
424.511	144.12
424.733	150.12
424.956	140.12
425.178	134.12
425.401	137.12
425.623	148.12
425.846	132.12
426.068	132.12
426.291	111.12
426.513	132.12
426.735	135.12
426.958	118.12
427.18	140.12
427.402	121.12
427.625	124.12
427.847	131.12
428.069	120.12
428.292	129.12
428.514	128.12
428.736	132.12
428.958	127.12
429.181	135.12
429.403	117.12
429.625	130.12
429.847	123.12
430.069	124.12
430.292	140.12
430.514	119.12
430.736	139.12
430.958	132.12
431.18	115.12
431.402	117.12
431.624	119.12
431.846	135.12
432.068	102.12
432.29	82.12
432.512	107.12
432.734	115.12
432.956	123.12
433.178	146.12
433.4	143.12
433.622	137.12
433.844	136.12
434.066	132.12
434.287	106.12
434.509	108.12
434.731	94.12
434.953	123.12
435.175	130.12
435.397	121.12
435.618	120.12
435.84	124.12
436.062	119.12
436.284	129.12
436.505	128.12
436.727	119.12
436.949	127.12
437.17	123.12
437.392	120.12
437.614	123.12
437.835	110.12
438.057	98.12
438.278	117.12
438.5	106.12
438.721	122.12
438.943	144.12
439.165	132.12
439.386	138.12
439.608	139.12
439.829	135.12
440.05	143.12
440.272	140.12
440.493	155.12
440.715	144.12
440.936	128.12
441.158	142.12
441.379	140.12
441.6	153.12
441.822	155.12
442.043	131.12
442.264	147.12
442.486	120.12
442.707	132.12
442.928	138.12
443.149	144.12
443.371	138.12
443.592	119.12
443.813	127.12
444.034	150.12
444.255	139.12
444.476	139.12
444.698	134.12
444.919	128.12
445.14	207.12
445.361	176.12
445.582	144.12
445.803	141.12
446.024	151.12
446.245	146.12
446.466	143.12
446.687	153.12
446.908	152.12
447.129	150.12
447.35	148.12
447.571	150.12
447.792	164.12
448.013	137.12
448.234	140.12
448.455	135.12
448.675	137.12
448.896	141.12
449.117	138.12
449.338	150.12
449.559	168.12
449.779	135.12
450	130.12
450.221	124.12
450.442	134.12
450.662	126.12
450.883	141.12
451.104	132.12
451.324	130.12
451.545	138.12
451.766	124.12
451.986	134.12
452.207	125.12
452.428	122.12
452.648	126.12
452.869	116.12
453.089	122.12
453.31	111.12
453.53	116.12
453.751	100.12
453.971	105.12
454.192	104.12
454.412	109.12
454.633	110.12
454.853	122.12
455.073	126.12
455.294	115.12
455.514	138.12
455.734	133.12
455.955	134.12
456.175	127.12
456.395	105.12
456.616	115.12
456.836	115.12
457.056	119.12
457.276	103.12
457.497	97.12
457.717	105.12
457.937	96.12
458.157	106.12
458.377	108.12
458.598	107.12
458.818	99.12
459.038	84.12
459.258	88.12
459.478	88.12
459.698	114.12
459.918	107.12
460.138	104.12
460.358	110.12
460.578	96.12
460.798	119.12
461.018	111.12
461.238	116.12
461.458	112.12
461.678	107.12
461.898	102.12
462.118	124.12
462.338	107.12
462.558	112.12
462.777	122.12
462.997	110.12
463.217	103.12
463.437	123.12
463.657	107.12
463.876	103.12
464.096	112.12
464.316	120.12
464.536	121.12
464.755	130.12
464.975	126.12
465.195	122.12
465.414	113.12
465.634	118.12
465.854	117.12
466.073	115.12
466.293	122.12
466.512	121.12
466.732	127.12
466.951	134.12
467.171	134.12
467.391	132.12
467.61	114.12
467.829	124.12
468.049	148.12
468.268	134.12
468.488	126.12
468.707	143.12
468.927	128.12
469.146	137.12
469.365	142.12
469.585	142.12
469.804	129.12
470.023	138.12
470.243	129.12
470.462	132.12
470.681	145.12
470.901	135.12
471.12	140.12
471.339	145.12
471.558	136.12
471.777	144.12
471.997	128.12
472.216	131.12
472.435	110.12
472.654	112.12
472.873	96.12
473.092	122.12
473.311	122.12
473.53	126.12
473.749	122.12
473.968	122.12
474.187	131.12
474.406	123.12
474.625	129.12
474.844	135.12
475.063	130.12
475.282	111.12
475.501	115.12
475.72	122.12
475.939	129.12
476.158	131.12
476.377	127.12
476.596	113.12
476.814	115.12
477.033	116.12
477.252	112.12
477.471	119.12
477.69	133.12
477.908	142.12
478.127	152.12
478.346	139.12
478.564	123.12
478.783	133.12
479.002	133.12
479.22	143.12
479.439	136.12
479.658	132.12
479.876	128.12
480.095	103.12
480.313	118.12
480.532	124.12
480.751	112.12
480.969	98.12
481.188	87.12
481.406	83.12
481.624	87.12
481.843	105.12
482.061	100.12
482.28	121.12
482.498	128.12
482.717	106.12
482.935	119.12
483.153	133.12
483.372	142.12
483.59	172.12
483.808	150.12
484.027	126.12
484.245	128.12
484.463	151.12
484.681	155.12
484.9	141.12
485.118	151.12
485.336	132.12
485.554	113.12
485.772	100.12
485.99	98.12
486.209	106.12
486.427	117.12
486.645	111.12
486.863	138.12
487.081	141.12
487.299	135.12
487.517	132.12
487.735	150.12
487.953	178.12
488.171	187.12
488.389	180.12
488.607	165.12
488.825	138.12
489.043	118.12
489.261	138.12
489.479	128.12
489.696	137.12
489.914	135.12
490.132	149.12
490.35	154.12
490.568	168.12
490.786	163.12
491.003	178.12
491.221	164.12
491.439	182.12
491.657	186.12
491.874	208.12
492.092	207.12
492.31	240.12
492.527	211.12
492.745	195.12
492.963	193.12
493.18	185.12
493.398	171.12
493.615	174.12
493.833	182.12
494.05	167.12
494.268	181.12
494.485	170.12
494.703	182.12
494.92	171.12
495.138	164.12
495.355	169.12
495.573	177.12
495.79	167.12
496.008	159.12
496.225	164.12
496.442	179.12
496.66	169.12
496.877	168.12
497.094	166.12
497.312	167.12
497.529	161.12
497.746	150.12
497.963	148.12
498.181	127.12
498.398	128.12
498.615	141.12
498.832	126.12
499.049	118.12
499.267	133.12
499.484	113.12
499.701	111.12
499.918	130.12
500.135	143.12
500.352	139.12
500.569	138.12
500.786	155.12
501.003	132.12
501.22	154.12
501.437	129.12
501.654	148.12
501.871	126.12
502.088	139.12
502.305	140.12
502.522	136.12
502.739	137.12
502.956	138.12
503.172	122.12
503.389	131.12
503.606	121.12
503.823	122.12
504.04	112.12
504.256	127.12
504.473	117.12
504.69	129.12
504.907	128.12
505.123	123.12
505.34	116.12
505.557	123.12
505.773	139.12
505.99	129.12
506.207	139.12
506.423	111.12
506.64	114.12
506.856	125.12
507.073	102.12
507.289	113.12
507.506	118.12
507.722	106.12
507.939	134.12
508.155	127.12
508.372	130.12
508.588	131.12
508.805	114.12
509.021	106.12
509.238	98.12
509.454	104.12
509.67	105.12
509.887	93.12
510.103	98.12
510.319	91.12
510.536	76.12
510.752	92.12
510.968	86.12
511.184	82.12
511.401	72.12
511.617	84.12
511.833	85.12
