Data from Location2.07152019.Energy5.Lamp.07192019.3%Agarose_HRD10591_14-56-59-359.txt Node
Date: Fri Jul 19 14:56:59 EDT 2019
User: cochatt
Spectrometer: HR+D1059
Trigger mode: 1
Integration Time (sec): 1.000000E-1
Scans to average: 1
Electric dark correction enabled: true
Nonlinearity correction enabled: false
Boxcar width: 0
XAxis mode: Wavelengths
Number of Pixels in Spectrum: 2048
>>>>>Begin Spectral Data<<<<<
223.165	-17.94
223.4	-17.94
223.635	-17.94
223.869	-6.94
224.104	-8.94
224.338	-15.94
224.573	-10.94
224.808	-19.94
225.042	-4.94
225.277	-1.94
225.511	-4.94
225.746	18.06
225.98	16.06
226.215	7.06
226.449	-6.94
226.683	20.06
226.918	14.06
227.152	24.06
227.387	20.06
227.621	37.06
227.856	38.06
228.09	31.06
228.324	51.06
228.559	56.06
228.793	65.06
229.027	59.06
229.262	51.06
229.496	57.06
229.73	72.06
229.964	66.06
230.199	70.06
230.433	58.06
230.667	76.06
230.901	69.06
231.136	78.06
231.37	62.06
231.604	82.06
231.838	71.06
232.072	67.06
232.306	65.06
232.541	86.06
232.775	77.06
233.009	81.06
233.243	73.06
233.477	81.06
233.711	82.06
233.945	82.06
234.179	82.06
234.413	71.06
234.647	60.06
234.881	78.06
235.115	83.06
235.349	75.06
235.583	73.06
235.817	76.06
236.051	74.06
236.285	80.06
236.519	70.06
236.753	79.06
236.987	74.06
237.221	80.06
237.455	79.06
237.689	78.06
237.922	66.06
238.156	73.06
238.39	80.06
238.624	73.06
238.858	65.06
239.091	70.06
239.325	81.06
239.559	66.06
239.793	71.06
240.027	72.06
240.26	89.06
240.494	71.06
240.728	79.06
240.961	77.06
241.195	70.06
241.429	70.06
241.662	68.06
241.896	77.06
242.13	80.06
242.363	79.06
242.597	81.06
242.83	67.06
243.064	74.06
243.298	87.06
243.531	57.06
243.765	75.06
243.998	69.06
244.232	85.06
244.465	82.06
244.699	73.06
244.932	85.06
245.166	70.06
245.399	65.06
245.633	76.06
245.866	89.06
246.099	71.06
246.333	74.06
246.566	75.06
246.8	70.06
247.033	72.06
247.266	74.06
247.5	88.06
247.733	78.06
247.966	66.06
248.2	61.06
248.433	83.06
248.666	79.06
248.899	85.06
249.133	58.06
249.366	73.06
249.599	77.06
249.832	72.06
250.066	83.06
250.299	71.06
250.532	68.06
250.765	60.06
250.998	57.06
251.231	81.06
251.465	80.06
251.698	82.06
251.931	78.06
252.164	76.06
252.397	73.06
252.63	75.06
252.863	69.06
253.096	80.06
253.329	72.06
253.562	76.06
253.795	70.06
254.028	74.06
254.261	86.06
254.494	92.06
254.727	90.06
254.96	68.06
255.193	75.06
255.426	65.06
255.659	74.06
255.892	89.06
256.124	77.06
256.357	76.06
256.59	93.06
256.823	89.06
257.056	66.06
257.289	77.06
257.521	65.06
257.754	71.06
257.987	79.06
258.22	82.06
258.452	73.06
258.685	70.06
258.918	82.06
259.151	86.06
259.383	73.06
259.616	81.06
259.849	84.06
260.081	81.06
260.314	76.06
260.547	81.06
260.779	87.06
261.012	79.06
261.244	71.06
261.477	80.06
261.71	78.06
261.942	68.06
262.175	89.06
262.407	71.06
262.64	63.06
262.872	73.06
263.105	77.06
263.337	84.06
263.57	88.06
263.802	86.06
264.035	79.06
264.267	86.06
264.499	95.06
264.732	73.06
264.964	82.06
265.197	84.06
265.429	70.06
265.661	86.06
265.894	82.06
266.126	68.06
266.358	71.06
266.591	87.06
266.823	91.06
267.055	73.06
267.287	87.06
267.52	82.06
267.752	66.06
267.984	74.06
268.216	63.06
268.448	83.06
268.681	77.06
268.913	79.06
269.145	92.06
269.377	72.06
269.609	74.06
269.841	67.06
270.073	76.06
270.306	84.06
270.538	82.06
270.77	83.06
271.002	70.06
271.234	83.06
271.466	82.06
271.698	89.06
271.93	93.06
272.162	84.06
272.394	73.06
272.626	76.06
272.858	86.06
273.09	90.06
273.322	71.06
273.553	71.06
273.785	82.06
274.017	84.06
274.249	80.06
274.481	77.06
274.713	81.06
274.945	93.06
275.176	70.06
275.408	78.06
275.64	92.06
275.872	73.06
276.104	71.06
276.335	68.06
276.567	80.06
276.799	54.06
277.031	77.06
277.262	84.06
277.494	78.06
277.726	81.06
277.957	75.06
278.189	69.06
278.421	71.06
278.652	83.06
278.884	74.06
279.115	86.06
279.347	93.06
279.579	94.06
279.81	75.06
280.042	73.06
280.273	76.06
280.505	82.06
280.736	82.06
280.968	88.06
281.199	94.06
281.431	79.06
281.662	75.06
281.894	77.06
282.125	78.06
282.356	88.06
282.588	85.06
282.819	85.06
283.051	75.06
283.282	78.06
283.513	80.06
283.745	74.06
283.976	74.06
284.207	83.06
284.439	73.06
284.67	81.06
284.901	86.06
285.132	86.06
285.364	89.06
285.595	85.06
285.826	82.06
286.057	90.06
286.288	62.06
286.52	79.06
286.751	80.06
286.982	73.06
287.213	72.06
287.444	94.06
287.675	89.06
287.906	98.06
288.138	87.06
288.369	79.06
288.6	81.06
288.831	86.06
289.062	93.06
289.293	84.06
289.524	74.06
289.755	74.06
289.986	78.06
290.217	95.06
290.448	93.06
290.679	87.06
290.91	78.06
291.141	80.06
291.371	84.06
291.602	88.06
291.833	72.06
292.064	80.06
292.295	74.06
292.526	84.06
292.757	87.06
292.987	80.06
293.218	82.06
293.449	74.06
293.68	75.06
293.91	82.06
294.141	72.06
294.372	78.06
294.603	70.06
294.833	69.06
295.064	78.06
295.295	85.06
295.525	80.06
295.756	100.06
295.987	79.06
296.217	57.06
296.448	75.06
296.679	74.06
296.909	77.06
297.14	85.06
297.37	94.06
297.601	79.06
297.831	78.06
298.062	83.06
298.292	82.06
298.523	70.06
298.753	92.06
298.984	82.06
299.214	89.06
299.445	91.06
299.675	76.06
299.905	95.06
300.136	85.06
300.366	76.06
300.597	81.06
300.827	94.06
301.057	88.06
301.288	87.06
301.518	69.06
301.748	98.06
301.979	86.06
302.209	84.06
302.439	84.06
302.669	80.06
302.9	80.06
303.13	94.06
303.36	76.06
303.59	92.06
303.82	92.06
304.051	83.06
304.281	91.06
304.511	85.06
304.741	73.06
304.971	92.06
305.201	81.06
305.431	73.06
305.661	79.06
305.891	78.06
306.121	94.06
306.352	91.06
306.582	85.06
306.812	86.06
307.042	74.06
307.272	83.06
307.502	85.06
307.731	74.06
307.961	78.06
308.191	70.06
308.421	83.06
308.651	75.06
308.881	69.06
309.111	85.06
309.341	83.06
309.571	69.06
309.8	90.06
310.03	83.06
310.26	83.06
310.49	78.06
310.72	78.06
310.949	77.06
311.179	103.06
311.409	82.06
311.639	73.06
311.868	82.06
312.098	84.06
312.328	81.06
312.557	83.06
312.787	67.06
313.017	86.06
313.246	78.06
313.476	84.06
313.706	85.06
313.935	84.06
314.165	68.06
314.394	75.06
314.624	86.06
314.853	77.06
315.083	88.06
315.312	81.06
315.542	81.06
315.771	82.06
316.001	84.06
316.23	67.06
316.46	80.06
316.689	87.06
316.919	89.06
317.148	74.06
317.377	72.06
317.607	85.06
317.836	84.06
318.065	90.06
318.295	85.06
318.524	85.06
318.753	90.06
318.983	62.06
319.212	89.06
319.441	94.06
319.67	79.06
319.9	85.06
320.129	86.06
320.358	79.06
320.587	81.06
320.816	82.06
321.046	80.06
321.275	87.06
321.504	86.06
321.733	81.06
321.962	93.06
322.191	87.06
322.42	88.06
322.649	88.06
322.878	85.06
323.108	73.06
323.337	102.06
323.566	81.06
323.795	71.06
324.024	76.06
324.253	77.06
324.482	81.06
324.71	79.06
324.939	89.06
325.168	62.06
325.397	71.06
325.626	88.06
325.855	79.06
326.084	83.06
326.313	78.06
326.542	70.06
326.77	90.06
326.999	82.06
327.228	88.06
327.457	79.06
327.686	79.06
327.914	90.06
328.143	104.06
328.372	75.06
328.6	84.06
328.829	94.06
329.058	85.06
329.287	87.06
329.515	78.06
329.744	85.06
329.972	73.06
330.201	85.06
330.43	86.06
330.658	81.06
330.887	78.06
331.115	71.06
331.344	79.06
331.572	84.06
331.801	86.06
332.03	89.06
332.258	79.06
332.486	73.06
332.715	70.06
332.943	77.06
333.172	58.06
333.4	86.06
333.629	84.06
333.857	71.06
334.085	65.06
334.314	76.06
334.542	71.06
334.771	77.06
334.999	78.06
335.227	83.06
335.455	77.06
335.684	85.06
335.912	77.06
336.14	86.06
336.369	69.06
336.597	85.06
336.825	80.06
337.053	82.06
337.281	88.06
337.51	74.06
337.738	80.06
337.966	86.06
338.194	63.06
338.422	84.06
338.65	87.06
338.878	87.06
339.106	73.06
339.334	90.06
339.562	86.06
339.79	76.06
340.018	72.06
340.246	81.06
340.474	89.06
340.702	82.06
340.93	69.06
341.158	93.06
341.386	89.06
341.614	88.06
341.842	86.06
342.07	88.06
342.298	92.06
342.526	91.06
342.754	88.06
342.981	84.06
343.209	69.06
343.437	82.06
343.665	72.06
343.893	82.06
344.12	83.06
344.348	84.06
344.576	78.06
344.804	59.06
345.031	73.06
345.259	90.06
345.487	72.06
345.714	84.06
345.942	94.06
346.17	82.06
346.397	93.06
346.625	79.06
346.853	82.06
347.08	83.06
347.308	100.06
347.535	65.06
347.763	92.06
347.99	77.06
348.218	72.06
348.445	80.06
348.673	76.06
348.9	68.06
349.128	79.06
349.355	86.06
349.583	68.06
349.81	86.06
350.037	87.06
350.265	75.06
350.492	79.06
350.72	82.06
350.947	91.06
351.174	78.06
351.402	70.06
351.629	80.06
351.856	92.06
352.083	86.06
352.311	83.06
352.538	80.06
352.765	74.06
352.992	87.06
353.22	78.06
353.447	78.06
353.674	81.06
353.901	76.06
354.128	79.06
354.355	74.06
354.583	82.06
354.81	83.06
355.037	82.06
355.264	85.06
355.491	74.06
355.718	80.06
355.945	82.06
356.172	79.06
356.399	82.06
356.626	68.06
356.853	74.06
357.08	75.06
357.307	86.06
357.534	75.06
357.761	79.06
357.988	84.06
358.215	85.06
358.441	70.06
358.668	70.06
358.895	88.06
359.122	84.06
359.349	74.06
359.576	77.06
359.802	78.06
360.029	79.06
360.256	80.06
360.483	68.06
360.709	77.06
360.936	93.06
361.163	94.06
361.39	80.06
361.616	71.06
361.843	90.06
362.07	80.06
362.296	80.06
362.523	73.06
362.749	72.06
362.976	77.06
363.203	90.06
363.429	79.06
363.656	78.06
363.882	78.06
364.109	87.06
364.335	81.06
364.562	90.06
364.788	87.06
365.015	83.06
365.241	96.06
365.468	87.06
365.694	75.06
365.92	85.06
366.147	86.06
366.373	79.06
366.599	90.06
366.826	78.06
367.052	80.06
367.278	86.06
367.505	80.06
367.731	80.06
367.957	80.06
368.184	83.06
368.41	66.06
368.636	86.06
368.862	108.06
369.089	76.06
369.315	85.06
369.541	94.06
369.767	102.06
369.993	97.06
370.219	66.06
370.445	88.06
370.672	85.06
370.898	82.06
371.124	83.06
371.35	85.06
371.576	79.06
371.802	95.06
372.028	89.06
372.254	92.06
372.48	87.06
372.706	93.06
372.932	101.06
373.158	85.06
373.384	95.06
373.61	86.06
373.835	80.06
374.061	81.06
374.287	87.06
374.513	78.06
374.739	91.06
374.965	92.06
375.191	92.06
375.416	95.06
375.642	102.06
375.868	86.06
376.094	84.06
376.319	98.06
376.545	85.06
376.771	79.06
376.997	80.06
377.222	83.06
377.448	71.06
377.674	84.06
377.899	99.06
378.125	96.06
378.35	104.06
378.576	86.06
378.802	95.06
379.027	90.06
379.253	95.06
379.478	91.06
379.704	92.06
379.929	97.06
380.155	83.06
380.38	85.06
380.606	99.06
380.831	101.06
381.057	90.06
381.282	84.06
381.507	98.06
381.733	96.06
381.958	79.06
382.184	88.06
382.409	84.06
382.634	87.06
382.86	86.06
383.085	81.06
383.31	86.06
383.535	107.06
383.761	90.06
383.986	97.06
384.211	85.06
384.436	102.06
384.662	87.06
384.887	90.06
385.112	89.06
385.337	89.06
385.562	86.06
385.787	96.06
386.013	104.06
386.238	108.06
386.463	93.06
386.688	95.06
386.913	90.06
387.138	100.06
387.363	95.06
387.588	97.06
387.813	90.06
388.038	111.06
388.263	93.06
388.488	94.06
388.713	111.06
388.938	98.06
389.163	104.06
389.387	88.06
389.612	87.06
389.837	111.06
390.062	101.06
390.287	116.06
390.512	104.06
390.736	88.06
390.961	110.06
391.186	104.06
391.411	110.06
391.636	90.06
391.86	99.06
392.085	87.06
392.31	87.06
392.534	106.06
392.759	110.06
392.984	105.06
393.208	87.06
393.433	90.06
393.658	88.06
393.882	101.06
394.107	110.06
394.331	97.06
394.556	103.06
394.78	88.06
395.005	92.06
395.229	96.06
395.454	98.06
395.678	114.06
395.903	100.06
396.127	104.06
396.352	105.06
396.576	88.06
396.801	92.06
397.025	99.06
397.249	96.06
397.474	113.06
397.698	103.06
397.922	105.06
398.147	102.06
398.371	102.06
398.595	110.06
398.82	115.06
399.044	97.06
399.268	115.06
399.492	116.06
399.717	113.06
399.941	97.06
400.165	110.06
400.389	108.06
400.613	102.06
400.837	110.06
401.062	100.06
401.286	106.06
401.51	89.06
401.734	114.06
401.958	119.06
402.182	85.06
402.406	106.06
402.63	116.06
402.854	113.06
403.078	112.06
403.302	93.06
403.526	108.06
403.75	110.06
403.974	123.06
404.198	117.06
404.422	117.06
404.645	114.06
404.869	109.06
405.093	120.06
405.317	115.06
405.541	106.06
405.765	103.06
405.988	111.06
406.212	118.06
406.436	113.06
406.66	112.06
406.883	105.06
407.107	112.06
407.331	111.06
407.555	112.06
407.778	84.06
408.002	100.06
408.226	108.06
408.449	97.06
408.673	108.06
408.896	95.06
409.12	114.06
409.344	105.06
409.567	118.06
409.791	108.06
410.014	134.06
410.238	99.06
410.461	117.06
410.685	103.06
410.908	102.06
411.132	122.06
411.355	117.06
411.578	114.06
411.802	124.06
412.025	114.06
412.249	128.06
412.472	117.06
412.695	103.06
412.919	124.06
413.142	118.06
413.365	116.06
413.589	120.06
413.812	110.06
414.035	114.06
414.258	109.06
414.482	125.06
414.705	119.06
414.928	128.06
415.151	117.06
415.374	122.06
415.597	112.06
415.821	115.06
416.044	120.06
416.267	133.06
416.49	112.06
416.713	127.06
416.936	128.06
417.159	122.06
417.382	133.06
417.605	120.06
417.828	130.06
418.051	130.06
418.274	128.06
418.497	141.06
418.72	116.06
418.943	128.06
419.166	117.06
419.389	144.06
419.611	134.06
419.834	134.06
420.057	120.06
420.28	122.06
420.503	134.06
420.726	117.06
420.948	124.06
421.171	116.06
421.394	128.06
421.617	146.06
421.839	132.06
422.062	119.06
422.285	142.06
422.507	117.06
422.73	132.06
422.953	120.06
423.175	116.06
423.398	137.06
423.621	139.06
423.843	129.06
424.066	128.06
424.288	133.06
424.511	138.06
424.733	132.06
424.956	126.06
425.178	132.06
425.401	131.06
425.623	122.06
425.846	120.06
426.068	118.06
426.291	120.06
426.513	113.06
426.735	114.06
426.958	114.06
427.18	124.06
427.402	120.06
427.625	120.06
427.847	125.06
428.069	115.06
428.292	130.06
428.514	132.06
428.736	125.06
428.958	127.06
429.181	135.06
429.403	119.06
429.625	118.06
429.847	128.06
430.069	119.06
430.292	124.06
430.514	134.06
430.736	118.06
430.958	143.06
431.18	132.06
431.402	117.06
431.624	118.06
431.846	91.06
432.068	83.06
432.29	99.06
432.512	111.06
432.734	103.06
432.956	116.06
433.178	124.06
433.4	138.06
433.622	132.06
433.844	126.06
434.066	109.06
434.287	114.06
434.509	94.06
434.731	102.06
434.953	104.06
435.175	108.06
435.397	114.06
435.618	119.06
435.84	96.06
436.062	118.06
436.284	113.06
436.505	122.06
436.727	120.06
436.949	126.06
437.17	115.06
437.392	116.06
437.614	110.06
437.835	115.06
438.057	103.06
438.278	114.06
438.5	120.06
438.721	122.06
438.943	122.06
439.165	135.06
439.386	132.06
439.608	131.06
439.829	144.06
440.05	138.06
440.272	138.06
440.493	137.06
440.715	128.06
440.936	144.06
441.158	138.06
441.379	126.06
441.6	141.06
441.822	137.06
442.043	150.06
442.264	135.06
442.486	134.06
442.707	142.06
442.928	132.06
443.149	146.06
443.371	148.06
443.592	133.06
443.813	129.06
444.034	120.06
444.255	138.06
444.476	148.06
444.698	139.06
444.919	147.06
445.14	269.06
445.361	184.06
445.582	148.06
445.803	135.06
446.024	132.06
446.245	137.06
446.466	145.06
446.687	141.06
446.908	161.06
447.129	147.06
447.35	130.06
447.571	136.06
447.792	141.06
448.013	143.06
448.234	147.06
448.455	133.06
448.675	130.06
448.896	119.06
449.117	139.06
449.338	125.06
449.559	146.06
449.779	124.06
450	135.06
450.221	128.06
450.442	132.06
450.662	122.06
450.883	135.06
451.104	130.06
451.324	129.06
451.545	132.06
451.766	105.06
451.986	124.06
452.207	126.06
452.428	113.06
452.648	118.06
452.869	128.06
453.089	110.06
453.31	108.06
453.53	100.06
453.751	95.06
453.971	101.06
454.192	100.06
454.412	108.06
454.633	105.06
454.853	128.06
455.073	130.06
455.294	133.06
455.514	119.06
455.734	102.06
455.955	120.06
456.175	115.06
456.395	96.06
456.616	112.06
456.836	114.06
457.056	111.06
457.276	99.06
457.497	96.06
457.717	109.06
457.937	93.06
458.157	103.06
458.377	113.06
458.598	94.06
458.818	88.06
459.038	90.06
459.258	83.06
459.478	74.06
459.698	89.06
459.918	94.06
460.138	93.06
460.358	105.06
460.578	93.06
460.798	106.06
461.018	101.06
461.238	119.06
461.458	104.06
461.678	124.06
461.898	105.06
462.118	90.06
462.338	112.06
462.558	104.06
462.777	101.06
462.997	87.06
463.217	95.06
463.437	104.06
463.657	112.06
463.876	102.06
464.096	112.06
464.316	92.06
464.536	108.06
464.755	107.06
464.975	118.06
465.195	108.06
465.414	109.06
465.634	120.06
465.854	102.06
466.073	110.06
466.293	118.06
466.512	125.06
466.732	130.06
466.951	113.06
467.171	118.06
467.391	120.06
467.61	126.06
467.829	141.06
468.049	120.06
468.268	126.06
468.488	120.06
468.707	138.06
468.927	132.06
469.146	124.06
469.365	141.06
469.585	129.06
469.804	148.06
470.023	115.06
470.243	130.06
470.462	154.06
470.681	144.06
470.901	132.06
471.12	128.06
471.339	130.06
471.558	131.06
471.777	135.06
471.997	112.06
472.216	119.06
472.435	96.06
472.654	84.06
472.873	117.06
473.092	106.06
473.311	120.06
473.53	124.06
473.749	116.06
473.968	130.06
474.187	115.06
474.406	122.06
474.625	117.06
474.844	125.06
475.063	118.06
475.282	126.06
475.501	112.06
475.72	118.06
475.939	117.06
476.158	122.06
476.377	126.06
476.596	105.06
476.814	105.06
477.033	101.06
477.252	119.06
477.471	119.06
477.69	126.06
477.908	128.06
478.127	146.06
478.346	122.06
478.564	127.06
478.783	127.06
479.002	118.06
479.22	124.06
479.439	126.06
479.658	114.06
479.876	125.06
480.095	105.06
480.313	105.06
480.532	96.06
480.751	117.06
480.969	84.06
481.188	85.06
481.406	83.06
481.624	90.06
481.843	80.06
482.061	95.06
482.28	111.06
482.498	110.06
482.717	104.06
482.935	95.06
483.153	133.06
483.372	143.06
483.59	154.06
483.808	127.06
484.027	139.06
484.245	112.06
484.463	133.06
484.681	169.06
484.9	146.06
485.118	129.06
485.336	130.06
485.554	104.06
485.772	85.06
485.99	91.06
486.209	116.06
486.427	103.06
486.645	99.06
486.863	142.06
487.081	128.06
487.299	120.06
487.517	145.06
487.735	148.06
487.953	169.06
488.171	176.06
488.389	158.06
488.607	158.06
488.825	136.06
489.043	133.06
489.261	129.06
489.479	124.06
489.696	133.06
489.914	142.06
490.132	142.06
490.35	132.06
490.568	166.06
490.786	164.06
491.003	179.06
491.221	178.06
491.439	188.06
491.657	176.06
491.874	180.06
492.092	222.06
492.31	232.06
492.527	229.06
492.745	182.06
492.963	191.06
493.18	161.06
493.398	169.06
493.615	167.06
493.833	178.06
494.05	165.06
494.268	174.06
494.485	164.06
494.703	152.06
494.92	169.06
495.138	183.06
495.355	164.06
495.573	160.06
495.79	147.06
496.008	147.06
496.225	153.06
496.442	154.06
496.66	160.06
496.877	169.06
497.094	156.06
497.312	155.06
497.529	160.06
497.746	142.06
497.963	126.06
498.181	135.06
498.398	119.06
498.615	120.06
498.832	112.06
499.049	115.06
499.267	112.06
499.484	126.06
499.701	119.06
499.918	118.06
500.135	134.06
500.352	126.06
500.569	128.06
500.786	148.06
501.003	154.06
501.22	138.06
501.437	132.06
501.654	126.06
501.871	129.06
502.088	126.06
502.305	134.06
502.522	120.06
502.739	116.06
502.956	123.06
503.172	128.06
503.389	95.06
503.606	103.06
503.823	121.06
504.04	117.06
504.256	105.06
504.473	96.06
504.69	114.06
504.907	122.06
505.123	124.06
505.34	118.06
505.557	117.06
505.773	119.06
505.99	108.06
506.207	119.06
506.423	112.06
506.64	105.06
506.856	109.06
507.073	104.06
507.289	108.06
507.506	118.06
507.722	115.06
507.939	121.06
508.155	111.06
508.372	123.06
508.588	102.06
508.805	108.06
509.021	108.06
509.238	93.06
509.454	106.06
509.67	118.06
509.887	94.06
510.103	78.06
510.319	80.06
510.536	92.06
510.752	89.06
510.968	82.06
511.184	82.06
511.401	86.06
511.617	77.06
511.833	101.06
512.049	81.06
512.265	80.06
