Data from Location2.07152019.Energy5.Lamp.07192019.3%Agarose_HRD10591_14-56-53-359.txt Node
Date: Fri Jul 19 14:56:53 EDT 2019
User: cochatt
Spectrometer: HR+D1059
Trigger mode: 1
Integration Time (sec): 1.000000E-1
Scans to average: 1
Electric dark correction enabled: true
Nonlinearity correction enabled: false
Boxcar width: 0
XAxis mode: Wavelengths
Number of Pixels in Spectrum: 2048
>>>>>Begin Spectral Data<<<<<
223.165	-30.25
223.4	-30.25
223.635	-30.25
223.869	-22.25
224.104	-6.25
224.338	-12.25
224.573	-1.25
224.808	-7.25
225.042	-12.25
225.277	-17.25
225.511	-11.25
225.746	20.75
225.98	7.75
226.215	12.75
226.449	0.75
226.683	14.75
226.918	22.75
227.152	40.75
227.387	30.75
227.621	46.75
227.856	56.75
228.09	52.75
228.324	56.75
228.559	51.75
228.793	53.75
229.027	74.75
229.262	75.75
229.496	68.75
229.73	62.75
229.964	65.75
230.199	72.75
230.433	77.75
230.667	67.75
230.901	75.75
231.136	68.75
231.37	75.75
231.604	74.75
231.838	76.75
232.072	79.75
232.306	82.75
232.541	73.75
232.775	85.75
233.009	74.75
233.243	83.75
233.477	65.75
233.711	90.75
233.945	76.75
234.179	74.75
234.413	75.75
234.647	81.75
234.881	82.75
235.115	77.75
235.349	81.75
235.583	80.75
235.817	85.75
236.051	80.75
236.285	89.75
236.519	81.75
236.753	78.75
236.987	73.75
237.221	73.75
237.455	77.75
237.689	82.75
237.922	81.75
238.156	82.75
238.39	72.75
238.624	81.75
238.858	77.75
239.091	77.75
239.325	79.75
239.559	86.75
239.793	85.75
240.027	79.75
240.26	69.75
240.494	71.75
240.728	66.75
240.961	72.75
241.195	91.75
241.429	73.75
241.662	62.75
241.896	63.75
242.13	66.75
242.363	72.75
242.597	86.75
242.83	86.75
243.064	69.75
243.298	70.75
243.531	82.75
243.765	73.75
243.998	71.75
244.232	69.75
244.465	74.75
244.699	84.75
244.932	82.75
245.166	86.75
245.399	69.75
245.633	86.75
245.866	72.75
246.099	59.75
246.333	77.75
246.566	87.75
246.8	73.75
247.033	84.75
247.266	81.75
247.5	73.75
247.733	82.75
247.966	68.75
248.2	73.75
248.433	64.75
248.666	75.75
248.899	91.75
249.133	77.75
249.366	80.75
249.599	79.75
249.832	70.75
250.066	73.75
250.299	77.75
250.532	81.75
250.765	75.75
250.998	64.75
251.231	92.75
251.465	76.75
251.698	67.75
251.931	90.75
252.164	65.75
252.397	85.75
252.63	77.75
252.863	86.75
253.096	69.75
253.329	71.75
253.562	58.75
253.795	75.75
254.028	77.75
254.261	89.75
254.494	82.75
254.727	88.75
254.96	72.75
255.193	82.75
255.426	76.75
255.659	83.75
255.892	77.75
256.124	84.75
256.357	70.75
256.59	89.75
256.823	80.75
257.056	86.75
257.289	90.75
257.521	94.75
257.754	80.75
257.987	86.75
258.22	82.75
258.452	77.75
258.685	91.75
258.918	89.75
259.151	85.75
259.383	93.75
259.616	92.75
259.849	82.75
260.081	72.75
260.314	88.75
260.547	84.75
260.779	77.75
261.012	78.75
261.244	89.75
261.477	87.75
261.71	78.75
261.942	73.75
262.175	66.75
262.407	81.75
262.64	82.75
262.872	84.75
263.105	76.75
263.337	71.75
263.57	83.75
263.802	89.75
264.035	87.75
264.267	86.75
264.499	81.75
264.732	78.75
264.964	86.75
265.197	77.75
265.429	85.75
265.661	89.75
265.894	81.75
266.126	82.75
266.358	75.75
266.591	88.75
266.823	77.75
267.055	65.75
267.287	98.75
267.52	82.75
267.752	86.75
267.984	83.75
268.216	82.75
268.448	69.75
268.681	84.75
268.913	78.75
269.145	69.75
269.377	79.75
269.609	90.75
269.841	93.75
270.073	87.75
270.306	72.75
270.538	82.75
270.77	77.75
271.002	86.75
271.234	83.75
271.466	84.75
271.698	88.75
271.93	86.75
272.162	66.75
272.394	73.75
272.626	83.75
272.858	85.75
273.09	85.75
273.322	84.75
273.553	85.75
273.785	82.75
274.017	95.75
274.249	85.75
274.481	78.75
274.713	82.75
274.945	99.75
275.176	82.75
275.408	78.75
275.64	78.75
275.872	82.75
276.104	70.75
276.335	74.75
276.567	81.75
276.799	77.75
277.031	79.75
277.262	94.75
277.494	86.75
277.726	94.75
277.957	87.75
278.189	97.75
278.421	78.75
278.652	76.75
278.884	89.75
279.115	80.75
279.347	101.75
279.579	92.75
279.81	85.75
280.042	83.75
280.273	92.75
280.505	91.75
280.736	97.75
280.968	101.75
281.199	83.75
281.431	83.75
281.662	76.75
281.894	91.75
282.125	100.75
282.356	80.75
282.588	86.75
282.819	86.75
283.051	82.75
283.282	82.75
283.513	97.75
283.745	85.75
283.976	81.75
284.207	88.75
284.439	95.75
284.67	84.75
284.901	89.75
285.132	90.75
285.364	71.75
285.595	72.75
285.826	86.75
286.057	84.75
286.288	84.75
286.52	81.75
286.751	75.75
286.982	86.75
287.213	72.75
287.444	93.75
287.675	100.75
287.906	77.75
288.138	87.75
288.369	86.75
288.6	69.75
288.831	84.75
289.062	88.75
289.293	101.75
289.524	89.75
289.755	86.75
289.986	77.75
290.217	86.75
290.448	58.75
290.679	85.75
290.91	91.75
291.141	85.75
291.371	77.75
291.602	81.75
291.833	76.75
292.064	88.75
292.295	72.75
292.526	86.75
292.757	98.75
292.987	95.75
293.218	71.75
293.449	81.75
293.68	80.75
293.91	83.75
294.141	74.75
294.372	83.75
294.603	100.75
294.833	81.75
295.064	91.75
295.295	85.75
295.525	87.75
295.756	89.75
295.987	69.75
296.217	74.75
296.448	74.75
296.679	85.75
296.909	78.75
297.14	76.75
297.37	82.75
297.601	84.75
297.831	80.75
298.062	85.75
298.292	79.75
298.523	79.75
298.753	80.75
298.984	95.75
299.214	81.75
299.445	66.75
299.675	86.75
299.905	87.75
300.136	84.75
300.366	82.75
300.597	82.75
300.827	83.75
301.057	82.75
301.288	68.75
301.518	68.75
301.748	95.75
301.979	82.75
302.209	109.75
302.439	84.75
302.669	74.75
302.9	88.75
303.13	88.75
303.36	73.75
303.59	82.75
303.82	86.75
304.051	84.75
304.281	79.75
304.511	82.75
304.741	85.75
304.971	91.75
305.201	96.75
305.431	75.75
305.661	86.75
305.891	74.75
306.121	89.75
306.352	79.75
306.582	75.75
306.812	69.75
307.042	86.75
307.272	86.75
307.502	93.75
307.731	91.75
307.961	90.75
308.191	69.75
308.421	83.75
308.651	79.75
308.881	78.75
309.111	87.75
309.341	68.75
309.571	83.75
309.8	68.75
310.03	67.75
310.26	76.75
310.49	88.75
310.72	71.75
310.949	85.75
311.179	84.75
311.409	88.75
311.639	91.75
311.868	79.75
312.098	92.75
312.328	88.75
312.557	73.75
312.787	89.75
313.017	86.75
313.246	97.75
313.476	85.75
313.706	94.75
313.935	89.75
314.165	92.75
314.394	80.75
314.624	78.75
314.853	83.75
315.083	98.75
315.312	86.75
315.542	87.75
315.771	85.75
316.001	77.75
316.23	73.75
316.46	71.75
316.689	82.75
316.919	90.75
317.148	81.75
317.377	90.75
317.607	92.75
317.836	92.75
318.065	91.75
318.295	96.75
318.524	72.75
318.753	91.75
318.983	82.75
319.212	89.75
319.441	84.75
319.67	100.75
319.9	91.75
320.129	86.75
320.358	83.75
320.587	81.75
320.816	82.75
321.046	86.75
321.275	92.75
321.504	81.75
321.733	84.75
321.962	70.75
322.191	82.75
322.42	80.75
322.649	83.75
322.878	87.75
323.108	83.75
323.337	88.75
323.566	90.75
323.795	89.75
324.024	80.75
324.253	81.75
324.482	80.75
324.71	80.75
324.939	92.75
325.168	84.75
325.397	91.75
325.626	80.75
325.855	83.75
326.084	89.75
326.313	93.75
326.542	94.75
326.77	87.75
326.999	91.75
327.228	84.75
327.457	90.75
327.686	99.75
327.914	84.75
328.143	75.75
328.372	82.75
328.6	82.75
328.829	95.75
329.058	88.75
329.287	78.75
329.515	87.75
329.744	87.75
329.972	83.75
330.201	79.75
330.43	84.75
330.658	104.75
330.887	87.75
331.115	94.75
331.344	80.75
331.572	69.75
331.801	78.75
332.03	81.75
332.258	88.75
332.486	97.75
332.715	94.75
332.943	79.75
333.172	84.75
333.4	94.75
333.629	76.75
333.857	85.75
334.085	82.75
334.314	72.75
334.542	81.75
334.771	82.75
334.999	85.75
335.227	85.75
335.455	83.75
335.684	99.75
335.912	84.75
336.14	87.75
336.369	86.75
336.597	90.75
336.825	80.75
337.053	66.75
337.281	88.75
337.51	69.75
337.738	90.75
337.966	96.75
338.194	92.75
338.422	70.75
338.65	84.75
338.878	97.75
339.106	78.75
339.334	83.75
339.562	76.75
339.79	85.75
340.018	85.75
340.246	76.75
340.474	87.75
340.702	86.75
340.93	86.75
341.158	83.75
341.386	88.75
341.614	102.75
341.842	86.75
342.07	97.75
342.298	88.75
342.526	83.75
342.754	76.75
342.981	85.75
343.209	93.75
343.437	82.75
343.665	69.75
343.893	79.75
344.12	81.75
344.348	84.75
344.576	84.75
344.804	73.75
345.031	86.75
345.259	96.75
345.487	86.75
345.714	84.75
345.942	77.75
346.17	84.75
346.397	73.75
346.625	78.75
346.853	79.75
347.08	85.75
347.308	88.75
347.535	82.75
347.763	77.75
347.99	89.75
348.218	93.75
348.445	69.75
348.673	81.75
348.9	79.75
349.128	85.75
349.355	82.75
349.583	92.75
349.81	92.75
350.037	91.75
350.265	86.75
350.492	78.75
350.72	90.75
350.947	89.75
351.174	81.75
351.402	97.75
351.629	78.75
351.856	77.75
352.083	83.75
352.311	75.75
352.538	76.75
352.765	78.75
352.992	85.75
353.22	83.75
353.447	89.75
353.674	98.75
353.901	85.75
354.128	76.75
354.355	74.75
354.583	82.75
354.81	78.75
355.037	79.75
355.264	83.75
355.491	81.75
355.718	86.75
355.945	91.75
356.172	87.75
356.399	89.75
356.626	82.75
356.853	82.75
357.08	74.75
357.307	82.75
357.534	92.75
357.761	88.75
357.988	77.75
358.215	95.75
358.441	74.75
358.668	90.75
358.895	88.75
359.122	80.75
359.349	97.75
359.576	75.75
359.802	77.75
360.029	84.75
360.256	78.75
360.483	84.75
360.709	86.75
360.936	92.75
361.163	100.75
361.39	79.75
361.616	84.75
361.843	86.75
362.07	82.75
362.296	88.75
362.523	79.75
362.749	90.75
362.976	76.75
363.203	84.75
363.429	86.75
363.656	93.75
363.882	89.75
364.109	91.75
364.335	79.75
364.562	86.75
364.788	91.75
365.015	88.75
365.241	91.75
365.468	76.75
365.694	60.75
365.92	78.75
366.147	88.75
366.373	89.75
366.599	93.75
366.826	86.75
367.052	82.75
367.278	86.75
367.505	89.75
367.731	96.75
367.957	88.75
368.184	81.75
368.41	101.75
368.636	83.75
368.862	79.75
369.089	91.75
369.315	101.75
369.541	87.75
369.767	78.75
369.993	90.75
370.219	81.75
370.445	91.75
370.672	88.75
370.898	96.75
371.124	103.75
371.35	86.75
371.576	99.75
371.802	99.75
372.028	85.75
372.254	100.75
372.48	93.75
372.706	105.75
372.932	81.75
373.158	90.75
373.384	81.75
373.61	91.75
373.835	99.75
374.061	112.75
374.287	86.75
374.513	88.75
374.739	76.75
374.965	103.75
375.191	99.75
375.416	91.75
375.642	100.75
375.868	97.75
376.094	78.75
376.319	86.75
376.545	89.75
376.771	92.75
376.997	86.75
377.222	83.75
377.448	93.75
377.674	100.75
377.899	101.75
378.125	88.75
378.35	91.75
378.576	93.75
378.802	94.75
379.027	95.75
379.253	84.75
379.478	97.75
379.704	96.75
379.929	96.75
380.155	101.75
380.38	100.75
380.606	103.75
380.831	108.75
381.057	88.75
381.282	99.75
381.507	113.75
381.733	113.75
381.958	94.75
382.184	95.75
382.409	96.75
382.634	103.75
382.86	83.75
383.085	92.75
383.31	83.75
383.535	87.75
383.761	101.75
383.986	93.75
384.211	101.75
384.436	103.75
384.662	101.75
384.887	99.75
385.112	93.75
385.337	99.75
385.562	102.75
385.787	101.75
386.013	103.75
386.238	99.75
386.463	104.75
386.688	94.75
386.913	98.75
387.138	79.75
387.363	100.75
387.588	102.75
387.813	109.75
388.038	105.75
388.263	107.75
388.488	90.75
388.713	100.75
388.938	93.75
389.163	110.75
389.387	109.75
389.612	110.75
389.837	101.75
390.062	95.75
390.287	93.75
390.512	102.75
390.736	84.75
390.961	97.75
391.186	99.75
391.411	101.75
391.636	107.75
391.86	102.75
392.085	119.75
392.31	110.75
392.534	102.75
392.759	109.75
392.984	115.75
393.208	101.75
393.433	108.75
393.658	117.75
393.882	102.75
394.107	92.75
394.331	112.75
394.556	106.75
394.78	108.75
395.005	104.75
395.229	118.75
395.454	112.75
395.678	101.75
395.903	108.75
396.127	117.75
396.352	112.75
396.576	110.75
396.801	105.75
397.025	96.75
397.249	111.75
397.474	104.75
397.698	95.75
397.922	110.75
398.147	88.75
398.371	122.75
398.595	103.75
398.82	106.75
399.044	116.75
399.268	108.75
399.492	114.75
399.717	112.75
399.941	114.75
400.165	109.75
400.389	111.75
400.613	121.75
400.837	114.75
401.062	106.75
401.286	102.75
401.51	108.75
401.734	116.75
401.958	106.75
402.182	121.75
402.406	120.75
402.63	133.75
402.854	136.75
403.078	113.75
403.302	117.75
403.526	117.75
403.75	118.75
403.974	100.75
404.198	110.75
404.422	108.75
404.645	114.75
404.869	128.75
405.093	115.75
405.317	112.75
405.541	125.75
405.765	104.75
405.988	103.75
406.212	103.75
406.436	125.75
406.66	112.75
406.883	124.75
407.107	133.75
407.331	114.75
407.555	116.75
407.778	114.75
408.002	111.75
408.226	114.75
408.449	124.75
408.673	105.75
408.896	126.75
409.12	124.75
409.344	130.75
409.567	110.75
409.791	126.75
410.014	132.75
410.238	126.75
410.461	121.75
410.685	128.75
410.908	118.75
411.132	124.75
411.355	122.75
411.578	121.75
411.802	132.75
412.025	122.75
412.249	122.75
412.472	117.75
412.695	109.75
412.919	113.75
413.142	116.75
413.365	128.75
413.589	126.75
413.812	128.75
414.035	119.75
414.258	145.75
414.482	108.75
414.705	112.75
414.928	122.75
415.151	123.75
415.374	133.75
415.597	126.75
415.821	124.75
416.044	135.75
416.267	138.75
416.49	104.75
416.713	124.75
416.936	130.75
417.159	118.75
417.382	121.75
417.605	132.75
417.828	122.75
418.051	128.75
418.274	140.75
418.497	120.75
418.72	118.75
418.943	133.75
419.166	123.75
419.389	122.75
419.611	135.75
419.834	125.75
420.057	133.75
420.28	135.75
420.503	138.75
420.726	128.75
420.948	124.75
421.171	134.75
421.394	124.75
421.617	136.75
421.839	133.75
422.062	126.75
422.285	129.75
422.507	136.75
422.73	124.75
422.953	122.75
423.175	116.75
423.398	124.75
423.621	120.75
423.843	122.75
424.066	140.75
424.288	126.75
424.511	126.75
424.733	125.75
424.956	146.75
425.178	128.75
425.401	129.75
425.623	140.75
425.846	118.75
426.068	121.75
426.291	106.75
426.513	134.75
426.735	140.75
426.958	138.75
427.18	135.75
427.402	133.75
427.625	114.75
427.847	146.75
428.069	131.75
428.292	144.75
428.514	127.75
428.736	114.75
428.958	132.75
429.181	128.75
429.403	128.75
429.625	123.75
429.847	122.75
430.069	122.75
430.292	122.75
430.514	130.75
430.736	130.75
430.958	122.75
431.18	132.75
431.402	128.75
431.624	109.75
431.846	122.75
432.068	95.75
432.29	93.75
432.512	120.75
432.734	124.75
432.956	125.75
433.178	144.75
433.4	118.75
433.622	147.75
433.844	144.75
434.066	129.75
434.287	110.75
434.509	88.75
434.731	99.75
434.953	103.75
435.175	114.75
435.397	120.75
435.618	120.75
435.84	105.75
436.062	124.75
436.284	122.75
436.505	115.75
436.727	122.75
436.949	128.75
437.17	142.75
437.392	142.75
437.614	125.75
437.835	116.75
438.057	116.75
438.278	109.75
438.5	127.75
438.721	142.75
438.943	130.75
439.165	133.75
439.386	126.75
439.608	141.75
439.829	148.75
440.05	156.75
440.272	148.75
440.493	126.75
440.715	139.75
440.936	150.75
441.158	141.75
441.379	142.75
441.6	144.75
441.822	152.75
442.043	145.75
442.264	137.75
442.486	123.75
442.707	137.75
442.928	136.75
443.149	142.75
443.371	145.75
443.592	157.75
443.813	130.75
444.034	138.75
444.255	144.75
444.476	138.75
444.698	146.75
444.919	146.75
445.14	261.75
445.361	180.75
445.582	130.75
445.803	151.75
446.024	137.75
446.245	154.75
446.466	147.75
446.687	153.75
446.908	159.75
447.129	160.75
447.35	148.75
447.571	148.75
447.792	156.75
448.013	143.75
448.234	128.75
448.455	137.75
448.675	133.75
448.896	149.75
449.117	142.75
449.338	140.75
449.559	146.75
449.779	126.75
450	137.75
450.221	141.75
450.442	135.75
450.662	131.75
450.883	127.75
451.104	131.75
451.324	130.75
451.545	143.75
451.766	120.75
451.986	140.75
452.207	124.75
452.428	141.75
452.648	129.75
452.869	113.75
453.089	125.75
453.31	116.75
453.53	107.75
453.751	104.75
453.971	117.75
454.192	114.75
454.412	98.75
454.633	122.75
454.853	125.75
455.073	120.75
455.294	120.75
455.514	107.75
455.734	111.75
455.955	108.75
456.175	107.75
456.395	112.75
456.616	114.75
456.836	117.75
457.056	116.75
457.276	108.75
457.497	114.75
457.717	101.75
457.937	110.75
458.157	112.75
458.377	100.75
458.598	109.75
458.818	89.75
459.038	90.75
459.258	93.75
459.478	97.75
459.698	86.75
459.918	98.75
460.138	92.75
460.358	104.75
460.578	95.75
460.798	124.75
461.018	111.75
461.238	118.75
461.458	118.75
461.678	116.75
461.898	112.75
462.118	107.75
462.338	104.75
462.558	115.75
462.777	109.75
462.997	101.75
463.217	104.75
463.437	118.75
463.657	107.75
463.876	102.75
464.096	78.75
464.316	107.75
464.536	120.75
464.755	107.75
464.975	131.75
465.195	133.75
465.414	108.75
465.634	119.75
465.854	118.75
466.073	116.75
466.293	125.75
466.512	130.75
466.732	130.75
466.951	129.75
467.171	127.75
467.391	147.75
467.61	141.75
467.829	138.75
468.049	149.75
468.268	124.75
468.488	134.75
468.707	153.75
468.927	126.75
469.146	132.75
469.365	131.75
469.585	147.75
469.804	134.75
470.023	137.75
470.243	148.75
470.462	149.75
470.681	132.75
470.901	143.75
471.12	148.75
471.339	144.75
471.558	136.75
471.777	131.75
471.997	139.75
472.216	120.75
472.435	103.75
472.654	117.75
472.873	112.75
473.092	112.75
473.311	106.75
473.53	128.75
473.749	125.75
473.968	128.75
474.187	115.75
474.406	113.75
474.625	136.75
474.844	121.75
475.063	136.75
475.282	124.75
475.501	107.75
475.72	116.75
475.939	125.75
476.158	130.75
476.377	121.75
476.596	112.75
476.814	113.75
477.033	106.75
477.252	108.75
477.471	131.75
477.69	125.75
477.908	139.75
478.127	141.75
478.346	136.75
478.564	137.75
478.783	142.75
479.002	146.75
479.22	153.75
479.439	136.75
479.658	138.75
479.876	122.75
480.095	105.75
480.313	109.75
480.532	117.75
480.751	99.75
480.969	98.75
481.188	92.75
481.406	74.75
481.624	96.75
481.843	90.75
482.061	89.75
482.28	102.75
482.498	118.75
482.717	116.75
482.935	118.75
483.153	144.75
483.372	140.75
483.59	143.75
483.808	138.75
484.027	123.75
484.245	130.75
484.463	140.75
484.681	147.75
484.9	136.75
485.118	131.75
485.336	134.75
485.554	105.75
485.772	94.75
485.99	120.75
486.209	109.75
486.427	116.75
486.645	119.75
486.863	136.75
487.081	154.75
487.299	135.75
487.517	132.75
487.735	162.75
487.953	177.75
488.171	183.75
488.389	193.75
488.607	158.75
488.825	141.75
489.043	123.75
489.261	138.75
489.479	135.75
489.696	134.75
489.914	148.75
490.132	136.75
490.35	148.75
490.568	157.75
490.786	158.75
491.003	152.75
491.221	180.75
491.439	193.75
491.657	174.75
491.874	195.75
492.092	203.75
492.31	233.75
492.527	233.75
492.745	200.75
492.963	188.75
493.18	199.75
493.398	186.75
493.615	176.75
493.833	157.75
494.05	176.75
494.268	168.75
494.485	166.75
494.703	168.75
494.92	182.75
495.138	169.75
495.355	183.75
495.573	182.75
495.79	177.75
496.008	177.75
496.225	169.75
496.442	170.75
496.66	168.75
496.877	165.75
497.094	160.75
497.312	158.75
497.529	148.75
497.746	135.75
497.963	133.75
498.181	130.75
498.398	118.75
498.615	110.75
498.832	103.75
499.049	107.75
499.267	111.75
499.484	106.75
499.701	132.75
499.918	140.75
500.135	137.75
500.352	141.75
500.569	157.75
500.786	136.75
501.003	160.75
501.22	146.75
501.437	135.75
501.654	128.75
501.871	141.75
502.088	126.75
502.305	125.75
502.522	131.75
502.739	132.75
502.956	136.75
503.172	144.75
503.389	121.75
503.606	118.75
503.823	122.75
504.04	119.75
504.256	121.75
504.473	129.75
504.69	126.75
504.907	128.75
505.123	134.75
505.34	125.75
505.557	114.75
505.773	116.75
505.99	119.75
506.207	110.75
506.423	120.75
506.64	127.75
506.856	121.75
507.073	118.75
507.289	124.75
507.506	125.75
507.722	122.75
507.939	108.75
508.155	110.75
508.372	109.75
508.588	115.75
508.805	110.75
509.021	101.75
509.238	116.75
509.454	115.75
509.67	98.75
509.887	96.75
510.103	77.75
510.319	93.75
510.536	103.75
510.752	83.75
510.968	88.75
511.184	92.75
511.401	104.75
