Data from Location2.07152019.Energy5.Lamp.07192019.3%Agarose_HRD10591_14-56-14-359.txt Node
Date: Fri Jul 19 14:56:14 EDT 2019
User: cochatt
Spectrometer: HR+D1059
Trigger mode: 1
Integration Time (sec): 1.000000E-1
Scans to average: 1
Electric dark correction enabled: true
Nonlinearity correction enabled: false
Boxcar width: 0
XAxis mode: Wavelengths
Number of Pixels in Spectrum: 2048
>>>>>Begin Spectral Data<<<<<
223.165	-19.25
223.4	-19.25
223.635	-19.25
223.869	-8.25
224.104	-11.25
224.338	-8.25
224.573	-21.25
224.808	-18.25
225.042	-4.25
225.277	-1.25
225.511	-1.25
225.746	-8.25
225.98	14.75
226.215	3.75
226.449	18.75
226.683	15.75
226.918	28.75
227.152	19.75
227.387	38.75
227.621	35.75
227.856	39.75
228.09	58.75
228.324	52.75
228.559	58.75
228.793	52.75
229.027	59.75
229.262	65.75
229.496	73.75
229.73	65.75
229.964	69.75
230.199	65.75
230.433	81.75
230.667	83.75
230.901	68.75
231.136	88.75
231.37	83.75
231.604	87.75
231.838	90.75
232.072	66.75
232.306	84.75
232.541	80.75
232.775	75.75
233.009	79.75
233.243	89.75
233.477	82.75
233.711	73.75
233.945	81.75
234.179	86.75
234.413	83.75
234.647	91.75
234.881	84.75
235.115	93.75
235.349	87.75
235.583	76.75
235.817	73.75
236.051	79.75
236.285	74.75
236.519	74.75
236.753	80.75
236.987	62.75
237.221	84.75
237.455	77.75
237.689	80.75
237.922	95.75
238.156	91.75
238.39	82.75
238.624	67.75
238.858	80.75
239.091	71.75
239.325	78.75
239.559	64.75
239.793	83.75
240.027	84.75
240.26	76.75
240.494	71.75
240.728	75.75
240.961	69.75
241.195	95.75
241.429	94.75
241.662	75.75
241.896	74.75
242.13	73.75
242.363	70.75
242.597	77.75
242.83	84.75
243.064	73.75
243.298	80.75
243.531	91.75
243.765	73.75
243.998	71.75
244.232	89.75
244.465	87.75
244.699	78.75
244.932	87.75
245.166	80.75
245.399	72.75
245.633	70.75
245.866	81.75
246.099	73.75
246.333	80.75
246.566	67.75
246.8	83.75
247.033	64.75
247.266	86.75
247.5	73.75
247.733	85.75
247.966	87.75
248.2	79.75
248.433	80.75
248.666	75.75
248.899	82.75
249.133	92.75
249.366	88.75
249.599	72.75
249.832	90.75
250.066	72.75
250.299	69.75
250.532	98.75
250.765	81.75
250.998	78.75
251.231	100.75
251.465	94.75
251.698	81.75
251.931	76.75
252.164	84.75
252.397	70.75
252.63	82.75
252.863	79.75
253.096	81.75
253.329	84.75
253.562	88.75
253.795	92.75
254.028	84.75
254.261	76.75
254.494	74.75
254.727	77.75
254.96	83.75
255.193	68.75
255.426	74.75
255.659	82.75
255.892	73.75
256.124	78.75
256.357	94.75
256.59	89.75
256.823	73.75
257.056	86.75
257.289	78.75
257.521	58.75
257.754	71.75
257.987	80.75
258.22	85.75
258.452	77.75
258.685	86.75
258.918	81.75
259.151	80.75
259.383	84.75
259.616	82.75
259.849	81.75
260.081	76.75
260.314	77.75
260.547	76.75
260.779	78.75
261.012	83.75
261.244	81.75
261.477	78.75
261.71	68.75
261.942	89.75
262.175	85.75
262.407	93.75
262.64	81.75
262.872	70.75
263.105	87.75
263.337	86.75
263.57	80.75
263.802	75.75
264.035	66.75
264.267	87.75
264.499	74.75
264.732	67.75
264.964	65.75
265.197	92.75
265.429	90.75
265.661	75.75
265.894	76.75
266.126	86.75
266.358	84.75
266.591	70.75
266.823	78.75
267.055	73.75
267.287	96.75
267.52	89.75
267.752	83.75
267.984	89.75
268.216	79.75
268.448	76.75
268.681	84.75
268.913	77.75
269.145	85.75
269.377	77.75
269.609	72.75
269.841	91.75
270.073	88.75
270.306	81.75
270.538	96.75
270.77	84.75
271.002	83.75
271.234	75.75
271.466	83.75
271.698	84.75
271.93	83.75
272.162	87.75
272.394	78.75
272.626	86.75
272.858	82.75
273.09	91.75
273.322	79.75
273.553	90.75
273.785	95.75
274.017	102.75
274.249	96.75
274.481	76.75
274.713	85.75
274.945	75.75
275.176	82.75
275.408	86.75
275.64	90.75
275.872	71.75
276.104	79.75
276.335	100.75
276.567	76.75
276.799	84.75
277.031	76.75
277.262	79.75
277.494	78.75
277.726	82.75
277.957	86.75
278.189	87.75
278.421	86.75
278.652	78.75
278.884	84.75
279.115	70.75
279.347	90.75
279.579	79.75
279.81	102.75
280.042	85.75
280.273	90.75
280.505	92.75
280.736	84.75
280.968	89.75
281.199	93.75
281.431	103.75
281.662	78.75
281.894	74.75
282.125	81.75
282.356	85.75
282.588	91.75
282.819	91.75
283.051	74.75
283.282	99.75
283.513	94.75
283.745	79.75
283.976	93.75
284.207	70.75
284.439	71.75
284.67	101.75
284.901	87.75
285.132	88.75
285.364	84.75
285.595	81.75
285.826	74.75
286.057	85.75
286.288	89.75
286.52	93.75
286.751	77.75
286.982	89.75
287.213	88.75
287.444	76.75
287.675	76.75
287.906	89.75
288.138	88.75
288.369	83.75
288.6	84.75
288.831	78.75
289.062	83.75
289.293	88.75
289.524	87.75
289.755	79.75
289.986	76.75
290.217	78.75
290.448	89.75
290.679	93.75
290.91	95.75
291.141	78.75
291.371	93.75
291.602	80.75
291.833	87.75
292.064	102.75
292.295	86.75
292.526	96.75
292.757	95.75
292.987	78.75
293.218	81.75
293.449	88.75
293.68	85.75
293.91	97.75
294.141	84.75
294.372	91.75
294.603	88.75
294.833	86.75
295.064	73.75
295.295	84.75
295.525	84.75
295.756	85.75
295.987	86.75
296.217	73.75
296.448	85.75
296.679	83.75
296.909	81.75
297.14	81.75
297.37	91.75
297.601	92.75
297.831	83.75
298.062	81.75
298.292	69.75
298.523	84.75
298.753	94.75
298.984	73.75
299.214	71.75
299.445	92.75
299.675	96.75
299.905	92.75
300.136	88.75
300.366	91.75
300.597	90.75
300.827	76.75
301.057	83.75
301.288	98.75
301.518	92.75
301.748	78.75
301.979	94.75
302.209	80.75
302.439	80.75
302.669	74.75
302.9	86.75
303.13	89.75
303.36	84.75
303.59	97.75
303.82	82.75
304.051	72.75
304.281	83.75
304.511	99.75
304.741	88.75
304.971	87.75
305.201	84.75
305.431	87.75
305.661	75.75
305.891	80.75
306.121	78.75
306.352	90.75
306.582	77.75
306.812	85.75
307.042	73.75
307.272	91.75
307.502	77.75
307.731	92.75
307.961	82.75
308.191	83.75
308.421	88.75
308.651	95.75
308.881	104.75
309.111	82.75
309.341	82.75
309.571	90.75
309.8	90.75
310.03	69.75
310.26	92.75
310.49	95.75
310.72	80.75
310.949	76.75
311.179	87.75
311.409	86.75
311.639	92.75
311.868	78.75
312.098	68.75
312.328	97.75
312.557	90.75
312.787	72.75
313.017	85.75
313.246	77.75
313.476	87.75
313.706	84.75
313.935	102.75
314.165	87.75
314.394	83.75
314.624	79.75
314.853	82.75
315.083	84.75
315.312	69.75
315.542	79.75
315.771	88.75
316.001	79.75
316.23	86.75
316.46	94.75
316.689	86.75
316.919	81.75
317.148	77.75
317.377	97.75
317.607	90.75
317.836	82.75
318.065	91.75
318.295	93.75
318.524	81.75
318.753	77.75
318.983	92.75
319.212	86.75
319.441	86.75
319.67	84.75
319.9	80.75
320.129	78.75
320.358	97.75
320.587	68.75
320.816	78.75
321.046	85.75
321.275	92.75
321.504	98.75
321.733	96.75
321.962	91.75
322.191	83.75
322.42	82.75
322.649	86.75
322.878	98.75
323.108	81.75
323.337	81.75
323.566	77.75
323.795	86.75
324.024	97.75
324.253	101.75
324.482	82.75
324.71	82.75
324.939	93.75
325.168	92.75
325.397	96.75
325.626	80.75
325.855	86.75
326.084	81.75
326.313	94.75
326.542	92.75
326.77	89.75
326.999	89.75
327.228	101.75
327.457	92.75
327.686	99.75
327.914	77.75
328.143	96.75
328.372	83.75
328.6	93.75
328.829	89.75
329.058	83.75
329.287	99.75
329.515	94.75
329.744	87.75
329.972	88.75
330.201	99.75
330.43	86.75
330.658	81.75
330.887	83.75
331.115	91.75
331.344	83.75
331.572	78.75
331.801	91.75
332.03	94.75
332.258	84.75
332.486	81.75
332.715	82.75
332.943	75.75
333.172	82.75
333.4	88.75
333.629	82.75
333.857	83.75
334.085	85.75
334.314	73.75
334.542	83.75
334.771	97.75
334.999	88.75
335.227	80.75
335.455	77.75
335.684	88.75
335.912	87.75
336.14	89.75
336.369	83.75
336.597	88.75
336.825	80.75
337.053	81.75
337.281	86.75
337.51	104.75
337.738	81.75
337.966	76.75
338.194	89.75
338.422	93.75
338.65	85.75
338.878	86.75
339.106	74.75
339.334	86.75
339.562	87.75
339.79	95.75
340.018	84.75
340.246	90.75
340.474	85.75
340.702	81.75
340.93	75.75
341.158	84.75
341.386	91.75
341.614	89.75
341.842	81.75
342.07	80.75
342.298	82.75
342.526	81.75
342.754	81.75
342.981	85.75
343.209	77.75
343.437	85.75
343.665	70.75
343.893	80.75
344.12	82.75
344.348	105.75
344.576	90.75
344.804	97.75
345.031	85.75
345.259	81.75
345.487	103.75
345.714	82.75
345.942	84.75
346.17	95.75
346.397	78.75
346.625	82.75
346.853	77.75
347.08	84.75
347.308	78.75
347.535	82.75
347.763	88.75
347.99	93.75
348.218	91.75
348.445	65.75
348.673	78.75
348.9	91.75
349.128	81.75
349.355	80.75
349.583	94.75
349.81	99.75
350.037	86.75
350.265	69.75
350.492	79.75
350.72	84.75
350.947	75.75
351.174	93.75
351.402	95.75
351.629	89.75
351.856	78.75
352.083	92.75
352.311	92.75
352.538	88.75
352.765	92.75
352.992	85.75
353.22	89.75
353.447	90.75
353.674	91.75
353.901	75.75
354.128	88.75
354.355	69.75
354.583	89.75
354.81	83.75
355.037	77.75
355.264	83.75
355.491	77.75
355.718	100.75
355.945	87.75
356.172	87.75
356.399	99.75
356.626	80.75
356.853	85.75
357.08	71.75
357.307	82.75
357.534	90.75
357.761	82.75
357.988	82.75
358.215	84.75
358.441	93.75
358.668	79.75
358.895	88.75
359.122	98.75
359.349	75.75
359.576	95.75
359.802	85.75
360.029	86.75
360.256	100.75
360.483	76.75
360.709	78.75
360.936	92.75
361.163	93.75
361.39	96.75
361.616	80.75
361.843	73.75
362.07	82.75
362.296	79.75
362.523	92.75
362.749	90.75
362.976	85.75
363.203	91.75
363.429	82.75
363.656	85.75
363.882	79.75
364.109	83.75
364.335	98.75
364.562	97.75
364.788	83.75
365.015	87.75
365.241	82.75
365.468	90.75
365.694	95.75
365.92	87.75
366.147	86.75
366.373	89.75
366.599	87.75
366.826	92.75
367.052	98.75
367.278	82.75
367.505	81.75
367.731	97.75
367.957	91.75
368.184	74.75
368.41	83.75
368.636	82.75
368.862	95.75
369.089	93.75
369.315	93.75
369.541	87.75
369.767	77.75
369.993	91.75
370.219	92.75
370.445	98.75
370.672	103.75
370.898	93.75
371.124	94.75
371.35	97.75
371.576	95.75
371.802	87.75
372.028	92.75
372.254	92.75
372.48	87.75
372.706	90.75
372.932	89.75
373.158	96.75
373.384	98.75
373.61	103.75
373.835	85.75
374.061	101.75
374.287	85.75
374.513	85.75
374.739	83.75
374.965	88.75
375.191	97.75
375.416	86.75
375.642	93.75
375.868	103.75
376.094	88.75
376.319	92.75
376.545	103.75
376.771	88.75
376.997	98.75
377.222	98.75
377.448	98.75
377.674	89.75
377.899	100.75
378.125	100.75
378.35	89.75
378.576	104.75
378.802	89.75
379.027	92.75
379.253	88.75
379.478	78.75
379.704	104.75
379.929	92.75
380.155	84.75
380.38	94.75
380.606	85.75
380.831	101.75
381.057	102.75
381.282	99.75
381.507	87.75
381.733	107.75
381.958	106.75
382.184	95.75
382.409	90.75
382.634	97.75
382.86	89.75
383.085	104.75
383.31	96.75
383.535	107.75
383.761	101.75
383.986	101.75
384.211	93.75
384.436	92.75
384.662	102.75
384.887	108.75
385.112	97.75
385.337	82.75
385.562	101.75
385.787	97.75
386.013	114.75
386.238	95.75
386.463	93.75
386.688	89.75
386.913	102.75
387.138	100.75
387.363	103.75
387.588	108.75
387.813	96.75
388.038	103.75
388.263	83.75
388.488	107.75
388.713	106.75
388.938	111.75
389.163	106.75
389.387	110.75
389.612	121.75
389.837	112.75
390.062	105.75
390.287	104.75
390.512	108.75
390.736	98.75
390.961	112.75
391.186	103.75
391.411	106.75
391.636	103.75
391.86	99.75
392.085	109.75
392.31	113.75
392.534	122.75
392.759	105.75
392.984	100.75
393.208	113.75
393.433	102.75
393.658	123.75
393.882	114.75
394.107	107.75
394.331	109.75
394.556	111.75
394.78	97.75
395.005	101.75
395.229	102.75
395.454	120.75
395.678	113.75
395.903	116.75
396.127	116.75
396.352	103.75
396.576	102.75
396.801	103.75
397.025	103.75
397.249	107.75
397.474	105.75
397.698	113.75
397.922	121.75
398.147	99.75
398.371	110.75
398.595	98.75
398.82	107.75
399.044	120.75
399.268	95.75
399.492	98.75
399.717	114.75
399.941	116.75
400.165	118.75
400.389	109.75
400.613	120.75
400.837	120.75
401.062	96.75
401.286	114.75
401.51	128.75
401.734	123.75
401.958	112.75
402.182	101.75
402.406	116.75
402.63	109.75
402.854	114.75
403.078	121.75
403.302	116.75
403.526	126.75
403.75	116.75
403.974	126.75
404.198	121.75
404.422	115.75
404.645	118.75
404.869	115.75
405.093	119.75
405.317	113.75
405.541	118.75
405.765	122.75
405.988	110.75
406.212	121.75
406.436	118.75
406.66	139.75
406.883	122.75
407.107	130.75
407.331	123.75
407.555	117.75
407.778	112.75
408.002	123.75
408.226	109.75
408.449	122.75
408.673	118.75
408.896	125.75
409.12	124.75
409.344	128.75
409.567	113.75
409.791	115.75
410.014	121.75
410.238	125.75
410.461	112.75
410.685	121.75
410.908	112.75
411.132	115.75
411.355	132.75
411.578	141.75
411.802	125.75
412.025	116.75
412.249	124.75
412.472	137.75
412.695	120.75
412.919	122.75
413.142	134.75
413.365	124.75
413.589	113.75
413.812	124.75
414.035	127.75
414.258	120.75
414.482	125.75
414.705	114.75
414.928	120.75
415.151	108.75
415.374	119.75
415.597	129.75
415.821	114.75
416.044	144.75
416.267	140.75
416.49	125.75
416.713	130.75
416.936	133.75
417.159	107.75
417.382	127.75
417.605	128.75
417.828	142.75
418.051	116.75
418.274	133.75
418.497	141.75
418.72	121.75
418.943	140.75
419.166	124.75
419.389	136.75
419.611	152.75
419.834	139.75
420.057	136.75
420.28	134.75
420.503	148.75
420.726	124.75
420.948	135.75
421.171	129.75
421.394	146.75
421.617	140.75
421.839	148.75
422.062	147.75
422.285	136.75
422.507	137.75
422.73	130.75
422.953	132.75
423.175	129.75
423.398	116.75
423.621	148.75
423.843	135.75
424.066	140.75
424.288	131.75
424.511	144.75
424.733	144.75
424.956	152.75
425.178	143.75
425.401	117.75
425.623	137.75
425.846	121.75
426.068	137.75
426.291	147.75
426.513	126.75
426.735	128.75
426.958	141.75
427.18	136.75
427.402	136.75
427.625	118.75
427.847	106.75
428.069	136.75
428.292	134.75
428.514	119.75
428.736	124.75
428.958	138.75
429.181	141.75
429.403	116.75
429.625	124.75
429.847	133.75
430.069	134.75
430.292	123.75
430.514	114.75
430.736	124.75
430.958	146.75
431.18	129.75
431.402	126.75
431.624	130.75
431.846	102.75
432.068	105.75
432.29	109.75
432.512	105.75
432.734	128.75
432.956	133.75
433.178	126.75
433.4	157.75
433.622	133.75
433.844	119.75
434.066	119.75
434.287	124.75
434.509	90.75
434.731	110.75
434.953	110.75
435.175	123.75
435.397	132.75
435.618	115.75
435.84	121.75
436.062	123.75
436.284	130.75
436.505	122.75
436.727	109.75
436.949	128.75
437.17	137.75
437.392	130.75
437.614	133.75
437.835	120.75
438.057	108.75
438.278	122.75
438.5	119.75
438.721	133.75
438.943	134.75
439.165	136.75
439.386	143.75
439.608	141.75
439.829	152.75
440.05	159.75
440.272	157.75
440.493	160.75
440.715	140.75
440.936	140.75
441.158	161.75
441.379	144.75
441.6	155.75
441.822	160.75
442.043	144.75
442.264	159.75
442.486	137.75
442.707	129.75
442.928	128.75
443.149	146.75
443.371	130.75
443.592	129.75
443.813	146.75
444.034	144.75
444.255	144.75
444.476	142.75
444.698	140.75
444.919	156.75
445.14	258.75
445.361	169.75
445.582	140.75
445.803	143.75
446.024	149.75
446.245	157.75
446.466	155.75
446.687	156.75
446.908	157.75
447.129	171.75
447.35	161.75
447.571	142.75
447.792	151.75
448.013	137.75
448.234	138.75
448.455	140.75
448.675	132.75
448.896	128.75
449.117	146.75
449.338	138.75
449.559	134.75
449.779	141.75
450	138.75
450.221	122.75
450.442	140.75
450.662	139.75
450.883	126.75
451.104	127.75
451.324	131.75
451.545	129.75
451.766	144.75
451.986	123.75
452.207	128.75
452.428	120.75
452.648	126.75
452.869	139.75
453.089	122.75
453.31	118.75
453.53	106.75
453.751	118.75
453.971	113.75
454.192	113.75
454.412	119.75
454.633	126.75
454.853	118.75
455.073	128.75
455.294	112.75
455.514	123.75
455.734	111.75
455.955	108.75
456.175	114.75
456.395	119.75
456.616	116.75
456.836	116.75
457.056	101.75
457.276	121.75
457.497	112.75
457.717	124.75
457.937	107.75
458.157	99.75
458.377	107.75
458.598	112.75
458.818	104.75
459.038	104.75
459.258	102.75
459.478	93.75
459.698	88.75
459.918	101.75
460.138	104.75
460.358	107.75
460.578	126.75
460.798	123.75
461.018	109.75
461.238	123.75
461.458	124.75
461.678	113.75
461.898	110.75
462.118	106.75
462.338	129.75
462.558	124.75
462.777	117.75
462.997	124.75
463.217	105.75
463.437	108.75
463.657	112.75
463.876	113.75
464.096	108.75
464.316	107.75
464.536	125.75
464.755	124.75
464.975	136.75
465.195	110.75
465.414	127.75
465.634	118.75
465.854	133.75
466.073	109.75
466.293	124.75
466.512	119.75
466.732	132.75
466.951	133.75
467.171	134.75
467.391	135.75
467.61	150.75
467.829	140.75
468.049	139.75
468.268	144.75
468.488	126.75
468.707	136.75
468.927	123.75
469.146	134.75
469.365	142.75
469.585	141.75
469.804	149.75
470.023	142.75
470.243	155.75
470.462	132.75
470.681	153.75
470.901	141.75
471.12	156.75
471.339	137.75
471.558	150.75
471.777	142.75
471.997	148.75
472.216	118.75
472.435	118.75
472.654	107.75
472.873	129.75
473.092	127.75
473.311	129.75
473.53	131.75
473.749	135.75
473.968	141.75
474.187	119.75
474.406	109.75
474.625	128.75
474.844	135.75
475.063	124.75
475.282	123.75
475.501	124.75
475.72	121.75
475.939	109.75
476.158	138.75
476.377	138.75
476.596	124.75
476.814	128.75
477.033	118.75
477.252	120.75
477.471	123.75
477.69	123.75
477.908	133.75
478.127	142.75
478.346	139.75
478.564	129.75
478.783	137.75
479.002	137.75
479.22	143.75
479.439	156.75
479.658	122.75
479.876	119.75
480.095	124.75
480.313	119.75
480.532	126.75
480.751	125.75
480.969	113.75
481.188	83.75
481.406	84.75
481.624	90.75
481.843	84.75
482.061	93.75
482.28	111.75
482.498	108.75
482.717	112.75
482.935	113.75
483.153	154.75
483.372	144.75
483.59	159.75
483.808	143.75
484.027	136.75
484.245	135.75
484.463	136.75
484.681	154.75
484.9	142.75
485.118	135.75
485.336	130.75
485.554	108.75
485.772	100.75
485.99	92.75
486.209	105.75
486.427	128.75
486.645	121.75
486.863	142.75
487.081	152.75
487.299	146.75
487.517	121.75
487.735	162.75
487.953	172.75
488.171	158.75
488.389	174.75
488.607	166.75
488.825	141.75
489.043	136.75
489.261	138.75
489.479	141.75
489.696	132.75
489.914	160.75
490.132	137.75
490.35	180.75
490.568	144.75
490.786	174.75
491.003	183.75
491.221	168.75
491.439	189.75
491.657	204.75
491.874	192.75
492.092	202.75
492.31	235.75
492.527	243.75
492.745	217.75
492.963	193.75
493.18	175.75
493.398	179.75
493.615	181.75
493.833	175.75
494.05	179.75
494.268	175.75
494.485	179.75
494.703	172.75
494.92	175.75
495.138	184.75
495.355	178.75
495.573	190.75
495.79	178.75
496.008	152.75
496.225	161.75
496.442	168.75
496.66	176.75
496.877	179.75
497.094	170.75
497.312	146.75
497.529	157.75
497.746	154.75
497.963	154.75
498.181	130.75
498.398	111.75
498.615	115.75
498.832	108.75
499.049	104.75
499.267	112.75
499.484	110.75
499.701	126.75
499.918	136.75
500.135	144.75
500.352	160.75
500.569	142.75
500.786	153.75
501.003	149.75
501.22	143.75
501.437	140.75
501.654	133.75
501.871	129.75
502.088	130.75
502.305	149.75
502.522	136.75
502.739	132.75
502.956	140.75
503.172	127.75
503.389	107.75
503.606	127.75
503.823	126.75
504.04	120.75
504.256	121.75
504.473	121.75
504.69	122.75
504.907	125.75
505.123	126.75
505.34	127.75
505.557	124.75
505.773	122.75
505.99	119.75
506.207	116.75
506.423	115.75
506.64	120.75
506.856	121.75
507.073	128.75
507.289	122.75
507.506	107.75
507.722	127.75
507.939	118.75
508.155	107.75
508.372	104.75
508.588	100.75
508.805	122.75
509.021	107.75
509.238	97.75
509.454	106.75
509.67	101.75
509.887	89.75
510.103	102.75
510.319	93.75
510.536	85.75
510.752	97.75
510.968	91.75
511.184	97.75
