Data from Location2.07152019.Energy5.Lamp.07192019.3%Agarose_HRD10591_14-56-43-358.txt Node
Date: Fri Jul 19 14:56:43 EDT 2019
User: cochatt
Spectrometer: HR+D1059
Trigger mode: 1
Integration Time (sec): 1.000000E-1
Scans to average: 1
Electric dark correction enabled: true
Nonlinearity correction enabled: false
Boxcar width: 0
XAxis mode: Wavelengths
Number of Pixels in Spectrum: 2048
>>>>>Begin Spectral Data<<<<<
223.165	-23.06
223.4	-23.06
223.635	-23.06
223.869	-26.06
224.104	-9.06
224.338	-13.06
224.573	-8.06
224.808	-1.06
225.042	-6.06
225.277	-4.06
225.511	-13.06
225.746	3.94
225.98	10.94
226.215	14.94
226.449	19.94
226.683	15.94
226.918	5.94
227.152	31.94
227.387	37.94
227.621	37.94
227.856	55.94
228.09	42.94
228.324	41.94
228.559	41.94
228.793	58.94
229.027	52.94
229.262	48.94
229.496	53.94
229.73	67.94
229.964	72.94
230.199	70.94
230.433	75.94
230.667	75.94
230.901	75.94
231.136	78.94
231.37	87.94
231.604	94.94
231.838	97.94
232.072	75.94
232.306	90.94
232.541	84.94
232.775	75.94
233.009	80.94
233.243	75.94
233.477	86.94
233.711	90.94
233.945	85.94
234.179	92.94
234.413	103.94
234.647	91.94
234.881	76.94
235.115	70.94
235.349	74.94
235.583	78.94
235.817	81.94
236.051	78.94
236.285	95.94
236.519	70.94
236.753	80.94
236.987	77.94
237.221	78.94
237.455	67.94
237.689	72.94
237.922	89.94
238.156	84.94
238.39	74.94
238.624	64.94
238.858	78.94
239.091	79.94
239.325	82.94
239.559	78.94
239.793	85.94
240.027	49.94
240.26	72.94
240.494	81.94
240.728	74.94
240.961	92.94
241.195	67.94
241.429	67.94
241.662	75.94
241.896	71.94
242.13	76.94
242.363	74.94
242.597	88.94
242.83	74.94
243.064	71.94
243.298	75.94
243.531	81.94
243.765	71.94
243.998	67.94
244.232	63.94
244.465	71.94
244.699	77.94
244.932	86.94
245.166	79.94
245.399	69.94
245.633	85.94
245.866	83.94
246.099	90.94
246.333	79.94
246.566	66.94
246.8	69.94
247.033	59.94
247.266	80.94
247.5	75.94
247.733	79.94
247.966	88.94
248.2	81.94
248.433	68.94
248.666	74.94
248.899	77.94
249.133	84.94
249.366	76.94
249.599	78.94
249.832	72.94
250.066	85.94
250.299	72.94
250.532	72.94
250.765	77.94
250.998	82.94
251.231	74.94
251.465	73.94
251.698	72.94
251.931	73.94
252.164	74.94
252.397	74.94
252.63	71.94
252.863	80.94
253.096	76.94
253.329	73.94
253.562	76.94
253.795	76.94
254.028	66.94
254.261	75.94
254.494	91.94
254.727	77.94
254.96	70.94
255.193	77.94
255.426	74.94
255.659	79.94
255.892	72.94
256.124	72.94
256.357	87.94
256.59	75.94
256.823	76.94
257.056	85.94
257.289	85.94
257.521	75.94
257.754	63.94
257.987	74.94
258.22	71.94
258.452	82.94
258.685	90.94
258.918	67.94
259.151	87.94
259.383	66.94
259.616	82.94
259.849	68.94
260.081	81.94
260.314	78.94
260.547	82.94
260.779	74.94
261.012	75.94
261.244	59.94
261.477	74.94
261.71	78.94
261.942	67.94
262.175	89.94
262.407	61.94
262.64	75.94
262.872	73.94
263.105	94.94
263.337	81.94
263.57	71.94
263.802	84.94
264.035	78.94
264.267	71.94
264.499	82.94
264.732	88.94
264.964	77.94
265.197	82.94
265.429	76.94
265.661	82.94
265.894	74.94
266.126	79.94
266.358	79.94
266.591	79.94
266.823	87.94
267.055	83.94
267.287	75.94
267.52	83.94
267.752	75.94
267.984	70.94
268.216	78.94
268.448	81.94
268.681	78.94
268.913	90.94
269.145	73.94
269.377	81.94
269.609	89.94
269.841	95.94
270.073	86.94
270.306	79.94
270.538	85.94
270.77	68.94
271.002	84.94
271.234	81.94
271.466	98.94
271.698	87.94
271.93	79.94
272.162	91.94
272.394	77.94
272.626	77.94
272.858	91.94
273.09	77.94
273.322	85.94
273.553	88.94
273.785	83.94
274.017	91.94
274.249	90.94
274.481	91.94
274.713	80.94
274.945	86.94
275.176	65.94
275.408	82.94
275.64	80.94
275.872	86.94
276.104	74.94
276.335	84.94
276.567	81.94
276.799	74.94
277.031	71.94
277.262	88.94
277.494	94.94
277.726	78.94
277.957	76.94
278.189	84.94
278.421	89.94
278.652	86.94
278.884	81.94
279.115	76.94
279.347	81.94
279.579	95.94
279.81	71.94
280.042	90.94
280.273	91.94
280.505	79.94
280.736	101.94
280.968	76.94
281.199	80.94
281.431	69.94
281.662	81.94
281.894	92.94
282.125	87.94
282.356	76.94
282.588	96.94
282.819	80.94
283.051	82.94
283.282	87.94
283.513	80.94
283.745	80.94
283.976	99.94
284.207	95.94
284.439	97.94
284.67	74.94
284.901	88.94
285.132	87.94
285.364	76.94
285.595	69.94
285.826	72.94
286.057	80.94
286.288	71.94
286.52	83.94
286.751	76.94
286.982	80.94
287.213	92.94
287.444	89.94
287.675	95.94
287.906	83.94
288.138	80.94
288.369	84.94
288.6	62.94
288.831	79.94
289.062	78.94
289.293	75.94
289.524	81.94
289.755	83.94
289.986	82.94
290.217	84.94
290.448	97.94
290.679	84.94
290.91	97.94
291.141	89.94
291.371	90.94
291.602	88.94
291.833	85.94
292.064	86.94
292.295	84.94
292.526	86.94
292.757	78.94
292.987	81.94
293.218	82.94
293.449	74.94
293.68	99.94
293.91	92.94
294.141	87.94
294.372	90.94
294.603	80.94
294.833	74.94
295.064	80.94
295.295	79.94
295.525	76.94
295.756	84.94
295.987	84.94
296.217	74.94
296.448	82.94
296.679	88.94
296.909	91.94
297.14	72.94
297.37	86.94
297.601	74.94
297.831	79.94
298.062	89.94
298.292	86.94
298.523	81.94
298.753	83.94
298.984	87.94
299.214	83.94
299.445	88.94
299.675	87.94
299.905	84.94
300.136	78.94
300.366	76.94
300.597	90.94
300.827	96.94
301.057	81.94
301.288	69.94
301.518	77.94
301.748	74.94
301.979	74.94
302.209	79.94
302.439	91.94
302.669	82.94
302.9	92.94
303.13	97.94
303.36	80.94
303.59	84.94
303.82	78.94
304.051	81.94
304.281	84.94
304.511	86.94
304.741	70.94
304.971	73.94
305.201	81.94
305.431	77.94
305.661	83.94
305.891	73.94
306.121	74.94
306.352	73.94
306.582	67.94
306.812	83.94
307.042	74.94
307.272	80.94
307.502	91.94
307.731	86.94
307.961	70.94
308.191	74.94
308.421	93.94
308.651	90.94
308.881	92.94
309.111	79.94
309.341	88.94
309.571	79.94
309.8	68.94
310.03	84.94
310.26	84.94
310.49	85.94
310.72	82.94
310.949	86.94
311.179	93.94
311.409	85.94
311.639	77.94
311.868	89.94
312.098	81.94
312.328	95.94
312.557	83.94
312.787	75.94
313.017	81.94
313.246	82.94
313.476	87.94
313.706	75.94
313.935	92.94
314.165	74.94
314.394	72.94
314.624	95.94
314.853	82.94
315.083	87.94
315.312	77.94
315.542	80.94
315.771	83.94
316.001	79.94
316.23	73.94
316.46	88.94
316.689	82.94
316.919	71.94
317.148	99.94
317.377	77.94
317.607	89.94
317.836	90.94
318.065	71.94
318.295	85.94
318.524	86.94
318.753	88.94
318.983	87.94
319.212	89.94
319.441	80.94
319.67	76.94
319.9	71.94
320.129	69.94
320.358	69.94
320.587	83.94
320.816	93.94
321.046	74.94
321.275	71.94
321.504	86.94
321.733	85.94
321.962	79.94
322.191	68.94
322.42	86.94
322.649	70.94
322.878	93.94
323.108	92.94
323.337	88.94
323.566	90.94
323.795	77.94
324.024	97.94
324.253	88.94
324.482	73.94
324.71	74.94
324.939	73.94
325.168	78.94
325.397	87.94
325.626	78.94
325.855	80.94
326.084	70.94
326.313	85.94
326.542	85.94
326.77	81.94
326.999	74.94
327.228	81.94
327.457	81.94
327.686	75.94
327.914	75.94
328.143	93.94
328.372	73.94
328.6	76.94
328.829	78.94
329.058	82.94
329.287	74.94
329.515	98.94
329.744	93.94
329.972	89.94
330.201	65.94
330.43	63.94
330.658	70.94
330.887	77.94
331.115	79.94
331.344	90.94
331.572	82.94
331.801	89.94
332.03	77.94
332.258	90.94
332.486	78.94
332.715	79.94
332.943	87.94
333.172	87.94
333.4	80.94
333.629	83.94
333.857	83.94
334.085	80.94
334.314	77.94
334.542	70.94
334.771	92.94
334.999	81.94
335.227	97.94
335.455	89.94
335.684	70.94
335.912	83.94
336.14	81.94
336.369	84.94
336.597	88.94
336.825	86.94
337.053	73.94
337.281	83.94
337.51	87.94
337.738	78.94
337.966	86.94
338.194	92.94
338.422	88.94
338.65	82.94
338.878	78.94
339.106	85.94
339.334	89.94
339.562	79.94
339.79	79.94
340.018	78.94
340.246	94.94
340.474	82.94
340.702	71.94
340.93	68.94
341.158	82.94
341.386	78.94
341.614	74.94
341.842	89.94
342.07	88.94
342.298	84.94
342.526	79.94
342.754	74.94
342.981	73.94
343.209	89.94
343.437	81.94
343.665	90.94
343.893	71.94
344.12	97.94
344.348	77.94
344.576	79.94
344.804	61.94
345.031	85.94
345.259	75.94
345.487	72.94
345.714	93.94
345.942	69.94
346.17	79.94
346.397	88.94
346.625	75.94
346.853	80.94
347.08	78.94
347.308	83.94
347.535	72.94
347.763	90.94
347.99	80.94
348.218	87.94
348.445	82.94
348.673	69.94
348.9	85.94
349.128	80.94
349.355	87.94
349.583	83.94
349.81	87.94
350.037	93.94
350.265	83.94
350.492	86.94
350.72	75.94
350.947	87.94
351.174	85.94
351.402	75.94
351.629	82.94
351.856	85.94
352.083	82.94
352.311	93.94
352.538	70.94
352.765	77.94
352.992	79.94
353.22	83.94
353.447	80.94
353.674	88.94
353.901	78.94
354.128	81.94
354.355	89.94
354.583	79.94
354.81	86.94
355.037	83.94
355.264	86.94
355.491	82.94
355.718	86.94
355.945	75.94
356.172	90.94
356.399	74.94
356.626	92.94
356.853	81.94
357.08	79.94
357.307	92.94
357.534	93.94
357.761	88.94
357.988	78.94
358.215	89.94
358.441	89.94
358.668	100.94
358.895	77.94
359.122	73.94
359.349	75.94
359.576	95.94
359.802	67.94
360.029	75.94
360.256	84.94
360.483	89.94
360.709	75.94
360.936	91.94
361.163	85.94
361.39	88.94
361.616	67.94
361.843	74.94
362.07	72.94
362.296	76.94
362.523	75.94
362.749	74.94
362.976	77.94
363.203	91.94
363.429	88.94
363.656	83.94
363.882	80.94
364.109	84.94
364.335	85.94
364.562	75.94
364.788	82.94
365.015	73.94
365.241	79.94
365.468	81.94
365.694	78.94
365.92	75.94
366.147	93.94
366.373	85.94
366.599	95.94
366.826	93.94
367.052	75.94
367.278	90.94
367.505	76.94
367.731	77.94
367.957	78.94
368.184	84.94
368.41	86.94
368.636	83.94
368.862	101.94
369.089	93.94
369.315	89.94
369.541	81.94
369.767	91.94
369.993	79.94
370.219	88.94
370.445	79.94
370.672	88.94
370.898	81.94
371.124	80.94
371.35	84.94
371.576	90.94
371.802	97.94
372.028	93.94
372.254	67.94
372.48	94.94
372.706	102.94
372.932	103.94
373.158	87.94
373.384	84.94
373.61	81.94
373.835	102.94
374.061	82.94
374.287	103.94
374.513	91.94
374.739	96.94
374.965	90.94
375.191	89.94
375.416	95.94
375.642	90.94
375.868	79.94
376.094	96.94
376.319	89.94
376.545	106.94
376.771	88.94
376.997	95.94
377.222	86.94
377.448	81.94
377.674	71.94
377.899	85.94
378.125	81.94
378.35	99.94
378.576	83.94
378.802	89.94
379.027	99.94
379.253	92.94
379.478	99.94
379.704	97.94
379.929	90.94
380.155	106.94
380.38	96.94
380.606	86.94
380.831	88.94
381.057	98.94
381.282	84.94
381.507	90.94
381.733	103.94
381.958	97.94
382.184	91.94
382.409	74.94
382.634	96.94
382.86	81.94
383.085	96.94
383.31	81.94
383.535	101.94
383.761	99.94
383.986	86.94
384.211	105.94
384.436	77.94
384.662	93.94
384.887	103.94
385.112	91.94
385.337	114.94
385.562	109.94
385.787	103.94
386.013	100.94
386.238	103.94
386.463	93.94
386.688	96.94
386.913	85.94
387.138	86.94
387.363	90.94
387.588	91.94
387.813	88.94
388.038	93.94
388.263	98.94
388.488	84.94
388.713	91.94
388.938	98.94
389.163	102.94
389.387	106.94
389.612	85.94
389.837	97.94
390.062	113.94
390.287	96.94
390.512	111.94
390.736	104.94
390.961	102.94
391.186	100.94
391.411	85.94
391.636	99.94
391.86	103.94
392.085	91.94
392.31	93.94
392.534	104.94
392.759	98.94
392.984	98.94
393.208	96.94
393.433	112.94
393.658	99.94
393.882	106.94
394.107	110.94
394.331	98.94
394.556	112.94
394.78	96.94
395.005	103.94
395.229	111.94
395.454	129.94
395.678	105.94
395.903	111.94
396.127	101.94
396.352	109.94
396.576	109.94
396.801	102.94
397.025	95.94
397.249	113.94
397.474	109.94
397.698	110.94
397.922	114.94
398.147	93.94
398.371	111.94
398.595	117.94
398.82	113.94
399.044	108.94
399.268	103.94
399.492	116.94
399.717	129.94
399.941	104.94
400.165	95.94
400.389	111.94
400.613	97.94
400.837	101.94
401.062	100.94
401.286	121.94
401.51	111.94
401.734	114.94
401.958	113.94
402.182	107.94
402.406	109.94
402.63	99.94
402.854	122.94
403.078	115.94
403.302	108.94
403.526	112.94
403.75	110.94
403.974	127.94
404.198	133.94
404.422	126.94
404.645	110.94
404.869	103.94
405.093	113.94
405.317	118.94
405.541	132.94
405.765	121.94
405.988	104.94
406.212	119.94
406.436	133.94
406.66	121.94
406.883	113.94
407.107	111.94
407.331	116.94
407.555	117.94
407.778	111.94
408.002	120.94
408.226	121.94
408.449	125.94
408.673	133.94
408.896	118.94
409.12	113.94
409.344	115.94
409.567	112.94
409.791	110.94
410.014	113.94
410.238	121.94
410.461	112.94
410.685	113.94
410.908	119.94
411.132	115.94
411.355	125.94
411.578	127.94
411.802	113.94
412.025	114.94
412.249	117.94
412.472	116.94
412.695	118.94
412.919	114.94
413.142	110.94
413.365	126.94
413.589	128.94
413.812	129.94
414.035	123.94
414.258	114.94
414.482	126.94
414.705	118.94
414.928	140.94
415.151	118.94
415.374	122.94
415.597	99.94
415.821	119.94
416.044	107.94
416.267	113.94
416.49	120.94
416.713	136.94
416.936	138.94
417.159	131.94
417.382	129.94
417.605	122.94
417.828	127.94
418.051	120.94
418.274	131.94
418.497	125.94
418.72	117.94
418.943	134.94
419.166	121.94
419.389	131.94
419.611	125.94
419.834	121.94
420.057	125.94
420.28	131.94
420.503	122.94
420.726	129.94
420.948	135.94
421.171	119.94
421.394	134.94
421.617	141.94
421.839	127.94
422.062	135.94
422.285	129.94
422.507	122.94
422.73	138.94
422.953	133.94
423.175	117.94
423.398	138.94
423.621	135.94
423.843	124.94
424.066	150.94
424.288	132.94
424.511	125.94
424.733	127.94
424.956	134.94
425.178	130.94
425.401	138.94
425.623	141.94
425.846	116.94
426.068	138.94
426.291	120.94
426.513	127.94
426.735	127.94
426.958	119.94
427.18	126.94
427.402	116.94
427.625	136.94
427.847	117.94
428.069	123.94
428.292	122.94
428.514	129.94
428.736	129.94
428.958	126.94
429.181	115.94
429.403	129.94
429.625	149.94
429.847	132.94
430.069	132.94
430.292	138.94
430.514	109.94
430.736	117.94
430.958	142.94
431.18	111.94
431.402	119.94
431.624	120.94
431.846	120.94
432.068	103.94
432.29	85.94
432.512	109.94
432.734	114.94
432.956	126.94
433.178	131.94
433.4	149.94
433.622	146.94
433.844	138.94
434.066	114.94
434.287	94.94
434.509	115.94
434.731	107.94
434.953	114.94
435.175	115.94
435.397	122.94
435.618	117.94
435.84	124.94
436.062	109.94
436.284	113.94
436.505	121.94
436.727	128.94
436.949	130.94
437.17	132.94
437.392	130.94
437.614	122.94
437.835	113.94
438.057	105.94
438.278	104.94
438.5	112.94
438.721	125.94
438.943	126.94
439.165	145.94
439.386	147.94
439.608	129.94
439.829	136.94
440.05	145.94
440.272	146.94
440.493	141.94
440.715	151.94
440.936	138.94
441.158	153.94
441.379	137.94
441.6	143.94
441.822	126.94
442.043	145.94
442.264	129.94
442.486	139.94
442.707	124.94
442.928	140.94
443.149	148.94
443.371	143.94
443.592	138.94
443.813	150.94
444.034	141.94
444.255	145.94
444.476	150.94
444.698	126.94
444.919	146.94
445.14	272.94
445.361	192.94
445.582	148.94
445.803	153.94
446.024	159.94
446.245	153.94
446.466	151.94
446.687	128.94
446.908	147.94
447.129	137.94
447.35	162.94
447.571	156.94
447.792	135.94
448.013	128.94
448.234	133.94
448.455	135.94
448.675	124.94
448.896	134.94
449.117	131.94
449.338	123.94
449.559	141.94
449.779	120.94
450	125.94
450.221	151.94
450.442	138.94
450.662	121.94
450.883	125.94
451.104	119.94
451.324	129.94
451.545	125.94
451.766	130.94
451.986	126.94
452.207	120.94
452.428	135.94
452.648	127.94
452.869	125.94
453.089	105.94
453.31	103.94
453.53	112.94
453.751	116.94
453.971	103.94
454.192	98.94
454.412	110.94
454.633	112.94
454.853	121.94
455.073	125.94
455.294	121.94
455.514	119.94
455.734	123.94
455.955	102.94
456.175	117.94
456.395	115.94
456.616	119.94
456.836	119.94
457.056	105.94
457.276	107.94
457.497	119.94
457.717	105.94
457.937	112.94
458.157	101.94
458.377	118.94
458.598	95.94
458.818	82.94
459.038	88.94
459.258	87.94
459.478	83.94
459.698	85.94
459.918	94.94
460.138	117.94
460.358	108.94
460.578	102.94
460.798	103.94
461.018	109.94
461.238	125.94
461.458	130.94
461.678	115.94
461.898	110.94
462.118	98.94
462.338	117.94
462.558	110.94
462.777	106.94
462.997	117.94
463.217	109.94
463.437	112.94
463.657	108.94
463.876	122.94
464.096	119.94
464.316	111.94
464.536	111.94
464.755	107.94
464.975	121.94
465.195	129.94
465.414	121.94
465.634	127.94
465.854	121.94
466.073	121.94
466.293	127.94
466.512	127.94
466.732	118.94
466.951	129.94
467.171	114.94
467.391	140.94
467.61	138.94
467.829	129.94
468.049	121.94
468.268	127.94
468.488	116.94
468.707	132.94
468.927	135.94
469.146	129.94
469.365	143.94
469.585	128.94
469.804	134.94
470.023	143.94
470.243	147.94
470.462	145.94
470.681	143.94
470.901	132.94
471.12	135.94
471.339	147.94
471.558	151.94
471.777	133.94
471.997	132.94
472.216	126.94
472.435	121.94
472.654	101.94
472.873	107.94
473.092	109.94
473.311	120.94
473.53	121.94
473.749	117.94
473.968	123.94
474.187	124.94
474.406	102.94
474.625	120.94
474.844	127.94
475.063	117.94
475.282	112.94
475.501	111.94
475.72	123.94
475.939	129.94
476.158	119.94
476.377	135.94
476.596	119.94
476.814	115.94
477.033	103.94
477.252	101.94
477.471	104.94
477.69	127.94
477.908	132.94
478.127	145.94
478.346	137.94
478.564	153.94
478.783	123.94
479.002	130.94
479.22	121.94
479.439	140.94
479.658	119.94
479.876	110.94
480.095	96.94
480.313	123.94
480.532	129.94
480.751	121.94
480.969	104.94
481.188	96.94
481.406	79.94
481.624	93.94
481.843	94.94
482.061	106.94
482.28	110.94
482.498	120.94
482.717	110.94
482.935	118.94
483.153	130.94
483.372	145.94
483.59	149.94
483.808	138.94
484.027	130.94
484.245	119.94
484.463	120.94
484.681	155.94
484.9	145.94
485.118	134.94
485.336	120.94
485.554	111.94
485.772	103.94
485.99	100.94
486.209	115.94
486.427	109.94
486.645	138.94
486.863	141.94
487.081	129.94
487.299	137.94
487.517	129.94
487.735	165.94
487.953	167.94
488.171	186.94
488.389	178.94
488.607	169.94
488.825	140.94
489.043	129.94
489.261	134.94
489.479	145.94
489.696	145.94
489.914	140.94
490.132	149.94
490.35	141.94
490.568	147.94
490.786	166.94
491.003	162.94
491.221	176.94
491.439	189.94
491.657	196.94
491.874	196.94
492.092	198.94
492.31	230.94
492.527	221.94
492.745	198.94
492.963	211.94
493.18	185.94
493.398	190.94
493.615	180.94
493.833	182.94
494.05	162.94
494.268	168.94
494.485	158.94
494.703	149.94
494.92	159.94
495.138	164.94
495.355	162.94
495.573	176.94
495.79	159.94
496.008	164.94
496.225	176.94
496.442	171.94
496.66	165.94
496.877	158.94
497.094	175.94
497.312	168.94
497.529	156.94
497.746	151.94
497.963	136.94
498.181	121.94
498.398	124.94
498.615	122.94
498.832	105.94
499.049	121.94
499.267	123.94
499.484	119.94
499.701	121.94
499.918	139.94
500.135	143.94
500.352	134.94
500.569	137.94
500.786	142.94
501.003	136.94
501.22	130.94
501.437	145.94
501.654	149.94
501.871	136.94
502.088	147.94
502.305	116.94
502.522	135.94
502.739	129.94
502.956	147.94
503.172	123.94
503.389	121.94
503.606	128.94
503.823	121.94
504.04	113.94
504.256	123.94
504.473	141.94
504.69	115.94
504.907	105.94
505.123	102.94
505.34	124.94
505.557	115.94
505.773	113.94
505.99	122.94
506.207	120.94
506.423	119.94
506.64	132.94
506.856	118.94
507.073	116.94
507.289	122.94
507.506	101.94
507.722	124.94
507.939	106.94
508.155	121.94
508.372	107.94
508.588	114.94
508.805	111.94
509.021	98.94
509.238	100.94
509.454	105.94
509.67	93.94
509.887	110.94
510.103	101.94
510.319	79.94
510.536	94.94
510.752	86.94
510.968	78.94
511.184	90.94
511.401	92.94
511.617	98.94
511.833	95.94
