Data from Location2.07152019.Energy5.Lamp.07192019.3%Agarose_HRD10591_14-58-18-359.txt Node
Date: Fri Jul 19 14:58:18 EDT 2019
User: cochatt
Spectrometer: HR+D1059
Trigger mode: 1
Integration Time (sec): 1.000000E-1
Scans to average: 1
Electric dark correction enabled: true
Nonlinearity correction enabled: false
Boxcar width: 0
XAxis mode: Wavelengths
Number of Pixels in Spectrum: 2048
>>>>>Begin Spectral Data<<<<<
223.165	-16.56
223.4	-16.56
223.635	-16.56
223.869	-16.56
224.104	-17.56
224.338	-20.56
224.573	-15.56
224.808	-9.56
225.042	-3.56
225.277	-14.56
225.511	-1.56
225.746	8.44
225.98	-6.56
226.215	17.44
226.449	14.44
226.683	24.44
226.918	32.44
227.152	25.44
227.387	26.44
227.621	37.44
227.856	40.44
228.09	40.44
228.324	58.44
228.559	56.44
228.793	51.44
229.027	74.44
229.262	75.44
229.496	74.44
229.73	64.44
229.964	73.44
230.199	62.44
230.433	71.44
230.667	67.44
230.901	80.44
231.136	66.44
231.37	84.44
231.604	73.44
231.838	81.44
232.072	72.44
232.306	86.44
232.541	90.44
232.775	76.44
233.009	87.44
233.243	75.44
233.477	88.44
233.711	79.44
233.945	71.44
234.179	65.44
234.413	96.44
234.647	79.44
234.881	69.44
235.115	68.44
235.349	91.44
235.583	93.44
235.817	81.44
236.051	74.44
236.285	86.44
236.519	58.44
236.753	81.44
236.987	80.44
237.221	90.44
237.455	67.44
237.689	83.44
237.922	81.44
238.156	75.44
238.39	75.44
238.624	71.44
238.858	65.44
239.091	69.44
239.325	68.44
239.559	71.44
239.793	71.44
240.027	81.44
240.26	75.44
240.494	75.44
240.728	89.44
240.961	66.44
241.195	72.44
241.429	81.44
241.662	81.44
241.896	81.44
242.13	77.44
242.363	72.44
242.597	79.44
242.83	74.44
243.064	74.44
243.298	85.44
243.531	89.44
243.765	84.44
243.998	84.44
244.232	82.44
244.465	75.44
244.699	84.44
244.932	84.44
245.166	74.44
245.399	83.44
245.633	78.44
245.866	82.44
246.099	69.44
246.333	76.44
246.566	75.44
246.8	75.44
247.033	77.44
247.266	86.44
247.5	79.44
247.733	67.44
247.966	76.44
248.2	75.44
248.433	66.44
248.666	72.44
248.899	73.44
249.133	76.44
249.366	84.44
249.599	83.44
249.832	91.44
250.066	72.44
250.299	86.44
250.532	91.44
250.765	69.44
250.998	76.44
251.231	79.44
251.465	78.44
251.698	68.44
251.931	65.44
252.164	69.44
252.397	89.44
252.63	88.44
252.863	75.44
253.096	75.44
253.329	97.44
253.562	76.44
253.795	72.44
254.028	85.44
254.261	88.44
254.494	82.44
254.727	106.44
254.96	73.44
255.193	75.44
255.426	78.44
255.659	76.44
255.892	76.44
256.124	72.44
256.357	87.44
256.59	83.44
256.823	70.44
257.056	93.44
257.289	84.44
257.521	90.44
257.754	58.44
257.987	91.44
258.22	78.44
258.452	96.44
258.685	87.44
258.918	61.44
259.151	81.44
259.383	75.44
259.616	78.44
259.849	86.44
260.081	92.44
260.314	71.44
260.547	83.44
260.779	74.44
261.012	88.44
261.244	76.44
261.477	63.44
261.71	82.44
261.942	84.44
262.175	88.44
262.407	84.44
262.64	70.44
262.872	84.44
263.105	78.44
263.337	87.44
263.57	91.44
263.802	91.44
264.035	75.44
264.267	79.44
264.499	83.44
264.732	75.44
264.964	71.44
265.197	75.44
265.429	79.44
265.661	70.44
265.894	78.44
266.126	80.44
266.358	76.44
266.591	82.44
266.823	75.44
267.055	81.44
267.287	84.44
267.52	61.44
267.752	82.44
267.984	69.44
268.216	66.44
268.448	96.44
268.681	74.44
268.913	79.44
269.145	76.44
269.377	84.44
269.609	86.44
269.841	76.44
270.073	76.44
270.306	97.44
270.538	74.44
270.77	85.44
271.002	82.44
271.234	98.44
271.466	72.44
271.698	68.44
271.93	90.44
272.162	67.44
272.394	73.44
272.626	81.44
272.858	76.44
273.09	88.44
273.322	64.44
273.553	71.44
273.785	89.44
274.017	74.44
274.249	83.44
274.481	77.44
274.713	72.44
274.945	89.44
275.176	79.44
275.408	74.44
275.64	88.44
275.872	66.44
276.104	82.44
276.335	89.44
276.567	82.44
276.799	76.44
277.031	70.44
277.262	96.44
277.494	74.44
277.726	71.44
277.957	77.44
278.189	88.44
278.421	91.44
278.652	74.44
278.884	82.44
279.115	74.44
279.347	89.44
279.579	82.44
279.81	84.44
280.042	83.44
280.273	87.44
280.505	84.44
280.736	86.44
280.968	77.44
281.199	86.44
281.431	82.44
281.662	94.44
281.894	75.44
282.125	84.44
282.356	81.44
282.588	87.44
282.819	87.44
283.051	74.44
283.282	77.44
283.513	64.44
283.745	102.44
283.976	91.44
284.207	84.44
284.439	68.44
284.67	79.44
284.901	76.44
285.132	83.44
285.364	94.44
285.595	74.44
285.826	83.44
286.057	84.44
286.288	85.44
286.52	94.44
286.751	73.44
286.982	96.44
287.213	91.44
287.444	78.44
287.675	76.44
287.906	90.44
288.138	74.44
288.369	83.44
288.6	81.44
288.831	83.44
289.062	89.44
289.293	81.44
289.524	76.44
289.755	89.44
289.986	94.44
290.217	81.44
290.448	74.44
290.679	76.44
290.91	83.44
291.141	87.44
291.371	86.44
291.602	75.44
291.833	81.44
292.064	73.44
292.295	90.44
292.526	95.44
292.757	78.44
292.987	85.44
293.218	75.44
293.449	87.44
293.68	81.44
293.91	98.44
294.141	82.44
294.372	74.44
294.603	79.44
294.833	86.44
295.064	87.44
295.295	84.44
295.525	64.44
295.756	70.44
295.987	76.44
296.217	86.44
296.448	76.44
296.679	71.44
296.909	91.44
297.14	80.44
297.37	62.44
297.601	78.44
297.831	75.44
298.062	82.44
298.292	74.44
298.523	84.44
298.753	79.44
298.984	80.44
299.214	68.44
299.445	82.44
299.675	76.44
299.905	100.44
300.136	84.44
300.366	92.44
300.597	79.44
300.827	76.44
301.057	81.44
301.288	96.44
301.518	68.44
301.748	83.44
301.979	72.44
302.209	81.44
302.439	80.44
302.669	79.44
302.9	93.44
303.13	97.44
303.36	99.44
303.59	94.44
303.82	84.44
304.051	85.44
304.281	75.44
304.511	80.44
304.741	82.44
304.971	102.44
305.201	90.44
305.431	75.44
305.661	91.44
305.891	72.44
306.121	81.44
306.352	92.44
306.582	82.44
306.812	82.44
307.042	79.44
307.272	88.44
307.502	73.44
307.731	73.44
307.961	91.44
308.191	101.44
308.421	75.44
308.651	76.44
308.881	95.44
309.111	76.44
309.341	81.44
309.571	92.44
309.8	81.44
310.03	86.44
310.26	89.44
310.49	79.44
310.72	79.44
310.949	85.44
311.179	76.44
311.409	72.44
311.639	81.44
311.868	82.44
312.098	79.44
312.328	99.44
312.557	91.44
312.787	70.44
313.017	78.44
313.246	74.44
313.476	76.44
313.706	81.44
313.935	75.44
314.165	82.44
314.394	87.44
314.624	81.44
314.853	91.44
315.083	79.44
315.312	82.44
315.542	71.44
315.771	77.44
316.001	82.44
316.23	86.44
316.46	87.44
316.689	89.44
316.919	85.44
317.148	89.44
317.377	85.44
317.607	85.44
317.836	83.44
318.065	83.44
318.295	102.44
318.524	86.44
318.753	87.44
318.983	95.44
319.212	90.44
319.441	80.44
319.67	88.44
319.9	79.44
320.129	75.44
320.358	75.44
320.587	66.44
320.816	84.44
321.046	80.44
321.275	89.44
321.504	75.44
321.733	86.44
321.962	80.44
322.191	85.44
322.42	91.44
322.649	77.44
322.878	77.44
323.108	88.44
323.337	80.44
323.566	81.44
323.795	82.44
324.024	96.44
324.253	88.44
324.482	70.44
324.71	91.44
324.939	85.44
325.168	74.44
325.397	83.44
325.626	76.44
325.855	80.44
326.084	81.44
326.313	80.44
326.542	82.44
326.77	88.44
326.999	85.44
327.228	78.44
327.457	78.44
327.686	73.44
327.914	78.44
328.143	100.44
328.372	96.44
328.6	81.44
328.829	84.44
329.058	89.44
329.287	76.44
329.515	96.44
329.744	84.44
329.972	92.44
330.201	80.44
330.43	81.44
330.658	84.44
330.887	83.44
331.115	87.44
331.344	94.44
331.572	85.44
331.801	68.44
332.03	87.44
332.258	86.44
332.486	69.44
332.715	80.44
332.943	70.44
333.172	67.44
333.4	87.44
333.629	66.44
333.857	91.44
334.085	85.44
334.314	84.44
334.542	69.44
334.771	78.44
334.999	95.44
335.227	90.44
335.455	80.44
335.684	82.44
335.912	75.44
336.14	91.44
336.369	71.44
336.597	91.44
336.825	100.44
337.053	91.44
337.281	92.44
337.51	86.44
337.738	87.44
337.966	77.44
338.194	81.44
338.422	88.44
338.65	77.44
338.878	89.44
339.106	79.44
339.334	81.44
339.562	71.44
339.79	84.44
340.018	86.44
340.246	81.44
340.474	95.44
340.702	91.44
340.93	87.44
341.158	70.44
341.386	78.44
341.614	85.44
341.842	83.44
342.07	79.44
342.298	89.44
342.526	94.44
342.754	79.44
342.981	93.44
343.209	92.44
343.437	95.44
343.665	96.44
343.893	77.44
344.12	78.44
344.348	88.44
344.576	73.44
344.804	65.44
345.031	83.44
345.259	72.44
345.487	86.44
345.714	71.44
345.942	81.44
346.17	88.44
346.397	96.44
346.625	81.44
346.853	94.44
347.08	82.44
347.308	90.44
347.535	77.44
347.763	94.44
347.99	89.44
348.218	92.44
348.445	92.44
348.673	75.44
348.9	84.44
349.128	86.44
349.355	69.44
349.583	94.44
349.81	92.44
350.037	90.44
350.265	84.44
350.492	79.44
350.72	78.44
350.947	75.44
351.174	84.44
351.402	88.44
351.629	86.44
351.856	84.44
352.083	97.44
352.311	91.44
352.538	78.44
352.765	90.44
352.992	103.44
353.22	74.44
353.447	96.44
353.674	88.44
353.901	82.44
354.128	87.44
354.355	76.44
354.583	79.44
354.81	76.44
355.037	74.44
355.264	87.44
355.491	83.44
355.718	76.44
355.945	77.44
356.172	78.44
356.399	81.44
356.626	83.44
356.853	72.44
357.08	94.44
357.307	73.44
357.534	79.44
357.761	80.44
357.988	72.44
358.215	84.44
358.441	61.44
358.668	78.44
358.895	82.44
359.122	101.44
359.349	67.44
359.576	84.44
359.802	64.44
360.029	80.44
360.256	95.44
360.483	77.44
360.709	80.44
360.936	76.44
361.163	86.44
361.39	76.44
361.616	86.44
361.843	83.44
362.07	82.44
362.296	91.44
362.523	91.44
362.749	75.44
362.976	78.44
363.203	75.44
363.429	73.44
363.656	83.44
363.882	82.44
364.109	76.44
364.335	79.44
364.562	85.44
364.788	82.44
365.015	82.44
365.241	83.44
365.468	79.44
365.694	83.44
365.92	86.44
366.147	87.44
366.373	82.44
366.599	76.44
366.826	80.44
367.052	79.44
367.278	93.44
367.505	91.44
367.731	83.44
367.957	69.44
368.184	89.44
368.41	91.44
368.636	96.44
368.862	90.44
369.089	85.44
369.315	98.44
369.541	98.44
369.767	85.44
369.993	88.44
370.219	87.44
370.445	91.44
370.672	84.44
370.898	84.44
371.124	90.44
371.35	94.44
371.576	88.44
371.802	78.44
372.028	92.44
372.254	83.44
372.48	73.44
372.706	82.44
372.932	80.44
373.158	94.44
373.384	104.44
373.61	86.44
373.835	88.44
374.061	81.44
374.287	87.44
374.513	90.44
374.739	91.44
374.965	88.44
375.191	94.44
375.416	96.44
375.642	98.44
375.868	91.44
376.094	90.44
376.319	76.44
376.545	90.44
376.771	83.44
376.997	90.44
377.222	94.44
377.448	107.44
377.674	96.44
377.899	100.44
378.125	105.44
378.35	91.44
378.576	91.44
378.802	94.44
379.027	93.44
379.253	102.44
379.478	82.44
379.704	96.44
379.929	89.44
380.155	107.44
380.38	94.44
380.606	110.44
380.831	110.44
381.057	96.44
381.282	95.44
381.507	104.44
381.733	95.44
381.958	89.44
382.184	95.44
382.409	92.44
382.634	103.44
382.86	95.44
383.085	94.44
383.31	89.44
383.535	89.44
383.761	84.44
383.986	99.44
384.211	83.44
384.436	100.44
384.662	110.44
384.887	101.44
385.112	84.44
385.337	98.44
385.562	105.44
385.787	101.44
386.013	113.44
386.238	92.44
386.463	103.44
386.688	87.44
386.913	90.44
387.138	90.44
387.363	106.44
387.588	84.44
387.813	115.44
388.038	110.44
388.263	102.44
388.488	87.44
388.713	99.44
388.938	87.44
389.163	106.44
389.387	115.44
389.612	99.44
389.837	115.44
390.062	111.44
390.287	104.44
390.512	107.44
390.736	110.44
390.961	101.44
391.186	105.44
391.411	92.44
391.636	100.44
391.86	98.44
392.085	105.44
392.31	96.44
392.534	96.44
392.759	112.44
392.984	108.44
393.208	93.44
393.433	107.44
393.658	96.44
393.882	104.44
394.107	106.44
394.331	103.44
394.556	87.44
394.78	110.44
395.005	116.44
395.229	105.44
395.454	104.44
395.678	103.44
395.903	107.44
396.127	102.44
396.352	102.44
396.576	87.44
396.801	99.44
397.025	114.44
397.249	111.44
397.474	91.44
397.698	98.44
397.922	110.44
398.147	90.44
398.371	104.44
398.595	102.44
398.82	117.44
399.044	98.44
399.268	112.44
399.492	116.44
399.717	120.44
399.941	104.44
400.165	114.44
400.389	110.44
400.613	96.44
400.837	97.44
401.062	109.44
401.286	102.44
401.51	114.44
401.734	106.44
401.958	107.44
402.182	122.44
402.406	114.44
402.63	115.44
402.854	126.44
403.078	103.44
403.302	111.44
403.526	112.44
403.75	124.44
403.974	114.44
404.198	126.44
404.422	119.44
404.645	97.44
404.869	119.44
405.093	114.44
405.317	118.44
405.541	111.44
405.765	110.44
405.988	128.44
406.212	114.44
406.436	112.44
406.66	133.44
406.883	105.44
407.107	108.44
407.331	114.44
407.555	110.44
407.778	114.44
408.002	115.44
408.226	116.44
408.449	124.44
408.673	117.44
408.896	97.44
409.12	121.44
409.344	113.44
409.567	129.44
409.791	129.44
410.014	129.44
410.238	122.44
410.461	120.44
410.685	121.44
410.908	124.44
411.132	129.44
411.355	118.44
411.578	119.44
411.802	118.44
412.025	110.44
412.249	116.44
412.472	118.44
412.695	123.44
412.919	94.44
413.142	122.44
413.365	120.44
413.589	117.44
413.812	109.44
414.035	118.44
414.258	115.44
414.482	103.44
414.705	128.44
414.928	115.44
415.151	96.44
415.374	110.44
415.597	127.44
415.821	126.44
416.044	128.44
416.267	117.44
416.49	124.44
416.713	115.44
416.936	130.44
417.159	126.44
417.382	132.44
417.605	133.44
417.828	120.44
418.051	130.44
418.274	133.44
418.497	123.44
418.72	130.44
418.943	128.44
419.166	130.44
419.389	138.44
419.611	129.44
419.834	130.44
420.057	148.44
420.28	120.44
420.503	121.44
420.726	116.44
420.948	125.44
421.171	134.44
421.394	140.44
421.617	126.44
421.839	150.44
422.062	133.44
422.285	128.44
422.507	127.44
422.73	124.44
422.953	115.44
423.175	130.44
423.398	134.44
423.621	139.44
423.843	130.44
424.066	131.44
424.288	140.44
424.511	128.44
424.733	146.44
424.956	132.44
425.178	130.44
425.401	138.44
425.623	129.44
425.846	132.44
426.068	119.44
426.291	128.44
426.513	123.44
426.735	126.44
426.958	124.44
427.18	136.44
427.402	131.44
427.625	128.44
427.847	139.44
428.069	138.44
428.292	131.44
428.514	136.44
428.736	123.44
428.958	135.44
429.181	132.44
429.403	131.44
429.625	136.44
429.847	121.44
430.069	127.44
430.292	136.44
430.514	122.44
430.736	125.44
430.958	122.44
431.18	110.44
431.402	127.44
431.624	124.44
431.846	97.44
432.068	102.44
432.29	93.44
432.512	108.44
432.734	119.44
432.956	140.44
433.178	133.44
433.4	128.44
433.622	137.44
433.844	137.44
434.066	117.44
434.287	104.44
434.509	97.44
434.731	109.44
434.953	114.44
435.175	127.44
435.397	114.44
435.618	124.44
435.84	106.44
436.062	103.44
436.284	129.44
436.505	130.44
436.727	130.44
436.949	138.44
437.17	136.44
437.392	127.44
437.614	121.44
437.835	99.44
438.057	97.44
438.278	106.44
438.5	129.44
438.721	126.44
438.943	136.44
439.165	131.44
439.386	120.44
439.608	134.44
439.829	123.44
440.05	134.44
440.272	138.44
440.493	151.44
440.715	142.44
440.936	139.44
441.158	135.44
441.379	137.44
441.6	134.44
441.822	131.44
442.043	140.44
442.264	121.44
442.486	140.44
442.707	144.44
442.928	135.44
443.149	133.44
443.371	136.44
443.592	134.44
443.813	148.44
444.034	136.44
444.255	124.44
444.476	140.44
444.698	135.44
444.919	147.44
445.14	284.44
445.361	196.44
445.582	146.44
445.803	153.44
446.024	130.44
446.245	148.44
446.466	143.44
446.687	150.44
446.908	144.44
447.129	125.44
447.35	150.44
447.571	154.44
447.792	140.44
448.013	144.44
448.234	143.44
448.455	140.44
448.675	133.44
448.896	138.44
449.117	146.44
449.338	134.44
449.559	133.44
449.779	133.44
450	123.44
450.221	121.44
450.442	140.44
450.662	131.44
450.883	132.44
451.104	138.44
451.324	123.44
451.545	115.44
451.766	122.44
451.986	133.44
452.207	141.44
452.428	118.44
452.648	106.44
452.869	122.44
453.089	107.44
453.31	112.44
453.53	95.44
453.751	94.44
453.971	105.44
454.192	107.44
454.412	112.44
454.633	102.44
454.853	106.44
455.073	127.44
455.294	125.44
455.514	122.44
455.734	126.44
455.955	118.44
456.175	115.44
456.395	104.44
456.616	98.44
456.836	114.44
457.056	100.44
457.276	111.44
457.497	114.44
457.717	120.44
457.937	109.44
458.157	112.44
458.377	100.44
458.598	100.44
458.818	98.44
459.038	97.44
459.258	80.44
459.478	84.44
459.698	85.44
459.918	95.44
460.138	118.44
460.358	118.44
460.578	125.44
460.798	122.44
461.018	121.44
461.238	118.44
461.458	119.44
461.678	116.44
461.898	123.44
462.118	111.44
462.338	94.44
462.558	111.44
462.777	101.44
462.997	105.44
463.217	99.44
463.437	112.44
463.657	107.44
463.876	113.44
464.096	114.44
464.316	96.44
464.536	118.44
464.755	115.44
464.975	116.44
465.195	116.44
465.414	126.44
465.634	117.44
465.854	113.44
466.073	120.44
466.293	139.44
466.512	122.44
466.732	131.44
466.951	132.44
467.171	140.44
467.391	126.44
467.61	133.44
467.829	124.44
468.049	128.44
468.268	126.44
468.488	141.44
468.707	131.44
468.927	134.44
469.146	119.44
469.365	151.44
469.585	140.44
469.804	133.44
470.023	132.44
470.243	149.44
470.462	127.44
470.681	148.44
470.901	142.44
471.12	131.44
471.339	139.44
471.558	148.44
471.777	142.44
471.997	138.44
472.216	134.44
472.435	113.44
472.654	113.44
472.873	116.44
473.092	113.44
473.311	125.44
473.53	126.44
473.749	136.44
473.968	126.44
474.187	128.44
474.406	119.44
474.625	122.44
474.844	135.44
475.063	138.44
475.282	139.44
475.501	115.44
475.72	126.44
475.939	112.44
476.158	132.44
476.377	114.44
476.596	122.44
476.814	125.44
477.033	118.44
477.252	109.44
477.471	119.44
477.69	127.44
477.908	126.44
478.127	143.44
478.346	139.44
478.564	144.44
478.783	125.44
479.002	138.44
479.22	144.44
479.439	127.44
479.658	124.44
479.876	116.44
480.095	107.44
480.313	112.44
480.532	110.44
480.751	105.44
480.969	101.44
481.188	89.44
481.406	82.44
481.624	87.44
481.843	87.44
482.061	102.44
482.28	110.44
482.498	107.44
482.717	112.44
482.935	126.44
483.153	150.44
483.372	139.44
483.59	158.44
483.808	140.44
484.027	132.44
484.245	123.44
484.463	147.44
484.681	141.44
484.9	141.44
485.118	123.44
485.336	138.44
485.554	115.44
485.772	92.44
485.99	109.44
486.209	86.44
486.427	107.44
486.645	102.44
486.863	131.44
487.081	146.44
487.299	134.44
487.517	154.44
487.735	168.44
487.953	181.44
488.171	184.44
488.389	165.44
488.607	163.44
488.825	150.44
489.043	139.44
489.261	142.44
489.479	138.44
489.696	138.44
489.914	136.44
490.132	154.44
490.35	143.44
490.568	159.44
490.786	178.44
491.003	162.44
491.221	186.44
491.439	203.44
491.657	193.44
491.874	201.44
492.092	225.44
492.31	220.44
492.527	222.44
492.745	192.44
492.963	201.44
493.18	190.44
493.398	196.44
493.615	190.44
493.833	175.44
494.05	169.44
494.268	179.44
494.485	178.44
494.703	183.44
494.92	172.44
495.138	178.44
495.355	169.44
495.573	169.44
495.79	167.44
496.008	186.44
496.225	169.44
496.442	168.44
496.66	167.44
496.877	165.44
497.094	176.44
497.312	157.44
497.529	154.44
497.746	149.44
497.963	143.44
498.181	147.44
498.398	137.44
498.615	125.44
498.832	111.44
499.049	113.44
499.267	107.44
499.484	136.44
499.701	127.44
499.918	139.44
500.135	132.44
500.352	159.44
500.569	143.44
500.786	145.44
501.003	122.44
501.22	135.44
501.437	128.44
501.654	127.44
501.871	120.44
502.088	136.44
502.305	138.44
502.522	123.44
502.739	133.44
502.956	141.44
503.172	121.44
503.389	141.44
503.606	122.44
503.823	118.44
504.04	134.44
504.256	119.44
504.473	122.44
504.69	124.44
504.907	123.44
505.123	118.44
505.34	132.44
505.557	126.44
505.773	125.44
505.99	128.44
506.207	126.44
506.423	112.44
506.64	112.44
506.856	122.44
507.073	108.44
507.289	117.44
507.506	120.44
507.722	105.44
507.939	118.44
508.155	118.44
508.372	120.44
508.588	111.44
508.805	119.44
509.021	113.44
509.238	116.44
509.454	106.44
509.67	101.44
509.887	91.44
510.103	111.44
510.319	95.44
510.536	86.44
510.752	98.44
510.968	77.44
511.184	86.44
511.401	84.44
511.617	90.44
511.833	79.44
