Data from Location2.07152019.Energy5.Lamp.07192019.3%Agarose_HRD10591_14-55-40-358.txt Node
Date: Fri Jul 19 14:55:40 EDT 2019
User: cochatt
Spectrometer: HR+D1059
Trigger mode: 1
Integration Time (sec): 1.000000E-1
Scans to average: 1
Electric dark correction enabled: true
Nonlinearity correction enabled: false
Boxcar width: 0
XAxis mode: Wavelengths
Number of Pixels in Spectrum: 2048
>>>>>Begin Spectral Data<<<<<
223.165	-9.38
223.4	-9.38
223.635	-9.38
223.869	-22.38
224.104	-20.38
224.338	-10.38
224.573	-28.38
224.808	-7.38
225.042	-7.38
225.277	-4.38
225.511	-0.38
225.746	-3.38
225.98	7.62
226.215	15.62
226.449	26.62
226.683	26.62
226.918	27.62
227.152	9.62
227.387	32.62
227.621	28.62
227.856	24.62
228.09	50.62
228.324	36.62
228.559	71.62
228.793	60.62
229.027	60.62
229.262	60.62
229.496	60.62
229.73	73.62
229.964	72.62
230.199	64.62
230.433	67.62
230.667	75.62
230.901	88.62
231.136	76.62
231.37	74.62
231.604	94.62
231.838	75.62
232.072	84.62
232.306	83.62
232.541	89.62
232.775	95.62
233.009	83.62
233.243	76.62
233.477	83.62
233.711	73.62
233.945	76.62
234.179	79.62
234.413	69.62
234.647	80.62
234.881	93.62
235.115	74.62
235.349	92.62
235.583	81.62
235.817	57.62
236.051	64.62
236.285	79.62
236.519	91.62
236.753	60.62
236.987	89.62
237.221	83.62
237.455	89.62
237.689	76.62
237.922	81.62
238.156	80.62
238.39	74.62
238.624	71.62
238.858	77.62
239.091	83.62
239.325	73.62
239.559	83.62
239.793	63.62
240.027	81.62
240.26	80.62
240.494	91.62
240.728	84.62
240.961	79.62
241.195	83.62
241.429	70.62
241.662	85.62
241.896	86.62
242.13	81.62
242.363	69.62
242.597	68.62
242.83	80.62
243.064	74.62
243.298	83.62
243.531	71.62
243.765	86.62
243.998	62.62
244.232	84.62
244.465	73.62
244.699	71.62
244.932	86.62
245.166	84.62
245.399	78.62
245.633	84.62
245.866	72.62
246.099	54.62
246.333	60.62
246.566	69.62
246.8	75.62
247.033	78.62
247.266	81.62
247.5	73.62
247.733	81.62
247.966	72.62
248.2	93.62
248.433	84.62
248.666	80.62
248.899	77.62
249.133	81.62
249.366	86.62
249.599	81.62
249.832	77.62
250.066	87.62
250.299	75.62
250.532	86.62
250.765	97.62
250.998	80.62
251.231	71.62
251.465	90.62
251.698	72.62
251.931	65.62
252.164	65.62
252.397	75.62
252.63	86.62
252.863	96.62
253.096	89.62
253.329	69.62
253.562	73.62
253.795	76.62
254.028	83.62
254.261	71.62
254.494	89.62
254.727	75.62
254.96	86.62
255.193	80.62
255.426	73.62
255.659	89.62
255.892	91.62
256.124	87.62
256.357	84.62
256.59	91.62
256.823	80.62
257.056	87.62
257.289	83.62
257.521	76.62
257.754	80.62
257.987	69.62
258.22	84.62
258.452	80.62
258.685	86.62
258.918	92.62
259.151	84.62
259.383	67.62
259.616	71.62
259.849	82.62
260.081	77.62
260.314	56.62
260.547	67.62
260.779	85.62
261.012	73.62
261.244	73.62
261.477	65.62
261.71	94.62
261.942	77.62
262.175	74.62
262.407	84.62
262.64	78.62
262.872	79.62
263.105	73.62
263.337	71.62
263.57	64.62
263.802	88.62
264.035	76.62
264.267	81.62
264.499	83.62
264.732	84.62
264.964	76.62
265.197	91.62
265.429	84.62
265.661	75.62
265.894	58.62
266.126	82.62
266.358	70.62
266.591	79.62
266.823	87.62
267.055	63.62
267.287	73.62
267.52	77.62
267.752	79.62
267.984	71.62
268.216	79.62
268.448	75.62
268.681	93.62
268.913	86.62
269.145	82.62
269.377	73.62
269.609	74.62
269.841	80.62
270.073	74.62
270.306	82.62
270.538	77.62
270.77	76.62
271.002	89.62
271.234	96.62
271.466	72.62
271.698	89.62
271.93	77.62
272.162	78.62
272.394	77.62
272.626	75.62
272.858	91.62
273.09	76.62
273.322	94.62
273.553	77.62
273.785	84.62
274.017	74.62
274.249	74.62
274.481	77.62
274.713	83.62
274.945	81.62
275.176	90.62
275.408	96.62
275.64	80.62
275.872	77.62
276.104	79.62
276.335	86.62
276.567	83.62
276.799	85.62
277.031	97.62
277.262	91.62
277.494	89.62
277.726	82.62
277.957	91.62
278.189	86.62
278.421	84.62
278.652	71.62
278.884	73.62
279.115	80.62
279.347	83.62
279.579	85.62
279.81	82.62
280.042	90.62
280.273	82.62
280.505	90.62
280.736	81.62
280.968	77.62
281.199	76.62
281.431	75.62
281.662	74.62
281.894	71.62
282.125	94.62
282.356	87.62
282.588	84.62
282.819	87.62
283.051	86.62
283.282	83.62
283.513	89.62
283.745	94.62
283.976	75.62
284.207	80.62
284.439	86.62
284.67	87.62
284.901	80.62
285.132	91.62
285.364	79.62
285.595	86.62
285.826	77.62
286.057	77.62
286.288	80.62
286.52	81.62
286.751	90.62
286.982	90.62
287.213	75.62
287.444	89.62
287.675	71.62
287.906	81.62
288.138	86.62
288.369	77.62
288.6	80.62
288.831	86.62
289.062	86.62
289.293	78.62
289.524	87.62
289.755	85.62
289.986	72.62
290.217	87.62
290.448	72.62
290.679	74.62
290.91	76.62
291.141	85.62
291.371	78.62
291.602	103.62
291.833	65.62
292.064	85.62
292.295	80.62
292.526	85.62
292.757	91.62
292.987	82.62
293.218	92.62
293.449	84.62
293.68	78.62
293.91	80.62
294.141	97.62
294.372	80.62
294.603	72.62
294.833	86.62
295.064	77.62
295.295	83.62
295.525	92.62
295.756	84.62
295.987	78.62
296.217	93.62
296.448	89.62
296.679	90.62
296.909	82.62
297.14	70.62
297.37	91.62
297.601	93.62
297.831	76.62
298.062	83.62
298.292	79.62
298.523	77.62
298.753	72.62
298.984	93.62
299.214	81.62
299.445	81.62
299.675	91.62
299.905	90.62
300.136	84.62
300.366	85.62
300.597	88.62
300.827	82.62
301.057	76.62
301.288	80.62
301.518	83.62
301.748	83.62
301.979	67.62
302.209	89.62
302.439	80.62
302.669	86.62
302.9	77.62
303.13	82.62
303.36	87.62
303.59	91.62
303.82	92.62
304.051	85.62
304.281	93.62
304.511	90.62
304.741	88.62
304.971	80.62
305.201	82.62
305.431	87.62
305.661	88.62
305.891	82.62
306.121	93.62
306.352	92.62
306.582	95.62
306.812	98.62
307.042	89.62
307.272	86.62
307.502	84.62
307.731	92.62
307.961	82.62
308.191	81.62
308.421	76.62
308.651	98.62
308.881	91.62
309.111	76.62
309.341	80.62
309.571	92.62
309.8	82.62
310.03	76.62
310.26	79.62
310.49	73.62
310.72	87.62
310.949	108.62
311.179	86.62
311.409	92.62
311.639	80.62
311.868	85.62
312.098	74.62
312.328	87.62
312.557	89.62
312.787	89.62
313.017	77.62
313.246	78.62
313.476	83.62
313.706	94.62
313.935	96.62
314.165	72.62
314.394	84.62
314.624	83.62
314.853	105.62
315.083	86.62
315.312	90.62
315.542	67.62
315.771	89.62
316.001	96.62
316.23	82.62
316.46	91.62
316.689	90.62
316.919	77.62
317.148	88.62
317.377	95.62
317.607	84.62
317.836	91.62
318.065	95.62
318.295	76.62
318.524	91.62
318.753	76.62
318.983	78.62
319.212	96.62
319.441	93.62
319.67	78.62
319.9	88.62
320.129	86.62
320.358	87.62
320.587	76.62
320.816	87.62
321.046	94.62
321.275	111.62
321.504	90.62
321.733	85.62
321.962	79.62
322.191	89.62
322.42	73.62
322.649	77.62
322.878	83.62
323.108	93.62
323.337	81.62
323.566	88.62
323.795	87.62
324.024	98.62
324.253	95.62
324.482	92.62
324.71	91.62
324.939	99.62
325.168	80.62
325.397	87.62
325.626	87.62
325.855	90.62
326.084	72.62
326.313	76.62
326.542	85.62
326.77	76.62
326.999	96.62
327.228	88.62
327.457	71.62
327.686	87.62
327.914	84.62
328.143	77.62
328.372	85.62
328.6	81.62
328.829	86.62
329.058	85.62
329.287	92.62
329.515	92.62
329.744	83.62
329.972	75.62
330.201	94.62
330.43	81.62
330.658	85.62
330.887	89.62
331.115	96.62
331.344	106.62
331.572	94.62
331.801	91.62
332.03	84.62
332.258	71.62
332.486	95.62
332.715	75.62
332.943	89.62
333.172	93.62
333.4	88.62
333.629	88.62
333.857	92.62
334.085	109.62
334.314	78.62
334.542	87.62
334.771	103.62
334.999	82.62
335.227	78.62
335.455	93.62
335.684	97.62
335.912	95.62
336.14	95.62
336.369	93.62
336.597	82.62
336.825	81.62
337.053	85.62
337.281	96.62
337.51	85.62
337.738	104.62
337.966	85.62
338.194	84.62
338.422	85.62
338.65	92.62
338.878	77.62
339.106	79.62
339.334	89.62
339.562	86.62
339.79	95.62
340.018	93.62
340.246	83.62
340.474	93.62
340.702	92.62
340.93	95.62
341.158	90.62
341.386	83.62
341.614	84.62
341.842	85.62
342.07	98.62
342.298	77.62
342.526	77.62
342.754	98.62
342.981	76.62
343.209	85.62
343.437	87.62
343.665	94.62
343.893	91.62
344.12	89.62
344.348	86.62
344.576	81.62
344.804	92.62
345.031	79.62
345.259	87.62
345.487	92.62
345.714	86.62
345.942	95.62
346.17	82.62
346.397	92.62
346.625	78.62
346.853	88.62
347.08	71.62
347.308	107.62
347.535	88.62
347.763	89.62
347.99	89.62
348.218	84.62
348.445	86.62
348.673	80.62
348.9	78.62
349.128	98.62
349.355	92.62
349.583	95.62
349.81	88.62
350.037	77.62
350.265	85.62
350.492	81.62
350.72	85.62
350.947	91.62
351.174	83.62
351.402	89.62
351.629	88.62
351.856	85.62
352.083	76.62
352.311	84.62
352.538	75.62
352.765	89.62
352.992	87.62
353.22	90.62
353.447	89.62
353.674	86.62
353.901	90.62
354.128	78.62
354.355	86.62
354.583	84.62
354.81	85.62
355.037	86.62
355.264	64.62
355.491	68.62
355.718	70.62
355.945	93.62
356.172	88.62
356.399	81.62
356.626	78.62
356.853	92.62
357.08	93.62
357.307	94.62
357.534	76.62
357.761	90.62
357.988	100.62
358.215	99.62
358.441	77.62
358.668	103.62
358.895	86.62
359.122	78.62
359.349	84.62
359.576	91.62
359.802	74.62
360.029	88.62
360.256	85.62
360.483	80.62
360.709	86.62
360.936	105.62
361.163	90.62
361.39	84.62
361.616	79.62
361.843	71.62
362.07	79.62
362.296	87.62
362.523	95.62
362.749	81.62
362.976	102.62
363.203	86.62
363.429	81.62
363.656	96.62
363.882	95.62
364.109	77.62
364.335	81.62
364.562	94.62
364.788	68.62
365.015	83.62
365.241	89.62
365.468	85.62
365.694	81.62
365.92	91.62
366.147	81.62
366.373	79.62
366.599	93.62
366.826	63.62
367.052	76.62
367.278	80.62
367.505	87.62
367.731	91.62
367.957	97.62
368.184	87.62
368.41	102.62
368.636	92.62
368.862	93.62
369.089	87.62
369.315	97.62
369.541	100.62
369.767	87.62
369.993	97.62
370.219	91.62
370.445	96.62
370.672	89.62
370.898	90.62
371.124	103.62
371.35	87.62
371.576	99.62
371.802	114.62
372.028	91.62
372.254	102.62
372.48	106.62
372.706	98.62
372.932	85.62
373.158	82.62
373.384	97.62
373.61	88.62
373.835	96.62
374.061	97.62
374.287	93.62
374.513	76.62
374.739	84.62
374.965	100.62
375.191	88.62
375.416	82.62
375.642	91.62
375.868	80.62
376.094	89.62
376.319	73.62
376.545	80.62
376.771	95.62
376.997	86.62
377.222	91.62
377.448	98.62
377.674	104.62
377.899	93.62
378.125	94.62
378.35	91.62
378.576	96.62
378.802	90.62
379.027	88.62
379.253	96.62
379.478	79.62
379.704	100.62
379.929	104.62
380.155	95.62
380.38	91.62
380.606	99.62
380.831	105.62
381.057	99.62
381.282	90.62
381.507	108.62
381.733	108.62
381.958	91.62
382.184	104.62
382.409	105.62
382.634	94.62
382.86	92.62
383.085	101.62
383.31	101.62
383.535	95.62
383.761	100.62
383.986	114.62
384.211	98.62
384.436	101.62
384.662	91.62
384.887	82.62
385.112	96.62
385.337	105.62
385.562	111.62
385.787	93.62
386.013	112.62
386.238	93.62
386.463	96.62
386.688	95.62
386.913	107.62
387.138	106.62
387.363	108.62
387.588	104.62
387.813	110.62
388.038	81.62
388.263	109.62
388.488	98.62
388.713	94.62
388.938	97.62
389.163	99.62
389.387	94.62
389.612	104.62
389.837	101.62
390.062	79.62
390.287	87.62
390.512	113.62
390.736	102.62
390.961	123.62
391.186	123.62
391.411	97.62
391.636	105.62
391.86	111.62
392.085	113.62
392.31	105.62
392.534	111.62
392.759	102.62
392.984	98.62
393.208	108.62
393.433	97.62
393.658	92.62
393.882	97.62
394.107	106.62
394.331	104.62
394.556	111.62
394.78	101.62
395.005	113.62
395.229	111.62
395.454	115.62
395.678	113.62
395.903	95.62
396.127	113.62
396.352	112.62
396.576	109.62
396.801	106.62
397.025	102.62
397.249	111.62
397.474	117.62
397.698	105.62
397.922	104.62
398.147	111.62
398.371	108.62
398.595	97.62
398.82	103.62
399.044	99.62
399.268	103.62
399.492	118.62
399.717	101.62
399.941	102.62
400.165	109.62
400.389	102.62
400.613	117.62
400.837	111.62
401.062	128.62
401.286	97.62
401.51	125.62
401.734	121.62
401.958	121.62
402.182	113.62
402.406	112.62
402.63	120.62
402.854	122.62
403.078	103.62
403.302	111.62
403.526	91.62
403.75	115.62
403.974	127.62
404.198	112.62
404.422	132.62
404.645	118.62
404.869	105.62
405.093	98.62
405.317	121.62
405.541	118.62
405.765	115.62
405.988	106.62
406.212	113.62
406.436	121.62
406.66	109.62
406.883	104.62
407.107	115.62
407.331	105.62
407.555	121.62
407.778	123.62
408.002	119.62
408.226	113.62
408.449	121.62
408.673	121.62
408.896	120.62
409.12	128.62
409.344	113.62
409.567	112.62
409.791	118.62
410.014	113.62
410.238	129.62
410.461	108.62
410.685	122.62
410.908	125.62
411.132	136.62
411.355	125.62
411.578	104.62
411.802	131.62
412.025	122.62
412.249	118.62
412.472	114.62
412.695	117.62
412.919	117.62
413.142	122.62
413.365	108.62
413.589	103.62
413.812	112.62
414.035	117.62
414.258	136.62
414.482	122.62
414.705	122.62
414.928	112.62
415.151	116.62
415.374	125.62
415.597	124.62
415.821	125.62
416.044	119.62
416.267	127.62
416.49	109.62
416.713	121.62
416.936	132.62
417.159	124.62
417.382	113.62
417.605	130.62
417.828	138.62
418.051	120.62
418.274	141.62
418.497	140.62
418.72	145.62
418.943	133.62
419.166	118.62
419.389	153.62
419.611	120.62
419.834	118.62
420.057	145.62
420.28	121.62
420.503	127.62
420.726	134.62
420.948	113.62
421.171	128.62
421.394	130.62
421.617	131.62
421.839	160.62
422.062	128.62
422.285	135.62
422.507	125.62
422.73	122.62
422.953	141.62
423.175	137.62
423.398	122.62
423.621	129.62
423.843	138.62
424.066	130.62
424.288	139.62
424.511	144.62
424.733	131.62
424.956	129.62
425.178	138.62
425.401	137.62
425.623	135.62
425.846	135.62
426.068	135.62
426.291	123.62
426.513	101.62
426.735	126.62
426.958	143.62
427.18	131.62
427.402	120.62
427.625	125.62
427.847	125.62
428.069	120.62
428.292	131.62
428.514	135.62
428.736	140.62
428.958	130.62
429.181	131.62
429.403	138.62
429.625	135.62
429.847	130.62
430.069	133.62
430.292	122.62
430.514	124.62
430.736	130.62
430.958	135.62
431.18	137.62
431.402	130.62
431.624	127.62
431.846	108.62
432.068	108.62
432.29	105.62
432.512	100.62
432.734	132.62
432.956	142.62
433.178	140.62
433.4	137.62
433.622	145.62
433.844	128.62
434.066	121.62
434.287	99.62
434.509	115.62
434.731	111.62
434.953	129.62
435.175	119.62
435.397	120.62
435.618	113.62
435.84	110.62
436.062	120.62
436.284	112.62
436.505	135.62
436.727	128.62
436.949	131.62
437.17	140.62
437.392	129.62
437.614	119.62
437.835	109.62
438.057	113.62
438.278	99.62
438.5	143.62
438.721	127.62
438.943	130.62
439.165	126.62
439.386	135.62
439.608	143.62
439.829	147.62
440.05	128.62
440.272	143.62
440.493	151.62
440.715	147.62
440.936	145.62
441.158	156.62
441.379	149.62
441.6	153.62
441.822	142.62
442.043	139.62
442.264	147.62
442.486	131.62
442.707	144.62
442.928	138.62
443.149	131.62
443.371	124.62
443.592	126.62
443.813	137.62
444.034	135.62
444.255	150.62
444.476	132.62
444.698	135.62
444.919	135.62
445.14	258.62
445.361	187.62
445.582	121.62
445.803	123.62
446.024	139.62
446.245	149.62
446.466	138.62
446.687	151.62
446.908	144.62
447.129	153.62
447.35	168.62
447.571	153.62
447.792	140.62
448.013	145.62
448.234	152.62
448.455	138.62
448.675	136.62
448.896	147.62
449.117	137.62
449.338	137.62
449.559	136.62
449.779	124.62
450	136.62
450.221	147.62
450.442	138.62
450.662	133.62
450.883	132.62
451.104	139.62
451.324	132.62
451.545	129.62
451.766	129.62
451.986	116.62
452.207	143.62
452.428	126.62
452.648	114.62
452.869	120.62
453.089	116.62
453.31	114.62
453.53	100.62
453.751	105.62
453.971	106.62
454.192	104.62
454.412	102.62
454.633	135.62
454.853	123.62
455.073	119.62
455.294	119.62
455.514	119.62
455.734	124.62
455.955	131.62
456.175	106.62
456.395	123.62
456.616	104.62
456.836	110.62
457.056	112.62
457.276	113.62
457.497	108.62
457.717	102.62
457.937	87.62
458.157	115.62
458.377	102.62
458.598	106.62
458.818	113.62
459.038	90.62
459.258	84.62
459.478	90.62
459.698	97.62
459.918	97.62
460.138	121.62
460.358	117.62
460.578	100.62
460.798	120.62
461.018	116.62
461.238	123.62
461.458	114.62
461.678	111.62
461.898	121.62
462.118	118.62
462.338	111.62
462.558	111.62
462.777	99.62
462.997	113.62
463.217	114.62
463.437	112.62
463.657	109.62
463.876	122.62
464.096	111.62
464.316	111.62
464.536	120.62
464.755	130.62
464.975	123.62
465.195	126.62
465.414	124.62
465.634	128.62
465.854	123.62
466.073	106.62
466.293	115.62
466.512	128.62
466.732	130.62
466.951	138.62
467.171	135.62
467.391	125.62
467.61	132.62
467.829	132.62
468.049	144.62
468.268	130.62
468.488	133.62
468.707	123.62
468.927	141.62
469.146	141.62
469.365	144.62
469.585	136.62
469.804	140.62
470.023	131.62
470.243	149.62
470.462	132.62
470.681	142.62
470.901	133.62
471.12	132.62
471.339	125.62
471.558	142.62
471.777	129.62
471.997	146.62
472.216	140.62
472.435	110.62
472.654	115.62
472.873	112.62
473.092	124.62
473.311	133.62
473.53	128.62
473.749	125.62
473.968	141.62
474.187	113.62
474.406	108.62
474.625	111.62
474.844	135.62
475.063	135.62
475.282	120.62
475.501	124.62
475.72	125.62
475.939	142.62
476.158	125.62
476.377	127.62
476.596	120.62
476.814	92.62
477.033	113.62
477.252	115.62
477.471	116.62
477.69	135.62
477.908	135.62
478.127	139.62
478.346	134.62
478.564	121.62
478.783	129.62
479.002	145.62
479.22	137.62
479.439	120.62
479.658	137.62
479.876	118.62
480.095	116.62
480.313	122.62
480.532	117.62
480.751	113.62
480.969	104.62
481.188	98.62
481.406	96.62
481.624	89.62
481.843	90.62
482.061	95.62
482.28	114.62
482.498	104.62
482.717	118.62
482.935	121.62
483.153	146.62
483.372	139.62
483.59	132.62
483.808	130.62
484.027	132.62
484.245	117.62
484.463	136.62
484.681	163.62
484.9	138.62
485.118	127.62
485.336	125.62
485.554	113.62
485.772	87.62
485.99	92.62
486.209	104.62
486.427	116.62
486.645	118.62
486.863	141.62
487.081	139.62
487.299	120.62
487.517	126.62
487.735	170.62
487.953	183.62
488.171	191.62
488.389	177.62
488.607	161.62
488.825	136.62
489.043	139.62
489.261	140.62
489.479	125.62
489.696	136.62
489.914	145.62
490.132	159.62
490.35	160.62
490.568	164.62
490.786	169.62
491.003	177.62
491.221	173.62
491.439	185.62
491.657	179.62
491.874	195.62
492.092	225.62
492.31	229.62
492.527	237.62
492.745	218.62
492.963	185.62
493.18	175.62
493.398	176.62
493.615	198.62
493.833	186.62
494.05	163.62
494.268	172.62
494.485	164.62
494.703	180.62
494.92	153.62
495.138	170.62
495.355	183.62
495.573	181.62
495.79	179.62
496.008	181.62
496.225	174.62
496.442	165.62
496.66	174.62
496.877	161.62
497.094	154.62
497.312	180.62
497.529	163.62
497.746	150.62
497.963	148.62
498.181	127.62
498.398	135.62
498.615	115.62
498.832	126.62
499.049	123.62
499.267	115.62
499.484	137.62
499.701	135.62
499.918	136.62
500.135	124.62
500.352	137.62
500.569	128.62
500.786	141.62
501.003	143.62
501.22	152.62
501.437	151.62
501.654	131.62
501.871	133.62
502.088	134.62
502.305	140.62
502.522	117.62
502.739	125.62
502.956	120.62
503.172	129.62
503.389	116.62
503.606	105.62
503.823	132.62
504.04	139.62
504.256	116.62
504.473	99.62
504.69	106.62
504.907	123.62
505.123	126.62
505.34	115.62
505.557	122.62
505.773	125.62
505.99	108.62
506.207	127.62
506.423	111.62
506.64	122.62
506.856	115.62
507.073	120.62
507.289	112.62
507.506	108.62
507.722	128.62
507.939	123.62
508.155	127.62
508.372	119.62
508.588	124.62
508.805	111.62
509.021	101.62
509.238	106.62
509.454	114.62
509.67	112.62
509.887	84.62
510.103	93.62
510.319	109.62
510.536	96.62
510.752	92.62
510.968	83.62
511.184	86.62
511.401	87.62
511.617	93.62
