Data from Location2.07152019.Energy5.Lamp.07192019.3%Agarose_HRD10591_14-56-16-359.txt Node
Date: Fri Jul 19 14:56:16 EDT 2019
User: cochatt
Spectrometer: HR+D1059
Trigger mode: 1
Integration Time (sec): 1.000000E-1
Scans to average: 1
Electric dark correction enabled: true
Nonlinearity correction enabled: false
Boxcar width: 0
XAxis mode: Wavelengths
Number of Pixels in Spectrum: 2048
>>>>>Begin Spectral Data<<<<<
223.165	-5.06
223.4	-5.06
223.635	-5.06
223.869	-19.06
224.104	-11.06
224.338	-21.06
224.573	-9.06
224.808	-17.06
225.042	-4.06
225.277	8.94
225.511	-2.06
225.746	15.94
225.98	-12.06
226.215	10.94
226.449	2.94
226.683	21.94
226.918	23.94
227.152	15.94
227.387	38.94
227.621	30.94
227.856	59.94
228.09	53.94
228.324	66.94
228.559	72.94
228.793	45.94
229.027	60.94
229.262	62.94
229.496	73.94
229.73	81.94
229.964	73.94
230.199	77.94
230.433	80.94
230.667	88.94
230.901	79.94
231.136	77.94
231.37	84.94
231.604	96.94
231.838	83.94
232.072	100.94
232.306	84.94
232.541	95.94
232.775	91.94
233.009	91.94
233.243	80.94
233.477	86.94
233.711	102.94
233.945	95.94
234.179	90.94
234.413	91.94
234.647	76.94
234.881	80.94
235.115	87.94
235.349	82.94
235.583	98.94
235.817	87.94
236.051	87.94
236.285	94.94
236.519	88.94
236.753	91.94
236.987	70.94
237.221	72.94
237.455	96.94
237.689	102.94
237.922	80.94
238.156	66.94
238.39	89.94
238.624	82.94
238.858	84.94
239.091	91.94
239.325	79.94
239.559	73.94
239.793	77.94
240.027	84.94
240.26	82.94
240.494	81.94
240.728	87.94
240.961	85.94
241.195	89.94
241.429	81.94
241.662	86.94
241.896	87.94
242.13	83.94
242.363	71.94
242.597	83.94
242.83	85.94
243.064	75.94
243.298	74.94
243.531	70.94
243.765	85.94
243.998	84.94
244.232	86.94
244.465	75.94
244.699	78.94
244.932	92.94
245.166	78.94
245.399	78.94
245.633	84.94
245.866	86.94
246.099	80.94
246.333	80.94
246.566	75.94
246.8	101.94
247.033	73.94
247.266	86.94
247.5	85.94
247.733	78.94
247.966	95.94
248.2	70.94
248.433	80.94
248.666	99.94
248.899	89.94
249.133	82.94
249.366	107.94
249.599	76.94
249.832	79.94
250.066	84.94
250.299	75.94
250.532	81.94
250.765	74.94
250.998	72.94
251.231	86.94
251.465	90.94
251.698	88.94
251.931	80.94
252.164	77.94
252.397	76.94
252.63	92.94
252.863	67.94
253.096	85.94
253.329	75.94
253.562	86.94
253.795	77.94
254.028	96.94
254.261	83.94
254.494	79.94
254.727	77.94
254.96	92.94
255.193	86.94
255.426	82.94
255.659	86.94
255.892	86.94
256.124	73.94
256.357	93.94
256.59	91.94
256.823	87.94
257.056	77.94
257.289	81.94
257.521	70.94
257.754	90.94
257.987	89.94
258.22	90.94
258.452	81.94
258.685	80.94
258.918	87.94
259.151	94.94
259.383	80.94
259.616	85.94
259.849	83.94
260.081	85.94
260.314	104.94
260.547	95.94
260.779	90.94
261.012	85.94
261.244	77.94
261.477	86.94
261.71	87.94
261.942	85.94
262.175	84.94
262.407	82.94
262.64	90.94
262.872	88.94
263.105	89.94
263.337	78.94
263.57	89.94
263.802	88.94
264.035	99.94
264.267	90.94
264.499	87.94
264.732	86.94
264.964	85.94
265.197	95.94
265.429	95.94
265.661	96.94
265.894	97.94
266.126	85.94
266.358	103.94
266.591	90.94
266.823	87.94
267.055	83.94
267.287	103.94
267.52	87.94
267.752	74.94
267.984	100.94
268.216	84.94
268.448	102.94
268.681	76.94
268.913	87.94
269.145	87.94
269.377	100.94
269.609	87.94
269.841	80.94
270.073	84.94
270.306	86.94
270.538	80.94
270.77	76.94
271.002	111.94
271.234	102.94
271.466	93.94
271.698	81.94
271.93	82.94
272.162	89.94
272.394	99.94
272.626	97.94
272.858	101.94
273.09	92.94
273.322	91.94
273.553	84.94
273.785	104.94
274.017	103.94
274.249	95.94
274.481	92.94
274.713	81.94
274.945	85.94
275.176	80.94
275.408	90.94
275.64	86.94
275.872	79.94
276.104	95.94
276.335	119.94
276.567	81.94
276.799	81.94
277.031	94.94
277.262	82.94
277.494	83.94
277.726	94.94
277.957	87.94
278.189	91.94
278.421	81.94
278.652	85.94
278.884	88.94
279.115	80.94
279.347	95.94
279.579	91.94
279.81	92.94
280.042	92.94
280.273	94.94
280.505	92.94
280.736	88.94
280.968	87.94
281.199	92.94
281.431	91.94
281.662	102.94
281.894	87.94
282.125	90.94
282.356	93.94
282.588	93.94
282.819	91.94
283.051	85.94
283.282	90.94
283.513	85.94
283.745	86.94
283.976	87.94
284.207	85.94
284.439	78.94
284.67	89.94
284.901	91.94
285.132	71.94
285.364	69.94
285.595	97.94
285.826	93.94
286.057	82.94
286.288	72.94
286.52	88.94
286.751	81.94
286.982	87.94
287.213	97.94
287.444	86.94
287.675	100.94
287.906	91.94
288.138	98.94
288.369	81.94
288.6	77.94
288.831	85.94
289.062	80.94
289.293	78.94
289.524	90.94
289.755	95.94
289.986	89.94
290.217	86.94
290.448	85.94
290.679	81.94
290.91	89.94
291.141	86.94
291.371	100.94
291.602	88.94
291.833	80.94
292.064	94.94
292.295	93.94
292.526	87.94
292.757	83.94
292.987	102.94
293.218	93.94
293.449	94.94
293.68	95.94
293.91	79.94
294.141	83.94
294.372	80.94
294.603	86.94
294.833	85.94
295.064	78.94
295.295	87.94
295.525	72.94
295.756	89.94
295.987	92.94
296.217	89.94
296.448	92.94
296.679	95.94
296.909	88.94
297.14	101.94
297.37	90.94
297.601	75.94
297.831	90.94
298.062	92.94
298.292	96.94
298.523	98.94
298.753	91.94
298.984	115.94
299.214	103.94
299.445	91.94
299.675	91.94
299.905	90.94
300.136	81.94
300.366	90.94
300.597	89.94
300.827	91.94
301.057	85.94
301.288	81.94
301.518	105.94
301.748	89.94
301.979	86.94
302.209	82.94
302.439	92.94
302.669	84.94
302.9	85.94
303.13	93.94
303.36	88.94
303.59	78.94
303.82	89.94
304.051	68.94
304.281	87.94
304.511	94.94
304.741	94.94
304.971	104.94
305.201	90.94
305.431	84.94
305.661	90.94
305.891	91.94
306.121	87.94
306.352	90.94
306.582	94.94
306.812	97.94
307.042	85.94
307.272	87.94
307.502	80.94
307.731	87.94
307.961	92.94
308.191	88.94
308.421	81.94
308.651	92.94
308.881	104.94
309.111	88.94
309.341	74.94
309.571	96.94
309.8	88.94
310.03	94.94
310.26	92.94
310.49	92.94
310.72	79.94
310.949	86.94
311.179	100.94
311.409	92.94
311.639	82.94
311.868	95.94
312.098	95.94
312.328	106.94
312.557	104.94
312.787	85.94
313.017	91.94
313.246	94.94
313.476	87.94
313.706	91.94
313.935	81.94
314.165	92.94
314.394	87.94
314.624	81.94
314.853	88.94
315.083	91.94
315.312	86.94
315.542	101.94
315.771	94.94
316.001	87.94
316.23	101.94
316.46	81.94
316.689	92.94
316.919	90.94
317.148	96.94
317.377	99.94
317.607	85.94
317.836	87.94
318.065	89.94
318.295	89.94
318.524	81.94
318.753	98.94
318.983	91.94
319.212	80.94
319.441	90.94
319.67	91.94
319.9	80.94
320.129	90.94
320.358	103.94
320.587	91.94
320.816	101.94
321.046	91.94
321.275	94.94
321.504	101.94
321.733	106.94
321.962	91.94
322.191	89.94
322.42	100.94
322.649	112.94
322.878	93.94
323.108	103.94
323.337	87.94
323.566	85.94
323.795	68.94
324.024	87.94
324.253	95.94
324.482	94.94
324.71	81.94
324.939	79.94
325.168	83.94
325.397	92.94
325.626	99.94
325.855	94.94
326.084	89.94
326.313	108.94
326.542	94.94
326.77	86.94
326.999	87.94
327.228	71.94
327.457	102.94
327.686	83.94
327.914	93.94
328.143	87.94
328.372	96.94
328.6	75.94
328.829	89.94
329.058	90.94
329.287	93.94
329.515	80.94
329.744	94.94
329.972	96.94
330.201	87.94
330.43	85.94
330.658	97.94
330.887	95.94
331.115	84.94
331.344	83.94
331.572	105.94
331.801	85.94
332.03	87.94
332.258	84.94
332.486	87.94
332.715	85.94
332.943	93.94
333.172	88.94
333.4	87.94
333.629	92.94
333.857	91.94
334.085	80.94
334.314	99.94
334.542	87.94
334.771	95.94
334.999	93.94
335.227	88.94
335.455	95.94
335.684	103.94
335.912	91.94
336.14	81.94
336.369	91.94
336.597	93.94
336.825	87.94
337.053	81.94
337.281	96.94
337.51	106.94
337.738	102.94
337.966	82.94
338.194	96.94
338.422	90.94
338.65	95.94
338.878	89.94
339.106	100.94
339.334	91.94
339.562	100.94
339.79	93.94
340.018	97.94
340.246	97.94
340.474	94.94
340.702	94.94
340.93	95.94
341.158	86.94
341.386	92.94
341.614	92.94
341.842	86.94
342.07	90.94
342.298	85.94
342.526	80.94
342.754	91.94
342.981	91.94
343.209	88.94
343.437	81.94
343.665	108.94
343.893	101.94
344.12	81.94
344.348	93.94
344.576	86.94
344.804	81.94
345.031	92.94
345.259	84.94
345.487	91.94
345.714	90.94
345.942	90.94
346.17	95.94
346.397	78.94
346.625	95.94
346.853	89.94
347.08	76.94
347.308	97.94
347.535	104.94
347.763	94.94
347.99	79.94
348.218	105.94
348.445	79.94
348.673	80.94
348.9	95.94
349.128	92.94
349.355	99.94
349.583	85.94
349.81	94.94
350.037	101.94
350.265	86.94
350.492	98.94
350.72	80.94
350.947	84.94
351.174	98.94
351.402	94.94
351.629	75.94
351.856	92.94
352.083	81.94
352.311	89.94
352.538	85.94
352.765	82.94
352.992	78.94
353.22	88.94
353.447	86.94
353.674	107.94
353.901	89.94
354.128	102.94
354.355	91.94
354.583	85.94
354.81	83.94
355.037	89.94
355.264	92.94
355.491	95.94
355.718	90.94
355.945	81.94
356.172	83.94
356.399	95.94
356.626	85.94
356.853	87.94
357.08	87.94
357.307	91.94
357.534	89.94
357.761	87.94
357.988	88.94
358.215	81.94
358.441	87.94
358.668	87.94
358.895	94.94
359.122	95.94
359.349	90.94
359.576	86.94
359.802	101.94
360.029	99.94
360.256	100.94
360.483	94.94
360.709	92.94
360.936	85.94
361.163	89.94
361.39	82.94
361.616	99.94
361.843	94.94
362.07	105.94
362.296	88.94
362.523	81.94
362.749	94.94
362.976	87.94
363.203	89.94
363.429	87.94
363.656	87.94
363.882	84.94
364.109	101.94
364.335	94.94
364.562	88.94
364.788	86.94
365.015	87.94
365.241	97.94
365.468	96.94
365.694	100.94
365.92	89.94
366.147	97.94
366.373	86.94
366.599	93.94
366.826	91.94
367.052	102.94
367.278	81.94
367.505	97.94
367.731	99.94
367.957	94.94
368.184	80.94
368.41	105.94
368.636	85.94
368.862	85.94
369.089	89.94
369.315	93.94
369.541	100.94
369.767	100.94
369.993	101.94
370.219	100.94
370.445	94.94
370.672	96.94
370.898	101.94
371.124	95.94
371.35	110.94
371.576	109.94
371.802	90.94
372.028	107.94
372.254	105.94
372.48	105.94
372.706	97.94
372.932	98.94
373.158	87.94
373.384	89.94
373.61	101.94
373.835	101.94
374.061	83.94
374.287	82.94
374.513	102.94
374.739	102.94
374.965	100.94
375.191	101.94
375.416	105.94
375.642	98.94
375.868	87.94
376.094	101.94
376.319	103.94
376.545	112.94
376.771	96.94
376.997	96.94
377.222	106.94
377.448	106.94
377.674	89.94
377.899	105.94
378.125	96.94
378.35	101.94
378.576	101.94
378.802	102.94
379.027	100.94
379.253	96.94
379.478	98.94
379.704	93.94
379.929	98.94
380.155	96.94
380.38	96.94
380.606	102.94
380.831	99.94
381.057	105.94
381.282	101.94
381.507	96.94
381.733	100.94
381.958	116.94
382.184	104.94
382.409	115.94
382.634	98.94
382.86	94.94
383.085	103.94
383.31	110.94
383.535	93.94
383.761	100.94
383.986	106.94
384.211	101.94
384.436	123.94
384.662	99.94
384.887	104.94
385.112	107.94
385.337	105.94
385.562	111.94
385.787	103.94
386.013	98.94
386.238	113.94
386.463	97.94
386.688	100.94
386.913	101.94
387.138	104.94
387.363	98.94
387.588	105.94
387.813	107.94
388.038	111.94
388.263	98.94
388.488	108.94
388.713	98.94
388.938	107.94
389.163	102.94
389.387	118.94
389.612	116.94
389.837	103.94
390.062	102.94
390.287	95.94
390.512	104.94
390.736	104.94
390.961	108.94
391.186	113.94
391.411	100.94
391.636	107.94
391.86	111.94
392.085	118.94
392.31	98.94
392.534	111.94
392.759	106.94
392.984	115.94
393.208	108.94
393.433	119.94
393.658	109.94
393.882	117.94
394.107	98.94
394.331	110.94
394.556	111.94
394.78	108.94
395.005	107.94
395.229	115.94
395.454	113.94
395.678	110.94
395.903	120.94
396.127	115.94
396.352	115.94
396.576	102.94
396.801	108.94
397.025	89.94
397.249	101.94
397.474	118.94
397.698	108.94
397.922	110.94
398.147	112.94
398.371	95.94
398.595	103.94
398.82	110.94
399.044	114.94
399.268	117.94
399.492	104.94
399.717	119.94
399.941	123.94
400.165	111.94
400.389	121.94
400.613	122.94
400.837	117.94
401.062	120.94
401.286	111.94
401.51	118.94
401.734	117.94
401.958	121.94
402.182	109.94
402.406	117.94
402.63	112.94
402.854	125.94
403.078	113.94
403.302	125.94
403.526	111.94
403.75	115.94
403.974	123.94
404.198	117.94
404.422	116.94
404.645	131.94
404.869	129.94
405.093	126.94
405.317	117.94
405.541	125.94
405.765	124.94
405.988	123.94
406.212	110.94
406.436	121.94
406.66	127.94
406.883	111.94
407.107	108.94
407.331	124.94
407.555	117.94
407.778	127.94
408.002	120.94
408.226	132.94
408.449	123.94
408.673	124.94
408.896	120.94
409.12	121.94
409.344	128.94
409.567	128.94
409.791	124.94
410.014	138.94
410.238	143.94
410.461	127.94
410.685	115.94
410.908	128.94
411.132	127.94
411.355	142.94
411.578	135.94
411.802	120.94
412.025	122.94
412.249	119.94
412.472	114.94
412.695	130.94
412.919	113.94
413.142	117.94
413.365	123.94
413.589	132.94
413.812	133.94
414.035	138.94
414.258	127.94
414.482	122.94
414.705	137.94
414.928	129.94
415.151	131.94
415.374	129.94
415.597	145.94
415.821	135.94
416.044	134.94
416.267	139.94
416.49	139.94
416.713	130.94
416.936	136.94
417.159	140.94
417.382	121.94
417.605	124.94
417.828	140.94
418.051	129.94
418.274	125.94
418.497	123.94
418.72	133.94
418.943	133.94
419.166	139.94
419.389	140.94
419.611	149.94
419.834	126.94
420.057	139.94
420.28	130.94
420.503	144.94
420.726	121.94
420.948	145.94
421.171	115.94
421.394	128.94
421.617	148.94
421.839	150.94
422.062	142.94
422.285	139.94
422.507	144.94
422.73	123.94
422.953	139.94
423.175	117.94
423.398	127.94
423.621	132.94
423.843	127.94
424.066	133.94
424.288	145.94
424.511	158.94
424.733	136.94
424.956	138.94
425.178	141.94
425.401	136.94
425.623	142.94
425.846	135.94
426.068	132.94
426.291	145.94
426.513	142.94
426.735	135.94
426.958	136.94
427.18	139.94
427.402	129.94
427.625	128.94
427.847	126.94
428.069	127.94
428.292	128.94
428.514	139.94
428.736	124.94
428.958	120.94
429.181	108.94
429.403	124.94
429.625	133.94
429.847	129.94
430.069	127.94
430.292	130.94
430.514	136.94
430.736	118.94
430.958	134.94
431.18	133.94
431.402	127.94
431.624	113.94
431.846	107.94
432.068	87.94
432.29	101.94
432.512	124.94
432.734	135.94
432.956	136.94
433.178	149.94
433.4	137.94
433.622	132.94
433.844	136.94
434.066	123.94
434.287	104.94
434.509	110.94
434.731	106.94
434.953	126.94
435.175	133.94
435.397	118.94
435.618	123.94
435.84	122.94
436.062	113.94
436.284	131.94
436.505	131.94
436.727	120.94
436.949	145.94
437.17	135.94
437.392	155.94
437.614	120.94
437.835	113.94
438.057	106.94
438.278	117.94
438.5	129.94
438.721	153.94
438.943	134.94
439.165	142.94
439.386	142.94
439.608	148.94
439.829	126.94
440.05	143.94
440.272	149.94
440.493	139.94
440.715	136.94
440.936	142.94
441.158	142.94
441.379	135.94
441.6	152.94
441.822	165.94
442.043	149.94
442.264	148.94
442.486	129.94
442.707	144.94
442.928	143.94
443.149	159.94
443.371	155.94
443.592	139.94
443.813	140.94
444.034	139.94
444.255	148.94
444.476	140.94
444.698	146.94
444.919	168.94
445.14	268.94
445.361	199.94
445.582	156.94
445.803	166.94
446.024	156.94
446.245	145.94
446.466	146.94
446.687	166.94
446.908	168.94
447.129	146.94
447.35	151.94
447.571	159.94
447.792	146.94
448.013	163.94
448.234	147.94
448.455	159.94
448.675	141.94
448.896	136.94
449.117	140.94
449.338	136.94
449.559	136.94
449.779	129.94
450	135.94
450.221	139.94
450.442	146.94
450.662	131.94
450.883	137.94
451.104	141.94
451.324	127.94
451.545	152.94
451.766	129.94
451.986	128.94
452.207	130.94
452.428	142.94
452.648	124.94
452.869	119.94
453.089	125.94
453.31	120.94
453.53	110.94
453.751	110.94
453.971	97.94
454.192	117.94
454.412	126.94
454.633	105.94
454.853	108.94
455.073	127.94
455.294	139.94
455.514	126.94
455.734	117.94
455.955	117.94
456.175	122.94
456.395	116.94
456.616	118.94
456.836	107.94
457.056	106.94
457.276	109.94
457.497	115.94
457.717	116.94
457.937	120.94
458.157	117.94
458.377	110.94
458.598	97.94
458.818	96.94
459.038	86.94
459.258	90.94
459.478	93.94
459.698	90.94
459.918	98.94
460.138	121.94
460.358	140.94
460.578	99.94
460.798	112.94
461.018	112.94
461.238	121.94
461.458	115.94
461.678	117.94
461.898	121.94
462.118	126.94
462.338	124.94
462.558	122.94
462.777	111.94
462.997	128.94
463.217	106.94
463.437	117.94
463.657	105.94
463.876	107.94
464.096	106.94
464.316	125.94
464.536	96.94
464.755	115.94
464.975	126.94
465.195	122.94
465.414	116.94
465.634	140.94
465.854	124.94
466.073	140.94
466.293	127.94
466.512	121.94
466.732	113.94
466.951	130.94
467.171	149.94
467.391	140.94
467.61	131.94
467.829	142.94
468.049	151.94
468.268	139.94
468.488	152.94
468.707	133.94
468.927	128.94
469.146	135.94
469.365	143.94
469.585	129.94
469.804	153.94
470.023	149.94
470.243	146.94
470.462	147.94
470.681	145.94
470.901	143.94
471.12	137.94
471.339	150.94
471.558	143.94
471.777	142.94
471.997	146.94
472.216	140.94
472.435	120.94
472.654	111.94
472.873	112.94
473.092	112.94
473.311	129.94
473.53	133.94
473.749	139.94
473.968	141.94
474.187	125.94
474.406	136.94
474.625	135.94
474.844	135.94
475.063	138.94
475.282	115.94
475.501	129.94
475.72	133.94
475.939	131.94
476.158	126.94
476.377	147.94
476.596	128.94
476.814	118.94
477.033	123.94
477.252	123.94
477.471	125.94
477.69	135.94
477.908	131.94
478.127	136.94
478.346	141.94
478.564	137.94
478.783	145.94
479.002	132.94
479.22	133.94
479.439	144.94
479.658	120.94
479.876	125.94
480.095	97.94
480.313	110.94
480.532	122.94
480.751	106.94
480.969	118.94
481.188	99.94
481.406	96.94
481.624	86.94
481.843	88.94
482.061	99.94
482.28	118.94
482.498	123.94
482.717	105.94
482.935	127.94
483.153	143.94
483.372	163.94
483.59	158.94
483.808	148.94
484.027	126.94
484.245	127.94
484.463	141.94
484.681	160.94
484.9	145.94
485.118	139.94
485.336	127.94
485.554	108.94
485.772	111.94
485.99	109.94
486.209	121.94
486.427	127.94
486.645	119.94
486.863	141.94
487.081	155.94
487.299	146.94
487.517	134.94
487.735	176.94
487.953	173.94
488.171	183.94
488.389	156.94
488.607	155.94
488.825	141.94
489.043	143.94
489.261	115.94
489.479	128.94
489.696	151.94
489.914	129.94
490.132	141.94
490.35	155.94
490.568	166.94
490.786	168.94
491.003	185.94
491.221	199.94
491.439	188.94
491.657	192.94
491.874	209.94
492.092	225.94
492.31	218.94
492.527	227.94
492.745	193.94
492.963	199.94
493.18	197.94
493.398	177.94
493.615	181.94
493.833	167.94
494.05	181.94
494.268	176.94
494.485	175.94
494.703	177.94
494.92	178.94
495.138	176.94
495.355	163.94
495.573	181.94
495.79	175.94
496.008	176.94
496.225	179.94
496.442	188.94
496.66	167.94
496.877	172.94
497.094	160.94
497.312	172.94
497.529	160.94
497.746	151.94
497.963	125.94
498.181	131.94
498.398	133.94
498.615	130.94
498.832	125.94
499.049	124.94
499.267	124.94
499.484	132.94
499.701	140.94
499.918	133.94
500.135	150.94
500.352	147.94
500.569	161.94
500.786	147.94
501.003	143.94
501.22	155.94
501.437	125.94
501.654	151.94
501.871	135.94
502.088	134.94
502.305	127.94
502.522	158.94
502.739	157.94
502.956	145.94
503.172	135.94
503.389	112.94
503.606	118.94
503.823	133.94
504.04	132.94
504.256	118.94
504.473	128.94
504.69	131.94
504.907	117.94
505.123	129.94
505.34	130.94
505.557	124.94
505.773	121.94
505.99	109.94
506.207	133.94
506.423	134.94
506.64	125.94
506.856	114.94
507.073	109.94
507.289	127.94
507.506	120.94
507.722	129.94
507.939	123.94
508.155	126.94
508.372	110.94
508.588	117.94
508.805	119.94
509.021	97.94
509.238	102.94
509.454	94.94
509.67	101.94
509.887	104.94
510.103	95.94
510.319	90.94
