Data from Location2.07152019.Energy5.Lamp.07192019.3%Agarose_HRD10591_14-58-22-359.txt Node
Date: Fri Jul 19 14:58:22 EDT 2019
User: cochatt
Spectrometer: HR+D1059
Trigger mode: 1
Integration Time (sec): 1.000000E-1
Scans to average: 1
Electric dark correction enabled: true
Nonlinearity correction enabled: false
Boxcar width: 0
XAxis mode: Wavelengths
Number of Pixels in Spectrum: 2048
>>>>>Begin Spectral Data<<<<<
223.165	-13.19
223.4	-13.19
223.635	-13.19
223.869	-11.19
224.104	-10.19
224.338	-19.19
224.573	-15.19
224.808	-7.19
225.042	-10.19
225.277	-7.19
225.511	-1.19
225.746	-7.19
225.98	-4.19
226.215	13.81
226.449	12.81
226.683	30.81
226.918	18.81
227.152	29.81
227.387	27.81
227.621	28.81
227.856	31.81
228.09	45.81
228.324	49.81
228.559	43.81
228.793	62.81
229.027	70.81
229.262	67.81
229.496	65.81
229.73	65.81
229.964	66.81
230.199	66.81
230.433	86.81
230.667	64.81
230.901	77.81
231.136	72.81
231.37	86.81
231.604	77.81
231.838	82.81
232.072	69.81
232.306	86.81
232.541	79.81
232.775	90.81
233.009	83.81
233.243	82.81
233.477	90.81
233.711	76.81
233.945	70.81
234.179	84.81
234.413	86.81
234.647	78.81
234.881	94.81
235.115	93.81
235.349	86.81
235.583	92.81
235.817	70.81
236.051	68.81
236.285	81.81
236.519	71.81
236.753	83.81
236.987	81.81
237.221	78.81
237.455	69.81
237.689	94.81
237.922	84.81
238.156	81.81
238.39	92.81
238.624	59.81
238.858	67.81
239.091	74.81
239.325	74.81
239.559	69.81
239.793	77.81
240.027	73.81
240.26	89.81
240.494	79.81
240.728	72.81
240.961	69.81
241.195	66.81
241.429	77.81
241.662	91.81
241.896	73.81
242.13	77.81
242.363	77.81
242.597	85.81
242.83	76.81
243.064	75.81
243.298	72.81
243.531	86.81
243.765	75.81
243.998	89.81
244.232	82.81
244.465	78.81
244.699	86.81
244.932	86.81
245.166	73.81
245.399	83.81
245.633	72.81
245.866	71.81
246.099	78.81
246.333	71.81
246.566	79.81
246.8	82.81
247.033	80.81
247.266	82.81
247.5	70.81
247.733	76.81
247.966	79.81
248.2	73.81
248.433	77.81
248.666	78.81
248.899	84.81
249.133	75.81
249.366	70.81
249.599	84.81
249.832	84.81
250.066	93.81
250.299	84.81
250.532	72.81
250.765	71.81
250.998	73.81
251.231	89.81
251.465	103.81
251.698	88.81
251.931	86.81
252.164	84.81
252.397	99.81
252.63	69.81
252.863	63.81
253.096	85.81
253.329	81.81
253.562	68.81
253.795	87.81
254.028	73.81
254.261	88.81
254.494	72.81
254.727	90.81
254.96	84.81
255.193	78.81
255.426	71.81
255.659	86.81
255.892	80.81
256.124	51.81
256.357	83.81
256.59	76.81
256.823	68.81
257.056	84.81
257.289	80.81
257.521	91.81
257.754	85.81
257.987	77.81
258.22	81.81
258.452	77.81
258.685	72.81
258.918	78.81
259.151	72.81
259.383	85.81
259.616	73.81
259.849	74.81
260.081	79.81
260.314	85.81
260.547	82.81
260.779	96.81
261.012	100.81
261.244	90.81
261.477	94.81
261.71	75.81
261.942	79.81
262.175	74.81
262.407	75.81
262.64	79.81
262.872	77.81
263.105	68.81
263.337	84.81
263.57	85.81
263.802	75.81
264.035	78.81
264.267	79.81
264.499	80.81
264.732	80.81
264.964	82.81
265.197	79.81
265.429	77.81
265.661	64.81
265.894	74.81
266.126	77.81
266.358	86.81
266.591	93.81
266.823	82.81
267.055	67.81
267.287	81.81
267.52	75.81
267.752	79.81
267.984	81.81
268.216	72.81
268.448	82.81
268.681	89.81
268.913	89.81
269.145	78.81
269.377	84.81
269.609	62.81
269.841	89.81
270.073	70.81
270.306	85.81
270.538	81.81
270.77	83.81
271.002	87.81
271.234	85.81
271.466	92.81
271.698	80.81
271.93	75.81
272.162	84.81
272.394	82.81
272.626	75.81
272.858	72.81
273.09	78.81
273.322	76.81
273.553	76.81
273.785	97.81
274.017	78.81
274.249	81.81
274.481	79.81
274.713	78.81
274.945	81.81
275.176	83.81
275.408	89.81
275.64	104.81
275.872	82.81
276.104	84.81
276.335	90.81
276.567	86.81
276.799	76.81
277.031	87.81
277.262	74.81
277.494	77.81
277.726	72.81
277.957	92.81
278.189	71.81
278.421	62.81
278.652	76.81
278.884	93.81
279.115	84.81
279.347	90.81
279.579	101.81
279.81	80.81
280.042	69.81
280.273	78.81
280.505	86.81
280.736	81.81
280.968	92.81
281.199	87.81
281.431	72.81
281.662	78.81
281.894	77.81
282.125	86.81
282.356	86.81
282.588	75.81
282.819	71.81
283.051	74.81
283.282	71.81
283.513	87.81
283.745	85.81
283.976	73.81
284.207	90.81
284.439	100.81
284.67	86.81
284.901	80.81
285.132	88.81
285.364	72.81
285.595	92.81
285.826	76.81
286.057	85.81
286.288	78.81
286.52	79.81
286.751	81.81
286.982	88.81
287.213	87.81
287.444	82.81
287.675	91.81
287.906	72.81
288.138	86.81
288.369	88.81
288.6	78.81
288.831	87.81
289.062	91.81
289.293	87.81
289.524	75.81
289.755	83.81
289.986	89.81
290.217	86.81
290.448	88.81
290.679	79.81
290.91	102.81
291.141	82.81
291.371	88.81
291.602	93.81
291.833	80.81
292.064	82.81
292.295	88.81
292.526	81.81
292.757	86.81
292.987	83.81
293.218	86.81
293.449	76.81
293.68	82.81
293.91	76.81
294.141	87.81
294.372	89.81
294.603	90.81
294.833	92.81
295.064	82.81
295.295	90.81
295.525	86.81
295.756	94.81
295.987	75.81
296.217	86.81
296.448	91.81
296.679	82.81
296.909	86.81
297.14	84.81
297.37	93.81
297.601	84.81
297.831	92.81
298.062	97.81
298.292	92.81
298.523	90.81
298.753	91.81
298.984	80.81
299.214	97.81
299.445	76.81
299.675	77.81
299.905	95.81
300.136	80.81
300.366	72.81
300.597	78.81
300.827	78.81
301.057	82.81
301.288	87.81
301.518	83.81
301.748	76.81
301.979	84.81
302.209	91.81
302.439	84.81
302.669	88.81
302.9	77.81
303.13	74.81
303.36	101.81
303.59	82.81
303.82	98.81
304.051	89.81
304.281	83.81
304.511	101.81
304.741	85.81
304.971	88.81
305.201	89.81
305.431	87.81
305.661	89.81
305.891	101.81
306.121	73.81
306.352	91.81
306.582	76.81
306.812	75.81
307.042	82.81
307.272	86.81
307.502	92.81
307.731	80.81
307.961	82.81
308.191	79.81
308.421	86.81
308.651	92.81
308.881	85.81
309.111	79.81
309.341	83.81
309.571	89.81
309.8	94.81
310.03	90.81
310.26	78.81
310.49	84.81
310.72	79.81
310.949	88.81
311.179	100.81
311.409	72.81
311.639	84.81
311.868	78.81
312.098	85.81
312.328	79.81
312.557	70.81
312.787	73.81
313.017	72.81
313.246	73.81
313.476	90.81
313.706	86.81
313.935	65.81
314.165	71.81
314.394	85.81
314.624	91.81
314.853	90.81
315.083	93.81
315.312	85.81
315.542	74.81
315.771	83.81
316.001	91.81
316.23	84.81
316.46	77.81
316.689	88.81
316.919	104.81
317.148	77.81
317.377	78.81
317.607	78.81
317.836	80.81
318.065	90.81
318.295	72.81
318.524	89.81
318.753	83.81
318.983	76.81
319.212	88.81
319.441	72.81
319.67	88.81
319.9	78.81
320.129	94.81
320.358	83.81
320.587	89.81
320.816	89.81
321.046	88.81
321.275	92.81
321.504	90.81
321.733	85.81
321.962	81.81
322.191	75.81
322.42	70.81
322.649	92.81
322.878	92.81
323.108	82.81
323.337	87.81
323.566	77.81
323.795	86.81
324.024	86.81
324.253	84.81
324.482	84.81
324.71	77.81
324.939	82.81
325.168	79.81
325.397	85.81
325.626	85.81
325.855	90.81
326.084	86.81
326.313	85.81
326.542	93.81
326.77	90.81
326.999	79.81
327.228	83.81
327.457	74.81
327.686	88.81
327.914	100.81
328.143	83.81
328.372	88.81
328.6	74.81
328.829	101.81
329.058	93.81
329.287	80.81
329.515	92.81
329.744	86.81
329.972	84.81
330.201	75.81
330.43	88.81
330.658	88.81
330.887	73.81
331.115	88.81
331.344	90.81
331.572	79.81
331.801	94.81
332.03	91.81
332.258	84.81
332.486	83.81
332.715	76.81
332.943	76.81
333.172	94.81
333.4	86.81
333.629	91.81
333.857	93.81
334.085	90.81
334.314	84.81
334.542	86.81
334.771	77.81
334.999	90.81
335.227	99.81
335.455	89.81
335.684	88.81
335.912	89.81
336.14	80.81
336.369	78.81
336.597	78.81
336.825	86.81
337.053	84.81
337.281	88.81
337.51	88.81
337.738	85.81
337.966	91.81
338.194	81.81
338.422	89.81
338.65	76.81
338.878	87.81
339.106	86.81
339.334	84.81
339.562	93.81
339.79	74.81
340.018	80.81
340.246	83.81
340.474	68.81
340.702	83.81
340.93	83.81
341.158	76.81
341.386	85.81
341.614	87.81
341.842	80.81
342.07	83.81
342.298	92.81
342.526	69.81
342.754	92.81
342.981	83.81
343.209	80.81
343.437	89.81
343.665	76.81
343.893	85.81
344.12	91.81
344.348	102.81
344.576	81.81
344.804	83.81
345.031	93.81
345.259	94.81
345.487	75.81
345.714	80.81
345.942	89.81
346.17	88.81
346.397	84.81
346.625	69.81
346.853	81.81
347.08	103.81
347.308	97.81
347.535	84.81
347.763	93.81
347.99	92.81
348.218	86.81
348.445	107.81
348.673	85.81
348.9	83.81
349.128	83.81
349.355	89.81
349.583	81.81
349.81	78.81
350.037	84.81
350.265	87.81
350.492	77.81
350.72	77.81
350.947	93.81
351.174	84.81
351.402	85.81
351.629	88.81
351.856	89.81
352.083	84.81
352.311	86.81
352.538	68.81
352.765	89.81
352.992	93.81
353.22	79.81
353.447	86.81
353.674	74.81
353.901	85.81
354.128	79.81
354.355	81.81
354.583	85.81
354.81	73.81
355.037	84.81
355.264	91.81
355.491	91.81
355.718	75.81
355.945	87.81
356.172	110.81
356.399	89.81
356.626	75.81
356.853	86.81
357.08	69.81
357.307	88.81
357.534	87.81
357.761	89.81
357.988	92.81
358.215	84.81
358.441	98.81
358.668	89.81
358.895	83.81
359.122	84.81
359.349	77.81
359.576	72.81
359.802	72.81
360.029	89.81
360.256	82.81
360.483	88.81
360.709	80.81
360.936	101.81
361.163	85.81
361.39	82.81
361.616	75.81
361.843	102.81
362.07	86.81
362.296	77.81
362.523	88.81
362.749	75.81
362.976	97.81
363.203	89.81
363.429	83.81
363.656	82.81
363.882	90.81
364.109	91.81
364.335	89.81
364.562	83.81
364.788	90.81
365.015	90.81
365.241	92.81
365.468	82.81
365.694	75.81
365.92	79.81
366.147	85.81
366.373	80.81
366.599	91.81
366.826	84.81
367.052	82.81
367.278	84.81
367.505	95.81
367.731	86.81
367.957	102.81
368.184	86.81
368.41	86.81
368.636	96.81
368.862	94.81
369.089	93.81
369.315	95.81
369.541	88.81
369.767	79.81
369.993	86.81
370.219	83.81
370.445	90.81
370.672	85.81
370.898	93.81
371.124	84.81
371.35	101.81
371.576	92.81
371.802	97.81
372.028	91.81
372.254	95.81
372.48	102.81
372.706	89.81
372.932	98.81
373.158	79.81
373.384	100.81
373.61	96.81
373.835	100.81
374.061	93.81
374.287	84.81
374.513	92.81
374.739	88.81
374.965	90.81
375.191	86.81
375.416	103.81
375.642	97.81
375.868	90.81
376.094	100.81
376.319	97.81
376.545	89.81
376.771	89.81
376.997	101.81
377.222	91.81
377.448	82.81
377.674	84.81
377.899	86.81
378.125	103.81
378.35	100.81
378.576	83.81
378.802	88.81
379.027	81.81
379.253	84.81
379.478	94.81
379.704	71.81
379.929	88.81
380.155	90.81
380.38	87.81
380.606	98.81
380.831	105.81
381.057	110.81
381.282	92.81
381.507	89.81
381.733	97.81
381.958	96.81
382.184	90.81
382.409	93.81
382.634	93.81
382.86	108.81
383.085	112.81
383.31	96.81
383.535	92.81
383.761	86.81
383.986	102.81
384.211	92.81
384.436	96.81
384.662	102.81
384.887	113.81
385.112	102.81
385.337	101.81
385.562	101.81
385.787	99.81
386.013	94.81
386.238	88.81
386.463	84.81
386.688	88.81
386.913	92.81
387.138	106.81
387.363	104.81
387.588	99.81
387.813	104.81
388.038	108.81
388.263	108.81
388.488	95.81
388.713	108.81
388.938	106.81
389.163	87.81
389.387	102.81
389.612	96.81
389.837	105.81
390.062	96.81
390.287	102.81
390.512	96.81
390.736	89.81
390.961	112.81
391.186	111.81
391.411	93.81
391.636	105.81
391.86	96.81
392.085	113.81
392.31	108.81
392.534	108.81
392.759	101.81
392.984	104.81
393.208	96.81
393.433	100.81
393.658	113.81
393.882	98.81
394.107	120.81
394.331	115.81
394.556	98.81
394.78	95.81
395.005	124.81
395.229	106.81
395.454	105.81
395.678	108.81
395.903	104.81
396.127	112.81
396.352	124.81
396.576	93.81
396.801	122.81
397.025	104.81
397.249	117.81
397.474	120.81
397.698	109.81
397.922	91.81
398.147	98.81
398.371	102.81
398.595	113.81
398.82	109.81
399.044	115.81
399.268	110.81
399.492	130.81
399.717	113.81
399.941	106.81
400.165	115.81
400.389	115.81
400.613	81.81
400.837	120.81
401.062	112.81
401.286	127.81
401.51	114.81
401.734	114.81
401.958	125.81
402.182	112.81
402.406	116.81
402.63	116.81
402.854	127.81
403.078	109.81
403.302	110.81
403.526	120.81
403.75	116.81
403.974	127.81
404.198	113.81
404.422	126.81
404.645	128.81
404.869	107.81
405.093	119.81
405.317	120.81
405.541	112.81
405.765	108.81
405.988	105.81
406.212	118.81
406.436	107.81
406.66	134.81
406.883	106.81
407.107	112.81
407.331	122.81
407.555	118.81
407.778	117.81
408.002	121.81
408.226	105.81
408.449	113.81
408.673	124.81
408.896	108.81
409.12	119.81
409.344	111.81
409.567	116.81
409.791	126.81
410.014	121.81
410.238	110.81
410.461	123.81
410.685	104.81
410.908	118.81
411.132	118.81
411.355	119.81
411.578	121.81
411.802	127.81
412.025	124.81
412.249	125.81
412.472	122.81
412.695	121.81
412.919	112.81
413.142	115.81
413.365	126.81
413.589	134.81
413.812	129.81
414.035	122.81
414.258	115.81
414.482	132.81
414.705	116.81
414.928	121.81
415.151	129.81
415.374	131.81
415.597	123.81
415.821	114.81
416.044	115.81
416.267	120.81
416.49	118.81
416.713	117.81
416.936	129.81
417.159	108.81
417.382	130.81
417.605	128.81
417.828	129.81
418.051	129.81
418.274	142.81
418.497	127.81
418.72	141.81
418.943	139.81
419.166	132.81
419.389	130.81
419.611	121.81
419.834	137.81
420.057	137.81
420.28	125.81
420.503	125.81
420.726	137.81
420.948	129.81
421.171	138.81
421.394	135.81
421.617	146.81
421.839	145.81
422.062	137.81
422.285	136.81
422.507	120.81
422.73	122.81
422.953	119.81
423.175	118.81
423.398	129.81
423.621	130.81
423.843	129.81
424.066	132.81
424.288	141.81
424.511	148.81
424.733	154.81
424.956	132.81
425.178	132.81
425.401	150.81
425.623	130.81
425.846	122.81
426.068	122.81
426.291	129.81
426.513	132.81
426.735	125.81
426.958	132.81
427.18	132.81
427.402	122.81
427.625	125.81
427.847	108.81
428.069	130.81
428.292	136.81
428.514	127.81
428.736	120.81
428.958	130.81
429.181	122.81
429.403	121.81
429.625	115.81
429.847	127.81
430.069	133.81
430.292	136.81
430.514	125.81
430.736	132.81
430.958	134.81
431.18	127.81
431.402	131.81
431.624	120.81
431.846	111.81
432.068	92.81
432.29	90.81
432.512	97.81
432.734	115.81
432.956	138.81
433.178	125.81
433.4	136.81
433.622	139.81
433.844	134.81
434.066	112.81
434.287	109.81
434.509	92.81
434.731	102.81
434.953	105.81
435.175	127.81
435.397	118.81
435.618	137.81
435.84	123.81
436.062	122.81
436.284	124.81
436.505	113.81
436.727	124.81
436.949	138.81
437.17	138.81
437.392	121.81
437.614	125.81
437.835	118.81
438.057	103.81
438.278	120.81
438.5	119.81
438.721	133.81
438.943	119.81
439.165	136.81
439.386	128.81
439.608	145.81
439.829	120.81
440.05	142.81
440.272	142.81
440.493	162.81
440.715	134.81
440.936	145.81
441.158	130.81
441.379	140.81
441.6	143.81
441.822	137.81
442.043	143.81
442.264	138.81
442.486	126.81
442.707	129.81
442.928	129.81
443.149	158.81
443.371	138.81
443.592	138.81
443.813	151.81
444.034	144.81
444.255	140.81
444.476	142.81
444.698	134.81
444.919	130.81
445.14	302.81
445.361	192.81
445.582	157.81
445.803	135.81
446.024	143.81
446.245	164.81
446.466	155.81
446.687	142.81
446.908	146.81
447.129	152.81
447.35	149.81
447.571	142.81
447.792	142.81
448.013	154.81
448.234	130.81
448.455	142.81
448.675	130.81
448.896	148.81
449.117	136.81
449.338	137.81
449.559	145.81
449.779	129.81
450	140.81
450.221	134.81
450.442	149.81
450.662	132.81
450.883	126.81
451.104	133.81
451.324	140.81
451.545	136.81
451.766	148.81
451.986	125.81
452.207	134.81
452.428	117.81
452.648	128.81
452.869	130.81
453.089	133.81
453.31	110.81
453.53	104.81
453.751	105.81
453.971	118.81
454.192	107.81
454.412	112.81
454.633	109.81
454.853	118.81
455.073	137.81
455.294	122.81
455.514	115.81
455.734	114.81
455.955	127.81
456.175	129.81
456.395	105.81
456.616	100.81
456.836	113.81
457.056	104.81
457.276	122.81
457.497	116.81
457.717	104.81
457.937	124.81
458.157	108.81
458.377	116.81
458.598	107.81
458.818	93.81
459.038	81.81
459.258	86.81
459.478	91.81
459.698	83.81
459.918	101.81
460.138	104.81
460.358	104.81
460.578	118.81
460.798	110.81
461.018	124.81
461.238	121.81
461.458	109.81
461.678	109.81
461.898	130.81
462.118	130.81
462.338	120.81
462.558	118.81
462.777	114.81
462.997	116.81
463.217	120.81
463.437	102.81
463.657	120.81
463.876	100.81
464.096	111.81
464.316	90.81
464.536	113.81
464.755	128.81
464.975	111.81
465.195	127.81
465.414	115.81
465.634	123.81
465.854	105.81
466.073	121.81
466.293	115.81
466.512	128.81
466.732	127.81
466.951	139.81
467.171	141.81
467.391	118.81
467.61	132.81
467.829	144.81
468.049	143.81
468.268	142.81
468.488	124.81
468.707	125.81
468.927	151.81
469.146	146.81
469.365	115.81
469.585	131.81
469.804	148.81
470.023	145.81
470.243	146.81
470.462	137.81
470.681	133.81
470.901	149.81
471.12	140.81
471.339	152.81
471.558	157.81
471.777	132.81
471.997	150.81
472.216	131.81
472.435	121.81
472.654	106.81
472.873	108.81
473.092	128.81
473.311	121.81
473.53	128.81
473.749	130.81
473.968	136.81
474.187	125.81
474.406	110.81
474.625	118.81
474.844	136.81
475.063	132.81
475.282	131.81
475.501	121.81
475.72	127.81
475.939	129.81
476.158	125.81
476.377	135.81
476.596	116.81
476.814	116.81
477.033	109.81
477.252	119.81
477.471	117.81
477.69	138.81
477.908	119.81
478.127	128.81
478.346	128.81
478.564	140.81
478.783	125.81
479.002	125.81
479.22	132.81
479.439	148.81
479.658	125.81
479.876	114.81
480.095	106.81
480.313	124.81
480.532	113.81
480.751	110.81
480.969	95.81
481.188	107.81
481.406	77.81
481.624	105.81
481.843	101.81
482.061	88.81
482.28	123.81
482.498	115.81
482.717	118.81
482.935	115.81
483.153	142.81
483.372	139.81
483.59	138.81
483.808	128.81
484.027	135.81
484.245	129.81
484.463	140.81
484.681	164.81
484.9	140.81
485.118	137.81
485.336	128.81
485.554	112.81
485.772	104.81
485.99	118.81
486.209	116.81
486.427	115.81
486.645	120.81
486.863	129.81
487.081	143.81
487.299	129.81
487.517	132.81
487.735	146.81
487.953	165.81
488.171	187.81
488.389	177.81
488.607	157.81
488.825	146.81
489.043	142.81
489.261	104.81
489.479	134.81
489.696	125.81
489.914	146.81
490.132	149.81
490.35	142.81
490.568	155.81
490.786	166.81
491.003	160.81
491.221	177.81
491.439	161.81
491.657	194.81
491.874	201.81
492.092	208.81
492.31	231.81
492.527	224.81
492.745	210.81
492.963	182.81
493.18	172.81
493.398	180.81
493.615	177.81
493.833	173.81
494.05	171.81
494.268	157.81
494.485	180.81
494.703	171.81
494.92	176.81
495.138	168.81
495.355	176.81
495.573	172.81
495.79	178.81
496.008	162.81
496.225	173.81
496.442	168.81
496.66	169.81
496.877	160.81
497.094	168.81
497.312	152.81
497.529	152.81
497.746	149.81
497.963	129.81
498.181	125.81
498.398	119.81
498.615	128.81
498.832	128.81
499.049	130.81
499.267	120.81
499.484	135.81
499.701	140.81
499.918	118.81
500.135	132.81
500.352	138.81
500.569	127.81
500.786	141.81
501.003	130.81
501.22	145.81
501.437	138.81
501.654	145.81
501.871	128.81
502.088	142.81
502.305	147.81
502.522	136.81
502.739	125.81
502.956	128.81
503.172	122.81
503.389	137.81
503.606	125.81
503.823	119.81
504.04	119.81
504.256	121.81
504.473	127.81
504.69	130.81
504.907	126.81
505.123	107.81
505.34	126.81
505.557	122.81
505.773	130.81
505.99	129.81
506.207	114.81
506.423	126.81
506.64	115.81
506.856	124.81
507.073	114.81
507.289	116.81
507.506	130.81
507.722	128.81
507.939	116.81
508.155	110.81
508.372	110.81
508.588	97.81
508.805	113.81
509.021	97.81
509.238	110.81
509.454	104.81
509.67	102.81
509.887	108.81
510.103	102.81
510.319	101.81
510.536	97.81
510.752	88.81
510.968	96.81
511.184	83.81
511.401	82.81
