Data from Location2.07152019.Energy5.Lamp.07192019.3%Agarose_HRD10591_14-56-27-359.txt Node
Date: Fri Jul 19 14:56:27 EDT 2019
User: cochatt
Spectrometer: HR+D1059
Trigger mode: 1
Integration Time (sec): 1.000000E-1
Scans to average: 1
Electric dark correction enabled: true
Nonlinearity correction enabled: false
Boxcar width: 0
XAxis mode: Wavelengths
Number of Pixels in Spectrum: 2048
>>>>>Begin Spectral Data<<<<<
223.165	-27.62
223.4	-27.62
223.635	-27.62
223.869	-25.62
224.104	-6.62
224.338	-8.62
224.573	-18.62
224.808	-3.62
225.042	-13.62
225.277	-5.62
225.511	5.38
225.746	3.38
225.98	10.38
226.215	20.38
226.449	2.38
226.683	25.38
226.918	8.38
227.152	34.38
227.387	39.38
227.621	42.38
227.856	43.38
228.09	45.38
228.324	41.38
228.559	46.38
228.793	50.38
229.027	58.38
229.262	71.38
229.496	63.38
229.73	75.38
229.964	57.38
230.199	77.38
230.433	60.38
230.667	82.38
230.901	76.38
231.136	82.38
231.37	82.38
231.604	70.38
231.838	74.38
232.072	80.38
232.306	75.38
232.541	74.38
232.775	74.38
233.009	82.38
233.243	75.38
233.477	88.38
233.711	75.38
233.945	86.38
234.179	77.38
234.413	63.38
234.647	88.38
234.881	87.38
235.115	82.38
235.349	83.38
235.583	72.38
235.817	77.38
236.051	86.38
236.285	86.38
236.519	78.38
236.753	79.38
236.987	84.38
237.221	85.38
237.455	68.38
237.689	84.38
237.922	75.38
238.156	76.38
238.39	58.38
238.624	68.38
238.858	88.38
239.091	71.38
239.325	72.38
239.559	85.38
239.793	67.38
240.027	89.38
240.26	69.38
240.494	79.38
240.728	76.38
240.961	78.38
241.195	83.38
241.429	71.38
241.662	73.38
241.896	76.38
242.13	80.38
242.363	83.38
242.597	82.38
242.83	83.38
243.064	71.38
243.298	78.38
243.531	78.38
243.765	76.38
243.998	74.38
244.232	67.38
244.465	79.38
244.699	80.38
244.932	88.38
245.166	83.38
245.399	82.38
245.633	82.38
245.866	58.38
246.099	62.38
246.333	74.38
246.566	72.38
246.8	73.38
247.033	81.38
247.266	76.38
247.5	81.38
247.733	67.38
247.966	80.38
248.2	82.38
248.433	80.38
248.666	89.38
248.899	69.38
249.133	74.38
249.366	88.38
249.599	68.38
249.832	72.38
250.066	87.38
250.299	77.38
250.532	81.38
250.765	78.38
250.998	71.38
251.231	77.38
251.465	88.38
251.698	72.38
251.931	56.38
252.164	76.38
252.397	82.38
252.63	81.38
252.863	70.38
253.096	81.38
253.329	73.38
253.562	79.38
253.795	86.38
254.028	88.38
254.261	80.38
254.494	72.38
254.727	72.38
254.96	61.38
255.193	87.38
255.426	78.38
255.659	71.38
255.892	77.38
256.124	77.38
256.357	81.38
256.59	79.38
256.823	81.38
257.056	74.38
257.289	68.38
257.521	72.38
257.754	72.38
257.987	72.38
258.22	75.38
258.452	66.38
258.685	79.38
258.918	78.38
259.151	81.38
259.383	74.38
259.616	76.38
259.849	72.38
260.081	80.38
260.314	79.38
260.547	77.38
260.779	87.38
261.012	93.38
261.244	73.38
261.477	86.38
261.71	97.38
261.942	85.38
262.175	80.38
262.407	79.38
262.64	90.38
262.872	80.38
263.105	87.38
263.337	83.38
263.57	89.38
263.802	85.38
264.035	84.38
264.267	78.38
264.499	83.38
264.732	86.38
264.964	74.38
265.197	76.38
265.429	71.38
265.661	86.38
265.894	83.38
266.126	92.38
266.358	71.38
266.591	89.38
266.823	84.38
267.055	90.38
267.287	89.38
267.52	79.38
267.752	80.38
267.984	84.38
268.216	81.38
268.448	87.38
268.681	79.38
268.913	82.38
269.145	75.38
269.377	76.38
269.609	76.38
269.841	66.38
270.073	61.38
270.306	86.38
270.538	64.38
270.77	92.38
271.002	83.38
271.234	86.38
271.466	83.38
271.698	84.38
271.93	71.38
272.162	92.38
272.394	71.38
272.626	82.38
272.858	94.38
273.09	72.38
273.322	79.38
273.553	88.38
273.785	87.38
274.017	81.38
274.249	89.38
274.481	82.38
274.713	66.38
274.945	74.38
275.176	80.38
275.408	86.38
275.64	77.38
275.872	96.38
276.104	91.38
276.335	89.38
276.567	82.38
276.799	64.38
277.031	79.38
277.262	96.38
277.494	78.38
277.726	87.38
277.957	80.38
278.189	72.38
278.421	73.38
278.652	71.38
278.884	76.38
279.115	94.38
279.347	91.38
279.579	88.38
279.81	73.38
280.042	87.38
280.273	84.38
280.505	84.38
280.736	74.38
280.968	86.38
281.199	92.38
281.431	83.38
281.662	77.38
281.894	76.38
282.125	94.38
282.356	88.38
282.588	89.38
282.819	81.38
283.051	76.38
283.282	90.38
283.513	84.38
283.745	87.38
283.976	86.38
284.207	84.38
284.439	74.38
284.67	80.38
284.901	74.38
285.132	75.38
285.364	83.38
285.595	83.38
285.826	80.38
286.057	66.38
286.288	89.38
286.52	63.38
286.751	72.38
286.982	75.38
287.213	79.38
287.444	82.38
287.675	75.38
287.906	84.38
288.138	86.38
288.369	75.38
288.6	74.38
288.831	74.38
289.062	75.38
289.293	76.38
289.524	85.38
289.755	89.38
289.986	85.38
290.217	90.38
290.448	104.38
290.679	88.38
290.91	91.38
291.141	76.38
291.371	66.38
291.602	80.38
291.833	88.38
292.064	80.38
292.295	92.38
292.526	75.38
292.757	82.38
292.987	91.38
293.218	83.38
293.449	97.38
293.68	76.38
293.91	78.38
294.141	75.38
294.372	91.38
294.603	76.38
294.833	91.38
295.064	83.38
295.295	80.38
295.525	85.38
295.756	84.38
295.987	76.38
296.217	83.38
296.448	88.38
296.679	104.38
296.909	75.38
297.14	82.38
297.37	87.38
297.601	91.38
297.831	73.38
298.062	96.38
298.292	101.38
298.523	90.38
298.753	75.38
298.984	90.38
299.214	86.38
299.445	83.38
299.675	88.38
299.905	85.38
300.136	86.38
300.366	76.38
300.597	83.38
300.827	102.38
301.057	98.38
301.288	74.38
301.518	95.38
301.748	102.38
301.979	80.38
302.209	70.38
302.439	76.38
302.669	74.38
302.9	74.38
303.13	83.38
303.36	88.38
303.59	84.38
303.82	89.38
304.051	91.38
304.281	80.38
304.511	90.38
304.741	75.38
304.971	84.38
305.201	91.38
305.431	85.38
305.661	78.38
305.891	72.38
306.121	86.38
306.352	87.38
306.582	65.38
306.812	89.38
307.042	80.38
307.272	89.38
307.502	71.38
307.731	81.38
307.961	89.38
308.191	84.38
308.421	88.38
308.651	87.38
308.881	91.38
309.111	72.38
309.341	84.38
309.571	91.38
309.8	91.38
310.03	96.38
310.26	78.38
310.49	92.38
310.72	82.38
310.949	84.38
311.179	83.38
311.409	85.38
311.639	88.38
311.868	90.38
312.098	72.38
312.328	88.38
312.557	94.38
312.787	82.38
313.017	84.38
313.246	68.38
313.476	89.38
313.706	86.38
313.935	77.38
314.165	90.38
314.394	75.38
314.624	87.38
314.853	84.38
315.083	74.38
315.312	88.38
315.542	90.38
315.771	80.38
316.001	86.38
316.23	85.38
316.46	81.38
316.689	82.38
316.919	94.38
317.148	94.38
317.377	83.38
317.607	88.38
317.836	85.38
318.065	86.38
318.295	74.38
318.524	73.38
318.753	62.38
318.983	82.38
319.212	94.38
319.441	104.38
319.67	77.38
319.9	62.38
320.129	71.38
320.358	86.38
320.587	97.38
320.816	83.38
321.046	91.38
321.275	94.38
321.504	84.38
321.733	89.38
321.962	80.38
322.191	86.38
322.42	74.38
322.649	82.38
322.878	82.38
323.108	80.38
323.337	77.38
323.566	75.38
323.795	86.38
324.024	72.38
324.253	90.38
324.482	77.38
324.71	89.38
324.939	79.38
325.168	84.38
325.397	93.38
325.626	92.38
325.855	78.38
326.084	75.38
326.313	81.38
326.542	90.38
326.77	89.38
326.999	90.38
327.228	86.38
327.457	74.38
327.686	88.38
327.914	69.38
328.143	74.38
328.372	89.38
328.6	96.38
328.829	83.38
329.058	73.38
329.287	75.38
329.515	86.38
329.744	70.38
329.972	68.38
330.201	74.38
330.43	72.38
330.658	88.38
330.887	95.38
331.115	91.38
331.344	72.38
331.572	75.38
331.801	82.38
332.03	83.38
332.258	73.38
332.486	76.38
332.715	69.38
332.943	71.38
333.172	86.38
333.4	76.38
333.629	84.38
333.857	83.38
334.085	84.38
334.314	75.38
334.542	72.38
334.771	98.38
334.999	78.38
335.227	75.38
335.455	91.38
335.684	80.38
335.912	69.38
336.14	81.38
336.369	79.38
336.597	82.38
336.825	94.38
337.053	74.38
337.281	85.38
337.51	84.38
337.738	82.38
337.966	95.38
338.194	80.38
338.422	76.38
338.65	92.38
338.878	91.38
339.106	84.38
339.334	99.38
339.562	76.38
339.79	90.38
340.018	90.38
340.246	90.38
340.474	86.38
340.702	82.38
340.93	71.38
341.158	75.38
341.386	86.38
341.614	74.38
341.842	83.38
342.07	73.38
342.298	95.38
342.526	88.38
342.754	75.38
342.981	85.38
343.209	85.38
343.437	79.38
343.665	73.38
343.893	89.38
344.12	79.38
344.348	87.38
344.576	74.38
344.804	87.38
345.031	81.38
345.259	90.38
345.487	80.38
345.714	80.38
345.942	77.38
346.17	93.38
346.397	74.38
346.625	80.38
346.853	76.38
347.08	77.38
347.308	85.38
347.535	84.38
347.763	89.38
347.99	82.38
348.218	70.38
348.445	83.38
348.673	76.38
348.9	83.38
349.128	87.38
349.355	75.38
349.583	88.38
349.81	83.38
350.037	73.38
350.265	66.38
350.492	89.38
350.72	86.38
350.947	87.38
351.174	76.38
351.402	83.38
351.629	83.38
351.856	77.38
352.083	85.38
352.311	74.38
352.538	78.38
352.765	72.38
352.992	94.38
353.22	74.38
353.447	87.38
353.674	88.38
353.901	81.38
354.128	88.38
354.355	75.38
354.583	79.38
354.81	92.38
355.037	82.38
355.264	81.38
355.491	76.38
355.718	78.38
355.945	85.38
356.172	85.38
356.399	79.38
356.626	83.38
356.853	97.38
357.08	83.38
357.307	85.38
357.534	76.38
357.761	88.38
357.988	84.38
358.215	79.38
358.441	80.38
358.668	81.38
358.895	94.38
359.122	91.38
359.349	82.38
359.576	74.38
359.802	83.38
360.029	74.38
360.256	71.38
360.483	81.38
360.709	78.38
360.936	76.38
361.163	79.38
361.39	88.38
361.616	93.38
361.843	93.38
362.07	71.38
362.296	91.38
362.523	92.38
362.749	88.38
362.976	75.38
363.203	67.38
363.429	89.38
363.656	86.38
363.882	86.38
364.109	89.38
364.335	86.38
364.562	87.38
364.788	80.38
365.015	73.38
365.241	82.38
365.468	92.38
365.694	73.38
365.92	73.38
366.147	78.38
366.373	85.38
366.599	90.38
366.826	79.38
367.052	87.38
367.278	92.38
367.505	88.38
367.731	94.38
367.957	88.38
368.184	81.38
368.41	84.38
368.636	85.38
368.862	93.38
369.089	98.38
369.315	90.38
369.541	82.38
369.767	95.38
369.993	87.38
370.219	89.38
370.445	91.38
370.672	85.38
370.898	92.38
371.124	84.38
371.35	91.38
371.576	89.38
371.802	95.38
372.028	70.38
372.254	98.38
372.48	86.38
372.706	75.38
372.932	91.38
373.158	87.38
373.384	72.38
373.61	88.38
373.835	100.38
374.061	92.38
374.287	83.38
374.513	83.38
374.739	88.38
374.965	83.38
375.191	90.38
375.416	103.38
375.642	78.38
375.868	76.38
376.094	80.38
376.319	98.38
376.545	93.38
376.771	100.38
376.997	94.38
377.222	81.38
377.448	89.38
377.674	87.38
377.899	87.38
378.125	95.38
378.35	85.38
378.576	93.38
378.802	89.38
379.027	104.38
379.253	86.38
379.478	103.38
379.704	89.38
379.929	91.38
380.155	87.38
380.38	93.38
380.606	75.38
380.831	84.38
381.057	89.38
381.282	93.38
381.507	76.38
381.733	107.38
381.958	104.38
382.184	90.38
382.409	97.38
382.634	106.38
382.86	97.38
383.085	96.38
383.31	94.38
383.535	92.38
383.761	97.38
383.986	101.38
384.211	84.38
384.436	98.38
384.662	83.38
384.887	82.38
385.112	93.38
385.337	107.38
385.562	95.38
385.787	93.38
386.013	99.38
386.238	98.38
386.463	97.38
386.688	96.38
386.913	94.38
387.138	106.38
387.363	86.38
387.588	83.38
387.813	83.38
388.038	84.38
388.263	110.38
388.488	105.38
388.713	112.38
388.938	103.38
389.163	94.38
389.387	90.38
389.612	100.38
389.837	91.38
390.062	103.38
390.287	94.38
390.512	107.38
390.736	105.38
390.961	106.38
391.186	99.38
391.411	104.38
391.636	107.38
391.86	94.38
392.085	99.38
392.31	92.38
392.534	89.38
392.759	98.38
392.984	89.38
393.208	112.38
393.433	114.38
393.658	103.38
393.882	108.38
394.107	97.38
394.331	98.38
394.556	102.38
394.78	106.38
395.005	98.38
395.229	98.38
395.454	103.38
395.678	105.38
395.903	107.38
396.127	116.38
396.352	97.38
396.576	98.38
396.801	103.38
397.025	101.38
397.249	99.38
397.474	102.38
397.698	111.38
397.922	100.38
398.147	107.38
398.371	101.38
398.595	108.38
398.82	96.38
399.044	109.38
399.268	107.38
399.492	111.38
399.717	110.38
399.941	105.38
400.165	113.38
400.389	92.38
400.613	115.38
400.837	110.38
401.062	124.38
401.286	119.38
401.51	123.38
401.734	100.38
401.958	119.38
402.182	106.38
402.406	133.38
402.63	121.38
402.854	115.38
403.078	94.38
403.302	110.38
403.526	119.38
403.75	121.38
403.974	106.38
404.198	110.38
404.422	110.38
404.645	109.38
404.869	122.38
405.093	114.38
405.317	116.38
405.541	110.38
405.765	126.38
405.988	126.38
406.212	120.38
406.436	113.38
406.66	127.38
406.883	122.38
407.107	134.38
407.331	108.38
407.555	101.38
407.778	107.38
408.002	126.38
408.226	102.38
408.449	128.38
408.673	134.38
408.896	105.38
409.12	122.38
409.344	126.38
409.567	103.38
409.791	103.38
410.014	97.38
410.238	122.38
410.461	115.38
410.685	120.38
410.908	124.38
411.132	119.38
411.355	117.38
411.578	122.38
411.802	119.38
412.025	112.38
412.249	125.38
412.472	118.38
412.695	117.38
412.919	130.38
413.142	129.38
413.365	116.38
413.589	120.38
413.812	111.38
414.035	120.38
414.258	122.38
414.482	120.38
414.705	123.38
414.928	108.38
415.151	118.38
415.374	128.38
415.597	130.38
415.821	116.38
416.044	136.38
416.267	129.38
416.49	127.38
416.713	120.38
416.936	124.38
417.159	132.38
417.382	107.38
417.605	118.38
417.828	122.38
418.051	119.38
418.274	131.38
418.497	133.38
418.72	124.38
418.943	128.38
419.166	133.38
419.389	142.38
419.611	128.38
419.834	133.38
420.057	119.38
420.28	124.38
420.503	117.38
420.726	123.38
420.948	142.38
421.171	135.38
421.394	120.38
421.617	132.38
421.839	140.38
422.062	138.38
422.285	124.38
422.507	122.38
422.73	132.38
422.953	141.38
423.175	130.38
423.398	128.38
423.621	134.38
423.843	122.38
424.066	135.38
424.288	145.38
424.511	144.38
424.733	137.38
424.956	128.38
425.178	141.38
425.401	128.38
425.623	126.38
425.846	136.38
426.068	123.38
426.291	127.38
426.513	127.38
426.735	138.38
426.958	122.38
427.18	130.38
427.402	118.38
427.625	117.38
427.847	124.38
428.069	124.38
428.292	120.38
428.514	123.38
428.736	126.38
428.958	127.38
429.181	129.38
429.403	126.38
429.625	131.38
429.847	124.38
430.069	130.38
430.292	123.38
430.514	128.38
430.736	126.38
430.958	132.38
431.18	126.38
431.402	123.38
431.624	125.38
431.846	116.38
432.068	99.38
432.29	86.38
432.512	98.38
432.734	115.38
432.956	118.38
433.178	135.38
433.4	132.38
433.622	136.38
433.844	134.38
434.066	121.38
434.287	108.38
434.509	108.38
434.731	107.38
434.953	113.38
435.175	126.38
435.397	122.38
435.618	107.38
435.84	118.38
436.062	98.38
436.284	135.38
436.505	125.38
436.727	134.38
436.949	139.38
437.17	144.38
437.392	128.38
437.614	135.38
437.835	111.38
438.057	96.38
438.278	100.38
438.5	127.38
438.721	127.38
438.943	135.38
439.165	130.38
439.386	129.38
439.608	132.38
439.829	136.38
440.05	137.38
440.272	138.38
440.493	133.38
440.715	148.38
440.936	141.38
441.158	152.38
441.379	138.38
441.6	131.38
441.822	132.38
442.043	136.38
442.264	130.38
442.486	133.38
442.707	116.38
442.928	137.38
443.149	141.38
443.371	133.38
443.592	133.38
443.813	120.38
444.034	138.38
444.255	118.38
444.476	141.38
444.698	140.38
444.919	142.38
445.14	253.38
445.361	198.38
445.582	150.38
445.803	156.38
446.024	157.38
446.245	153.38
446.466	138.38
446.687	153.38
446.908	159.38
447.129	132.38
447.35	144.38
447.571	143.38
447.792	134.38
448.013	135.38
448.234	147.38
448.455	139.38
448.675	146.38
448.896	150.38
449.117	150.38
449.338	129.38
449.559	144.38
449.779	139.38
450	141.38
450.221	134.38
450.442	132.38
450.662	135.38
450.883	145.38
451.104	136.38
451.324	150.38
451.545	116.38
451.766	128.38
451.986	120.38
452.207	120.38
452.428	122.38
452.648	112.38
452.869	115.38
453.089	109.38
453.31	107.38
453.53	106.38
453.751	115.38
453.971	111.38
454.192	105.38
454.412	105.38
454.633	120.38
454.853	114.38
455.073	115.38
455.294	116.38
455.514	127.38
455.734	127.38
455.955	104.38
456.175	110.38
456.395	117.38
456.616	91.38
456.836	106.38
457.056	104.38
457.276	106.38
457.497	98.38
457.717	108.38
457.937	91.38
458.157	114.38
458.377	104.38
458.598	100.38
458.818	88.38
459.038	89.38
459.258	89.38
459.478	71.38
459.698	91.38
459.918	81.38
460.138	94.38
460.358	106.38
460.578	110.38
460.798	113.38
461.018	127.38
461.238	96.38
461.458	107.38
461.678	112.38
461.898	99.38
462.118	110.38
462.338	104.38
462.558	120.38
462.777	95.38
462.997	110.38
463.217	116.38
463.437	112.38
463.657	115.38
463.876	99.38
464.096	119.38
464.316	102.38
464.536	124.38
464.755	121.38
464.975	99.38
465.195	118.38
465.414	134.38
465.634	116.38
465.854	126.38
466.073	118.38
466.293	113.38
466.512	127.38
466.732	130.38
466.951	138.38
467.171	130.38
467.391	141.38
467.61	124.38
467.829	123.38
468.049	115.38
468.268	126.38
468.488	135.38
468.707	129.38
468.927	128.38
469.146	146.38
469.365	145.38
469.585	148.38
469.804	145.38
470.023	139.38
470.243	134.38
470.462	129.38
470.681	151.38
470.901	152.38
471.12	140.38
471.339	132.38
471.558	122.38
471.777	141.38
471.997	140.38
472.216	136.38
472.435	118.38
472.654	111.38
472.873	106.38
473.092	107.38
473.311	126.38
473.53	142.38
473.749	133.38
473.968	121.38
474.187	119.38
474.406	112.38
474.625	131.38
474.844	123.38
475.063	135.38
475.282	122.38
475.501	116.38
475.72	121.38
475.939	126.38
476.158	129.38
476.377	128.38
476.596	125.38
476.814	125.38
477.033	102.38
477.252	108.38
477.471	133.38
477.69	134.38
477.908	137.38
478.127	136.38
478.346	128.38
478.564	122.38
478.783	130.38
479.002	134.38
479.22	129.38
479.439	120.38
479.658	121.38
479.876	114.38
480.095	108.38
480.313	126.38
480.532	117.38
480.751	120.38
480.969	94.38
481.188	94.38
481.406	89.38
481.624	110.38
481.843	93.38
482.061	92.38
482.28	103.38
482.498	108.38
482.717	106.38
482.935	107.38
483.153	138.38
483.372	160.38
483.59	147.38
483.808	137.38
484.027	132.38
484.245	124.38
484.463	153.38
484.681	150.38
484.9	143.38
485.118	138.38
485.336	126.38
485.554	113.38
485.772	98.38
485.99	92.38
486.209	100.38
486.427	95.38
486.645	111.38
486.863	129.38
487.081	134.38
487.299	140.38
487.517	151.38
487.735	145.38
487.953	184.38
488.171	180.38
488.389	164.38
488.607	166.38
488.825	144.38
489.043	140.38
489.261	122.38
489.479	133.38
489.696	143.38
489.914	130.38
490.132	132.38
490.35	138.38
490.568	155.38
490.786	175.38
491.003	174.38
491.221	172.38
491.439	187.38
491.657	190.38
491.874	203.38
492.092	206.38
492.31	225.38
492.527	213.38
492.745	207.38
492.963	205.38
493.18	191.38
493.398	178.38
493.615	173.38
493.833	162.38
494.05	169.38
494.268	159.38
494.485	167.38
494.703	170.38
494.92	171.38
495.138	154.38
495.355	176.38
495.573	167.38
495.79	162.38
496.008	164.38
496.225	165.38
496.442	168.38
496.66	162.38
496.877	151.38
497.094	150.38
497.312	153.38
497.529	148.38
497.746	158.38
497.963	133.38
498.181	146.38
498.398	130.38
498.615	108.38
498.832	98.38
499.049	135.38
499.267	112.38
499.484	124.38
499.701	143.38
499.918	126.38
500.135	140.38
500.352	133.38
500.569	156.38
500.786	157.38
501.003	144.38
501.22	134.38
501.437	137.38
501.654	126.38
501.871	126.38
502.088	124.38
502.305	130.38
502.522	131.38
502.739	129.38
502.956	120.38
503.172	112.38
503.389	114.38
503.606	120.38
503.823	123.38
504.04	122.38
504.256	129.38
504.473	134.38
504.69	117.38
504.907	116.38
505.123	108.38
505.34	120.38
505.557	127.38
505.773	115.38
505.99	126.38
506.207	122.38
506.423	122.38
506.64	123.38
506.856	112.38
507.073	116.38
507.289	121.38
507.506	110.38
507.722	124.38
507.939	126.38
508.155	116.38
508.372	115.38
508.588	102.38
508.805	100.38
509.021	119.38
509.238	94.38
509.454	96.38
509.67	91.38
509.887	117.38
510.103	72.38
510.319	86.38
510.536	80.38
510.752	83.38
510.968	90.38
511.184	88.38
511.401	84.38
511.617	92.38
511.833	74.38
512.049	95.38
