Data from Location2.07152019.Energy5.Lamp.07192019.3%Agarose_HRD10591_14-55-59-358.txt Node
Date: Fri Jul 19 14:55:59 EDT 2019
User: cochatt
Spectrometer: HR+D1059
Trigger mode: 1
Integration Time (sec): 1.000000E-1
Scans to average: 1
Electric dark correction enabled: true
Nonlinearity correction enabled: false
Boxcar width: 0
XAxis mode: Wavelengths
Number of Pixels in Spectrum: 2048
>>>>>Begin Spectral Data<<<<<
223.165	-10.94
223.4	-10.94
223.635	-10.94
223.869	-12.94
224.104	-17.94
224.338	0.06
224.573	-22.94
224.808	-11.94
225.042	-28.94
225.277	-6.94
225.511	-3.94
225.746	-4.94
225.98	0.06
226.215	17.06
226.449	11.06
226.683	23.06
226.918	32.06
227.152	38.06
227.387	22.06
227.621	42.06
227.856	52.06
228.09	46.06
228.324	45.06
228.559	54.06
228.793	59.06
229.027	64.06
229.262	57.06
229.496	62.06
229.73	84.06
229.964	80.06
230.199	67.06
230.433	78.06
230.667	90.06
230.901	83.06
231.136	74.06
231.37	76.06
231.604	72.06
231.838	66.06
232.072	62.06
232.306	83.06
232.541	84.06
232.775	77.06
233.009	96.06
233.243	78.06
233.477	82.06
233.711	74.06
233.945	90.06
234.179	71.06
234.413	74.06
234.647	76.06
234.881	89.06
235.115	82.06
235.349	84.06
235.583	78.06
235.817	81.06
236.051	76.06
236.285	86.06
236.519	76.06
236.753	76.06
236.987	77.06
237.221	69.06
237.455	80.06
237.689	83.06
237.922	76.06
238.156	84.06
238.39	77.06
238.624	77.06
238.858	76.06
239.091	71.06
239.325	76.06
239.559	86.06
239.793	78.06
240.027	78.06
240.26	73.06
240.494	78.06
240.728	77.06
240.961	83.06
241.195	76.06
241.429	80.06
241.662	76.06
241.896	73.06
242.13	77.06
242.363	72.06
242.597	70.06
242.83	82.06
243.064	84.06
243.298	74.06
243.531	77.06
243.765	85.06
243.998	78.06
244.232	74.06
244.465	75.06
244.699	69.06
244.932	77.06
245.166	72.06
245.399	92.06
245.633	60.06
245.866	71.06
246.099	83.06
246.333	83.06
246.566	82.06
246.8	83.06
247.033	90.06
247.266	80.06
247.5	87.06
247.733	78.06
247.966	77.06
248.2	93.06
248.433	77.06
248.666	77.06
248.899	83.06
249.133	73.06
249.366	74.06
249.599	73.06
249.832	84.06
250.066	89.06
250.299	79.06
250.532	71.06
250.765	84.06
250.998	87.06
251.231	76.06
251.465	93.06
251.698	68.06
251.931	88.06
252.164	84.06
252.397	77.06
252.63	84.06
252.863	73.06
253.096	80.06
253.329	74.06
253.562	85.06
253.795	81.06
254.028	69.06
254.261	82.06
254.494	64.06
254.727	76.06
254.96	87.06
255.193	87.06
255.426	100.06
255.659	87.06
255.892	82.06
256.124	74.06
256.357	76.06
256.59	81.06
256.823	76.06
257.056	75.06
257.289	68.06
257.521	74.06
257.754	91.06
257.987	76.06
258.22	80.06
258.452	87.06
258.685	90.06
258.918	84.06
259.151	91.06
259.383	75.06
259.616	81.06
259.849	84.06
260.081	71.06
260.314	82.06
260.547	96.06
260.779	83.06
261.012	100.06
261.244	90.06
261.477	82.06
261.71	85.06
261.942	90.06
262.175	84.06
262.407	98.06
262.64	83.06
262.872	85.06
263.105	84.06
263.337	84.06
263.57	84.06
263.802	77.06
264.035	74.06
264.267	80.06
264.499	77.06
264.732	78.06
264.964	93.06
265.197	73.06
265.429	74.06
265.661	87.06
265.894	83.06
266.126	69.06
266.358	86.06
266.591	86.06
266.823	77.06
267.055	84.06
267.287	89.06
267.52	87.06
267.752	92.06
267.984	84.06
268.216	79.06
268.448	87.06
268.681	84.06
268.913	76.06
269.145	79.06
269.377	71.06
269.609	100.06
269.841	90.06
270.073	90.06
270.306	91.06
270.538	79.06
270.77	78.06
271.002	84.06
271.234	86.06
271.466	84.06
271.698	63.06
271.93	80.06
272.162	77.06
272.394	92.06
272.626	84.06
272.858	89.06
273.09	88.06
273.322	76.06
273.553	84.06
273.785	78.06
274.017	87.06
274.249	78.06
274.481	84.06
274.713	89.06
274.945	77.06
275.176	95.06
275.408	93.06
275.64	79.06
275.872	86.06
276.104	76.06
276.335	86.06
276.567	82.06
276.799	74.06
277.031	84.06
277.262	82.06
277.494	78.06
277.726	75.06
277.957	89.06
278.189	75.06
278.421	72.06
278.652	70.06
278.884	90.06
279.115	87.06
279.347	77.06
279.579	88.06
279.81	79.06
280.042	84.06
280.273	84.06
280.505	80.06
280.736	82.06
280.968	73.06
281.199	77.06
281.431	76.06
281.662	88.06
281.894	80.06
282.125	82.06
282.356	89.06
282.588	78.06
282.819	84.06
283.051	87.06
283.282	78.06
283.513	67.06
283.745	86.06
283.976	88.06
284.207	91.06
284.439	77.06
284.67	85.06
284.901	79.06
285.132	82.06
285.364	81.06
285.595	87.06
285.826	93.06
286.057	85.06
286.288	92.06
286.52	78.06
286.751	78.06
286.982	67.06
287.213	77.06
287.444	86.06
287.675	94.06
287.906	93.06
288.138	86.06
288.369	82.06
288.6	85.06
288.831	82.06
289.062	88.06
289.293	73.06
289.524	93.06
289.755	89.06
289.986	90.06
290.217	81.06
290.448	83.06
290.679	98.06
290.91	94.06
291.141	71.06
291.371	89.06
291.602	83.06
291.833	76.06
292.064	77.06
292.295	65.06
292.526	93.06
292.757	89.06
292.987	93.06
293.218	89.06
293.449	72.06
293.68	80.06
293.91	82.06
294.141	92.06
294.372	79.06
294.603	81.06
294.833	85.06
295.064	93.06
295.295	78.06
295.525	90.06
295.756	101.06
295.987	62.06
296.217	96.06
296.448	82.06
296.679	89.06
296.909	86.06
297.14	78.06
297.37	88.06
297.601	93.06
297.831	75.06
298.062	88.06
298.292	74.06
298.523	79.06
298.753	79.06
298.984	94.06
299.214	83.06
299.445	84.06
299.675	84.06
299.905	85.06
300.136	99.06
300.366	79.06
300.597	90.06
300.827	105.06
301.057	102.06
301.288	89.06
301.518	85.06
301.748	87.06
301.979	113.06
302.209	96.06
302.439	77.06
302.669	73.06
302.9	88.06
303.13	93.06
303.36	81.06
303.59	91.06
303.82	89.06
304.051	81.06
304.281	86.06
304.511	84.06
304.741	92.06
304.971	98.06
305.201	77.06
305.431	94.06
305.661	77.06
305.891	93.06
306.121	75.06
306.352	90.06
306.582	84.06
306.812	88.06
307.042	94.06
307.272	74.06
307.502	72.06
307.731	98.06
307.961	69.06
308.191	87.06
308.421	86.06
308.651	72.06
308.881	84.06
309.111	82.06
309.341	76.06
309.571	74.06
309.8	74.06
310.03	83.06
310.26	88.06
310.49	81.06
310.72	88.06
310.949	88.06
311.179	84.06
311.409	96.06
311.639	86.06
311.868	80.06
312.098	91.06
312.328	89.06
312.557	84.06
312.787	85.06
313.017	76.06
313.246	78.06
313.476	89.06
313.706	92.06
313.935	86.06
314.165	87.06
314.394	85.06
314.624	86.06
314.853	86.06
315.083	68.06
315.312	77.06
315.542	91.06
315.771	90.06
316.001	93.06
316.23	91.06
316.46	80.06
316.689	88.06
316.919	85.06
317.148	81.06
317.377	85.06
317.607	94.06
317.836	96.06
318.065	77.06
318.295	91.06
318.524	89.06
318.753	83.06
318.983	76.06
319.212	93.06
319.441	84.06
319.67	89.06
319.9	83.06
320.129	80.06
320.358	98.06
320.587	94.06
320.816	77.06
321.046	77.06
321.275	80.06
321.504	85.06
321.733	78.06
321.962	96.06
322.191	98.06
322.42	76.06
322.649	74.06
322.878	89.06
323.108	86.06
323.337	88.06
323.566	79.06
323.795	78.06
324.024	97.06
324.253	78.06
324.482	93.06
324.71	103.06
324.939	81.06
325.168	86.06
325.397	91.06
325.626	81.06
325.855	83.06
326.084	88.06
326.313	82.06
326.542	78.06
326.77	88.06
326.999	74.06
327.228	92.06
327.457	86.06
327.686	95.06
327.914	83.06
328.143	89.06
328.372	90.06
328.6	90.06
328.829	83.06
329.058	80.06
329.287	77.06
329.515	84.06
329.744	89.06
329.972	82.06
330.201	77.06
330.43	94.06
330.658	90.06
330.887	74.06
331.115	83.06
331.344	80.06
331.572	81.06
331.801	78.06
332.03	87.06
332.258	84.06
332.486	81.06
332.715	94.06
332.943	96.06
333.172	90.06
333.4	79.06
333.629	98.06
333.857	90.06
334.085	80.06
334.314	72.06
334.542	87.06
334.771	90.06
334.999	85.06
335.227	77.06
335.455	88.06
335.684	90.06
335.912	87.06
336.14	89.06
336.369	98.06
336.597	80.06
336.825	69.06
337.053	68.06
337.281	75.06
337.51	85.06
337.738	89.06
337.966	87.06
338.194	74.06
338.422	85.06
338.65	83.06
338.878	70.06
339.106	74.06
339.334	94.06
339.562	85.06
339.79	89.06
340.018	92.06
340.246	87.06
340.474	75.06
340.702	90.06
340.93	81.06
341.158	84.06
341.386	80.06
341.614	88.06
341.842	90.06
342.07	64.06
342.298	88.06
342.526	93.06
342.754	87.06
342.981	98.06
343.209	89.06
343.437	85.06
343.665	91.06
343.893	84.06
344.12	82.06
344.348	86.06
344.576	83.06
344.804	84.06
345.031	87.06
345.259	92.06
345.487	82.06
345.714	78.06
345.942	70.06
346.17	84.06
346.397	72.06
346.625	85.06
346.853	86.06
347.08	84.06
347.308	88.06
347.535	89.06
347.763	83.06
347.99	101.06
348.218	78.06
348.445	85.06
348.673	85.06
348.9	77.06
349.128	94.06
349.355	83.06
349.583	74.06
349.81	90.06
350.037	78.06
350.265	79.06
350.492	88.06
350.72	92.06
350.947	85.06
351.174	85.06
351.402	94.06
351.629	84.06
351.856	96.06
352.083	90.06
352.311	78.06
352.538	81.06
352.765	82.06
352.992	79.06
353.22	84.06
353.447	94.06
353.674	90.06
353.901	89.06
354.128	89.06
354.355	89.06
354.583	83.06
354.81	92.06
355.037	93.06
355.264	75.06
355.491	84.06
355.718	74.06
355.945	88.06
356.172	81.06
356.399	77.06
356.626	76.06
356.853	85.06
357.08	83.06
357.307	84.06
357.534	88.06
357.761	91.06
357.988	88.06
358.215	81.06
358.441	88.06
358.668	80.06
358.895	64.06
359.122	81.06
359.349	89.06
359.576	97.06
359.802	85.06
360.029	78.06
360.256	87.06
360.483	75.06
360.709	76.06
360.936	92.06
361.163	83.06
361.39	81.06
361.616	64.06
361.843	95.06
362.07	91.06
362.296	99.06
362.523	80.06
362.749	84.06
362.976	64.06
363.203	91.06
363.429	80.06
363.656	71.06
363.882	71.06
364.109	96.06
364.335	88.06
364.562	82.06
364.788	84.06
365.015	90.06
365.241	78.06
365.468	81.06
365.694	84.06
365.92	78.06
366.147	91.06
366.373	85.06
366.599	89.06
366.826	85.06
367.052	74.06
367.278	100.06
367.505	108.06
367.731	93.06
367.957	89.06
368.184	80.06
368.41	107.06
368.636	80.06
368.862	79.06
369.089	88.06
369.315	102.06
369.541	81.06
369.767	86.06
369.993	86.06
370.219	73.06
370.445	97.06
370.672	98.06
370.898	76.06
371.124	94.06
371.35	99.06
371.576	94.06
371.802	92.06
372.028	90.06
372.254	89.06
372.48	88.06
372.706	102.06
372.932	99.06
373.158	89.06
373.384	94.06
373.61	101.06
373.835	95.06
374.061	85.06
374.287	91.06
374.513	82.06
374.739	90.06
374.965	98.06
375.191	115.06
375.416	102.06
375.642	106.06
375.868	80.06
376.094	100.06
376.319	93.06
376.545	94.06
376.771	105.06
376.997	87.06
377.222	76.06
377.448	90.06
377.674	92.06
377.899	93.06
378.125	78.06
378.35	93.06
378.576	88.06
378.802	85.06
379.027	100.06
379.253	93.06
379.478	88.06
379.704	88.06
379.929	91.06
380.155	90.06
380.38	106.06
380.606	96.06
380.831	104.06
381.057	98.06
381.282	92.06
381.507	81.06
381.733	99.06
381.958	89.06
382.184	95.06
382.409	106.06
382.634	94.06
382.86	95.06
383.085	91.06
383.31	92.06
383.535	91.06
383.761	98.06
383.986	80.06
384.211	99.06
384.436	97.06
384.662	105.06
384.887	104.06
385.112	99.06
385.337	99.06
385.562	99.06
385.787	93.06
386.013	112.06
386.238	93.06
386.463	116.06
386.688	109.06
386.913	110.06
387.138	98.06
387.363	104.06
387.588	87.06
387.813	78.06
388.038	92.06
388.263	87.06
388.488	96.06
388.713	100.06
388.938	91.06
389.163	93.06
389.387	95.06
389.612	94.06
389.837	109.06
390.062	104.06
390.287	96.06
390.512	94.06
390.736	93.06
390.961	109.06
391.186	97.06
391.411	106.06
391.636	101.06
391.86	120.06
392.085	113.06
392.31	105.06
392.534	120.06
392.759	109.06
392.984	111.06
393.208	97.06
393.433	102.06
393.658	104.06
393.882	105.06
394.107	115.06
394.331	102.06
394.556	98.06
394.78	93.06
395.005	101.06
395.229	117.06
395.454	112.06
395.678	112.06
395.903	105.06
396.127	116.06
396.352	104.06
396.576	120.06
396.801	101.06
397.025	117.06
397.249	110.06
397.474	105.06
397.698	119.06
397.922	107.06
398.147	100.06
398.371	103.06
398.595	106.06
398.82	103.06
399.044	101.06
399.268	109.06
399.492	119.06
399.717	110.06
399.941	116.06
400.165	116.06
400.389	113.06
400.613	106.06
400.837	120.06
401.062	116.06
401.286	109.06
401.51	112.06
401.734	115.06
401.958	112.06
402.182	99.06
402.406	104.06
402.63	125.06
402.854	113.06
403.078	112.06
403.302	119.06
403.526	102.06
403.75	128.06
403.974	119.06
404.198	114.06
404.422	119.06
404.645	116.06
404.869	113.06
405.093	117.06
405.317	126.06
405.541	105.06
405.765	105.06
405.988	112.06
406.212	117.06
406.436	117.06
406.66	124.06
406.883	110.06
407.107	110.06
407.331	124.06
407.555	125.06
407.778	124.06
408.002	125.06
408.226	101.06
408.449	114.06
408.673	117.06
408.896	122.06
409.12	116.06
409.344	124.06
409.567	119.06
409.791	117.06
410.014	121.06
410.238	125.06
410.461	116.06
410.685	145.06
410.908	121.06
411.132	124.06
411.355	131.06
411.578	125.06
411.802	109.06
412.025	121.06
412.249	125.06
412.472	121.06
412.695	107.06
412.919	119.06
413.142	113.06
413.365	113.06
413.589	127.06
413.812	137.06
414.035	116.06
414.258	128.06
414.482	124.06
414.705	112.06
414.928	125.06
415.151	116.06
415.374	120.06
415.597	130.06
415.821	119.06
416.044	121.06
416.267	130.06
416.49	118.06
416.713	124.06
416.936	134.06
417.159	123.06
417.382	122.06
417.605	118.06
417.828	129.06
418.051	125.06
418.274	121.06
418.497	120.06
418.72	144.06
418.943	129.06
419.166	136.06
419.389	127.06
419.611	126.06
419.834	134.06
420.057	134.06
420.28	133.06
420.503	129.06
420.726	136.06
420.948	129.06
421.171	122.06
421.394	138.06
421.617	158.06
421.839	152.06
422.062	141.06
422.285	134.06
422.507	137.06
422.73	134.06
422.953	130.06
423.175	128.06
423.398	120.06
423.621	113.06
423.843	125.06
424.066	122.06
424.288	149.06
424.511	144.06
424.733	126.06
424.956	139.06
425.178	141.06
425.401	138.06
425.623	140.06
425.846	143.06
426.068	132.06
426.291	124.06
426.513	130.06
426.735	126.06
426.958	133.06
427.18	109.06
427.402	119.06
427.625	137.06
427.847	142.06
428.069	134.06
428.292	136.06
428.514	122.06
428.736	128.06
428.958	127.06
429.181	119.06
429.403	116.06
429.625	137.06
429.847	118.06
430.069	117.06
430.292	133.06
430.514	117.06
430.736	146.06
430.958	124.06
431.18	118.06
431.402	128.06
431.624	128.06
431.846	105.06
432.068	94.06
432.29	109.06
432.512	108.06
432.734	113.06
432.956	130.06
433.178	146.06
433.4	143.06
433.622	132.06
433.844	130.06
434.066	126.06
434.287	100.06
434.509	92.06
434.731	102.06
434.953	118.06
435.175	122.06
435.397	132.06
435.618	111.06
435.84	111.06
436.062	130.06
436.284	130.06
436.505	126.06
436.727	130.06
436.949	133.06
437.17	131.06
437.392	110.06
437.614	112.06
437.835	104.06
438.057	110.06
438.278	112.06
438.5	108.06
438.721	126.06
438.943	130.06
439.165	143.06
439.386	143.06
439.608	162.06
439.829	122.06
440.05	140.06
440.272	146.06
440.493	138.06
440.715	148.06
440.936	144.06
441.158	149.06
441.379	138.06
441.6	141.06
441.822	141.06
442.043	147.06
442.264	131.06
442.486	146.06
442.707	141.06
442.928	141.06
443.149	138.06
443.371	130.06
443.592	132.06
443.813	137.06
444.034	118.06
444.255	148.06
444.476	131.06
444.698	136.06
444.919	141.06
445.14	248.06
445.361	187.06
445.582	157.06
445.803	153.06
446.024	148.06
446.245	141.06
446.466	152.06
446.687	152.06
446.908	151.06
447.129	163.06
447.35	141.06
447.571	143.06
447.792	148.06
448.013	137.06
448.234	154.06
448.455	141.06
448.675	141.06
448.896	128.06
449.117	127.06
449.338	138.06
449.559	153.06
449.779	137.06
450	150.06
450.221	124.06
450.442	154.06
450.662	132.06
450.883	134.06
451.104	134.06
451.324	123.06
451.545	126.06
451.766	143.06
451.986	117.06
452.207	132.06
452.428	134.06
452.648	120.06
452.869	120.06
453.089	112.06
453.31	109.06
453.53	109.06
453.751	116.06
453.971	105.06
454.192	83.06
454.412	118.06
454.633	105.06
454.853	130.06
455.073	113.06
455.294	113.06
455.514	116.06
455.734	123.06
455.955	112.06
456.175	97.06
456.395	107.06
456.616	110.06
456.836	113.06
457.056	105.06
457.276	120.06
457.497	116.06
457.717	117.06
457.937	112.06
458.157	111.06
458.377	85.06
458.598	107.06
458.818	103.06
459.038	81.06
459.258	88.06
459.478	78.06
459.698	96.06
459.918	94.06
460.138	120.06
460.358	109.06
460.578	111.06
460.798	122.06
461.018	113.06
461.238	121.06
461.458	128.06
461.678	116.06
461.898	98.06
462.118	120.06
462.338	116.06
462.558	113.06
462.777	110.06
462.997	96.06
463.217	117.06
463.437	108.06
463.657	114.06
463.876	111.06
464.096	124.06
464.316	108.06
464.536	120.06
464.755	123.06
464.975	122.06
465.195	112.06
465.414	112.06
465.634	100.06
465.854	108.06
466.073	123.06
466.293	118.06
466.512	136.06
466.732	132.06
466.951	140.06
467.171	142.06
467.391	133.06
467.61	132.06
467.829	137.06
468.049	140.06
468.268	135.06
468.488	147.06
468.707	133.06
468.927	131.06
469.146	138.06
469.365	136.06
469.585	149.06
469.804	138.06
470.023	154.06
470.243	155.06
470.462	149.06
470.681	149.06
470.901	154.06
471.12	143.06
471.339	147.06
471.558	140.06
471.777	142.06
471.997	133.06
472.216	138.06
472.435	125.06
472.654	112.06
472.873	121.06
473.092	113.06
473.311	126.06
473.53	122.06
473.749	123.06
473.968	135.06
474.187	131.06
474.406	117.06
474.625	132.06
474.844	149.06
475.063	122.06
475.282	119.06
475.501	136.06
475.72	144.06
475.939	132.06
476.158	125.06
476.377	131.06
476.596	125.06
476.814	110.06
477.033	115.06
477.252	121.06
477.471	118.06
477.69	134.06
477.908	143.06
478.127	148.06
478.346	127.06
478.564	117.06
478.783	135.06
479.002	159.06
479.22	140.06
479.439	128.06
479.658	114.06
479.876	108.06
480.095	116.06
480.313	121.06
480.532	118.06
480.751	121.06
480.969	114.06
481.188	100.06
481.406	106.06
481.624	89.06
481.843	93.06
482.061	103.06
482.28	128.06
482.498	118.06
482.717	105.06
482.935	125.06
483.153	142.06
483.372	145.06
483.59	142.06
483.808	136.06
484.027	145.06
484.245	126.06
484.463	142.06
484.681	160.06
484.9	139.06
485.118	134.06
485.336	132.06
485.554	115.06
485.772	107.06
485.99	99.06
486.209	99.06
486.427	120.06
486.645	120.06
486.863	132.06
487.081	141.06
487.299	127.06
487.517	141.06
487.735	170.06
487.953	188.06
488.171	172.06
488.389	171.06
488.607	155.06
488.825	132.06
489.043	137.06
489.261	150.06
489.479	136.06
489.696	148.06
489.914	154.06
490.132	150.06
490.35	151.06
490.568	157.06
490.786	158.06
491.003	165.06
491.221	178.06
491.439	168.06
491.657	176.06
491.874	215.06
492.092	225.06
492.31	238.06
492.527	205.06
492.745	205.06
492.963	201.06
493.18	189.06
493.398	178.06
493.615	188.06
493.833	180.06
494.05	186.06
494.268	173.06
494.485	164.06
494.703	172.06
494.92	187.06
495.138	161.06
495.355	169.06
495.573	168.06
495.79	165.06
496.008	178.06
496.225	158.06
496.442	148.06
496.66	164.06
496.877	151.06
497.094	158.06
497.312	150.06
497.529	155.06
497.746	142.06
497.963	146.06
498.181	131.06
498.398	120.06
498.615	133.06
498.832	121.06
499.049	129.06
499.267	129.06
499.484	124.06
499.701	124.06
499.918	138.06
500.135	130.06
500.352	133.06
500.569	132.06
500.786	140.06
501.003	145.06
501.22	128.06
501.437	136.06
501.654	150.06
501.871	130.06
502.088	134.06
502.305	132.06
502.522	135.06
502.739	130.06
502.956	141.06
503.172	121.06
503.389	124.06
503.606	120.06
503.823	116.06
504.04	123.06
504.256	128.06
504.473	121.06
504.69	121.06
504.907	119.06
505.123	126.06
505.34	123.06
505.557	116.06
505.773	131.06
505.99	116.06
506.207	130.06
506.423	126.06
506.64	140.06
506.856	116.06
507.073	132.06
507.289	122.06
507.506	109.06
507.722	113.06
507.939	103.06
508.155	115.06
508.372	108.06
508.588	107.06
508.805	125.06
509.021	112.06
509.238	112.06
509.454	109.06
509.67	112.06
509.887	93.06
510.103	101.06
510.319	72.06
510.536	99.06
510.752	93.06
510.968	84.06
511.184	95.06
511.401	97.06
511.617	95.06
