Data from Location2.07152019.Energy5.Lamp.07192019.3%Agarose_HRD10591_14-56-40-358.txt Node
Date: Fri Jul 19 14:56:40 EDT 2019
User: cochatt
Spectrometer: HR+D1059
Trigger mode: 1
Integration Time (sec): 1.000000E-1
Scans to average: 1
Electric dark correction enabled: true
Nonlinearity correction enabled: false
Boxcar width: 0
XAxis mode: Wavelengths
Number of Pixels in Spectrum: 2048
>>>>>Begin Spectral Data<<<<<
223.165	-13.19
223.4	-13.19
223.635	-13.19
223.869	-21.19
224.104	-15.19
224.338	-10.19
224.573	-19.19
224.808	-7.19
225.042	-4.19
225.277	1.81
225.511	-13.19
225.746	0.81
225.98	3.81
226.215	12.81
226.449	13.81
226.683	8.81
226.918	25.81
227.152	35.81
227.387	36.81
227.621	35.81
227.856	51.81
228.09	29.81
228.324	54.81
228.559	59.81
228.793	56.81
229.027	68.81
229.262	62.81
229.496	70.81
229.73	64.81
229.964	65.81
230.199	84.81
230.433	77.81
230.667	84.81
230.901	77.81
231.136	82.81
231.37	80.81
231.604	78.81
231.838	76.81
232.072	81.81
232.306	68.81
232.541	101.81
232.775	79.81
233.009	86.81
233.243	93.81
233.477	94.81
233.711	86.81
233.945	83.81
234.179	99.81
234.413	71.81
234.647	82.81
234.881	87.81
235.115	85.81
235.349	86.81
235.583	86.81
235.817	70.81
236.051	79.81
236.285	93.81
236.519	82.81
236.753	90.81
236.987	77.81
237.221	86.81
237.455	75.81
237.689	77.81
237.922	81.81
238.156	79.81
238.39	88.81
238.624	82.81
238.858	69.81
239.091	82.81
239.325	85.81
239.559	78.81
239.793	72.81
240.027	77.81
240.26	79.81
240.494	73.81
240.728	70.81
240.961	95.81
241.195	80.81
241.429	84.81
241.662	85.81
241.896	76.81
242.13	73.81
242.363	77.81
242.597	73.81
242.83	77.81
243.064	76.81
243.298	81.81
243.531	83.81
243.765	82.81
243.998	78.81
244.232	79.81
244.465	90.81
244.699	101.81
244.932	89.81
245.166	85.81
245.399	84.81
245.633	85.81
245.866	82.81
246.099	82.81
246.333	75.81
246.566	78.81
246.8	78.81
247.033	81.81
247.266	80.81
247.5	75.81
247.733	73.81
247.966	83.81
248.2	79.81
248.433	87.81
248.666	72.81
248.899	85.81
249.133	76.81
249.366	81.81
249.599	84.81
249.832	92.81
250.066	61.81
250.299	78.81
250.532	72.81
250.765	84.81
250.998	88.81
251.231	75.81
251.465	101.81
251.698	72.81
251.931	80.81
252.164	92.81
252.397	84.81
252.63	68.81
252.863	77.81
253.096	73.81
253.329	78.81
253.562	89.81
253.795	69.81
254.028	62.81
254.261	88.81
254.494	87.81
254.727	97.81
254.96	78.81
255.193	87.81
255.426	88.81
255.659	94.81
255.892	90.81
256.124	89.81
256.357	78.81
256.59	83.81
256.823	81.81
257.056	93.81
257.289	75.81
257.521	88.81
257.754	79.81
257.987	80.81
258.22	85.81
258.452	75.81
258.685	82.81
258.918	91.81
259.151	83.81
259.383	89.81
259.616	72.81
259.849	85.81
260.081	90.81
260.314	68.81
260.547	87.81
260.779	85.81
261.012	86.81
261.244	85.81
261.477	79.81
261.71	79.81
261.942	95.81
262.175	77.81
262.407	92.81
262.64	89.81
262.872	92.81
263.105	85.81
263.337	75.81
263.57	68.81
263.802	85.81
264.035	84.81
264.267	83.81
264.499	82.81
264.732	90.81
264.964	92.81
265.197	74.81
265.429	78.81
265.661	77.81
265.894	76.81
266.126	92.81
266.358	84.81
266.591	82.81
266.823	86.81
267.055	84.81
267.287	86.81
267.52	76.81
267.752	70.81
267.984	84.81
268.216	108.81
268.448	76.81
268.681	82.81
268.913	92.81
269.145	99.81
269.377	88.81
269.609	97.81
269.841	97.81
270.073	80.81
270.306	71.81
270.538	78.81
270.77	73.81
271.002	89.81
271.234	69.81
271.466	88.81
271.698	87.81
271.93	85.81
272.162	83.81
272.394	93.81
272.626	66.81
272.858	94.81
273.09	81.81
273.322	84.81
273.553	78.81
273.785	86.81
274.017	100.81
274.249	82.81
274.481	81.81
274.713	81.81
274.945	82.81
275.176	87.81
275.408	83.81
275.64	72.81
275.872	89.81
276.104	92.81
276.335	89.81
276.567	80.81
276.799	77.81
277.031	87.81
277.262	84.81
277.494	89.81
277.726	90.81
277.957	88.81
278.189	89.81
278.421	103.81
278.652	76.81
278.884	74.81
279.115	87.81
279.347	84.81
279.579	80.81
279.81	78.81
280.042	72.81
280.273	66.81
280.505	82.81
280.736	91.81
280.968	78.81
281.199	79.81
281.431	84.81
281.662	84.81
281.894	83.81
282.125	82.81
282.356	80.81
282.588	86.81
282.819	84.81
283.051	81.81
283.282	81.81
283.513	90.81
283.745	82.81
283.976	86.81
284.207	86.81
284.439	82.81
284.67	81.81
284.901	89.81
285.132	100.81
285.364	83.81
285.595	89.81
285.826	85.81
286.057	97.81
286.288	89.81
286.52	75.81
286.751	81.81
286.982	96.81
287.213	84.81
287.444	85.81
287.675	79.81
287.906	102.81
288.138	73.81
288.369	85.81
288.6	77.81
288.831	66.81
289.062	92.81
289.293	88.81
289.524	101.81
289.755	77.81
289.986	84.81
290.217	82.81
290.448	82.81
290.679	89.81
290.91	83.81
291.141	84.81
291.371	85.81
291.602	91.81
291.833	86.81
292.064	85.81
292.295	82.81
292.526	77.81
292.757	73.81
292.987	88.81
293.218	78.81
293.449	90.81
293.68	77.81
293.91	74.81
294.141	82.81
294.372	87.81
294.603	89.81
294.833	89.81
295.064	83.81
295.295	89.81
295.525	80.81
295.756	87.81
295.987	86.81
296.217	95.81
296.448	87.81
296.679	72.81
296.909	78.81
297.14	83.81
297.37	90.81
297.601	88.81
297.831	88.81
298.062	81.81
298.292	78.81
298.523	83.81
298.753	87.81
298.984	95.81
299.214	69.81
299.445	90.81
299.675	79.81
299.905	79.81
300.136	81.81
300.366	80.81
300.597	80.81
300.827	82.81
301.057	88.81
301.288	96.81
301.518	86.81
301.748	102.81
301.979	82.81
302.209	82.81
302.439	93.81
302.669	75.81
302.9	81.81
303.13	82.81
303.36	92.81
303.59	93.81
303.82	84.81
304.051	87.81
304.281	100.81
304.511	97.81
304.741	79.81
304.971	90.81
305.201	85.81
305.431	76.81
305.661	95.81
305.891	87.81
306.121	97.81
306.352	81.81
306.582	85.81
306.812	85.81
307.042	101.81
307.272	81.81
307.502	80.81
307.731	83.81
307.961	83.81
308.191	75.81
308.421	76.81
308.651	95.81
308.881	99.81
309.111	84.81
309.341	93.81
309.571	92.81
309.8	83.81
310.03	84.81
310.26	92.81
310.49	83.81
310.72	84.81
310.949	88.81
311.179	77.81
311.409	86.81
311.639	83.81
311.868	85.81
312.098	85.81
312.328	93.81
312.557	90.81
312.787	89.81
313.017	94.81
313.246	87.81
313.476	76.81
313.706	89.81
313.935	85.81
314.165	86.81
314.394	65.81
314.624	91.81
314.853	93.81
315.083	90.81
315.312	84.81
315.542	90.81
315.771	84.81
316.001	90.81
316.23	97.81
316.46	78.81
316.689	78.81
316.919	82.81
317.148	97.81
317.377	96.81
317.607	79.81
317.836	73.81
318.065	86.81
318.295	90.81
318.524	79.81
318.753	75.81
318.983	77.81
319.212	75.81
319.441	98.81
319.67	82.81
319.9	85.81
320.129	93.81
320.358	88.81
320.587	95.81
320.816	99.81
321.046	105.81
321.275	85.81
321.504	93.81
321.733	98.81
321.962	77.81
322.191	95.81
322.42	77.81
322.649	107.81
322.878	78.81
323.108	84.81
323.337	86.81
323.566	76.81
323.795	81.81
324.024	78.81
324.253	74.81
324.482	82.81
324.71	80.81
324.939	97.81
325.168	92.81
325.397	77.81
325.626	92.81
325.855	81.81
326.084	69.81
326.313	91.81
326.542	73.81
326.77	91.81
326.999	91.81
327.228	68.81
327.457	78.81
327.686	75.81
327.914	92.81
328.143	85.81
328.372	91.81
328.6	79.81
328.829	93.81
329.058	68.81
329.287	74.81
329.515	81.81
329.744	82.81
329.972	79.81
330.201	85.81
330.43	80.81
330.658	73.81
330.887	88.81
331.115	93.81
331.344	92.81
331.572	95.81
331.801	88.81
332.03	90.81
332.258	93.81
332.486	83.81
332.715	83.81
332.943	87.81
333.172	89.81
333.4	81.81
333.629	90.81
333.857	81.81
334.085	98.81
334.314	73.81
334.542	85.81
334.771	86.81
334.999	98.81
335.227	93.81
335.455	76.81
335.684	94.81
335.912	88.81
336.14	75.81
336.369	74.81
336.597	79.81
336.825	80.81
337.053	90.81
337.281	85.81
337.51	78.81
337.738	91.81
337.966	84.81
338.194	98.81
338.422	79.81
338.65	92.81
338.878	62.81
339.106	78.81
339.334	76.81
339.562	84.81
339.79	95.81
340.018	90.81
340.246	94.81
340.474	77.81
340.702	82.81
340.93	97.81
341.158	91.81
341.386	68.81
341.614	90.81
341.842	78.81
342.07	91.81
342.298	88.81
342.526	81.81
342.754	71.81
342.981	83.81
343.209	90.81
343.437	85.81
343.665	84.81
343.893	91.81
344.12	93.81
344.348	87.81
344.576	85.81
344.804	93.81
345.031	92.81
345.259	85.81
345.487	77.81
345.714	87.81
345.942	93.81
346.17	96.81
346.397	84.81
346.625	81.81
346.853	93.81
347.08	73.81
347.308	77.81
347.535	75.81
347.763	81.81
347.99	101.81
348.218	80.81
348.445	72.81
348.673	80.81
348.9	84.81
349.128	91.81
349.355	73.81
349.583	86.81
349.81	78.81
350.037	90.81
350.265	85.81
350.492	79.81
350.72	77.81
350.947	88.81
351.174	91.81
351.402	90.81
351.629	86.81
351.856	82.81
352.083	74.81
352.311	85.81
352.538	84.81
352.765	100.81
352.992	101.81
353.22	81.81
353.447	93.81
353.674	80.81
353.901	84.81
354.128	87.81
354.355	87.81
354.583	62.81
354.81	81.81
355.037	91.81
355.264	75.81
355.491	86.81
355.718	81.81
355.945	79.81
356.172	84.81
356.399	90.81
356.626	82.81
356.853	93.81
357.08	81.81
357.307	91.81
357.534	81.81
357.761	79.81
357.988	71.81
358.215	79.81
358.441	66.81
358.668	80.81
358.895	82.81
359.122	85.81
359.349	77.81
359.576	81.81
359.802	67.81
360.029	98.81
360.256	82.81
360.483	95.81
360.709	93.81
360.936	85.81
361.163	81.81
361.39	69.81
361.616	83.81
361.843	92.81
362.07	81.81
362.296	103.81
362.523	89.81
362.749	83.81
362.976	81.81
363.203	83.81
363.429	74.81
363.656	74.81
363.882	70.81
364.109	90.81
364.335	98.81
364.562	88.81
364.788	89.81
365.015	80.81
365.241	88.81
365.468	94.81
365.694	73.81
365.92	83.81
366.147	92.81
366.373	77.81
366.599	88.81
366.826	85.81
367.052	84.81
367.278	80.81
367.505	83.81
367.731	96.81
367.957	80.81
368.184	81.81
368.41	106.81
368.636	91.81
368.862	83.81
369.089	79.81
369.315	85.81
369.541	91.81
369.767	91.81
369.993	82.81
370.219	80.81
370.445	99.81
370.672	75.81
370.898	98.81
371.124	109.81
371.35	93.81
371.576	98.81
371.802	85.81
372.028	87.81
372.254	88.81
372.48	100.81
372.706	86.81
372.932	87.81
373.158	94.81
373.384	98.81
373.61	84.81
373.835	91.81
374.061	82.81
374.287	100.81
374.513	95.81
374.739	105.81
374.965	90.81
375.191	92.81
375.416	87.81
375.642	112.81
375.868	99.81
376.094	101.81
376.319	105.81
376.545	91.81
376.771	73.81
376.997	97.81
377.222	92.81
377.448	82.81
377.674	88.81
377.899	93.81
378.125	96.81
378.35	86.81
378.576	97.81
378.802	115.81
379.027	97.81
379.253	86.81
379.478	103.81
379.704	92.81
379.929	102.81
380.155	100.81
380.38	97.81
380.606	100.81
380.831	89.81
381.057	102.81
381.282	99.81
381.507	92.81
381.733	99.81
381.958	105.81
382.184	94.81
382.409	106.81
382.634	97.81
382.86	86.81
383.085	96.81
383.31	102.81
383.535	107.81
383.761	91.81
383.986	99.81
384.211	91.81
384.436	96.81
384.662	101.81
384.887	114.81
385.112	93.81
385.337	100.81
385.562	92.81
385.787	103.81
386.013	101.81
386.238	95.81
386.463	108.81
386.688	112.81
386.913	97.81
387.138	96.81
387.363	95.81
387.588	105.81
387.813	117.81
388.038	96.81
388.263	91.81
388.488	94.81
388.713	93.81
388.938	86.81
389.163	93.81
389.387	109.81
389.612	78.81
389.837	109.81
390.062	102.81
390.287	92.81
390.512	92.81
390.736	101.81
390.961	101.81
391.186	94.81
391.411	109.81
391.636	90.81
391.86	120.81
392.085	106.81
392.31	117.81
392.534	106.81
392.759	96.81
392.984	114.81
393.208	106.81
393.433	102.81
393.658	103.81
393.882	102.81
394.107	121.81
394.331	95.81
394.556	102.81
394.78	97.81
395.005	101.81
395.229	115.81
395.454	104.81
395.678	109.81
395.903	109.81
396.127	106.81
396.352	122.81
396.576	107.81
396.801	88.81
397.025	123.81
397.249	116.81
397.474	104.81
397.698	119.81
397.922	94.81
398.147	113.81
398.371	101.81
398.595	105.81
398.82	97.81
399.044	107.81
399.268	101.81
399.492	107.81
399.717	109.81
399.941	112.81
400.165	105.81
400.389	112.81
400.613	119.81
400.837	114.81
401.062	108.81
401.286	120.81
401.51	110.81
401.734	106.81
401.958	97.81
402.182	113.81
402.406	117.81
402.63	110.81
402.854	110.81
403.078	97.81
403.302	115.81
403.526	124.81
403.75	119.81
403.974	119.81
404.198	123.81
404.422	105.81
404.645	119.81
404.869	112.81
405.093	115.81
405.317	107.81
405.541	117.81
405.765	109.81
405.988	114.81
406.212	124.81
406.436	122.81
406.66	128.81
406.883	126.81
407.107	109.81
407.331	121.81
407.555	114.81
407.778	118.81
408.002	120.81
408.226	128.81
408.449	122.81
408.673	118.81
408.896	117.81
409.12	120.81
409.344	113.81
409.567	128.81
409.791	109.81
410.014	115.81
410.238	113.81
410.461	113.81
410.685	119.81
410.908	120.81
411.132	115.81
411.355	103.81
411.578	140.81
411.802	114.81
412.025	113.81
412.249	116.81
412.472	130.81
412.695	121.81
412.919	129.81
413.142	124.81
413.365	117.81
413.589	115.81
413.812	136.81
414.035	103.81
414.258	114.81
414.482	123.81
414.705	125.81
414.928	121.81
415.151	127.81
415.374	131.81
415.597	117.81
415.821	137.81
416.044	130.81
416.267	134.81
416.49	135.81
416.713	124.81
416.936	124.81
417.159	117.81
417.382	130.81
417.605	131.81
417.828	129.81
418.051	127.81
418.274	129.81
418.497	130.81
418.72	133.81
418.943	129.81
419.166	130.81
419.389	137.81
419.611	135.81
419.834	126.81
420.057	145.81
420.28	124.81
420.503	124.81
420.726	126.81
420.948	132.81
421.171	128.81
421.394	139.81
421.617	146.81
421.839	133.81
422.062	152.81
422.285	137.81
422.507	124.81
422.73	122.81
422.953	117.81
423.175	127.81
423.398	125.81
423.621	120.81
423.843	119.81
424.066	128.81
424.288	138.81
424.511	152.81
424.733	143.81
424.956	129.81
425.178	136.81
425.401	124.81
425.623	137.81
425.846	148.81
426.068	130.81
426.291	151.81
426.513	140.81
426.735	141.81
426.958	132.81
427.18	132.81
427.402	138.81
427.625	134.81
427.847	133.81
428.069	131.81
428.292	121.81
428.514	115.81
428.736	133.81
428.958	133.81
429.181	133.81
429.403	125.81
429.625	141.81
429.847	138.81
430.069	124.81
430.292	136.81
430.514	138.81
430.736	119.81
430.958	124.81
431.18	125.81
431.402	134.81
431.624	120.81
431.846	102.81
432.068	91.81
432.29	100.81
432.512	112.81
432.734	127.81
432.956	123.81
433.178	137.81
433.4	137.81
433.622	137.81
433.844	134.81
434.066	130.81
434.287	123.81
434.509	90.81
434.731	85.81
434.953	102.81
435.175	122.81
435.397	146.81
435.618	114.81
435.84	104.81
436.062	112.81
436.284	120.81
436.505	123.81
436.727	145.81
436.949	136.81
437.17	132.81
437.392	127.81
437.614	137.81
437.835	125.81
438.057	125.81
438.278	133.81
438.5	124.81
438.721	131.81
438.943	136.81
439.165	136.81
439.386	141.81
439.608	152.81
439.829	148.81
440.05	151.81
440.272	144.81
440.493	134.81
440.715	158.81
440.936	141.81
441.158	133.81
441.379	141.81
441.6	137.81
441.822	134.81
442.043	152.81
442.264	137.81
442.486	150.81
442.707	154.81
442.928	129.81
443.149	138.81
443.371	125.81
443.592	144.81
443.813	134.81
444.034	136.81
444.255	141.81
444.476	154.81
444.698	155.81
444.919	142.81
445.14	272.81
445.361	197.81
445.582	151.81
445.803	134.81
446.024	151.81
446.245	150.81
446.466	141.81
446.687	165.81
446.908	165.81
447.129	133.81
447.35	158.81
447.571	149.81
447.792	145.81
448.013	142.81
448.234	150.81
448.455	146.81
448.675	147.81
448.896	157.81
449.117	157.81
449.338	138.81
449.559	136.81
449.779	125.81
450	134.81
450.221	131.81
450.442	142.81
450.662	125.81
450.883	119.81
451.104	134.81
451.324	129.81
451.545	124.81
451.766	132.81
451.986	124.81
452.207	132.81
452.428	120.81
452.648	124.81
452.869	130.81
453.089	125.81
453.31	110.81
453.53	112.81
453.751	102.81
453.971	104.81
454.192	105.81
454.412	112.81
454.633	116.81
454.853	119.81
455.073	109.81
455.294	128.81
455.514	129.81
455.734	119.81
455.955	121.81
456.175	107.81
456.395	112.81
456.616	102.81
456.836	117.81
457.056	124.81
457.276	113.81
457.497	102.81
457.717	107.81
457.937	106.81
458.157	104.81
458.377	109.81
458.598	104.81
458.818	94.81
459.038	75.81
459.258	88.81
459.478	100.81
459.698	85.81
459.918	113.81
460.138	113.81
460.358	109.81
460.578	124.81
460.798	113.81
461.018	121.81
461.238	101.81
461.458	116.81
461.678	124.81
461.898	113.81
462.118	118.81
462.338	115.81
462.558	109.81
462.777	109.81
462.997	117.81
463.217	113.81
463.437	127.81
463.657	103.81
463.876	113.81
464.096	110.81
464.316	120.81
464.536	117.81
464.755	122.81
464.975	119.81
465.195	121.81
465.414	125.81
465.634	113.81
465.854	104.81
466.073	116.81
466.293	137.81
466.512	120.81
466.732	120.81
466.951	121.81
467.171	133.81
467.391	124.81
467.61	125.81
467.829	129.81
468.049	127.81
468.268	126.81
468.488	143.81
468.707	144.81
468.927	134.81
469.146	137.81
469.365	140.81
469.585	146.81
469.804	144.81
470.023	132.81
470.243	136.81
470.462	132.81
470.681	152.81
470.901	136.81
471.12	152.81
471.339	136.81
471.558	128.81
471.777	131.81
471.997	122.81
472.216	149.81
472.435	121.81
472.654	112.81
472.873	118.81
473.092	115.81
473.311	120.81
473.53	129.81
473.749	125.81
473.968	112.81
474.187	137.81
474.406	122.81
474.625	125.81
474.844	137.81
475.063	127.81
475.282	123.81
475.501	124.81
475.72	119.81
475.939	120.81
476.158	130.81
476.377	128.81
476.596	139.81
476.814	111.81
477.033	106.81
477.252	110.81
477.471	119.81
477.69	124.81
477.908	146.81
478.127	133.81
478.346	156.81
478.564	124.81
478.783	120.81
479.002	143.81
479.22	128.81
479.439	161.81
479.658	131.81
479.876	118.81
480.095	95.81
480.313	119.81
480.532	128.81
480.751	117.81
480.969	104.81
481.188	93.81
481.406	95.81
481.624	84.81
481.843	89.81
482.061	93.81
482.28	98.81
482.498	116.81
482.717	107.81
482.935	132.81
483.153	146.81
483.372	146.81
483.59	170.81
483.808	144.81
484.027	126.81
484.245	146.81
484.463	148.81
484.681	155.81
484.9	132.81
485.118	122.81
485.336	142.81
485.554	108.81
485.772	92.81
485.99	110.81
486.209	118.81
486.427	98.81
486.645	101.81
486.863	140.81
487.081	133.81
487.299	130.81
487.517	145.81
487.735	169.81
487.953	189.81
488.171	187.81
488.389	169.81
488.607	184.81
488.825	143.81
489.043	130.81
489.261	129.81
489.479	140.81
489.696	138.81
489.914	152.81
490.132	137.81
490.35	157.81
490.568	173.81
490.786	164.81
491.003	168.81
491.221	188.81
491.439	186.81
491.657	185.81
491.874	216.81
492.092	226.81
492.31	228.81
492.527	235.81
492.745	205.81
492.963	200.81
493.18	186.81
493.398	172.81
493.615	171.81
493.833	178.81
494.05	169.81
494.268	163.81
494.485	181.81
494.703	170.81
494.92	180.81
495.138	162.81
495.355	188.81
495.573	180.81
495.79	163.81
496.008	176.81
496.225	156.81
496.442	172.81
496.66	172.81
496.877	153.81
497.094	171.81
497.312	157.81
497.529	149.81
497.746	151.81
497.963	137.81
498.181	143.81
498.398	129.81
498.615	117.81
498.832	115.81
499.049	114.81
499.267	122.81
499.484	122.81
499.701	130.81
499.918	143.81
500.135	147.81
500.352	126.81
500.569	150.81
500.786	138.81
501.003	162.81
501.22	142.81
501.437	150.81
501.654	141.81
501.871	150.81
502.088	129.81
502.305	155.81
502.522	127.81
502.739	125.81
502.956	118.81
503.172	108.81
503.389	124.81
503.606	133.81
503.823	106.81
504.04	122.81
504.256	127.81
504.473	137.81
504.69	130.81
504.907	137.81
505.123	103.81
505.34	122.81
505.557	108.81
505.773	130.81
505.99	118.81
506.207	125.81
506.423	103.81
506.64	114.81
506.856	108.81
507.073	126.81
507.289	116.81
507.506	117.81
507.722	126.81
507.939	122.81
508.155	126.81
508.372	106.81
508.588	114.81
508.805	104.81
509.021	94.81
509.238	105.81
509.454	113.81
509.67	101.81
509.887	99.81
510.103	98.81
510.319	93.81
510.536	107.81
510.752	92.81
510.968	98.81
511.184	104.81
511.401	76.81
