Data from Location2.07152019.Energy5.Lamp.07192019.3%Agarose_HRD10591_14-57-05-358.txt Node
Date: Fri Jul 19 14:57:05 EDT 2019
User: cochatt
Spectrometer: HR+D1059
Trigger mode: 1
Integration Time (sec): 1.000000E-1
Scans to average: 1
Electric dark correction enabled: true
Nonlinearity correction enabled: false
Boxcar width: 0
XAxis mode: Wavelengths
Number of Pixels in Spectrum: 2048
>>>>>Begin Spectral Data<<<<<
223.165	-23.56
223.4	-23.56
223.635	-23.56
223.869	-17.56
224.104	-17.56
224.338	-32.56
224.573	-19.56
224.808	-1.56
225.042	-4.56
225.277	15.44
225.511	4.44
225.746	11.44
225.98	14.44
226.215	-0.56
226.449	18.44
226.683	15.44
226.918	20.44
227.152	17.44
227.387	35.44
227.621	36.44
227.856	46.44
228.09	49.44
228.324	35.44
228.559	58.44
228.793	46.44
229.027	53.44
229.262	62.44
229.496	58.44
229.73	63.44
229.964	77.44
230.199	73.44
230.433	71.44
230.667	67.44
230.901	92.44
231.136	84.44
231.37	81.44
231.604	87.44
231.838	88.44
232.072	89.44
232.306	82.44
232.541	78.44
232.775	76.44
233.009	82.44
233.243	90.44
233.477	92.44
233.711	89.44
233.945	84.44
234.179	80.44
234.413	73.44
234.647	81.44
234.881	78.44
235.115	81.44
235.349	80.44
235.583	89.44
235.817	83.44
236.051	75.44
236.285	83.44
236.519	77.44
236.753	84.44
236.987	62.44
237.221	64.44
237.455	74.44
237.689	62.44
237.922	72.44
238.156	80.44
238.39	71.44
238.624	70.44
238.858	75.44
239.091	86.44
239.325	72.44
239.559	75.44
239.793	88.44
240.027	76.44
240.26	81.44
240.494	70.44
240.728	80.44
240.961	75.44
241.195	68.44
241.429	70.44
241.662	81.44
241.896	75.44
242.13	75.44
242.363	68.44
242.597	82.44
242.83	71.44
243.064	84.44
243.298	76.44
243.531	73.44
243.765	94.44
243.998	76.44
244.232	66.44
244.465	81.44
244.699	79.44
244.932	73.44
245.166	81.44
245.399	73.44
245.633	80.44
245.866	67.44
246.099	78.44
246.333	96.44
246.566	82.44
246.8	66.44
247.033	86.44
247.266	75.44
247.5	75.44
247.733	76.44
247.966	87.44
248.2	75.44
248.433	79.44
248.666	84.44
248.899	80.44
249.133	77.44
249.366	79.44
249.599	80.44
249.832	72.44
250.066	77.44
250.299	94.44
250.532	75.44
250.765	86.44
250.998	78.44
251.231	77.44
251.465	80.44
251.698	74.44
251.931	84.44
252.164	73.44
252.397	87.44
252.63	75.44
252.863	76.44
253.096	81.44
253.329	81.44
253.562	80.44
253.795	73.44
254.028	85.44
254.261	73.44
254.494	85.44
254.727	96.44
254.96	82.44
255.193	80.44
255.426	102.44
255.659	87.44
255.892	84.44
256.124	73.44
256.357	84.44
256.59	81.44
256.823	89.44
257.056	71.44
257.289	74.44
257.521	80.44
257.754	68.44
257.987	71.44
258.22	84.44
258.452	80.44
258.685	79.44
258.918	84.44
259.151	80.44
259.383	86.44
259.616	80.44
259.849	91.44
260.081	84.44
260.314	85.44
260.547	87.44
260.779	73.44
261.012	76.44
261.244	81.44
261.477	79.44
261.71	78.44
261.942	85.44
262.175	75.44
262.407	66.44
262.64	80.44
262.872	78.44
263.105	65.44
263.337	98.44
263.57	84.44
263.802	84.44
264.035	87.44
264.267	79.44
264.499	75.44
264.732	76.44
264.964	88.44
265.197	76.44
265.429	72.44
265.661	83.44
265.894	82.44
266.126	82.44
266.358	70.44
266.591	76.44
266.823	72.44
267.055	85.44
267.287	91.44
267.52	67.44
267.752	81.44
267.984	85.44
268.216	75.44
268.448	68.44
268.681	74.44
268.913	83.44
269.145	58.44
269.377	85.44
269.609	79.44
269.841	90.44
270.073	84.44
270.306	73.44
270.538	80.44
270.77	74.44
271.002	86.44
271.234	89.44
271.466	91.44
271.698	74.44
271.93	81.44
272.162	82.44
272.394	92.44
272.626	86.44
272.858	92.44
273.09	82.44
273.322	79.44
273.553	88.44
273.785	87.44
274.017	81.44
274.249	70.44
274.481	72.44
274.713	85.44
274.945	84.44
275.176	92.44
275.408	86.44
275.64	69.44
275.872	79.44
276.104	82.44
276.335	78.44
276.567	82.44
276.799	79.44
277.031	83.44
277.262	76.44
277.494	72.44
277.726	82.44
277.957	80.44
278.189	88.44
278.421	73.44
278.652	78.44
278.884	75.44
279.115	83.44
279.347	82.44
279.579	116.44
279.81	86.44
280.042	76.44
280.273	74.44
280.505	89.44
280.736	63.44
280.968	88.44
281.199	90.44
281.431	68.44
281.662	92.44
281.894	78.44
282.125	90.44
282.356	82.44
282.588	80.44
282.819	80.44
283.051	76.44
283.282	83.44
283.513	78.44
283.745	71.44
283.976	82.44
284.207	82.44
284.439	70.44
284.67	82.44
284.901	87.44
285.132	69.44
285.364	83.44
285.595	85.44
285.826	86.44
286.057	85.44
286.288	71.44
286.52	67.44
286.751	76.44
286.982	70.44
287.213	87.44
287.444	84.44
287.675	89.44
287.906	92.44
288.138	78.44
288.369	86.44
288.6	80.44
288.831	81.44
289.062	84.44
289.293	76.44
289.524	80.44
289.755	77.44
289.986	86.44
290.217	79.44
290.448	73.44
290.679	92.44
290.91	97.44
291.141	78.44
291.371	88.44
291.602	87.44
291.833	88.44
292.064	75.44
292.295	98.44
292.526	83.44
292.757	88.44
292.987	90.44
293.218	80.44
293.449	81.44
293.68	85.44
293.91	80.44
294.141	68.44
294.372	75.44
294.603	82.44
294.833	84.44
295.064	86.44
295.295	90.44
295.525	84.44
295.756	82.44
295.987	83.44
296.217	81.44
296.448	85.44
296.679	87.44
296.909	99.44
297.14	90.44
297.37	93.44
297.601	82.44
297.831	92.44
298.062	88.44
298.292	94.44
298.523	87.44
298.753	77.44
298.984	81.44
299.214	82.44
299.445	94.44
299.675	83.44
299.905	92.44
300.136	84.44
300.366	94.44
300.597	94.44
300.827	96.44
301.057	72.44
301.288	78.44
301.518	94.44
301.748	80.44
301.979	74.44
302.209	72.44
302.439	84.44
302.669	83.44
302.9	76.44
303.13	105.44
303.36	78.44
303.59	74.44
303.82	88.44
304.051	93.44
304.281	86.44
304.511	71.44
304.741	70.44
304.971	82.44
305.201	81.44
305.431	72.44
305.661	75.44
305.891	88.44
306.121	81.44
306.352	73.44
306.582	86.44
306.812	94.44
307.042	80.44
307.272	95.44
307.502	80.44
307.731	76.44
307.961	90.44
308.191	91.44
308.421	89.44
308.651	84.44
308.881	98.44
309.111	79.44
309.341	80.44
309.571	90.44
309.8	79.44
310.03	88.44
310.26	76.44
310.49	83.44
310.72	75.44
310.949	84.44
311.179	83.44
311.409	90.44
311.639	80.44
311.868	96.44
312.098	96.44
312.328	88.44
312.557	87.44
312.787	85.44
313.017	84.44
313.246	80.44
313.476	96.44
313.706	83.44
313.935	72.44
314.165	75.44
314.394	92.44
314.624	76.44
314.853	88.44
315.083	76.44
315.312	89.44
315.542	80.44
315.771	90.44
316.001	80.44
316.23	95.44
316.46	94.44
316.689	85.44
316.919	79.44
317.148	78.44
317.377	85.44
317.607	84.44
317.836	78.44
318.065	87.44
318.295	99.44
318.524	79.44
318.753	82.44
318.983	95.44
319.212	78.44
319.441	89.44
319.67	93.44
319.9	96.44
320.129	77.44
320.358	82.44
320.587	74.44
320.816	81.44
321.046	82.44
321.275	89.44
321.504	92.44
321.733	81.44
321.962	76.44
322.191	91.44
322.42	104.44
322.649	82.44
322.878	96.44
323.108	84.44
323.337	91.44
323.566	88.44
323.795	87.44
324.024	74.44
324.253	84.44
324.482	82.44
324.71	71.44
324.939	83.44
325.168	89.44
325.397	85.44
325.626	98.44
325.855	75.44
326.084	73.44
326.313	81.44
326.542	75.44
326.77	76.44
326.999	87.44
327.228	84.44
327.457	90.44
327.686	96.44
327.914	68.44
328.143	78.44
328.372	82.44
328.6	76.44
328.829	61.44
329.058	90.44
329.287	79.44
329.515	86.44
329.744	96.44
329.972	79.44
330.201	66.44
330.43	87.44
330.658	72.44
330.887	75.44
331.115	65.44
331.344	77.44
331.572	93.44
331.801	95.44
332.03	92.44
332.258	84.44
332.486	77.44
332.715	84.44
332.943	75.44
333.172	77.44
333.4	85.44
333.629	79.44
333.857	74.44
334.085	73.44
334.314	83.44
334.542	83.44
334.771	79.44
334.999	66.44
335.227	80.44
335.455	82.44
335.684	88.44
335.912	80.44
336.14	77.44
336.369	75.44
336.597	82.44
336.825	84.44
337.053	95.44
337.281	80.44
337.51	71.44
337.738	83.44
337.966	71.44
338.194	104.44
338.422	79.44
338.65	77.44
338.878	76.44
339.106	87.44
339.334	95.44
339.562	76.44
339.79	83.44
340.018	81.44
340.246	95.44
340.474	86.44
340.702	74.44
340.93	87.44
341.158	84.44
341.386	87.44
341.614	84.44
341.842	79.44
342.07	83.44
342.298	83.44
342.526	85.44
342.754	94.44
342.981	88.44
343.209	72.44
343.437	94.44
343.665	90.44
343.893	86.44
344.12	89.44
344.348	81.44
344.576	75.44
344.804	70.44
345.031	72.44
345.259	83.44
345.487	74.44
345.714	70.44
345.942	90.44
346.17	83.44
346.397	91.44
346.625	78.44
346.853	83.44
347.08	62.44
347.308	84.44
347.535	84.44
347.763	84.44
347.99	75.44
348.218	80.44
348.445	80.44
348.673	82.44
348.9	69.44
349.128	81.44
349.355	80.44
349.583	91.44
349.81	83.44
350.037	84.44
350.265	83.44
350.492	71.44
350.72	87.44
350.947	99.44
351.174	67.44
351.402	75.44
351.629	80.44
351.856	89.44
352.083	85.44
352.311	89.44
352.538	82.44
352.765	75.44
352.992	76.44
353.22	89.44
353.447	83.44
353.674	81.44
353.901	76.44
354.128	80.44
354.355	78.44
354.583	81.44
354.81	93.44
355.037	89.44
355.264	78.44
355.491	83.44
355.718	71.44
355.945	85.44
356.172	81.44
356.399	75.44
356.626	90.44
356.853	75.44
357.08	88.44
357.307	82.44
357.534	80.44
357.761	96.44
357.988	89.44
358.215	98.44
358.441	79.44
358.668	84.44
358.895	86.44
359.122	90.44
359.349	97.44
359.576	84.44
359.802	87.44
360.029	65.44
360.256	93.44
360.483	84.44
360.709	82.44
360.936	81.44
361.163	79.44
361.39	78.44
361.616	74.44
361.843	85.44
362.07	92.44
362.296	79.44
362.523	95.44
362.749	97.44
362.976	71.44
363.203	83.44
363.429	82.44
363.656	88.44
363.882	84.44
364.109	78.44
364.335	86.44
364.562	90.44
364.788	78.44
365.015	96.44
365.241	80.44
365.468	90.44
365.694	83.44
365.92	77.44
366.147	81.44
366.373	81.44
366.599	79.44
366.826	77.44
367.052	81.44
367.278	84.44
367.505	74.44
367.731	86.44
367.957	78.44
368.184	93.44
368.41	108.44
368.636	77.44
368.862	81.44
369.089	90.44
369.315	83.44
369.541	82.44
369.767	90.44
369.993	97.44
370.219	81.44
370.445	92.44
370.672	99.44
370.898	85.44
371.124	97.44
371.35	84.44
371.576	98.44
371.802	91.44
372.028	99.44
372.254	104.44
372.48	91.44
372.706	90.44
372.932	89.44
373.158	84.44
373.384	90.44
373.61	73.44
373.835	83.44
374.061	95.44
374.287	105.44
374.513	91.44
374.739	97.44
374.965	88.44
375.191	82.44
375.416	91.44
375.642	85.44
375.868	75.44
376.094	106.44
376.319	90.44
376.545	76.44
376.771	85.44
376.997	84.44
377.222	94.44
377.448	89.44
377.674	101.44
377.899	95.44
378.125	107.44
378.35	106.44
378.576	95.44
378.802	90.44
379.027	83.44
379.253	102.44
379.478	97.44
379.704	97.44
379.929	83.44
380.155	92.44
380.38	85.44
380.606	87.44
380.831	90.44
381.057	111.44
381.282	82.44
381.507	111.44
381.733	99.44
381.958	83.44
382.184	80.44
382.409	91.44
382.634	84.44
382.86	97.44
383.085	93.44
383.31	96.44
383.535	97.44
383.761	101.44
383.986	108.44
384.211	102.44
384.436	99.44
384.662	91.44
384.887	96.44
385.112	99.44
385.337	103.44
385.562	97.44
385.787	84.44
386.013	98.44
386.238	104.44
386.463	79.44
386.688	100.44
386.913	111.44
387.138	103.44
387.363	85.44
387.588	104.44
387.813	106.44
388.038	102.44
388.263	99.44
388.488	107.44
388.713	101.44
388.938	110.44
389.163	102.44
389.387	95.44
389.612	90.44
389.837	103.44
390.062	95.44
390.287	90.44
390.512	103.44
390.736	90.44
390.961	97.44
391.186	94.44
391.411	91.44
391.636	104.44
391.86	124.44
392.085	108.44
392.31	108.44
392.534	91.44
392.759	102.44
392.984	96.44
393.208	84.44
393.433	101.44
393.658	101.44
393.882	99.44
394.107	100.44
394.331	100.44
394.556	94.44
394.78	99.44
395.005	95.44
395.229	104.44
395.454	100.44
395.678	101.44
395.903	110.44
396.127	98.44
396.352	96.44
396.576	115.44
396.801	116.44
397.025	104.44
397.249	117.44
397.474	106.44
397.698	98.44
397.922	97.44
398.147	104.44
398.371	91.44
398.595	113.44
398.82	97.44
399.044	108.44
399.268	118.44
399.492	111.44
399.717	107.44
399.941	96.44
400.165	99.44
400.389	107.44
400.613	117.44
400.837	121.44
401.062	114.44
401.286	94.44
401.51	107.44
401.734	105.44
401.958	112.44
402.182	116.44
402.406	104.44
402.63	115.44
402.854	110.44
403.078	111.44
403.302	99.44
403.526	106.44
403.75	113.44
403.974	116.44
404.198	111.44
404.422	118.44
404.645	98.44
404.869	118.44
405.093	126.44
405.317	105.44
405.541	124.44
405.765	124.44
405.988	115.44
406.212	123.44
406.436	107.44
406.66	118.44
406.883	104.44
407.107	111.44
407.331	103.44
407.555	107.44
407.778	126.44
408.002	113.44
408.226	113.44
408.449	121.44
408.673	115.44
408.896	121.44
409.12	112.44
409.344	118.44
409.567	120.44
409.791	112.44
410.014	121.44
410.238	121.44
410.461	121.44
410.685	121.44
410.908	128.44
411.132	122.44
411.355	118.44
411.578	117.44
411.802	116.44
412.025	125.44
412.249	120.44
412.472	116.44
412.695	113.44
412.919	120.44
413.142	112.44
413.365	129.44
413.589	127.44
413.812	116.44
414.035	127.44
414.258	120.44
414.482	118.44
414.705	131.44
414.928	118.44
415.151	137.44
415.374	141.44
415.597	107.44
415.821	136.44
416.044	128.44
416.267	126.44
416.49	138.44
416.713	112.44
416.936	103.44
417.159	126.44
417.382	133.44
417.605	130.44
417.828	114.44
418.051	127.44
418.274	111.44
418.497	121.44
418.72	125.44
418.943	130.44
419.166	133.44
419.389	138.44
419.611	123.44
419.834	119.44
420.057	128.44
420.28	115.44
420.503	119.44
420.726	128.44
420.948	130.44
421.171	138.44
421.394	129.44
421.617	119.44
421.839	136.44
422.062	120.44
422.285	133.44
422.507	121.44
422.73	128.44
422.953	110.44
423.175	130.44
423.398	124.44
423.621	135.44
423.843	129.44
424.066	136.44
424.288	135.44
424.511	132.44
424.733	138.44
424.956	135.44
425.178	131.44
425.401	124.44
425.623	136.44
425.846	133.44
426.068	126.44
426.291	135.44
426.513	130.44
426.735	122.44
426.958	126.44
427.18	136.44
427.402	134.44
427.625	141.44
427.847	129.44
428.069	116.44
428.292	131.44
428.514	118.44
428.736	139.44
428.958	120.44
429.181	118.44
429.403	123.44
429.625	127.44
429.847	126.44
430.069	133.44
430.292	118.44
430.514	124.44
430.736	135.44
430.958	136.44
431.18	132.44
431.402	126.44
431.624	121.44
431.846	98.44
432.068	104.44
432.29	89.44
432.512	120.44
432.734	135.44
432.956	116.44
433.178	130.44
433.4	134.44
433.622	120.44
433.844	136.44
434.066	125.44
434.287	116.44
434.509	110.44
434.731	94.44
434.953	114.44
435.175	117.44
435.397	124.44
435.618	107.44
435.84	110.44
436.062	105.44
436.284	126.44
436.505	116.44
436.727	123.44
436.949	137.44
437.17	139.44
437.392	127.44
437.614	116.44
437.835	98.44
438.057	99.44
438.278	110.44
438.5	125.44
438.721	132.44
438.943	135.44
439.165	153.44
439.386	138.44
439.608	143.44
439.829	130.44
440.05	138.44
440.272	134.44
440.493	147.44
440.715	141.44
440.936	142.44
441.158	140.44
441.379	125.44
441.6	149.44
441.822	125.44
442.043	136.44
442.264	134.44
442.486	139.44
442.707	143.44
442.928	131.44
443.149	131.44
443.371	126.44
443.592	140.44
443.813	138.44
444.034	114.44
444.255	133.44
444.476	139.44
444.698	135.44
444.919	144.44
445.14	257.44
445.361	203.44
445.582	149.44
445.803	156.44
446.024	148.44
446.245	128.44
446.466	153.44
446.687	140.44
446.908	140.44
447.129	160.44
447.35	147.44
447.571	147.44
447.792	144.44
448.013	144.44
448.234	146.44
448.455	140.44
448.675	140.44
448.896	146.44
449.117	135.44
449.338	144.44
449.559	150.44
449.779	130.44
450	131.44
450.221	130.44
450.442	138.44
450.662	129.44
450.883	139.44
451.104	137.44
451.324	134.44
451.545	117.44
451.766	128.44
451.986	120.44
452.207	125.44
452.428	128.44
452.648	137.44
452.869	121.44
453.089	119.44
453.31	113.44
453.53	121.44
453.751	107.44
453.971	108.44
454.192	117.44
454.412	107.44
454.633	130.44
454.853	102.44
455.073	107.44
455.294	127.44
455.514	125.44
455.734	109.44
455.955	125.44
456.175	122.44
456.395	91.44
456.616	107.44
456.836	113.44
457.056	120.44
457.276	112.44
457.497	105.44
457.717	112.44
457.937	118.44
458.157	117.44
458.377	98.44
458.598	102.44
458.818	79.44
459.038	92.44
459.258	74.44
459.478	86.44
459.698	97.44
459.918	103.44
460.138	112.44
460.358	107.44
460.578	112.44
460.798	107.44
461.018	105.44
461.238	108.44
461.458	117.44
461.678	104.44
461.898	100.44
462.118	130.44
462.338	116.44
462.558	114.44
462.777	110.44
462.997	103.44
463.217	110.44
463.437	103.44
463.657	110.44
463.876	100.44
464.096	114.44
464.316	115.44
464.536	118.44
464.755	111.44
464.975	107.44
465.195	118.44
465.414	106.44
465.634	111.44
465.854	107.44
466.073	122.44
466.293	119.44
466.512	128.44
466.732	126.44
466.951	142.44
467.171	128.44
467.391	149.44
467.61	139.44
467.829	124.44
468.049	134.44
468.268	130.44
468.488	123.44
468.707	132.44
468.927	126.44
469.146	123.44
469.365	135.44
469.585	148.44
469.804	140.44
470.023	148.44
470.243	140.44
470.462	145.44
470.681	149.44
470.901	143.44
471.12	135.44
471.339	129.44
471.558	130.44
471.777	144.44
471.997	111.44
472.216	108.44
472.435	106.44
472.654	115.44
472.873	107.44
473.092	115.44
473.311	122.44
473.53	116.44
473.749	138.44
473.968	146.44
474.187	117.44
474.406	132.44
474.625	128.44
474.844	127.44
475.063	130.44
475.282	136.44
475.501	120.44
475.72	119.44
475.939	122.44
476.158	127.44
476.377	131.44
476.596	110.44
476.814	130.44
477.033	102.44
477.252	114.44
477.471	122.44
477.69	130.44
477.908	130.44
478.127	152.44
478.346	128.44
478.564	130.44
478.783	147.44
479.002	140.44
479.22	139.44
479.439	133.44
479.658	128.44
479.876	116.44
480.095	123.44
480.313	94.44
480.532	132.44
480.751	120.44
480.969	90.44
481.188	78.44
481.406	88.44
481.624	89.44
481.843	102.44
482.061	99.44
482.28	101.44
482.498	117.44
482.717	113.44
482.935	121.44
483.153	148.44
483.372	154.44
483.59	151.44
483.808	140.44
484.027	134.44
484.245	133.44
484.463	145.44
484.681	144.44
484.9	143.44
485.118	140.44
485.336	128.44
485.554	114.44
485.772	99.44
485.99	123.44
486.209	94.44
486.427	117.44
486.645	125.44
486.863	127.44
487.081	150.44
487.299	144.44
487.517	146.44
487.735	156.44
487.953	180.44
488.171	172.44
488.389	170.44
488.607	157.44
488.825	148.44
489.043	127.44
489.261	138.44
489.479	134.44
489.696	149.44
489.914	130.44
490.132	134.44
490.35	135.44
490.568	154.44
490.786	172.44
491.003	169.44
491.221	181.44
491.439	184.44
491.657	197.44
491.874	186.44
492.092	223.44
492.31	222.44
492.527	219.44
492.745	202.44
492.963	201.44
493.18	178.44
493.398	191.44
493.615	168.44
493.833	174.44
494.05	165.44
494.268	167.44
494.485	177.44
494.703	187.44
494.92	173.44
495.138	182.44
495.355	175.44
495.573	178.44
495.79	174.44
496.008	159.44
496.225	166.44
496.442	177.44
496.66	163.44
496.877	153.44
497.094	163.44
497.312	152.44
497.529	158.44
497.746	141.44
497.963	132.44
498.181	146.44
498.398	119.44
498.615	118.44
498.832	129.44
499.049	118.44
499.267	127.44
499.484	133.44
499.701	129.44
499.918	131.44
500.135	130.44
500.352	144.44
500.569	139.44
500.786	146.44
501.003	142.44
501.22	129.44
501.437	139.44
501.654	134.44
501.871	132.44
502.088	141.44
502.305	122.44
502.522	119.44
502.739	140.44
502.956	134.44
503.172	129.44
503.389	126.44
503.606	120.44
503.823	121.44
504.04	115.44
504.256	119.44
504.473	120.44
504.69	114.44
504.907	125.44
505.123	108.44
505.34	122.44
505.557	118.44
505.773	124.44
505.99	109.44
506.207	132.44
506.423	113.44
506.64	122.44
506.856	126.44
507.073	130.44
507.289	124.44
507.506	114.44
507.722	116.44
507.939	107.44
508.155	112.44
508.372	110.44
508.588	107.44
508.805	116.44
509.021	104.44
509.238	110.44
509.454	110.44
509.67	103.44
509.887	98.44
510.103	96.44
510.319	92.44
510.536	100.44
510.752	84.44
510.968	77.44
511.184	82.44
511.401	88.44
511.617	89.44
511.833	83.44
