Data from Location2.07152019.Energy5.Lamp.07192019.3%Agarose_HRD10591_14-57-10-359.txt Node
Date: Fri Jul 19 14:57:10 EDT 2019
User: cochatt
Spectrometer: HR+D1059
Trigger mode: 1
Integration Time (sec): 1.000000E-1
Scans to average: 1
Electric dark correction enabled: true
Nonlinearity correction enabled: false
Boxcar width: 0
XAxis mode: Wavelengths
Number of Pixels in Spectrum: 2048
>>>>>Begin Spectral Data<<<<<
223.165	-22.44
223.4	-22.44
223.635	-22.44
223.869	-24.44
224.104	-26.44
224.338	3.56
224.573	-16.44
224.808	-13.44
225.042	0.56
225.277	-16.44
225.511	-1.44
225.746	1.56
225.98	9.56
226.215	16.56
226.449	24.56
226.683	16.56
226.918	17.56
227.152	30.56
227.387	40.56
227.621	35.56
227.856	54.56
228.09	50.56
228.324	54.56
228.559	49.56
228.793	68.56
229.027	70.56
229.262	60.56
229.496	67.56
229.73	65.56
229.964	73.56
230.199	63.56
230.433	75.56
230.667	72.56
230.901	69.56
231.136	83.56
231.37	96.56
231.604	79.56
231.838	92.56
232.072	73.56
232.306	76.56
232.541	99.56
232.775	75.56
233.009	74.56
233.243	72.56
233.477	86.56
233.711	69.56
233.945	86.56
234.179	88.56
234.413	85.56
234.647	73.56
234.881	77.56
235.115	76.56
235.349	85.56
235.583	83.56
235.817	78.56
236.051	79.56
236.285	74.56
236.519	85.56
236.753	77.56
236.987	79.56
237.221	78.56
237.455	86.56
237.689	74.56
237.922	99.56
238.156	71.56
238.39	70.56
238.624	82.56
238.858	75.56
239.091	67.56
239.325	70.56
239.559	66.56
239.793	66.56
240.027	89.56
240.26	89.56
240.494	76.56
240.728	78.56
240.961	65.56
241.195	77.56
241.429	69.56
241.662	74.56
241.896	74.56
242.13	78.56
242.363	72.56
242.597	95.56
242.83	65.56
243.064	78.56
243.298	68.56
243.531	78.56
243.765	74.56
243.998	64.56
244.232	80.56
244.465	84.56
244.699	86.56
244.932	87.56
245.166	94.56
245.399	78.56
245.633	65.56
245.866	86.56
246.099	77.56
246.333	78.56
246.566	84.56
246.8	86.56
247.033	78.56
247.266	83.56
247.5	89.56
247.733	73.56
247.966	80.56
248.2	80.56
248.433	71.56
248.666	86.56
248.899	88.56
249.133	69.56
249.366	70.56
249.599	86.56
249.832	79.56
250.066	76.56
250.299	86.56
250.532	78.56
250.765	83.56
250.998	85.56
251.231	80.56
251.465	69.56
251.698	72.56
251.931	92.56
252.164	77.56
252.397	72.56
252.63	77.56
252.863	79.56
253.096	67.56
253.329	72.56
253.562	81.56
253.795	59.56
254.028	71.56
254.261	79.56
254.494	76.56
254.727	77.56
254.96	88.56
255.193	85.56
255.426	79.56
255.659	62.56
255.892	78.56
256.124	71.56
256.357	74.56
256.59	77.56
256.823	89.56
257.056	79.56
257.289	97.56
257.521	77.56
257.754	77.56
257.987	62.56
258.22	88.56
258.452	85.56
258.685	85.56
258.918	72.56
259.151	82.56
259.383	82.56
259.616	75.56
259.849	69.56
260.081	81.56
260.314	89.56
260.547	69.56
260.779	85.56
261.012	73.56
261.244	85.56
261.477	95.56
261.71	79.56
261.942	75.56
262.175	76.56
262.407	81.56
262.64	84.56
262.872	72.56
263.105	71.56
263.337	83.56
263.57	87.56
263.802	78.56
264.035	89.56
264.267	82.56
264.499	80.56
264.732	87.56
264.964	88.56
265.197	74.56
265.429	83.56
265.661	87.56
265.894	84.56
266.126	85.56
266.358	82.56
266.591	77.56
266.823	89.56
267.055	81.56
267.287	87.56
267.52	72.56
267.752	72.56
267.984	91.56
268.216	83.56
268.448	86.56
268.681	74.56
268.913	85.56
269.145	74.56
269.377	86.56
269.609	74.56
269.841	83.56
270.073	69.56
270.306	71.56
270.538	73.56
270.77	78.56
271.002	81.56
271.234	80.56
271.466	85.56
271.698	79.56
271.93	89.56
272.162	77.56
272.394	82.56
272.626	79.56
272.858	85.56
273.09	90.56
273.322	81.56
273.553	100.56
273.785	95.56
274.017	83.56
274.249	88.56
274.481	80.56
274.713	88.56
274.945	77.56
275.176	82.56
275.408	83.56
275.64	79.56
275.872	80.56
276.104	72.56
276.335	97.56
276.567	94.56
276.799	80.56
277.031	79.56
277.262	89.56
277.494	79.56
277.726	86.56
277.957	71.56
278.189	82.56
278.421	72.56
278.652	74.56
278.884	92.56
279.115	73.56
279.347	86.56
279.579	102.56
279.81	87.56
280.042	74.56
280.273	83.56
280.505	85.56
280.736	81.56
280.968	86.56
281.199	65.56
281.431	73.56
281.662	84.56
281.894	84.56
282.125	83.56
282.356	78.56
282.588	102.56
282.819	82.56
283.051	76.56
283.282	66.56
283.513	93.56
283.745	85.56
283.976	88.56
284.207	84.56
284.439	72.56
284.67	75.56
284.901	68.56
285.132	70.56
285.364	77.56
285.595	88.56
285.826	89.56
286.057	80.56
286.288	85.56
286.52	81.56
286.751	87.56
286.982	81.56
287.213	75.56
287.444	82.56
287.675	86.56
287.906	80.56
288.138	80.56
288.369	88.56
288.6	91.56
288.831	80.56
289.062	82.56
289.293	101.56
289.524	82.56
289.755	87.56
289.986	80.56
290.217	81.56
290.448	80.56
290.679	68.56
290.91	93.56
291.141	89.56
291.371	72.56
291.602	80.56
291.833	87.56
292.064	85.56
292.295	80.56
292.526	74.56
292.757	80.56
292.987	75.56
293.218	86.56
293.449	77.56
293.68	75.56
293.91	85.56
294.141	72.56
294.372	72.56
294.603	83.56
294.833	94.56
295.064	93.56
295.295	86.56
295.525	86.56
295.756	88.56
295.987	80.56
296.217	80.56
296.448	74.56
296.679	81.56
296.909	82.56
297.14	86.56
297.37	79.56
297.601	70.56
297.831	64.56
298.062	82.56
298.292	90.56
298.523	90.56
298.753	82.56
298.984	80.56
299.214	71.56
299.445	73.56
299.675	69.56
299.905	70.56
300.136	79.56
300.366	86.56
300.597	75.56
300.827	83.56
301.057	82.56
301.288	74.56
301.518	77.56
301.748	91.56
301.979	78.56
302.209	66.56
302.439	85.56
302.669	85.56
302.9	81.56
303.13	78.56
303.36	83.56
303.59	67.56
303.82	61.56
304.051	83.56
304.281	76.56
304.511	84.56
304.741	93.56
304.971	76.56
305.201	87.56
305.431	76.56
305.661	81.56
305.891	84.56
306.121	74.56
306.352	103.56
306.582	91.56
306.812	80.56
307.042	77.56
307.272	82.56
307.502	97.56
307.731	84.56
307.961	72.56
308.191	85.56
308.421	84.56
308.651	81.56
308.881	82.56
309.111	80.56
309.341	76.56
309.571	72.56
309.8	86.56
310.03	78.56
310.26	80.56
310.49	92.56
310.72	86.56
310.949	85.56
311.179	70.56
311.409	73.56
311.639	86.56
311.868	77.56
312.098	83.56
312.328	93.56
312.557	70.56
312.787	80.56
313.017	93.56
313.246	79.56
313.476	67.56
313.706	81.56
313.935	79.56
314.165	73.56
314.394	94.56
314.624	77.56
314.853	76.56
315.083	83.56
315.312	69.56
315.542	71.56
315.771	78.56
316.001	84.56
316.23	95.56
316.46	96.56
316.689	86.56
316.919	79.56
317.148	82.56
317.377	85.56
317.607	82.56
317.836	85.56
318.065	89.56
318.295	84.56
318.524	86.56
318.753	92.56
318.983	84.56
319.212	68.56
319.441	77.56
319.67	73.56
319.9	82.56
320.129	90.56
320.358	69.56
320.587	74.56
320.816	87.56
321.046	86.56
321.275	75.56
321.504	80.56
321.733	63.56
321.962	62.56
322.191	77.56
322.42	75.56
322.649	90.56
322.878	81.56
323.108	63.56
323.337	70.56
323.566	98.56
323.795	74.56
324.024	91.56
324.253	70.56
324.482	83.56
324.71	90.56
324.939	84.56
325.168	75.56
325.397	82.56
325.626	88.56
325.855	80.56
326.084	86.56
326.313	74.56
326.542	86.56
326.77	85.56
326.999	81.56
327.228	71.56
327.457	88.56
327.686	79.56
327.914	85.56
328.143	89.56
328.372	75.56
328.6	87.56
328.829	80.56
329.058	84.56
329.287	79.56
329.515	65.56
329.744	82.56
329.972	82.56
330.201	73.56
330.43	93.56
330.658	91.56
330.887	78.56
331.115	77.56
331.344	72.56
331.572	82.56
331.801	83.56
332.03	75.56
332.258	78.56
332.486	81.56
332.715	83.56
332.943	73.56
333.172	77.56
333.4	87.56
333.629	75.56
333.857	83.56
334.085	95.56
334.314	94.56
334.542	84.56
334.771	79.56
334.999	77.56
335.227	77.56
335.455	79.56
335.684	88.56
335.912	90.56
336.14	85.56
336.369	78.56
336.597	75.56
336.825	82.56
337.053	76.56
337.281	79.56
337.51	75.56
337.738	85.56
337.966	67.56
338.194	87.56
338.422	85.56
338.65	86.56
338.878	84.56
339.106	82.56
339.334	89.56
339.562	73.56
339.79	85.56
340.018	81.56
340.246	82.56
340.474	71.56
340.702	90.56
340.93	77.56
341.158	82.56
341.386	83.56
341.614	88.56
341.842	76.56
342.07	74.56
342.298	74.56
342.526	83.56
342.754	85.56
342.981	83.56
343.209	85.56
343.437	90.56
343.665	81.56
343.893	72.56
344.12	80.56
344.348	88.56
344.576	81.56
344.804	81.56
345.031	93.56
345.259	70.56
345.487	99.56
345.714	72.56
345.942	74.56
346.17	89.56
346.397	75.56
346.625	88.56
346.853	101.56
347.08	89.56
347.308	93.56
347.535	81.56
347.763	69.56
347.99	99.56
348.218	82.56
348.445	77.56
348.673	77.56
348.9	89.56
349.128	74.56
349.355	75.56
349.583	78.56
349.81	85.56
350.037	86.56
350.265	93.56
350.492	83.56
350.72	75.56
350.947	82.56
351.174	80.56
351.402	90.56
351.629	83.56
351.856	87.56
352.083	98.56
352.311	76.56
352.538	81.56
352.765	92.56
352.992	72.56
353.22	69.56
353.447	68.56
353.674	86.56
353.901	88.56
354.128	90.56
354.355	91.56
354.583	82.56
354.81	88.56
355.037	85.56
355.264	96.56
355.491	69.56
355.718	88.56
355.945	84.56
356.172	81.56
356.399	87.56
356.626	85.56
356.853	84.56
357.08	75.56
357.307	73.56
357.534	89.56
357.761	79.56
357.988	77.56
358.215	82.56
358.441	82.56
358.668	82.56
358.895	81.56
359.122	89.56
359.349	89.56
359.576	90.56
359.802	82.56
360.029	78.56
360.256	88.56
360.483	79.56
360.709	95.56
360.936	81.56
361.163	77.56
361.39	94.56
361.616	93.56
361.843	88.56
362.07	85.56
362.296	64.56
362.523	78.56
362.749	73.56
362.976	74.56
363.203	75.56
363.429	82.56
363.656	76.56
363.882	94.56
364.109	83.56
364.335	78.56
364.562	80.56
364.788	73.56
365.015	87.56
365.241	70.56
365.468	75.56
365.694	74.56
365.92	77.56
366.147	70.56
366.373	92.56
366.599	90.56
366.826	82.56
367.052	75.56
367.278	90.56
367.505	96.56
367.731	86.56
367.957	87.56
368.184	99.56
368.41	82.56
368.636	82.56
368.862	86.56
369.089	83.56
369.315	83.56
369.541	87.56
369.767	79.56
369.993	97.56
370.219	76.56
370.445	81.56
370.672	85.56
370.898	90.56
371.124	85.56
371.35	91.56
371.576	95.56
371.802	93.56
372.028	89.56
372.254	85.56
372.48	91.56
372.706	80.56
372.932	97.56
373.158	86.56
373.384	88.56
373.61	87.56
373.835	84.56
374.061	76.56
374.287	105.56
374.513	83.56
374.739	110.56
374.965	95.56
375.191	93.56
375.416	89.56
375.642	98.56
375.868	95.56
376.094	84.56
376.319	79.56
376.545	74.56
376.771	88.56
376.997	103.56
377.222	93.56
377.448	91.56
377.674	90.56
377.899	93.56
378.125	97.56
378.35	97.56
378.576	98.56
378.802	89.56
379.027	93.56
379.253	109.56
379.478	98.56
379.704	89.56
379.929	109.56
380.155	86.56
380.38	87.56
380.606	90.56
380.831	93.56
381.057	103.56
381.282	96.56
381.507	91.56
381.733	98.56
381.958	91.56
382.184	98.56
382.409	102.56
382.634	82.56
382.86	98.56
383.085	95.56
383.31	97.56
383.535	88.56
383.761	98.56
383.986	88.56
384.211	85.56
384.436	99.56
384.662	103.56
384.887	94.56
385.112	82.56
385.337	100.56
385.562	96.56
385.787	93.56
386.013	106.56
386.238	109.56
386.463	97.56
386.688	88.56
386.913	86.56
387.138	111.56
387.363	102.56
387.588	101.56
387.813	95.56
388.038	97.56
388.263	110.56
388.488	99.56
388.713	106.56
388.938	116.56
389.163	97.56
389.387	93.56
389.612	104.56
389.837	97.56
390.062	107.56
390.287	94.56
390.512	105.56
390.736	95.56
390.961	87.56
391.186	106.56
391.411	107.56
391.636	102.56
391.86	99.56
392.085	87.56
392.31	105.56
392.534	100.56
392.759	102.56
392.984	95.56
393.208	104.56
393.433	88.56
393.658	117.56
393.882	96.56
394.107	104.56
394.331	105.56
394.556	101.56
394.78	109.56
395.005	97.56
395.229	121.56
395.454	111.56
395.678	107.56
395.903	105.56
396.127	84.56
396.352	101.56
396.576	97.56
396.801	101.56
397.025	97.56
397.249	106.56
397.474	118.56
397.698	118.56
397.922	88.56
398.147	99.56
398.371	101.56
398.595	116.56
398.82	109.56
399.044	113.56
399.268	103.56
399.492	109.56
399.717	117.56
399.941	113.56
400.165	103.56
400.389	102.56
400.613	104.56
400.837	103.56
401.062	110.56
401.286	112.56
401.51	106.56
401.734	113.56
401.958	112.56
402.182	103.56
402.406	107.56
402.63	107.56
402.854	101.56
403.078	115.56
403.302	93.56
403.526	104.56
403.75	112.56
403.974	120.56
404.198	133.56
404.422	133.56
404.645	111.56
404.869	104.56
405.093	105.56
405.317	124.56
405.541	106.56
405.765	111.56
405.988	99.56
406.212	117.56
406.436	119.56
406.66	130.56
406.883	122.56
407.107	125.56
407.331	125.56
407.555	113.56
407.778	122.56
408.002	112.56
408.226	118.56
408.449	133.56
408.673	107.56
408.896	125.56
409.12	120.56
409.344	122.56
409.567	117.56
409.791	101.56
410.014	119.56
410.238	106.56
410.461	106.56
410.685	115.56
410.908	129.56
411.132	125.56
411.355	123.56
411.578	111.56
411.802	124.56
412.025	119.56
412.249	127.56
412.472	104.56
412.695	112.56
412.919	117.56
413.142	110.56
413.365	122.56
413.589	129.56
413.812	115.56
414.035	122.56
414.258	125.56
414.482	119.56
414.705	124.56
414.928	115.56
415.151	131.56
415.374	130.56
415.597	115.56
415.821	130.56
416.044	127.56
416.267	127.56
416.49	125.56
416.713	113.56
416.936	122.56
417.159	123.56
417.382	124.56
417.605	116.56
417.828	113.56
418.051	118.56
418.274	128.56
418.497	143.56
418.72	139.56
418.943	122.56
419.166	143.56
419.389	132.56
419.611	143.56
419.834	139.56
420.057	141.56
420.28	112.56
420.503	148.56
420.726	117.56
420.948	130.56
421.171	129.56
421.394	139.56
421.617	144.56
421.839	141.56
422.062	129.56
422.285	126.56
422.507	117.56
422.73	121.56
422.953	119.56
423.175	118.56
423.398	121.56
423.621	139.56
423.843	129.56
424.066	133.56
424.288	137.56
424.511	127.56
424.733	135.56
424.956	137.56
425.178	139.56
425.401	126.56
425.623	141.56
425.846	128.56
426.068	120.56
426.291	142.56
426.513	125.56
426.735	130.56
426.958	140.56
427.18	132.56
427.402	129.56
427.625	135.56
427.847	122.56
428.069	118.56
428.292	124.56
428.514	139.56
428.736	125.56
428.958	137.56
429.181	126.56
429.403	137.56
429.625	138.56
429.847	124.56
430.069	117.56
430.292	133.56
430.514	110.56
430.736	131.56
430.958	125.56
431.18	119.56
431.402	115.56
431.624	115.56
431.846	104.56
432.068	99.56
432.29	98.56
432.512	110.56
432.734	123.56
432.956	124.56
433.178	127.56
433.4	140.56
433.622	140.56
433.844	123.56
434.066	122.56
434.287	98.56
434.509	95.56
434.731	122.56
434.953	114.56
435.175	106.56
435.397	120.56
435.618	122.56
435.84	127.56
436.062	111.56
436.284	120.56
436.505	124.56
436.727	126.56
436.949	145.56
437.17	119.56
437.392	134.56
437.614	115.56
437.835	113.56
438.057	120.56
438.278	109.56
438.5	131.56
438.721	134.56
438.943	149.56
439.165	128.56
439.386	135.56
439.608	140.56
439.829	137.56
440.05	146.56
440.272	135.56
440.493	151.56
440.715	143.56
440.936	151.56
441.158	149.56
441.379	137.56
441.6	147.56
441.822	148.56
442.043	122.56
442.264	149.56
442.486	140.56
442.707	142.56
442.928	138.56
443.149	133.56
443.371	145.56
443.592	127.56
443.813	133.56
444.034	145.56
444.255	142.56
444.476	125.56
444.698	133.56
444.919	153.56
445.14	282.56
445.361	186.56
445.582	137.56
445.803	123.56
446.024	144.56
446.245	140.56
446.466	166.56
446.687	143.56
446.908	147.56
447.129	137.56
447.35	150.56
447.571	136.56
447.792	143.56
448.013	144.56
448.234	138.56
448.455	128.56
448.675	146.56
448.896	137.56
449.117	135.56
449.338	138.56
449.559	126.56
449.779	134.56
450	125.56
450.221	124.56
450.442	138.56
450.662	121.56
450.883	122.56
451.104	123.56
451.324	134.56
451.545	121.56
451.766	128.56
451.986	126.56
452.207	129.56
452.428	129.56
452.648	123.56
452.869	123.56
453.089	107.56
453.31	117.56
453.53	115.56
453.751	111.56
453.971	109.56
454.192	101.56
454.412	91.56
454.633	111.56
454.853	107.56
455.073	113.56
455.294	107.56
455.514	136.56
455.734	131.56
455.955	115.56
456.175	113.56
456.395	103.56
456.616	125.56
456.836	103.56
457.056	116.56
457.276	109.56
457.497	93.56
457.717	125.56
457.937	123.56
458.157	105.56
458.377	106.56
458.598	110.56
458.818	90.56
459.038	103.56
459.258	99.56
459.478	90.56
459.698	87.56
459.918	102.56
460.138	94.56
460.358	123.56
460.578	115.56
460.798	122.56
461.018	113.56
461.238	102.56
461.458	113.56
461.678	107.56
461.898	98.56
462.118	114.56
462.338	109.56
462.558	122.56
462.777	102.56
462.997	98.56
463.217	96.56
463.437	103.56
463.657	107.56
463.876	126.56
464.096	102.56
464.316	109.56
464.536	117.56
464.755	111.56
464.975	118.56
465.195	120.56
465.414	112.56
465.634	122.56
465.854	120.56
466.073	111.56
466.293	135.56
466.512	114.56
466.732	138.56
466.951	122.56
467.171	132.56
467.391	130.56
467.61	128.56
467.829	131.56
468.049	129.56
468.268	126.56
468.488	121.56
468.707	127.56
468.927	133.56
469.146	129.56
469.365	139.56
469.585	145.56
469.804	141.56
470.023	136.56
470.243	141.56
470.462	136.56
470.681	124.56
470.901	146.56
471.12	143.56
471.339	141.56
471.558	142.56
471.777	119.56
471.997	127.56
472.216	117.56
472.435	115.56
472.654	92.56
472.873	121.56
473.092	111.56
473.311	123.56
473.53	131.56
473.749	124.56
473.968	120.56
474.187	118.56
474.406	124.56
474.625	119.56
474.844	137.56
475.063	143.56
475.282	131.56
475.501	113.56
475.72	122.56
475.939	125.56
476.158	135.56
476.377	126.56
476.596	119.56
476.814	120.56
477.033	110.56
477.252	105.56
477.471	125.56
477.69	123.56
477.908	127.56
478.127	145.56
478.346	145.56
478.564	137.56
478.783	139.56
479.002	135.56
479.22	129.56
479.439	131.56
479.658	125.56
479.876	109.56
480.095	120.56
480.313	125.56
480.532	131.56
480.751	119.56
480.969	91.56
481.188	106.56
481.406	76.56
481.624	79.56
481.843	84.56
482.061	93.56
482.28	118.56
482.498	120.56
482.717	106.56
482.935	117.56
483.153	139.56
483.372	145.56
483.59	139.56
483.808	151.56
484.027	130.56
484.245	141.56
484.463	136.56
484.681	148.56
484.9	147.56
485.118	129.56
485.336	129.56
485.554	95.56
485.772	101.56
485.99	117.56
486.209	99.56
486.427	111.56
486.645	125.56
486.863	143.56
487.081	148.56
487.299	131.56
487.517	137.56
487.735	157.56
487.953	176.56
488.171	177.56
488.389	175.56
488.607	156.56
488.825	143.56
489.043	131.56
489.261	141.56
489.479	126.56
489.696	149.56
489.914	131.56
490.132	139.56
490.35	136.56
490.568	159.56
490.786	169.56
491.003	171.56
491.221	149.56
491.439	179.56
491.657	191.56
491.874	207.56
492.092	205.56
492.31	229.56
492.527	223.56
492.745	192.56
492.963	189.56
493.18	184.56
493.398	193.56
493.615	161.56
493.833	182.56
494.05	185.56
494.268	177.56
494.485	164.56
494.703	170.56
494.92	169.56
495.138	169.56
495.355	178.56
495.573	177.56
495.79	160.56
496.008	165.56
496.225	144.56
496.442	162.56
496.66	168.56
496.877	165.56
497.094	163.56
497.312	166.56
497.529	144.56
497.746	133.56
497.963	137.56
498.181	143.56
498.398	132.56
498.615	138.56
498.832	117.56
499.049	123.56
499.267	109.56
499.484	121.56
499.701	125.56
499.918	129.56
500.135	123.56
500.352	139.56
500.569	136.56
500.786	152.56
501.003	118.56
501.22	146.56
501.437	138.56
501.654	138.56
501.871	149.56
502.088	134.56
502.305	129.56
502.522	124.56
502.739	116.56
502.956	134.56
503.172	130.56
503.389	126.56
503.606	115.56
503.823	117.56
504.04	122.56
504.256	117.56
504.473	113.56
504.69	130.56
504.907	123.56
505.123	133.56
505.34	111.56
505.557	112.56
505.773	125.56
505.99	114.56
506.207	125.56
506.423	129.56
506.64	133.56
506.856	124.56
507.073	114.56
507.289	99.56
507.506	122.56
507.722	101.56
507.939	114.56
508.155	117.56
508.372	111.56
508.588	106.56
508.805	112.56
509.021	111.56
509.238	96.56
509.454	101.56
509.67	92.56
509.887	88.56
510.103	86.56
510.319	87.56
510.536	100.56
510.752	92.56
510.968	84.56
511.184	85.56
511.401	74.56
511.617	86.56
511.833	86.56
