Data from Location2.07152019.Energy5.Lamp.07192019.3%Agarose_HRD10591_14-58-07-359.txt Node
Date: Fri Jul 19 14:58:07 EDT 2019
User: cochatt
Spectrometer: HR+D1059
Trigger mode: 1
Integration Time (sec): 1.000000E-1
Scans to average: 1
Electric dark correction enabled: true
Nonlinearity correction enabled: false
Boxcar width: 0
XAxis mode: Wavelengths
Number of Pixels in Spectrum: 2048
>>>>>Begin Spectral Data<<<<<
223.165	-7.31
223.4	-7.31
223.635	-7.31
223.869	-41.31
224.104	-22.31
224.338	-16.31
224.573	-25.31
224.808	-11.31
225.042	6.69
225.277	1.69
225.511	3.69
225.746	-5.31
225.98	7.69
226.215	8.69
226.449	24.69
226.683	24.69
226.918	17.69
227.152	33.69
227.387	26.69
227.621	31.69
227.856	48.69
228.09	59.69
228.324	40.69
228.559	42.69
228.793	59.69
229.027	63.69
229.262	56.69
229.496	73.69
229.73	48.69
229.964	62.69
230.199	73.69
230.433	74.69
230.667	87.69
230.901	75.69
231.136	99.69
231.37	94.69
231.604	81.69
231.838	83.69
232.072	64.69
232.306	87.69
232.541	75.69
232.775	83.69
233.009	89.69
233.243	73.69
233.477	76.69
233.711	79.69
233.945	81.69
234.179	74.69
234.413	79.69
234.647	81.69
234.881	86.69
235.115	73.69
235.349	85.69
235.583	81.69
235.817	75.69
236.051	73.69
236.285	77.69
236.519	78.69
236.753	78.69
236.987	90.69
237.221	86.69
237.455	69.69
237.689	83.69
237.922	71.69
238.156	80.69
238.39	79.69
238.624	67.69
238.858	77.69
239.091	83.69
239.325	75.69
239.559	80.69
239.793	60.69
240.027	79.69
240.26	68.69
240.494	77.69
240.728	88.69
240.961	87.69
241.195	87.69
241.429	72.69
241.662	76.69
241.896	72.69
242.13	78.69
242.363	92.69
242.597	80.69
242.83	81.69
243.064	76.69
243.298	71.69
243.531	78.69
243.765	75.69
243.998	73.69
244.232	70.69
244.465	76.69
244.699	66.69
244.932	83.69
245.166	63.69
245.399	88.69
245.633	75.69
245.866	72.69
246.099	84.69
246.333	76.69
246.566	80.69
246.8	72.69
247.033	70.69
247.266	56.69
247.5	81.69
247.733	69.69
247.966	84.69
248.2	69.69
248.433	98.69
248.666	74.69
248.899	95.69
249.133	76.69
249.366	79.69
249.599	82.69
249.832	77.69
250.066	71.69
250.299	78.69
250.532	76.69
250.765	68.69
250.998	97.69
251.231	87.69
251.465	91.69
251.698	95.69
251.931	79.69
252.164	85.69
252.397	69.69
252.63	79.69
252.863	67.69
253.096	88.69
253.329	76.69
253.562	74.69
253.795	75.69
254.028	77.69
254.261	71.69
254.494	72.69
254.727	82.69
254.96	84.69
255.193	72.69
255.426	78.69
255.659	75.69
255.892	88.69
256.124	68.69
256.357	78.69
256.59	95.69
256.823	80.69
257.056	75.69
257.289	74.69
257.521	73.69
257.754	71.69
257.987	88.69
258.22	87.69
258.452	77.69
258.685	74.69
258.918	84.69
259.151	79.69
259.383	94.69
259.616	60.69
259.849	76.69
260.081	82.69
260.314	89.69
260.547	89.69
260.779	80.69
261.012	81.69
261.244	68.69
261.477	87.69
261.71	67.69
261.942	76.69
262.175	88.69
262.407	81.69
262.64	85.69
262.872	82.69
263.105	77.69
263.337	75.69
263.57	78.69
263.802	86.69
264.035	73.69
264.267	82.69
264.499	76.69
264.732	63.69
264.964	76.69
265.197	76.69
265.429	71.69
265.661	90.69
265.894	91.69
266.126	76.69
266.358	83.69
266.591	90.69
266.823	81.69
267.055	85.69
267.287	88.69
267.52	86.69
267.752	84.69
267.984	90.69
268.216	73.69
268.448	88.69
268.681	68.69
268.913	80.69
269.145	65.69
269.377	70.69
269.609	77.69
269.841	74.69
270.073	80.69
270.306	76.69
270.538	76.69
270.77	73.69
271.002	86.69
271.234	93.69
271.466	84.69
271.698	91.69
271.93	95.69
272.162	77.69
272.394	85.69
272.626	87.69
272.858	79.69
273.09	96.69
273.322	85.69
273.553	78.69
273.785	81.69
274.017	92.69
274.249	88.69
274.481	76.69
274.713	77.69
274.945	91.69
275.176	84.69
275.408	76.69
275.64	67.69
275.872	75.69
276.104	84.69
276.335	83.69
276.567	83.69
276.799	84.69
277.031	67.69
277.262	74.69
277.494	73.69
277.726	83.69
277.957	64.69
278.189	82.69
278.421	76.69
278.652	83.69
278.884	80.69
279.115	80.69
279.347	71.69
279.579	71.69
279.81	82.69
280.042	85.69
280.273	76.69
280.505	92.69
280.736	83.69
280.968	86.69
281.199	88.69
281.431	77.69
281.662	78.69
281.894	86.69
282.125	88.69
282.356	78.69
282.588	83.69
282.819	83.69
283.051	87.69
283.282	88.69
283.513	71.69
283.745	83.69
283.976	70.69
284.207	71.69
284.439	86.69
284.67	78.69
284.901	85.69
285.132	94.69
285.364	89.69
285.595	92.69
285.826	89.69
286.057	84.69
286.288	81.69
286.52	88.69
286.751	80.69
286.982	76.69
287.213	87.69
287.444	72.69
287.675	83.69
287.906	90.69
288.138	88.69
288.369	84.69
288.6	95.69
288.831	63.69
289.062	72.69
289.293	76.69
289.524	89.69
289.755	76.69
289.986	83.69
290.217	95.69
290.448	81.69
290.679	79.69
290.91	99.69
291.141	81.69
291.371	71.69
291.602	71.69
291.833	95.69
292.064	88.69
292.295	104.69
292.526	92.69
292.757	77.69
292.987	76.69
293.218	80.69
293.449	83.69
293.68	81.69
293.91	90.69
294.141	75.69
294.372	80.69
294.603	75.69
294.833	74.69
295.064	77.69
295.295	75.69
295.525	84.69
295.756	66.69
295.987	74.69
296.217	83.69
296.448	89.69
296.679	78.69
296.909	91.69
297.14	97.69
297.37	99.69
297.601	85.69
297.831	79.69
298.062	97.69
298.292	88.69
298.523	72.69
298.753	88.69
298.984	82.69
299.214	80.69
299.445	81.69
299.675	74.69
299.905	76.69
300.136	90.69
300.366	88.69
300.597	81.69
300.827	94.69
301.057	88.69
301.288	68.69
301.518	83.69
301.748	96.69
301.979	107.69
302.209	78.69
302.439	79.69
302.669	80.69
302.9	94.69
303.13	89.69
303.36	88.69
303.59	90.69
303.82	81.69
304.051	86.69
304.281	92.69
304.511	81.69
304.741	79.69
304.971	75.69
305.201	88.69
305.431	87.69
305.661	86.69
305.891	72.69
306.121	79.69
306.352	87.69
306.582	74.69
306.812	79.69
307.042	81.69
307.272	82.69
307.502	89.69
307.731	91.69
307.961	83.69
308.191	87.69
308.421	86.69
308.651	71.69
308.881	89.69
309.111	79.69
309.341	78.69
309.571	75.69
309.8	77.69
310.03	86.69
310.26	83.69
310.49	75.69
310.72	75.69
310.949	87.69
311.179	90.69
311.409	87.69
311.639	78.69
311.868	91.69
312.098	86.69
312.328	73.69
312.557	82.69
312.787	69.69
313.017	92.69
313.246	74.69
313.476	83.69
313.706	91.69
313.935	77.69
314.165	89.69
314.394	75.69
314.624	92.69
314.853	85.69
315.083	83.69
315.312	77.69
315.542	89.69
315.771	77.69
316.001	78.69
316.23	90.69
316.46	89.69
316.689	93.69
316.919	84.69
317.148	70.69
317.377	78.69
317.607	73.69
317.836	90.69
318.065	97.69
318.295	75.69
318.524	105.69
318.753	92.69
318.983	74.69
319.212	83.69
319.441	84.69
319.67	87.69
319.9	86.69
320.129	85.69
320.358	88.69
320.587	87.69
320.816	78.69
321.046	70.69
321.275	91.69
321.504	90.69
321.733	86.69
321.962	78.69
322.191	79.69
322.42	78.69
322.649	92.69
322.878	97.69
323.108	68.69
323.337	95.69
323.566	98.69
323.795	71.69
324.024	80.69
324.253	80.69
324.482	94.69
324.71	91.69
324.939	66.69
325.168	86.69
325.397	84.69
325.626	75.69
325.855	84.69
326.084	86.69
326.313	73.69
326.542	83.69
326.77	89.69
326.999	95.69
327.228	79.69
327.457	77.69
327.686	86.69
327.914	88.69
328.143	87.69
328.372	74.69
328.6	60.69
328.829	86.69
329.058	91.69
329.287	96.69
329.515	83.69
329.744	84.69
329.972	76.69
330.201	74.69
330.43	84.69
330.658	92.69
330.887	79.69
331.115	79.69
331.344	79.69
331.572	79.69
331.801	81.69
332.03	84.69
332.258	85.69
332.486	82.69
332.715	86.69
332.943	86.69
333.172	98.69
333.4	85.69
333.629	99.69
333.857	94.69
334.085	85.69
334.314	80.69
334.542	91.69
334.771	87.69
334.999	86.69
335.227	93.69
335.455	74.69
335.684	81.69
335.912	90.69
336.14	80.69
336.369	92.69
336.597	83.69
336.825	88.69
337.053	79.69
337.281	79.69
337.51	73.69
337.738	86.69
337.966	91.69
338.194	91.69
338.422	91.69
338.65	86.69
338.878	91.69
339.106	88.69
339.334	87.69
339.562	91.69
339.79	89.69
340.018	74.69
340.246	83.69
340.474	86.69
340.702	97.69
340.93	91.69
341.158	88.69
341.386	86.69
341.614	89.69
341.842	87.69
342.07	80.69
342.298	81.69
342.526	90.69
342.754	83.69
342.981	84.69
343.209	87.69
343.437	82.69
343.665	82.69
343.893	82.69
344.12	89.69
344.348	82.69
344.576	89.69
344.804	93.69
345.031	68.69
345.259	88.69
345.487	82.69
345.714	92.69
345.942	80.69
346.17	90.69
346.397	92.69
346.625	94.69
346.853	82.69
347.08	75.69
347.308	95.69
347.535	92.69
347.763	80.69
347.99	89.69
348.218	88.69
348.445	82.69
348.673	77.69
348.9	78.69
349.128	89.69
349.355	75.69
349.583	94.69
349.81	69.69
350.037	80.69
350.265	82.69
350.492	97.69
350.72	85.69
350.947	70.69
351.174	74.69
351.402	99.69
351.629	89.69
351.856	94.69
352.083	75.69
352.311	84.69
352.538	73.69
352.765	81.69
352.992	100.69
353.22	76.69
353.447	72.69
353.674	85.69
353.901	82.69
354.128	86.69
354.355	82.69
354.583	70.69
354.81	83.69
355.037	73.69
355.264	74.69
355.491	83.69
355.718	72.69
355.945	86.69
356.172	76.69
356.399	81.69
356.626	90.69
356.853	86.69
357.08	83.69
357.307	79.69
357.534	84.69
357.761	77.69
357.988	93.69
358.215	73.69
358.441	78.69
358.668	83.69
358.895	81.69
359.122	88.69
359.349	95.69
359.576	92.69
359.802	94.69
360.029	88.69
360.256	87.69
360.483	63.69
360.709	86.69
360.936	95.69
361.163	90.69
361.39	100.69
361.616	81.69
361.843	81.69
362.07	68.69
362.296	80.69
362.523	89.69
362.749	79.69
362.976	81.69
363.203	97.69
363.429	77.69
363.656	95.69
363.882	86.69
364.109	78.69
364.335	80.69
364.562	76.69
364.788	83.69
365.015	80.69
365.241	89.69
365.468	84.69
365.694	82.69
365.92	88.69
366.147	71.69
366.373	97.69
366.599	84.69
366.826	72.69
367.052	75.69
367.278	85.69
367.505	74.69
367.731	104.69
367.957	99.69
368.184	87.69
368.41	90.69
368.636	86.69
368.862	88.69
369.089	83.69
369.315	90.69
369.541	87.69
369.767	85.69
369.993	82.69
370.219	84.69
370.445	90.69
370.672	82.69
370.898	78.69
371.124	80.69
371.35	97.69
371.576	88.69
371.802	83.69
372.028	83.69
372.254	88.69
372.48	104.69
372.706	85.69
372.932	94.69
373.158	90.69
373.384	96.69
373.61	96.69
373.835	99.69
374.061	89.69
374.287	68.69
374.513	88.69
374.739	77.69
374.965	96.69
375.191	83.69
375.416	92.69
375.642	99.69
375.868	92.69
376.094	79.69
376.319	93.69
376.545	89.69
376.771	85.69
376.997	95.69
377.222	72.69
377.448	100.69
377.674	91.69
377.899	95.69
378.125	98.69
378.35	93.69
378.576	77.69
378.802	83.69
379.027	80.69
379.253	101.69
379.478	87.69
379.704	86.69
379.929	89.69
380.155	89.69
380.38	83.69
380.606	83.69
380.831	79.69
381.057	112.69
381.282	90.69
381.507	90.69
381.733	93.69
381.958	88.69
382.184	99.69
382.409	96.69
382.634	106.69
382.86	77.69
383.085	105.69
383.31	90.69
383.535	105.69
383.761	95.69
383.986	91.69
384.211	94.69
384.436	107.69
384.662	95.69
384.887	102.69
385.112	103.69
385.337	84.69
385.562	96.69
385.787	88.69
386.013	107.69
386.238	97.69
386.463	102.69
386.688	104.69
386.913	96.69
387.138	106.69
387.363	101.69
387.588	102.69
387.813	103.69
388.038	96.69
388.263	92.69
388.488	102.69
388.713	101.69
388.938	99.69
389.163	94.69
389.387	99.69
389.612	109.69
389.837	102.69
390.062	106.69
390.287	102.69
390.512	88.69
390.736	101.69
390.961	93.69
391.186	97.69
391.411	99.69
391.636	106.69
391.86	112.69
392.085	105.69
392.31	112.69
392.534	99.69
392.759	96.69
392.984	95.69
393.208	94.69
393.433	102.69
393.658	99.69
393.882	97.69
394.107	103.69
394.331	125.69
394.556	96.69
394.78	82.69
395.005	123.69
395.229	103.69
395.454	107.69
395.678	110.69
395.903	110.69
396.127	123.69
396.352	84.69
396.576	104.69
396.801	110.69
397.025	106.69
397.249	105.69
397.474	117.69
397.698	118.69
397.922	100.69
398.147	98.69
398.371	111.69
398.595	114.69
398.82	99.69
399.044	107.69
399.268	110.69
399.492	111.69
399.717	99.69
399.941	119.69
400.165	103.69
400.389	97.69
400.613	101.69
400.837	98.69
401.062	111.69
401.286	114.69
401.51	106.69
401.734	87.69
401.958	110.69
402.182	109.69
402.406	103.69
402.63	117.69
402.854	106.69
403.078	126.69
403.302	110.69
403.526	110.69
403.75	114.69
403.974	97.69
404.198	119.69
404.422	106.69
404.645	105.69
404.869	120.69
405.093	120.69
405.317	102.69
405.541	97.69
405.765	123.69
405.988	122.69
406.212	120.69
406.436	120.69
406.66	111.69
406.883	119.69
407.107	120.69
407.331	119.69
407.555	116.69
407.778	120.69
408.002	121.69
408.226	123.69
408.449	117.69
408.673	120.69
408.896	121.69
409.12	126.69
409.344	122.69
409.567	128.69
409.791	126.69
410.014	127.69
410.238	106.69
410.461	117.69
410.685	105.69
410.908	126.69
411.132	130.69
411.355	115.69
411.578	115.69
411.802	128.69
412.025	116.69
412.249	117.69
412.472	126.69
412.695	118.69
412.919	119.69
413.142	126.69
413.365	127.69
413.589	128.69
413.812	114.69
414.035	123.69
414.258	123.69
414.482	118.69
414.705	102.69
414.928	112.69
415.151	107.69
415.374	128.69
415.597	128.69
415.821	123.69
416.044	126.69
416.267	121.69
416.49	132.69
416.713	121.69
416.936	124.69
417.159	120.69
417.382	113.69
417.605	124.69
417.828	116.69
418.051	140.69
418.274	124.69
418.497	124.69
418.72	117.69
418.943	128.69
419.166	130.69
419.389	129.69
419.611	117.69
419.834	135.69
420.057	131.69
420.28	123.69
420.503	150.69
420.726	131.69
420.948	140.69
421.171	126.69
421.394	126.69
421.617	132.69
421.839	142.69
422.062	125.69
422.285	140.69
422.507	127.69
422.73	136.69
422.953	139.69
423.175	113.69
423.398	120.69
423.621	123.69
423.843	118.69
424.066	125.69
424.288	137.69
424.511	150.69
424.733	156.69
424.956	123.69
425.178	124.69
425.401	146.69
425.623	129.69
425.846	121.69
426.068	127.69
426.291	126.69
426.513	133.69
426.735	140.69
426.958	125.69
427.18	123.69
427.402	127.69
427.625	139.69
427.847	134.69
428.069	135.69
428.292	131.69
428.514	122.69
428.736	126.69
428.958	112.69
429.181	133.69
429.403	134.69
429.625	131.69
429.847	123.69
430.069	125.69
430.292	119.69
430.514	126.69
430.736	128.69
430.958	126.69
431.18	133.69
431.402	136.69
431.624	116.69
431.846	107.69
432.068	94.69
432.29	106.69
432.512	108.69
432.734	133.69
432.956	128.69
433.178	128.69
433.4	125.69
433.622	130.69
433.844	128.69
434.066	125.69
434.287	92.69
434.509	101.69
434.731	90.69
434.953	104.69
435.175	117.69
435.397	123.69
435.618	115.69
435.84	97.69
436.062	108.69
436.284	126.69
436.505	130.69
436.727	128.69
436.949	115.69
437.17	123.69
437.392	123.69
437.614	120.69
437.835	121.69
438.057	102.69
438.278	113.69
438.5	119.69
438.721	153.69
438.943	130.69
439.165	144.69
439.386	124.69
439.608	149.69
439.829	154.69
440.05	146.69
440.272	151.69
440.493	142.69
440.715	146.69
440.936	141.69
441.158	143.69
441.379	145.69
441.6	142.69
441.822	139.69
442.043	140.69
442.264	145.69
442.486	123.69
442.707	140.69
442.928	135.69
443.149	137.69
443.371	146.69
443.592	123.69
443.813	135.69
444.034	129.69
444.255	128.69
444.476	148.69
444.698	140.69
444.919	143.69
445.14	280.69
445.361	195.69
445.582	158.69
445.803	133.69
446.024	156.69
446.245	156.69
446.466	150.69
446.687	150.69
446.908	159.69
447.129	151.69
447.35	165.69
447.571	150.69
447.792	136.69
448.013	140.69
448.234	139.69
448.455	136.69
448.675	136.69
448.896	154.69
449.117	142.69
449.338	139.69
449.559	130.69
449.779	135.69
450	143.69
450.221	118.69
450.442	139.69
450.662	127.69
450.883	131.69
451.104	128.69
451.324	131.69
451.545	124.69
451.766	133.69
451.986	130.69
452.207	132.69
452.428	121.69
452.648	114.69
452.869	124.69
453.089	115.69
453.31	119.69
453.53	111.69
453.751	107.69
453.971	116.69
454.192	103.69
454.412	126.69
454.633	116.69
454.853	128.69
455.073	123.69
455.294	141.69
455.514	119.69
455.734	121.69
455.955	118.69
456.175	120.69
456.395	109.69
456.616	116.69
456.836	103.69
457.056	118.69
457.276	90.69
457.497	112.69
457.717	119.69
457.937	107.69
458.157	102.69
458.377	103.69
458.598	82.69
458.818	89.69
459.038	76.69
459.258	98.69
459.478	83.69
459.698	91.69
459.918	94.69
460.138	101.69
460.358	104.69
460.578	119.69
460.798	123.69
461.018	120.69
461.238	116.69
461.458	104.69
461.678	105.69
461.898	101.69
462.118	109.69
462.338	100.69
462.558	110.69
462.777	110.69
462.997	96.69
463.217	114.69
463.437	107.69
463.657	112.69
463.876	128.69
464.096	107.69
464.316	104.69
464.536	115.69
464.755	102.69
464.975	103.69
465.195	91.69
465.414	107.69
465.634	130.69
465.854	106.69
466.073	118.69
466.293	125.69
466.512	118.69
466.732	134.69
466.951	142.69
467.171	143.69
467.391	140.69
467.61	134.69
467.829	136.69
468.049	140.69
468.268	134.69
468.488	132.69
468.707	128.69
468.927	139.69
469.146	128.69
469.365	156.69
469.585	136.69
469.804	124.69
470.023	137.69
470.243	131.69
470.462	139.69
470.681	135.69
470.901	135.69
471.12	149.69
471.339	134.69
471.558	136.69
471.777	137.69
471.997	137.69
472.216	125.69
472.435	119.69
472.654	119.69
472.873	104.69
473.092	111.69
473.311	115.69
473.53	139.69
473.749	128.69
473.968	132.69
474.187	113.69
474.406	104.69
474.625	103.69
474.844	130.69
475.063	124.69
475.282	137.69
475.501	125.69
475.72	126.69
475.939	126.69
476.158	140.69
476.377	131.69
476.596	120.69
476.814	119.69
477.033	104.69
477.252	126.69
477.471	121.69
477.69	145.69
477.908	134.69
478.127	121.69
478.346	132.69
478.564	127.69
478.783	130.69
479.002	120.69
479.22	126.69
479.439	134.69
479.658	132.69
479.876	97.69
480.095	114.69
480.313	125.69
480.532	108.69
480.751	99.69
480.969	85.69
481.188	93.69
481.406	100.69
481.624	94.69
481.843	85.69
482.061	83.69
482.28	118.69
482.498	112.69
482.717	125.69
482.935	119.69
483.153	144.69
483.372	159.69
483.59	144.69
483.808	125.69
484.027	129.69
484.245	126.69
484.463	136.69
484.681	159.69
484.9	134.69
485.118	131.69
485.336	125.69
485.554	102.69
485.772	100.69
485.99	92.69
486.209	116.69
486.427	105.69
486.645	116.69
486.863	143.69
487.081	139.69
487.299	134.69
487.517	131.69
487.735	161.69
487.953	186.69
488.171	168.69
488.389	172.69
488.607	164.69
488.825	129.69
489.043	129.69
489.261	119.69
489.479	140.69
489.696	152.69
489.914	147.69
490.132	153.69
490.35	150.69
490.568	156.69
490.786	188.69
491.003	166.69
491.221	195.69
491.439	178.69
491.657	193.69
491.874	194.69
492.092	216.69
492.31	240.69
492.527	230.69
492.745	210.69
492.963	187.69
493.18	178.69
493.398	172.69
493.615	178.69
493.833	184.69
494.05	165.69
494.268	167.69
494.485	182.69
494.703	161.69
494.92	165.69
495.138	157.69
495.355	178.69
495.573	162.69
495.79	180.69
496.008	170.69
496.225	168.69
496.442	163.69
496.66	171.69
496.877	160.69
497.094	165.69
497.312	166.69
497.529	154.69
497.746	166.69
497.963	140.69
498.181	127.69
498.398	123.69
498.615	123.69
498.832	120.69
499.049	124.69
499.267	128.69
499.484	124.69
499.701	126.69
499.918	128.69
500.135	146.69
500.352	138.69
500.569	147.69
500.786	146.69
501.003	137.69
501.22	134.69
501.437	138.69
501.654	150.69
501.871	128.69
502.088	134.69
502.305	141.69
502.522	116.69
502.739	140.69
502.956	99.69
503.172	119.69
503.389	132.69
503.606	120.69
503.823	115.69
504.04	125.69
504.256	120.69
504.473	122.69
504.69	99.69
504.907	116.69
505.123	118.69
505.34	116.69
505.557	132.69
505.773	116.69
505.99	126.69
506.207	119.69
506.423	105.69
506.64	121.69
506.856	112.69
507.073	117.69
507.289	120.69
507.506	126.69
507.722	121.69
507.939	110.69
508.155	118.69
508.372	106.69
508.588	116.69
508.805	103.69
509.021	117.69
509.238	104.69
509.454	94.69
509.67	94.69
509.887	104.69
510.103	102.69
510.319	103.69
510.536	96.69
510.752	97.69
510.968	83.69
511.184	82.69
511.401	85.69
511.617	89.69
511.833	91.69
512.049	89.69
