Data from Location2.07152019.Energy5.Lamp.07192019.3%Agarose_HRD10591_14-58-53-359.txt Node
Date: Fri Jul 19 14:58:53 EDT 2019
User: cochatt
Spectrometer: HR+D1059
Trigger mode: 1
Integration Time (sec): 1.000000E-1
Scans to average: 1
Electric dark correction enabled: true
Nonlinearity correction enabled: false
Boxcar width: 0
XAxis mode: Wavelengths
Number of Pixels in Spectrum: 2048
>>>>>Begin Spectral Data<<<<<
223.165	-12.38
223.4	-12.38
223.635	-12.38
223.869	-29.38
224.104	-15.38
224.338	-14.38
224.573	-17.38
224.808	-13.38
225.042	-3.38
225.277	5.62
225.511	0.62
225.746	6.62
225.98	8.62
226.215	19.62
226.449	12.62
226.683	23.62
226.918	14.62
227.152	13.62
227.387	28.62
227.621	36.62
227.856	43.62
228.09	51.62
228.324	64.62
228.559	49.62
228.793	66.62
229.027	61.62
229.262	71.62
229.496	64.62
229.73	56.62
229.964	74.62
230.199	76.62
230.433	86.62
230.667	81.62
230.901	76.62
231.136	92.62
231.37	86.62
231.604	89.62
231.838	72.62
232.072	70.62
232.306	77.62
232.541	83.62
232.775	84.62
233.009	79.62
233.243	88.62
233.477	88.62
233.711	81.62
233.945	92.62
234.179	78.62
234.413	78.62
234.647	81.62
234.881	75.62
235.115	82.62
235.349	90.62
235.583	91.62
235.817	83.62
236.051	79.62
236.285	84.62
236.519	62.62
236.753	85.62
236.987	68.62
237.221	74.62
237.455	96.62
237.689	80.62
237.922	89.62
238.156	67.62
238.39	90.62
238.624	67.62
238.858	78.62
239.091	95.62
239.325	69.62
239.559	90.62
239.793	83.62
240.027	76.62
240.26	84.62
240.494	74.62
240.728	83.62
240.961	79.62
241.195	88.62
241.429	87.62
241.662	81.62
241.896	84.62
242.13	78.62
242.363	86.62
242.597	78.62
242.83	70.62
243.064	79.62
243.298	69.62
243.531	86.62
243.765	79.62
243.998	83.62
244.232	77.62
244.465	81.62
244.699	72.62
244.932	70.62
245.166	88.62
245.399	83.62
245.633	87.62
245.866	77.62
246.099	68.62
246.333	96.62
246.566	81.62
246.8	91.62
247.033	85.62
247.266	70.62
247.5	88.62
247.733	89.62
247.966	75.62
248.2	75.62
248.433	69.62
248.666	72.62
248.899	81.62
249.133	83.62
249.366	84.62
249.599	69.62
249.832	96.62
250.066	88.62
250.299	61.62
250.532	81.62
250.765	82.62
250.998	100.62
251.231	73.62
251.465	66.62
251.698	88.62
251.931	99.62
252.164	81.62
252.397	82.62
252.63	83.62
252.863	73.62
253.096	73.62
253.329	89.62
253.562	83.62
253.795	70.62
254.028	91.62
254.261	92.62
254.494	86.62
254.727	84.62
254.96	95.62
255.193	80.62
255.426	81.62
255.659	76.62
255.892	79.62
256.124	89.62
256.357	83.62
256.59	78.62
256.823	85.62
257.056	70.62
257.289	98.62
257.521	90.62
257.754	83.62
257.987	89.62
258.22	83.62
258.452	91.62
258.685	97.62
258.918	81.62
259.151	77.62
259.383	82.62
259.616	80.62
259.849	78.62
260.081	76.62
260.314	84.62
260.547	85.62
260.779	81.62
261.012	84.62
261.244	77.62
261.477	76.62
261.71	78.62
261.942	80.62
262.175	82.62
262.407	86.62
262.64	76.62
262.872	89.62
263.105	83.62
263.337	90.62
263.57	96.62
263.802	76.62
264.035	73.62
264.267	101.62
264.499	88.62
264.732	88.62
264.964	74.62
265.197	80.62
265.429	82.62
265.661	90.62
265.894	81.62
266.126	85.62
266.358	79.62
266.591	83.62
266.823	86.62
267.055	77.62
267.287	78.62
267.52	69.62
267.752	93.62
267.984	82.62
268.216	84.62
268.448	90.62
268.681	71.62
268.913	70.62
269.145	90.62
269.377	92.62
269.609	89.62
269.841	76.62
270.073	82.62
270.306	79.62
270.538	81.62
270.77	87.62
271.002	82.62
271.234	78.62
271.466	88.62
271.698	89.62
271.93	80.62
272.162	96.62
272.394	77.62
272.626	90.62
272.858	75.62
273.09	84.62
273.322	93.62
273.553	82.62
273.785	88.62
274.017	83.62
274.249	76.62
274.481	88.62
274.713	89.62
274.945	97.62
275.176	93.62
275.408	76.62
275.64	93.62
275.872	88.62
276.104	90.62
276.335	82.62
276.567	79.62
276.799	78.62
277.031	84.62
277.262	68.62
277.494	90.62
277.726	86.62
277.957	88.62
278.189	82.62
278.421	89.62
278.652	84.62
278.884	96.62
279.115	92.62
279.347	90.62
279.579	70.62
279.81	80.62
280.042	65.62
280.273	83.62
280.505	94.62
280.736	89.62
280.968	98.62
281.199	88.62
281.431	90.62
281.662	86.62
281.894	86.62
282.125	81.62
282.356	74.62
282.588	68.62
282.819	78.62
283.051	83.62
283.282	78.62
283.513	81.62
283.745	73.62
283.976	72.62
284.207	81.62
284.439	92.62
284.67	76.62
284.901	84.62
285.132	62.62
285.364	91.62
285.595	82.62
285.826	91.62
286.057	91.62
286.288	75.62
286.52	76.62
286.751	83.62
286.982	90.62
287.213	80.62
287.444	92.62
287.675	93.62
287.906	89.62
288.138	83.62
288.369	77.62
288.6	81.62
288.831	94.62
289.062	82.62
289.293	95.62
289.524	92.62
289.755	91.62
289.986	92.62
290.217	86.62
290.448	95.62
290.679	95.62
290.91	90.62
291.141	91.62
291.371	80.62
291.602	95.62
291.833	76.62
292.064	91.62
292.295	93.62
292.526	82.62
292.757	76.62
292.987	99.62
293.218	100.62
293.449	75.62
293.68	77.62
293.91	78.62
294.141	85.62
294.372	90.62
294.603	108.62
294.833	88.62
295.064	76.62
295.295	90.62
295.525	90.62
295.756	97.62
295.987	96.62
296.217	95.62
296.448	88.62
296.679	88.62
296.909	93.62
297.14	86.62
297.37	88.62
297.601	88.62
297.831	84.62
298.062	87.62
298.292	95.62
298.523	69.62
298.753	84.62
298.984	76.62
299.214	81.62
299.445	86.62
299.675	89.62
299.905	94.62
300.136	94.62
300.366	83.62
300.597	61.62
300.827	93.62
301.057	92.62
301.288	90.62
301.518	77.62
301.748	78.62
301.979	78.62
302.209	90.62
302.439	98.62
302.669	85.62
302.9	97.62
303.13	80.62
303.36	83.62
303.59	80.62
303.82	83.62
304.051	89.62
304.281	99.62
304.511	88.62
304.741	79.62
304.971	99.62
305.201	97.62
305.431	93.62
305.661	88.62
305.891	75.62
306.121	91.62
306.352	92.62
306.582	81.62
306.812	88.62
307.042	88.62
307.272	88.62
307.502	75.62
307.731	87.62
307.961	88.62
308.191	85.62
308.421	77.62
308.651	93.62
308.881	93.62
309.111	83.62
309.341	106.62
309.571	87.62
309.8	98.62
310.03	93.62
310.26	80.62
310.49	91.62
310.72	86.62
310.949	91.62
311.179	87.62
311.409	87.62
311.639	89.62
311.868	84.62
312.098	82.62
312.328	84.62
312.557	79.62
312.787	88.62
313.017	84.62
313.246	89.62
313.476	85.62
313.706	91.62
313.935	79.62
314.165	90.62
314.394	92.62
314.624	84.62
314.853	83.62
315.083	84.62
315.312	76.62
315.542	79.62
315.771	99.62
316.001	85.62
316.23	84.62
316.46	73.62
316.689	82.62
316.919	74.62
317.148	83.62
317.377	88.62
317.607	86.62
317.836	76.62
318.065	86.62
318.295	84.62
318.524	87.62
318.753	96.62
318.983	87.62
319.212	73.62
319.441	85.62
319.67	80.62
319.9	99.62
320.129	96.62
320.358	95.62
320.587	81.62
320.816	93.62
321.046	79.62
321.275	86.62
321.504	89.62
321.733	86.62
321.962	106.62
322.191	96.62
322.42	82.62
322.649	87.62
322.878	93.62
323.108	86.62
323.337	81.62
323.566	84.62
323.795	81.62
324.024	84.62
324.253	80.62
324.482	99.62
324.71	83.62
324.939	93.62
325.168	86.62
325.397	88.62
325.626	79.62
325.855	91.62
326.084	61.62
326.313	85.62
326.542	78.62
326.77	78.62
326.999	89.62
327.228	86.62
327.457	89.62
327.686	89.62
327.914	97.62
328.143	75.62
328.372	80.62
328.6	76.62
328.829	84.62
329.058	92.62
329.287	87.62
329.515	67.62
329.744	79.62
329.972	97.62
330.201	102.62
330.43	85.62
330.658	85.62
330.887	85.62
331.115	82.62
331.344	77.62
331.572	82.62
331.801	98.62
332.03	92.62
332.258	82.62
332.486	79.62
332.715	76.62
332.943	85.62
333.172	86.62
333.4	76.62
333.629	84.62
333.857	78.62
334.085	97.62
334.314	83.62
334.542	83.62
334.771	81.62
334.999	88.62
335.227	90.62
335.455	78.62
335.684	90.62
335.912	97.62
336.14	95.62
336.369	91.62
336.597	81.62
336.825	80.62
337.053	84.62
337.281	89.62
337.51	96.62
337.738	84.62
337.966	85.62
338.194	77.62
338.422	75.62
338.65	75.62
338.878	94.62
339.106	82.62
339.334	86.62
339.562	86.62
339.79	80.62
340.018	93.62
340.246	88.62
340.474	85.62
340.702	89.62
340.93	78.62
341.158	82.62
341.386	75.62
341.614	85.62
341.842	86.62
342.07	84.62
342.298	87.62
342.526	89.62
342.754	85.62
342.981	87.62
343.209	86.62
343.437	80.62
343.665	83.62
343.893	77.62
344.12	87.62
344.348	89.62
344.576	90.62
344.804	98.62
345.031	78.62
345.259	81.62
345.487	88.62
345.714	93.62
345.942	86.62
346.17	90.62
346.397	78.62
346.625	84.62
346.853	88.62
347.08	85.62
347.308	94.62
347.535	90.62
347.763	85.62
347.99	74.62
348.218	88.62
348.445	87.62
348.673	98.62
348.9	90.62
349.128	93.62
349.355	86.62
349.583	86.62
349.81	93.62
350.037	90.62
350.265	88.62
350.492	93.62
350.72	76.62
350.947	85.62
351.174	86.62
351.402	102.62
351.629	78.62
351.856	82.62
352.083	76.62
352.311	89.62
352.538	84.62
352.765	82.62
352.992	79.62
353.22	93.62
353.447	77.62
353.674	85.62
353.901	88.62
354.128	80.62
354.355	76.62
354.583	94.62
354.81	84.62
355.037	78.62
355.264	93.62
355.491	76.62
355.718	86.62
355.945	86.62
356.172	91.62
356.399	85.62
356.626	82.62
356.853	75.62
357.08	79.62
357.307	62.62
357.534	83.62
357.761	92.62
357.988	86.62
358.215	94.62
358.441	83.62
358.668	94.62
358.895	90.62
359.122	76.62
359.349	90.62
359.576	80.62
359.802	78.62
360.029	77.62
360.256	80.62
360.483	72.62
360.709	91.62
360.936	83.62
361.163	99.62
361.39	90.62
361.616	76.62
361.843	78.62
362.07	84.62
362.296	77.62
362.523	84.62
362.749	79.62
362.976	90.62
363.203	101.62
363.429	73.62
363.656	84.62
363.882	79.62
364.109	78.62
364.335	79.62
364.562	92.62
364.788	87.62
365.015	82.62
365.241	109.62
365.468	92.62
365.694	85.62
365.92	83.62
366.147	74.62
366.373	93.62
366.599	89.62
366.826	83.62
367.052	88.62
367.278	88.62
367.505	97.62
367.731	99.62
367.957	85.62
368.184	90.62
368.41	87.62
368.636	89.62
368.862	83.62
369.089	82.62
369.315	82.62
369.541	87.62
369.767	98.62
369.993	89.62
370.219	95.62
370.445	92.62
370.672	91.62
370.898	82.62
371.124	86.62
371.35	87.62
371.576	92.62
371.802	92.62
372.028	88.62
372.254	89.62
372.48	88.62
372.706	70.62
372.932	88.62
373.158	73.62
373.384	78.62
373.61	94.62
373.835	92.62
374.061	83.62
374.287	85.62
374.513	97.62
374.739	96.62
374.965	87.62
375.191	90.62
375.416	85.62
375.642	93.62
375.868	98.62
376.094	106.62
376.319	88.62
376.545	97.62
376.771	85.62
376.997	87.62
377.222	96.62
377.448	92.62
377.674	92.62
377.899	93.62
378.125	103.62
378.35	103.62
378.576	104.62
378.802	86.62
379.027	89.62
379.253	109.62
379.478	108.62
379.704	84.62
379.929	82.62
380.155	78.62
380.38	93.62
380.606	93.62
380.831	102.62
381.057	105.62
381.282	100.62
381.507	95.62
381.733	102.62
381.958	96.62
382.184	91.62
382.409	93.62
382.634	96.62
382.86	100.62
383.085	96.62
383.31	92.62
383.535	106.62
383.761	102.62
383.986	88.62
384.211	96.62
384.436	99.62
384.662	114.62
384.887	108.62
385.112	99.62
385.337	100.62
385.562	90.62
385.787	104.62
386.013	107.62
386.238	101.62
386.463	101.62
386.688	94.62
386.913	92.62
387.138	98.62
387.363	104.62
387.588	102.62
387.813	98.62
388.038	101.62
388.263	101.62
388.488	100.62
388.713	99.62
388.938	105.62
389.163	106.62
389.387	113.62
389.612	80.62
389.837	99.62
390.062	100.62
390.287	102.62
390.512	95.62
390.736	110.62
390.961	109.62
391.186	97.62
391.411	107.62
391.636	105.62
391.86	98.62
392.085	89.62
392.31	108.62
392.534	107.62
392.759	103.62
392.984	100.62
393.208	101.62
393.433	100.62
393.658	106.62
393.882	104.62
394.107	112.62
394.331	105.62
394.556	91.62
394.78	109.62
395.005	107.62
395.229	117.62
395.454	115.62
395.678	105.62
395.903	106.62
396.127	120.62
396.352	107.62
396.576	99.62
396.801	103.62
397.025	120.62
397.249	98.62
397.474	114.62
397.698	100.62
397.922	108.62
398.147	123.62
398.371	114.62
398.595	116.62
398.82	106.62
399.044	106.62
399.268	102.62
399.492	115.62
399.717	112.62
399.941	112.62
400.165	112.62
400.389	103.62
400.613	107.62
400.837	114.62
401.062	112.62
401.286	109.62
401.51	123.62
401.734	92.62
401.958	108.62
402.182	112.62
402.406	101.62
402.63	105.62
402.854	102.62
403.078	117.62
403.302	125.62
403.526	124.62
403.75	114.62
403.974	112.62
404.198	114.62
404.422	113.62
404.645	120.62
404.869	129.62
405.093	108.62
405.317	104.62
405.541	123.62
405.765	107.62
405.988	124.62
406.212	104.62
406.436	114.62
406.66	121.62
406.883	113.62
407.107	132.62
407.331	118.62
407.555	121.62
407.778	122.62
408.002	122.62
408.226	122.62
408.449	125.62
408.673	118.62
408.896	116.62
409.12	133.62
409.344	122.62
409.567	133.62
409.791	119.62
410.014	125.62
410.238	130.62
410.461	124.62
410.685	116.62
410.908	119.62
411.132	115.62
411.355	118.62
411.578	144.62
411.802	115.62
412.025	135.62
412.249	121.62
412.472	113.62
412.695	106.62
412.919	120.62
413.142	113.62
413.365	116.62
413.589	135.62
413.812	128.62
414.035	132.62
414.258	135.62
414.482	124.62
414.705	123.62
414.928	128.62
415.151	99.62
415.374	125.62
415.597	126.62
415.821	129.62
416.044	133.62
416.267	121.62
416.49	131.62
416.713	131.62
416.936	134.62
417.159	128.62
417.382	141.62
417.605	124.62
417.828	136.62
418.051	138.62
418.274	133.62
418.497	137.62
418.72	126.62
418.943	133.62
419.166	122.62
419.389	131.62
419.611	124.62
419.834	134.62
420.057	129.62
420.28	134.62
420.503	134.62
420.726	130.62
420.948	125.62
421.171	130.62
421.394	126.62
421.617	131.62
421.839	138.62
422.062	147.62
422.285	136.62
422.507	127.62
422.73	122.62
422.953	132.62
423.175	120.62
423.398	125.62
423.621	137.62
423.843	133.62
424.066	117.62
424.288	131.62
424.511	146.62
424.733	148.62
424.956	152.62
425.178	124.62
425.401	145.62
425.623	149.62
425.846	130.62
426.068	145.62
426.291	127.62
426.513	127.62
426.735	131.62
426.958	135.62
427.18	143.62
427.402	139.62
427.625	132.62
427.847	123.62
428.069	120.62
428.292	134.62
428.514	116.62
428.736	123.62
428.958	133.62
429.181	140.62
429.403	127.62
429.625	133.62
429.847	145.62
430.069	146.62
430.292	132.62
430.514	120.62
430.736	134.62
430.958	126.62
431.18	141.62
431.402	142.62
431.624	127.62
431.846	122.62
432.068	112.62
432.29	97.62
432.512	116.62
432.734	128.62
432.956	124.62
433.178	133.62
433.4	124.62
433.622	133.62
433.844	124.62
434.066	131.62
434.287	105.62
434.509	86.62
434.731	90.62
434.953	108.62
435.175	113.62
435.397	132.62
435.618	120.62
435.84	114.62
436.062	112.62
436.284	122.62
436.505	125.62
436.727	124.62
436.949	135.62
437.17	137.62
437.392	140.62
437.614	128.62
437.835	108.62
438.057	125.62
438.278	117.62
438.5	127.62
438.721	132.62
438.943	143.62
439.165	135.62
439.386	132.62
439.608	141.62
439.829	138.62
440.05	138.62
440.272	149.62
440.493	141.62
440.715	138.62
440.936	133.62
441.158	153.62
441.379	151.62
441.6	153.62
441.822	149.62
442.043	144.62
442.264	132.62
442.486	136.62
442.707	161.62
442.928	149.62
443.149	140.62
443.371	134.62
443.592	135.62
443.813	117.62
444.034	143.62
444.255	142.62
444.476	143.62
444.698	135.62
444.919	145.62
445.14	265.62
445.361	192.62
445.582	134.62
445.803	152.62
446.024	144.62
446.245	154.62
446.466	162.62
446.687	162.62
446.908	141.62
447.129	167.62
447.35	161.62
447.571	164.62
447.792	144.62
448.013	140.62
448.234	134.62
448.455	145.62
448.675	145.62
448.896	134.62
449.117	132.62
449.338	141.62
449.559	134.62
449.779	123.62
450	132.62
450.221	136.62
450.442	140.62
450.662	131.62
450.883	148.62
451.104	145.62
451.324	131.62
451.545	136.62
451.766	138.62
451.986	118.62
452.207	119.62
452.428	131.62
452.648	125.62
452.869	122.62
453.089	114.62
453.31	119.62
453.53	115.62
453.751	109.62
453.971	102.62
454.192	112.62
454.412	114.62
454.633	110.62
454.853	116.62
455.073	129.62
455.294	130.62
455.514	122.62
455.734	124.62
455.955	104.62
456.175	126.62
456.395	123.62
456.616	104.62
456.836	119.62
457.056	126.62
457.276	122.62
457.497	107.62
457.717	112.62
457.937	104.62
458.157	112.62
458.377	96.62
458.598	104.62
458.818	100.62
459.038	96.62
459.258	92.62
459.478	89.62
459.698	86.62
459.918	91.62
460.138	114.62
460.358	108.62
460.578	112.62
460.798	118.62
461.018	108.62
461.238	108.62
461.458	118.62
461.678	97.62
461.898	119.62
462.118	114.62
462.338	122.62
462.558	126.62
462.777	121.62
462.997	112.62
463.217	109.62
463.437	93.62
463.657	104.62
463.876	110.62
464.096	113.62
464.316	112.62
464.536	118.62
464.755	117.62
464.975	109.62
465.195	101.62
465.414	128.62
465.634	105.62
465.854	124.62
466.073	119.62
466.293	134.62
466.512	129.62
466.732	142.62
466.951	140.62
467.171	120.62
467.391	129.62
467.61	124.62
467.829	149.62
468.049	155.62
468.268	128.62
468.488	134.62
468.707	134.62
468.927	130.62
469.146	138.62
469.365	140.62
469.585	142.62
469.804	143.62
470.023	135.62
470.243	138.62
470.462	143.62
470.681	143.62
470.901	143.62
471.12	147.62
471.339	149.62
471.558	139.62
471.777	136.62
471.997	153.62
472.216	123.62
472.435	121.62
472.654	110.62
472.873	117.62
473.092	116.62
473.311	121.62
473.53	106.62
473.749	124.62
473.968	128.62
474.187	113.62
474.406	124.62
474.625	122.62
474.844	124.62
475.063	136.62
475.282	130.62
475.501	120.62
475.72	110.62
475.939	116.62
476.158	133.62
476.377	117.62
476.596	118.62
476.814	125.62
477.033	108.62
477.252	115.62
477.471	130.62
477.69	138.62
477.908	140.62
478.127	141.62
478.346	138.62
478.564	129.62
478.783	118.62
479.002	139.62
479.22	126.62
479.439	125.62
479.658	130.62
479.876	117.62
480.095	132.62
480.313	120.62
480.532	114.62
480.751	107.62
480.969	104.62
481.188	89.62
481.406	84.62
481.624	92.62
481.843	98.62
482.061	108.62
482.28	113.62
482.498	119.62
482.717	116.62
482.935	125.62
483.153	142.62
483.372	163.62
483.59	140.62
483.808	137.62
484.027	133.62
484.245	128.62
484.463	128.62
484.681	156.62
484.9	146.62
485.118	133.62
485.336	121.62
485.554	111.62
485.772	100.62
485.99	97.62
486.209	118.62
486.427	122.62
486.645	129.62
486.863	131.62
487.081	152.62
487.299	130.62
487.517	143.62
487.735	167.62
487.953	187.62
488.171	171.62
488.389	161.62
488.607	142.62
488.825	140.62
489.043	127.62
489.261	146.62
489.479	139.62
489.696	158.62
489.914	146.62
490.132	122.62
490.35	168.62
490.568	169.62
490.786	185.62
491.003	176.62
491.221	165.62
491.439	192.62
491.657	192.62
491.874	202.62
492.092	216.62
492.31	233.62
492.527	224.62
492.745	196.62
492.963	185.62
493.18	197.62
493.398	170.62
493.615	161.62
493.833	162.62
494.05	180.62
494.268	167.62
494.485	186.62
494.703	174.62
494.92	172.62
495.138	171.62
495.355	172.62
495.573	184.62
495.79	167.62
496.008	169.62
496.225	175.62
496.442	174.62
496.66	158.62
496.877	169.62
497.094	180.62
497.312	163.62
497.529	160.62
497.746	148.62
497.963	131.62
498.181	116.62
498.398	118.62
498.615	125.62
498.832	116.62
499.049	122.62
499.267	123.62
499.484	132.62
499.701	137.62
499.918	125.62
500.135	136.62
500.352	142.62
500.569	137.62
500.786	137.62
501.003	130.62
501.22	156.62
501.437	144.62
501.654	136.62
501.871	123.62
502.088	139.62
502.305	118.62
502.522	145.62
502.739	141.62
502.956	128.62
503.172	107.62
503.389	125.62
503.606	111.62
503.823	114.62
504.04	124.62
504.256	109.62
504.473	121.62
504.69	99.62
504.907	124.62
505.123	129.62
505.34	126.62
505.557	113.62
505.773	127.62
505.99	109.62
506.207	124.62
506.423	118.62
506.64	131.62
506.856	120.62
507.073	113.62
507.289	117.62
507.506	123.62
507.722	121.62
507.939	126.62
508.155	118.62
508.372	127.62
508.588	105.62
508.805	114.62
509.021	102.62
509.238	116.62
509.454	107.62
509.67	108.62
509.887	102.62
510.103	99.62
510.319	101.62
510.536	92.62
510.752	97.62
510.968	82.62
511.184	71.62
511.401	80.62
