Data from Location2.07152019.Energy5.Lamp.07192019.3%Agarose_HRD10591_14-56-49-359.txt Node
Date: Fri Jul 19 14:56:49 EDT 2019
User: cochatt
Spectrometer: HR+D1059
Trigger mode: 1
Integration Time (sec): 1.000000E-1
Scans to average: 1
Electric dark correction enabled: true
Nonlinearity correction enabled: false
Boxcar width: 0
XAxis mode: Wavelengths
Number of Pixels in Spectrum: 2048
>>>>>Begin Spectral Data<<<<<
223.165	-10.56
223.4	-10.56
223.635	-10.56
223.869	-11.56
224.104	-9.56
224.338	-11.56
224.573	-21.56
224.808	-11.56
225.042	0.44
225.277	6.44
225.511	2.44
225.746	-6.56
225.98	-6.56
226.215	8.44
226.449	6.44
226.683	18.44
226.918	16.44
227.152	30.44
227.387	17.44
227.621	33.44
227.856	43.44
228.09	39.44
228.324	43.44
228.559	58.44
228.793	52.44
229.027	74.44
229.262	69.44
229.496	57.44
229.73	64.44
229.964	75.44
230.199	82.44
230.433	76.44
230.667	67.44
230.901	80.44
231.136	67.44
231.37	82.44
231.604	84.44
231.838	74.44
232.072	82.44
232.306	83.44
232.541	76.44
232.775	82.44
233.009	88.44
233.243	88.44
233.477	83.44
233.711	75.44
233.945	84.44
234.179	100.44
234.413	77.44
234.647	95.44
234.881	82.44
235.115	90.44
235.349	89.44
235.583	79.44
235.817	71.44
236.051	71.44
236.285	60.44
236.519	69.44
236.753	72.44
236.987	90.44
237.221	73.44
237.455	82.44
237.689	74.44
237.922	83.44
238.156	66.44
238.39	66.44
238.624	80.44
238.858	73.44
239.091	80.44
239.325	66.44
239.559	90.44
239.793	82.44
240.027	75.44
240.26	84.44
240.494	73.44
240.728	84.44
240.961	73.44
241.195	79.44
241.429	84.44
241.662	76.44
241.896	67.44
242.13	67.44
242.363	79.44
242.597	76.44
242.83	86.44
243.064	75.44
243.298	79.44
243.531	91.44
243.765	79.44
243.998	83.44
244.232	79.44
244.465	66.44
244.699	85.44
244.932	82.44
245.166	77.44
245.399	74.44
245.633	74.44
245.866	80.44
246.099	75.44
246.333	74.44
246.566	75.44
246.8	82.44
247.033	84.44
247.266	74.44
247.5	64.44
247.733	71.44
247.966	83.44
248.2	78.44
248.433	79.44
248.666	80.44
248.899	76.44
249.133	81.44
249.366	73.44
249.599	66.44
249.832	76.44
250.066	69.44
250.299	71.44
250.532	78.44
250.765	62.44
250.998	82.44
251.231	87.44
251.465	83.44
251.698	78.44
251.931	81.44
252.164	68.44
252.397	80.44
252.63	77.44
252.863	66.44
253.096	81.44
253.329	73.44
253.562	67.44
253.795	79.44
254.028	83.44
254.261	74.44
254.494	65.44
254.727	73.44
254.96	88.44
255.193	77.44
255.426	84.44
255.659	75.44
255.892	83.44
256.124	80.44
256.357	91.44
256.59	64.44
256.823	74.44
257.056	71.44
257.289	64.44
257.521	92.44
257.754	82.44
257.987	74.44
258.22	81.44
258.452	80.44
258.685	74.44
258.918	82.44
259.151	62.44
259.383	72.44
259.616	68.44
259.849	61.44
260.081	82.44
260.314	88.44
260.547	84.44
260.779	80.44
261.012	83.44
261.244	91.44
261.477	85.44
261.71	91.44
261.942	74.44
262.175	85.44
262.407	80.44
262.64	69.44
262.872	66.44
263.105	83.44
263.337	85.44
263.57	82.44
263.802	72.44
264.035	78.44
264.267	75.44
264.499	78.44
264.732	79.44
264.964	84.44
265.197	88.44
265.429	80.44
265.661	74.44
265.894	64.44
266.126	83.44
266.358	81.44
266.591	84.44
266.823	79.44
267.055	74.44
267.287	74.44
267.52	89.44
267.752	79.44
267.984	74.44
268.216	78.44
268.448	77.44
268.681	88.44
268.913	76.44
269.145	87.44
269.377	80.44
269.609	75.44
269.841	76.44
270.073	76.44
270.306	77.44
270.538	76.44
270.77	72.44
271.002	72.44
271.234	71.44
271.466	85.44
271.698	89.44
271.93	83.44
272.162	84.44
272.394	84.44
272.626	65.44
272.858	94.44
273.09	94.44
273.322	97.44
273.553	67.44
273.785	71.44
274.017	71.44
274.249	96.44
274.481	69.44
274.713	88.44
274.945	80.44
275.176	82.44
275.408	74.44
275.64	80.44
275.872	88.44
276.104	89.44
276.335	74.44
276.567	75.44
276.799	86.44
277.031	76.44
277.262	87.44
277.494	97.44
277.726	78.44
277.957	81.44
278.189	80.44
278.421	84.44
278.652	92.44
278.884	84.44
279.115	82.44
279.347	86.44
279.579	69.44
279.81	80.44
280.042	73.44
280.273	74.44
280.505	82.44
280.736	90.44
280.968	76.44
281.199	73.44
281.431	86.44
281.662	89.44
281.894	71.44
282.125	90.44
282.356	84.44
282.588	82.44
282.819	100.44
283.051	88.44
283.282	100.44
283.513	83.44
283.745	79.44
283.976	75.44
284.207	87.44
284.439	80.44
284.67	74.44
284.901	86.44
285.132	80.44
285.364	82.44
285.595	92.44
285.826	88.44
286.057	82.44
286.288	80.44
286.52	76.44
286.751	80.44
286.982	83.44
287.213	82.44
287.444	83.44
287.675	92.44
287.906	76.44
288.138	83.44
288.369	81.44
288.6	78.44
288.831	90.44
289.062	83.44
289.293	75.44
289.524	89.44
289.755	72.44
289.986	91.44
290.217	78.44
290.448	83.44
290.679	75.44
290.91	85.44
291.141	80.44
291.371	88.44
291.602	79.44
291.833	69.44
292.064	80.44
292.295	78.44
292.526	95.44
292.757	89.44
292.987	80.44
293.218	74.44
293.449	86.44
293.68	74.44
293.91	80.44
294.141	78.44
294.372	70.44
294.603	96.44
294.833	82.44
295.064	106.44
295.295	81.44
295.525	86.44
295.756	67.44
295.987	79.44
296.217	84.44
296.448	80.44
296.679	83.44
296.909	81.44
297.14	76.44
297.37	83.44
297.601	82.44
297.831	75.44
298.062	82.44
298.292	84.44
298.523	95.44
298.753	79.44
298.984	101.44
299.214	92.44
299.445	77.44
299.675	88.44
299.905	89.44
300.136	74.44
300.366	83.44
300.597	80.44
300.827	81.44
301.057	94.44
301.288	97.44
301.518	72.44
301.748	86.44
301.979	86.44
302.209	89.44
302.439	72.44
302.669	77.44
302.9	86.44
303.13	90.44
303.36	89.44
303.59	93.44
303.82	88.44
304.051	90.44
304.281	96.44
304.511	76.44
304.741	98.44
304.971	76.44
305.201	80.44
305.431	95.44
305.661	87.44
305.891	82.44
306.121	82.44
306.352	85.44
306.582	78.44
306.812	81.44
307.042	80.44
307.272	69.44
307.502	95.44
307.731	89.44
307.961	83.44
308.191	97.44
308.421	94.44
308.651	89.44
308.881	74.44
309.111	87.44
309.341	88.44
309.571	86.44
309.8	82.44
310.03	79.44
310.26	88.44
310.49	94.44
310.72	82.44
310.949	85.44
311.179	79.44
311.409	83.44
311.639	77.44
311.868	84.44
312.098	81.44
312.328	79.44
312.557	88.44
312.787	82.44
313.017	78.44
313.246	73.44
313.476	95.44
313.706	65.44
313.935	93.44
314.165	82.44
314.394	94.44
314.624	80.44
314.853	80.44
315.083	66.44
315.312	81.44
315.542	78.44
315.771	77.44
316.001	89.44
316.23	85.44
316.46	80.44
316.689	85.44
316.919	78.44
317.148	76.44
317.377	95.44
317.607	91.44
317.836	84.44
318.065	87.44
318.295	80.44
318.524	66.44
318.753	100.44
318.983	88.44
319.212	83.44
319.441	76.44
319.67	83.44
319.9	83.44
320.129	97.44
320.358	88.44
320.587	85.44
320.816	84.44
321.046	87.44
321.275	79.44
321.504	82.44
321.733	72.44
321.962	75.44
322.191	84.44
322.42	71.44
322.649	86.44
322.878	72.44
323.108	84.44
323.337	86.44
323.566	85.44
323.795	94.44
324.024	85.44
324.253	71.44
324.482	91.44
324.71	88.44
324.939	67.44
325.168	67.44
325.397	84.44
325.626	89.44
325.855	86.44
326.084	83.44
326.313	87.44
326.542	79.44
326.77	86.44
326.999	82.44
327.228	86.44
327.457	70.44
327.686	78.44
327.914	98.44
328.143	79.44
328.372	77.44
328.6	74.44
328.829	76.44
329.058	76.44
329.287	72.44
329.515	92.44
329.744	95.44
329.972	85.44
330.201	89.44
330.43	74.44
330.658	82.44
330.887	82.44
331.115	90.44
331.344	84.44
331.572	90.44
331.801	78.44
332.03	87.44
332.258	73.44
332.486	76.44
332.715	87.44
332.943	82.44
333.172	70.44
333.4	89.44
333.629	82.44
333.857	78.44
334.085	81.44
334.314	87.44
334.542	77.44
334.771	84.44
334.999	101.44
335.227	81.44
335.455	87.44
335.684	76.44
335.912	65.44
336.14	70.44
336.369	81.44
336.597	75.44
336.825	83.44
337.053	78.44
337.281	71.44
337.51	83.44
337.738	88.44
337.966	100.44
338.194	80.44
338.422	59.44
338.65	80.44
338.878	73.44
339.106	87.44
339.334	87.44
339.562	86.44
339.79	71.44
340.018	91.44
340.246	69.44
340.474	75.44
340.702	87.44
340.93	92.44
341.158	86.44
341.386	82.44
341.614	79.44
341.842	84.44
342.07	86.44
342.298	89.44
342.526	78.44
342.754	91.44
342.981	84.44
343.209	89.44
343.437	81.44
343.665	99.44
343.893	84.44
344.12	87.44
344.348	77.44
344.576	86.44
344.804	95.44
345.031	73.44
345.259	91.44
345.487	75.44
345.714	81.44
345.942	82.44
346.17	79.44
346.397	79.44
346.625	74.44
346.853	75.44
347.08	103.44
347.308	83.44
347.535	79.44
347.763	71.44
347.99	86.44
348.218	89.44
348.445	73.44
348.673	86.44
348.9	68.44
349.128	84.44
349.355	84.44
349.583	85.44
349.81	76.44
350.037	87.44
350.265	88.44
350.492	82.44
350.72	83.44
350.947	93.44
351.174	85.44
351.402	86.44
351.629	76.44
351.856	90.44
352.083	69.44
352.311	70.44
352.538	84.44
352.765	95.44
352.992	75.44
353.22	79.44
353.447	86.44
353.674	87.44
353.901	94.44
354.128	85.44
354.355	79.44
354.583	79.44
354.81	84.44
355.037	93.44
355.264	89.44
355.491	80.44
355.718	78.44
355.945	78.44
356.172	80.44
356.399	78.44
356.626	76.44
356.853	84.44
357.08	75.44
357.307	76.44
357.534	73.44
357.761	96.44
357.988	81.44
358.215	98.44
358.441	91.44
358.668	87.44
358.895	75.44
359.122	102.44
359.349	75.44
359.576	75.44
359.802	83.44
360.029	79.44
360.256	80.44
360.483	81.44
360.709	78.44
360.936	94.44
361.163	74.44
361.39	90.44
361.616	81.44
361.843	85.44
362.07	90.44
362.296	86.44
362.523	83.44
362.749	88.44
362.976	93.44
363.203	85.44
363.429	78.44
363.656	94.44
363.882	94.44
364.109	89.44
364.335	94.44
364.562	87.44
364.788	75.44
365.015	80.44
365.241	83.44
365.468	82.44
365.694	73.44
365.92	80.44
366.147	78.44
366.373	65.44
366.599	102.44
366.826	79.44
367.052	91.44
367.278	72.44
367.505	85.44
367.731	74.44
367.957	85.44
368.184	94.44
368.41	94.44
368.636	87.44
368.862	84.44
369.089	90.44
369.315	76.44
369.541	97.44
369.767	88.44
369.993	83.44
370.219	83.44
370.445	82.44
370.672	81.44
370.898	87.44
371.124	83.44
371.35	71.44
371.576	100.44
371.802	82.44
372.028	86.44
372.254	90.44
372.48	97.44
372.706	73.44
372.932	100.44
373.158	97.44
373.384	96.44
373.61	92.44
373.835	89.44
374.061	95.44
374.287	77.44
374.513	90.44
374.739	91.44
374.965	91.44
375.191	94.44
375.416	94.44
375.642	96.44
375.868	78.44
376.094	88.44
376.319	79.44
376.545	78.44
376.771	91.44
376.997	104.44
377.222	88.44
377.448	77.44
377.674	86.44
377.899	89.44
378.125	102.44
378.35	93.44
378.576	91.44
378.802	111.44
379.027	81.44
379.253	83.44
379.478	93.44
379.704	96.44
379.929	100.44
380.155	84.44
380.38	89.44
380.606	86.44
380.831	93.44
381.057	102.44
381.282	94.44
381.507	83.44
381.733	90.44
381.958	95.44
382.184	92.44
382.409	83.44
382.634	103.44
382.86	105.44
383.085	92.44
383.31	93.44
383.535	106.44
383.761	92.44
383.986	97.44
384.211	101.44
384.436	95.44
384.662	87.44
384.887	93.44
385.112	89.44
385.337	88.44
385.562	88.44
385.787	91.44
386.013	101.44
386.238	112.44
386.463	93.44
386.688	91.44
386.913	94.44
387.138	95.44
387.363	92.44
387.588	117.44
387.813	101.44
388.038	98.44
388.263	98.44
388.488	98.44
388.713	98.44
388.938	101.44
389.163	105.44
389.387	113.44
389.612	89.44
389.837	86.44
390.062	105.44
390.287	99.44
390.512	103.44
390.736	111.44
390.961	106.44
391.186	93.44
391.411	98.44
391.636	115.44
391.86	99.44
392.085	91.44
392.31	94.44
392.534	96.44
392.759	111.44
392.984	99.44
393.208	111.44
393.433	97.44
393.658	92.44
393.882	102.44
394.107	90.44
394.331	107.44
394.556	84.44
394.78	102.44
395.005	87.44
395.229	98.44
395.454	98.44
395.678	106.44
395.903	93.44
396.127	97.44
396.352	98.44
396.576	99.44
396.801	104.44
397.025	107.44
397.249	102.44
397.474	111.44
397.698	122.44
397.922	108.44
398.147	98.44
398.371	83.44
398.595	102.44
398.82	102.44
399.044	103.44
399.268	117.44
399.492	114.44
399.717	90.44
399.941	105.44
400.165	108.44
400.389	118.44
400.613	96.44
400.837	107.44
401.062	120.44
401.286	108.44
401.51	104.44
401.734	101.44
401.958	114.44
402.182	105.44
402.406	87.44
402.63	104.44
402.854	93.44
403.078	99.44
403.302	114.44
403.526	112.44
403.75	105.44
403.974	110.44
404.198	111.44
404.422	119.44
404.645	125.44
404.869	118.44
405.093	102.44
405.317	111.44
405.541	119.44
405.765	106.44
405.988	117.44
406.212	108.44
406.436	121.44
406.66	134.44
406.883	122.44
407.107	126.44
407.331	115.44
407.555	118.44
407.778	121.44
408.002	119.44
408.226	131.44
408.449	119.44
408.673	119.44
408.896	127.44
409.12	110.44
409.344	113.44
409.567	117.44
409.791	116.44
410.014	116.44
410.238	125.44
410.461	123.44
410.685	112.44
410.908	128.44
411.132	128.44
411.355	130.44
411.578	123.44
411.802	111.44
412.025	102.44
412.249	118.44
412.472	122.44
412.695	115.44
412.919	116.44
413.142	122.44
413.365	124.44
413.589	124.44
413.812	111.44
414.035	98.44
414.258	123.44
414.482	122.44
414.705	118.44
414.928	119.44
415.151	118.44
415.374	124.44
415.597	118.44
415.821	117.44
416.044	124.44
416.267	120.44
416.49	118.44
416.713	115.44
416.936	114.44
417.159	122.44
417.382	113.44
417.605	117.44
417.828	122.44
418.051	118.44
418.274	121.44
418.497	124.44
418.72	130.44
418.943	128.44
419.166	143.44
419.389	128.44
419.611	138.44
419.834	124.44
420.057	130.44
420.28	138.44
420.503	124.44
420.726	143.44
420.948	122.44
421.171	121.44
421.394	111.44
421.617	150.44
421.839	134.44
422.062	136.44
422.285	132.44
422.507	123.44
422.73	115.44
422.953	123.44
423.175	115.44
423.398	124.44
423.621	122.44
423.843	123.44
424.066	136.44
424.288	136.44
424.511	146.44
424.733	137.44
424.956	130.44
425.178	124.44
425.401	132.44
425.623	123.44
425.846	121.44
426.068	124.44
426.291	133.44
426.513	131.44
426.735	130.44
426.958	137.44
427.18	129.44
427.402	127.44
427.625	133.44
427.847	127.44
428.069	145.44
428.292	118.44
428.514	124.44
428.736	114.44
428.958	134.44
429.181	118.44
429.403	119.44
429.625	134.44
429.847	131.44
430.069	136.44
430.292	140.44
430.514	130.44
430.736	112.44
430.958	115.44
431.18	119.44
431.402	130.44
431.624	122.44
431.846	101.44
432.068	91.44
432.29	90.44
432.512	114.44
432.734	124.44
432.956	132.44
433.178	143.44
433.4	130.44
433.622	141.44
433.844	133.44
434.066	120.44
434.287	92.44
434.509	100.44
434.731	100.44
434.953	104.44
435.175	122.44
435.397	122.44
435.618	121.44
435.84	130.44
436.062	132.44
436.284	122.44
436.505	128.44
436.727	133.44
436.949	128.44
437.17	135.44
437.392	136.44
437.614	131.44
437.835	115.44
438.057	108.44
438.278	111.44
438.5	111.44
438.721	124.44
438.943	118.44
439.165	128.44
439.386	131.44
439.608	132.44
439.829	133.44
440.05	146.44
440.272	130.44
440.493	126.44
440.715	132.44
440.936	136.44
441.158	147.44
441.379	139.44
441.6	136.44
441.822	140.44
442.043	139.44
442.264	141.44
442.486	132.44
442.707	128.44
442.928	133.44
443.149	141.44
443.371	138.44
443.592	145.44
443.813	118.44
444.034	145.44
444.255	146.44
444.476	136.44
444.698	151.44
444.919	154.44
445.14	273.44
445.361	202.44
445.582	163.44
445.803	147.44
446.024	147.44
446.245	142.44
446.466	150.44
446.687	141.44
446.908	139.44
447.129	151.44
447.35	132.44
447.571	140.44
447.792	149.44
448.013	140.44
448.234	133.44
448.455	138.44
448.675	150.44
448.896	138.44
449.117	141.44
449.338	138.44
449.559	141.44
449.779	126.44
450	126.44
450.221	129.44
450.442	136.44
450.662	140.44
450.883	130.44
451.104	143.44
451.324	122.44
451.545	137.44
451.766	135.44
451.986	117.44
452.207	138.44
452.428	123.44
452.648	118.44
452.869	117.44
453.089	119.44
453.31	107.44
453.53	121.44
453.751	105.44
453.971	102.44
454.192	105.44
454.412	102.44
454.633	117.44
454.853	110.44
455.073	123.44
455.294	122.44
455.514	118.44
455.734	130.44
455.955	113.44
456.175	118.44
456.395	94.44
456.616	113.44
456.836	111.44
457.056	106.44
457.276	116.44
457.497	99.44
457.717	87.44
457.937	99.44
458.157	102.44
458.377	108.44
458.598	103.44
458.818	87.44
459.038	99.44
459.258	85.44
459.478	91.44
459.698	86.44
459.918	98.44
460.138	125.44
460.358	112.44
460.578	126.44
460.798	112.44
461.018	105.44
461.238	138.44
461.458	113.44
461.678	100.44
461.898	133.44
462.118	110.44
462.338	112.44
462.558	110.44
462.777	105.44
462.997	103.44
463.217	94.44
463.437	105.44
463.657	115.44
463.876	116.44
464.096	105.44
464.316	103.44
464.536	112.44
464.755	92.44
464.975	116.44
465.195	120.44
465.414	108.44
465.634	104.44
465.854	117.44
466.073	124.44
466.293	112.44
466.512	124.44
466.732	128.44
466.951	118.44
467.171	134.44
467.391	138.44
467.61	145.44
467.829	126.44
468.049	134.44
468.268	131.44
468.488	135.44
468.707	125.44
468.927	120.44
469.146	138.44
469.365	147.44
469.585	142.44
469.804	130.44
470.023	131.44
470.243	135.44
470.462	130.44
470.681	139.44
470.901	131.44
471.12	146.44
471.339	125.44
471.558	120.44
471.777	136.44
471.997	127.44
472.216	138.44
472.435	123.44
472.654	116.44
472.873	105.44
473.092	108.44
473.311	127.44
473.53	119.44
473.749	107.44
473.968	136.44
474.187	106.44
474.406	92.44
474.625	131.44
474.844	122.44
475.063	134.44
475.282	122.44
475.501	118.44
475.72	122.44
475.939	117.44
476.158	120.44
476.377	134.44
476.596	133.44
476.814	124.44
477.033	111.44
477.252	118.44
477.471	108.44
477.69	124.44
477.908	123.44
478.127	145.44
478.346	126.44
478.564	140.44
478.783	134.44
479.002	131.44
479.22	131.44
479.439	131.44
479.658	129.44
479.876	97.44
480.095	102.44
480.313	104.44
480.532	111.44
480.751	94.44
480.969	78.44
481.188	83.44
481.406	82.44
481.624	85.44
481.843	86.44
482.061	94.44
482.28	118.44
482.498	112.44
482.717	104.44
482.935	115.44
483.153	148.44
483.372	162.44
483.59	143.44
483.808	153.44
484.027	128.44
484.245	137.44
484.463	128.44
484.681	153.44
484.9	149.44
485.118	138.44
485.336	110.44
485.554	111.44
485.772	108.44
485.99	106.44
486.209	101.44
486.427	118.44
486.645	124.44
486.863	128.44
487.081	138.44
487.299	136.44
487.517	134.44
487.735	178.44
487.953	184.44
488.171	166.44
488.389	161.44
488.607	138.44
488.825	144.44
489.043	136.44
489.261	130.44
489.479	146.44
489.696	147.44
489.914	141.44
490.132	134.44
490.35	157.44
490.568	171.44
490.786	164.44
491.003	177.44
491.221	186.44
491.439	183.44
491.657	198.44
491.874	203.44
492.092	218.44
492.31	238.44
492.527	239.44
492.745	195.44
492.963	192.44
493.18	190.44
493.398	186.44
493.615	163.44
493.833	165.44
494.05	176.44
494.268	167.44
494.485	174.44
494.703	160.44
494.92	156.44
495.138	165.44
495.355	170.44
495.573	163.44
495.79	164.44
496.008	170.44
496.225	162.44
496.442	170.44
496.66	177.44
496.877	178.44
497.094	175.44
497.312	154.44
497.529	148.44
497.746	163.44
497.963	140.44
498.181	131.44
498.398	139.44
498.615	106.44
498.832	116.44
499.049	116.44
499.267	110.44
499.484	112.44
499.701	127.44
499.918	144.44
500.135	135.44
500.352	128.44
500.569	135.44
500.786	140.44
501.003	128.44
501.22	137.44
501.437	123.44
501.654	131.44
501.871	137.44
502.088	126.44
502.305	131.44
502.522	133.44
502.739	137.44
502.956	138.44
503.172	127.44
503.389	114.44
503.606	111.44
503.823	115.44
504.04	121.44
504.256	124.44
504.473	119.44
504.69	119.44
504.907	114.44
505.123	113.44
505.34	117.44
505.557	105.44
505.773	122.44
505.99	112.44
506.207	133.44
506.423	120.44
506.64	113.44
506.856	120.44
507.073	118.44
507.289	124.44
507.506	113.44
507.722	106.44
507.939	116.44
508.155	129.44
508.372	106.44
508.588	116.44
508.805	106.44
509.021	112.44
509.238	102.44
509.454	100.44
509.67	103.44
509.887	94.44
510.103	94.44
510.319	83.44
510.536	98.44
510.752	95.44
510.968	90.44
511.184	87.44
511.401	95.44
511.617	85.44
511.833	85.44
512.049	96.44
