Data from Location2.07152019.Energy5.Lamp.07192019.3%Agarose_HRD10591_14-57-18-358.txt Node
Date: Fri Jul 19 14:57:18 EDT 2019
User: cochatt
Spectrometer: HR+D1059
Trigger mode: 1
Integration Time (sec): 1.000000E-1
Scans to average: 1
Electric dark correction enabled: true
Nonlinearity correction enabled: false
Boxcar width: 0
XAxis mode: Wavelengths
Number of Pixels in Spectrum: 2048
>>>>>Begin Spectral Data<<<<<
223.165	-25.88
223.4	-25.88
223.635	-25.88
223.869	-23.88
224.104	-11.88
224.338	-14.88
224.573	-15.88
224.808	10.12
225.042	2.12
225.277	-1.88
225.511	-13.88
225.746	-4.88
225.98	6.12
226.215	6.12
226.449	18.12
226.683	6.12
226.918	38.12
227.152	26.12
227.387	23.12
227.621	20.12
227.856	33.12
228.09	54.12
228.324	46.12
228.559	43.12
228.793	44.12
229.027	59.12
229.262	61.12
229.496	68.12
229.73	72.12
229.964	69.12
230.199	75.12
230.433	68.12
230.667	81.12
230.901	79.12
231.136	56.12
231.37	70.12
231.604	73.12
231.838	73.12
232.072	88.12
232.306	74.12
232.541	59.12
232.775	100.12
233.009	80.12
233.243	68.12
233.477	71.12
233.711	75.12
233.945	66.12
234.179	73.12
234.413	85.12
234.647	72.12
234.881	68.12
235.115	76.12
235.349	62.12
235.583	74.12
235.817	79.12
236.051	83.12
236.285	70.12
236.519	73.12
236.753	86.12
236.987	79.12
237.221	69.12
237.455	53.12
237.689	86.12
237.922	83.12
238.156	58.12
238.39	67.12
238.624	80.12
238.858	92.12
239.091	82.12
239.325	77.12
239.559	67.12
239.793	62.12
240.027	78.12
240.26	63.12
240.494	81.12
240.728	63.12
240.961	57.12
241.195	70.12
241.429	68.12
241.662	71.12
241.896	74.12
242.13	79.12
242.363	73.12
242.597	79.12
242.83	59.12
243.064	79.12
243.298	79.12
243.531	70.12
243.765	65.12
243.998	71.12
244.232	76.12
244.465	79.12
244.699	71.12
244.932	77.12
245.166	71.12
245.399	53.12
245.633	81.12
245.866	89.12
246.099	82.12
246.333	71.12
246.566	75.12
246.8	69.12
247.033	65.12
247.266	80.12
247.5	65.12
247.733	67.12
247.966	62.12
248.2	67.12
248.433	83.12
248.666	75.12
248.899	68.12
249.133	63.12
249.366	70.12
249.599	76.12
249.832	79.12
250.066	79.12
250.299	71.12
250.532	79.12
250.765	72.12
250.998	74.12
251.231	74.12
251.465	69.12
251.698	79.12
251.931	75.12
252.164	82.12
252.397	83.12
252.63	73.12
252.863	85.12
253.096	81.12
253.329	83.12
253.562	85.12
253.795	65.12
254.028	87.12
254.261	80.12
254.494	69.12
254.727	77.12
254.96	75.12
255.193	68.12
255.426	82.12
255.659	77.12
255.892	67.12
256.124	73.12
256.357	80.12
256.59	67.12
256.823	83.12
257.056	78.12
257.289	76.12
257.521	73.12
257.754	82.12
257.987	84.12
258.22	83.12
258.452	82.12
258.685	74.12
258.918	91.12
259.151	78.12
259.383	75.12
259.616	73.12
259.849	74.12
260.081	89.12
260.314	70.12
260.547	74.12
260.779	81.12
261.012	79.12
261.244	61.12
261.477	83.12
261.71	81.12
261.942	77.12
262.175	92.12
262.407	83.12
262.64	78.12
262.872	70.12
263.105	81.12
263.337	73.12
263.57	85.12
263.802	87.12
264.035	81.12
264.267	73.12
264.499	75.12
264.732	77.12
264.964	71.12
265.197	72.12
265.429	60.12
265.661	78.12
265.894	73.12
266.126	75.12
266.358	79.12
266.591	86.12
266.823	74.12
267.055	84.12
267.287	73.12
267.52	76.12
267.752	68.12
267.984	80.12
268.216	77.12
268.448	69.12
268.681	89.12
268.913	86.12
269.145	79.12
269.377	76.12
269.609	83.12
269.841	93.12
270.073	69.12
270.306	74.12
270.538	72.12
270.77	77.12
271.002	85.12
271.234	78.12
271.466	85.12
271.698	77.12
271.93	78.12
272.162	79.12
272.394	100.12
272.626	79.12
272.858	82.12
273.09	79.12
273.322	64.12
273.553	73.12
273.785	75.12
274.017	79.12
274.249	82.12
274.481	77.12
274.713	55.12
274.945	83.12
275.176	82.12
275.408	94.12
275.64	76.12
275.872	79.12
276.104	60.12
276.335	78.12
276.567	87.12
276.799	70.12
277.031	67.12
277.262	80.12
277.494	78.12
277.726	72.12
277.957	80.12
278.189	65.12
278.421	88.12
278.652	79.12
278.884	83.12
279.115	77.12
279.347	70.12
279.579	80.12
279.81	71.12
280.042	71.12
280.273	64.12
280.505	95.12
280.736	91.12
280.968	83.12
281.199	77.12
281.431	76.12
281.662	87.12
281.894	79.12
282.125	83.12
282.356	77.12
282.588	81.12
282.819	84.12
283.051	73.12
283.282	71.12
283.513	83.12
283.745	94.12
283.976	83.12
284.207	75.12
284.439	79.12
284.67	87.12
284.901	81.12
285.132	79.12
285.364	83.12
285.595	76.12
285.826	73.12
286.057	67.12
286.288	82.12
286.52	85.12
286.751	72.12
286.982	80.12
287.213	77.12
287.444	82.12
287.675	64.12
287.906	91.12
288.138	72.12
288.369	82.12
288.6	64.12
288.831	83.12
289.062	96.12
289.293	87.12
289.524	89.12
289.755	91.12
289.986	81.12
290.217	83.12
290.448	73.12
290.679	70.12
290.91	65.12
291.141	76.12
291.371	89.12
291.602	93.12
291.833	85.12
292.064	79.12
292.295	93.12
292.526	78.12
292.757	89.12
292.987	83.12
293.218	72.12
293.449	85.12
293.68	87.12
293.91	87.12
294.141	89.12
294.372	81.12
294.603	91.12
294.833	75.12
295.064	79.12
295.295	72.12
295.525	93.12
295.756	84.12
295.987	82.12
296.217	69.12
296.448	73.12
296.679	78.12
296.909	70.12
297.14	67.12
297.37	82.12
297.601	82.12
297.831	71.12
298.062	84.12
298.292	88.12
298.523	85.12
298.753	75.12
298.984	94.12
299.214	82.12
299.445	89.12
299.675	78.12
299.905	96.12
300.136	68.12
300.366	79.12
300.597	84.12
300.827	75.12
301.057	85.12
301.288	81.12
301.518	87.12
301.748	80.12
301.979	85.12
302.209	89.12
302.439	81.12
302.669	73.12
302.9	89.12
303.13	72.12
303.36	78.12
303.59	73.12
303.82	83.12
304.051	83.12
304.281	81.12
304.511	86.12
304.741	75.12
304.971	67.12
305.201	76.12
305.431	74.12
305.661	74.12
305.891	83.12
306.121	84.12
306.352	72.12
306.582	82.12
306.812	85.12
307.042	69.12
307.272	71.12
307.502	83.12
307.731	84.12
307.961	84.12
308.191	82.12
308.421	73.12
308.651	79.12
308.881	87.12
309.111	73.12
309.341	70.12
309.571	89.12
309.8	82.12
310.03	85.12
310.26	77.12
310.49	85.12
310.72	70.12
310.949	72.12
311.179	79.12
311.409	79.12
311.639	82.12
311.868	89.12
312.098	92.12
312.328	92.12
312.557	77.12
312.787	84.12
313.017	84.12
313.246	80.12
313.476	70.12
313.706	80.12
313.935	81.12
314.165	79.12
314.394	92.12
314.624	89.12
314.853	78.12
315.083	82.12
315.312	79.12
315.542	85.12
315.771	87.12
316.001	89.12
316.23	99.12
316.46	84.12
316.689	72.12
316.919	90.12
317.148	90.12
317.377	80.12
317.607	87.12
317.836	83.12
318.065	80.12
318.295	97.12
318.524	70.12
318.753	86.12
318.983	92.12
319.212	102.12
319.441	76.12
319.67	71.12
319.9	75.12
320.129	76.12
320.358	87.12
320.587	79.12
320.816	79.12
321.046	86.12
321.275	70.12
321.504	82.12
321.733	84.12
321.962	67.12
322.191	76.12
322.42	75.12
322.649	95.12
322.878	75.12
323.108	99.12
323.337	82.12
323.566	77.12
323.795	79.12
324.024	76.12
324.253	81.12
324.482	78.12
324.71	66.12
324.939	80.12
325.168	72.12
325.397	82.12
325.626	85.12
325.855	73.12
326.084	83.12
326.313	83.12
326.542	90.12
326.77	92.12
326.999	89.12
327.228	92.12
327.457	85.12
327.686	104.12
327.914	83.12
328.143	92.12
328.372	87.12
328.6	88.12
328.829	84.12
329.058	64.12
329.287	80.12
329.515	68.12
329.744	85.12
329.972	84.12
330.201	77.12
330.43	81.12
330.658	71.12
330.887	58.12
331.115	83.12
331.344	78.12
331.572	82.12
331.801	84.12
332.03	82.12
332.258	83.12
332.486	78.12
332.715	84.12
332.943	77.12
333.172	73.12
333.4	68.12
333.629	81.12
333.857	91.12
334.085	81.12
334.314	70.12
334.542	81.12
334.771	72.12
334.999	76.12
335.227	71.12
335.455	77.12
335.684	80.12
335.912	78.12
336.14	81.12
336.369	77.12
336.597	84.12
336.825	80.12
337.053	70.12
337.281	75.12
337.51	72.12
337.738	82.12
337.966	71.12
338.194	71.12
338.422	78.12
338.65	84.12
338.878	86.12
339.106	78.12
339.334	82.12
339.562	77.12
339.79	81.12
340.018	84.12
340.246	69.12
340.474	92.12
340.702	70.12
340.93	86.12
341.158	85.12
341.386	83.12
341.614	78.12
341.842	85.12
342.07	74.12
342.298	86.12
342.526	81.12
342.754	88.12
342.981	88.12
343.209	79.12
343.437	78.12
343.665	83.12
343.893	85.12
344.12	85.12
344.348	85.12
344.576	95.12
344.804	88.12
345.031	93.12
345.259	84.12
345.487	80.12
345.714	71.12
345.942	84.12
346.17	79.12
346.397	85.12
346.625	86.12
346.853	81.12
347.08	77.12
347.308	76.12
347.535	71.12
347.763	83.12
347.99	71.12
348.218	83.12
348.445	74.12
348.673	79.12
348.9	82.12
349.128	77.12
349.355	85.12
349.583	105.12
349.81	79.12
350.037	86.12
350.265	78.12
350.492	81.12
350.72	80.12
350.947	94.12
351.174	87.12
351.402	69.12
351.629	80.12
351.856	89.12
352.083	77.12
352.311	82.12
352.538	78.12
352.765	85.12
352.992	76.12
353.22	87.12
353.447	81.12
353.674	80.12
353.901	79.12
354.128	79.12
354.355	72.12
354.583	84.12
354.81	98.12
355.037	84.12
355.264	83.12
355.491	73.12
355.718	78.12
355.945	79.12
356.172	64.12
356.399	79.12
356.626	80.12
356.853	86.12
357.08	89.12
357.307	76.12
357.534	85.12
357.761	80.12
357.988	71.12
358.215	69.12
358.441	78.12
358.668	71.12
358.895	79.12
359.122	96.12
359.349	87.12
359.576	82.12
359.802	82.12
360.029	85.12
360.256	76.12
360.483	65.12
360.709	77.12
360.936	78.12
361.163	89.12
361.39	87.12
361.616	84.12
361.843	81.12
362.07	81.12
362.296	82.12
362.523	77.12
362.749	84.12
362.976	73.12
363.203	89.12
363.429	87.12
363.656	82.12
363.882	70.12
364.109	72.12
364.335	75.12
364.562	87.12
364.788	98.12
365.015	68.12
365.241	59.12
365.468	93.12
365.694	85.12
365.92	80.12
366.147	85.12
366.373	96.12
366.599	104.12
366.826	81.12
367.052	72.12
367.278	84.12
367.505	87.12
367.731	91.12
367.957	88.12
368.184	75.12
368.41	101.12
368.636	89.12
368.862	88.12
369.089	96.12
369.315	80.12
369.541	92.12
369.767	96.12
369.993	85.12
370.219	88.12
370.445	86.12
370.672	86.12
370.898	88.12
371.124	90.12
371.35	87.12
371.576	94.12
371.802	82.12
372.028	83.12
372.254	88.12
372.48	80.12
372.706	80.12
372.932	92.12
373.158	86.12
373.384	81.12
373.61	86.12
373.835	96.12
374.061	78.12
374.287	78.12
374.513	99.12
374.739	71.12
374.965	80.12
375.191	93.12
375.416	80.12
375.642	92.12
375.868	85.12
376.094	90.12
376.319	85.12
376.545	88.12
376.771	99.12
376.997	84.12
377.222	82.12
377.448	94.12
377.674	83.12
377.899	99.12
378.125	91.12
378.35	86.12
378.576	89.12
378.802	82.12
379.027	81.12
379.253	87.12
379.478	91.12
379.704	103.12
379.929	88.12
380.155	99.12
380.38	91.12
380.606	91.12
380.831	97.12
381.057	91.12
381.282	96.12
381.507	111.12
381.733	91.12
381.958	88.12
382.184	101.12
382.409	83.12
382.634	101.12
382.86	102.12
383.085	89.12
383.31	95.12
383.535	82.12
383.761	83.12
383.986	95.12
384.211	93.12
384.436	99.12
384.662	91.12
384.887	94.12
385.112	102.12
385.337	106.12
385.562	92.12
385.787	86.12
386.013	96.12
386.238	109.12
386.463	101.12
386.688	98.12
386.913	88.12
387.138	99.12
387.363	91.12
387.588	89.12
387.813	87.12
388.038	111.12
388.263	99.12
388.488	111.12
388.713	111.12
388.938	91.12
389.163	94.12
389.387	97.12
389.612	107.12
389.837	88.12
390.062	108.12
390.287	100.12
390.512	110.12
390.736	100.12
390.961	97.12
391.186	107.12
391.411	93.12
391.636	104.12
391.86	107.12
392.085	91.12
392.31	109.12
392.534	106.12
392.759	92.12
392.984	98.12
393.208	97.12
393.433	113.12
393.658	101.12
393.882	102.12
394.107	88.12
394.331	113.12
394.556	90.12
394.78	100.12
395.005	116.12
395.229	105.12
395.454	96.12
395.678	108.12
395.903	100.12
396.127	96.12
396.352	99.12
396.576	109.12
396.801	105.12
397.025	95.12
397.249	99.12
397.474	102.12
397.698	94.12
397.922	109.12
398.147	100.12
398.371	109.12
398.595	118.12
398.82	117.12
399.044	120.12
399.268	118.12
399.492	120.12
399.717	104.12
399.941	105.12
400.165	105.12
400.389	121.12
400.613	108.12
400.837	120.12
401.062	105.12
401.286	102.12
401.51	122.12
401.734	94.12
401.958	111.12
402.182	102.12
402.406	99.12
402.63	102.12
402.854	110.12
403.078	109.12
403.302	105.12
403.526	105.12
403.75	114.12
403.974	116.12
404.198	111.12
404.422	118.12
404.645	108.12
404.869	113.12
405.093	110.12
405.317	108.12
405.541	108.12
405.765	126.12
405.988	107.12
406.212	109.12
406.436	116.12
406.66	125.12
406.883	115.12
407.107	115.12
407.331	119.12
407.555	107.12
407.778	128.12
408.002	107.12
408.226	101.12
408.449	112.12
408.673	111.12
408.896	123.12
409.12	115.12
409.344	125.12
409.567	93.12
409.791	121.12
410.014	123.12
410.238	111.12
410.461	110.12
410.685	123.12
410.908	115.12
411.132	121.12
411.355	119.12
411.578	120.12
411.802	106.12
412.025	118.12
412.249	115.12
412.472	107.12
412.695	116.12
412.919	123.12
413.142	120.12
413.365	96.12
413.589	119.12
413.812	127.12
414.035	123.12
414.258	120.12
414.482	107.12
414.705	133.12
414.928	120.12
415.151	124.12
415.374	125.12
415.597	127.12
415.821	118.12
416.044	124.12
416.267	119.12
416.49	128.12
416.713	113.12
416.936	139.12
417.159	132.12
417.382	107.12
417.605	119.12
417.828	123.12
418.051	131.12
418.274	122.12
418.497	115.12
418.72	129.12
418.943	111.12
419.166	140.12
419.389	128.12
419.611	144.12
419.834	134.12
420.057	140.12
420.28	128.12
420.503	131.12
420.726	125.12
420.948	112.12
421.171	123.12
421.394	134.12
421.617	147.12
421.839	144.12
422.062	138.12
422.285	137.12
422.507	119.12
422.73	117.12
422.953	117.12
423.175	121.12
423.398	115.12
423.621	125.12
423.843	132.12
424.066	133.12
424.288	143.12
424.511	145.12
424.733	146.12
424.956	124.12
425.178	131.12
425.401	125.12
425.623	133.12
425.846	133.12
426.068	121.12
426.291	123.12
426.513	123.12
426.735	120.12
426.958	121.12
427.18	125.12
427.402	127.12
427.625	136.12
427.847	109.12
428.069	129.12
428.292	125.12
428.514	120.12
428.736	116.12
428.958	136.12
429.181	122.12
429.403	130.12
429.625	115.12
429.847	117.12
430.069	109.12
430.292	126.12
430.514	123.12
430.736	119.12
430.958	117.12
431.18	119.12
431.402	130.12
431.624	115.12
431.846	104.12
432.068	94.12
432.29	104.12
432.512	111.12
432.734	101.12
432.956	121.12
433.178	135.12
433.4	124.12
433.622	127.12
433.844	116.12
434.066	115.12
434.287	120.12
434.509	104.12
434.731	107.12
434.953	119.12
435.175	112.12
435.397	141.12
435.618	117.12
435.84	109.12
436.062	99.12
436.284	107.12
436.505	123.12
436.727	137.12
436.949	136.12
437.17	116.12
437.392	124.12
437.614	114.12
437.835	119.12
438.057	112.12
438.278	119.12
438.5	117.12
438.721	136.12
438.943	145.12
439.165	139.12
439.386	130.12
439.608	136.12
439.829	157.12
440.05	147.12
440.272	132.12
440.493	135.12
440.715	123.12
440.936	148.12
441.158	131.12
441.379	128.12
441.6	143.12
441.822	129.12
442.043	137.12
442.264	136.12
442.486	151.12
442.707	123.12
442.928	130.12
443.149	123.12
443.371	134.12
443.592	148.12
443.813	137.12
444.034	120.12
444.255	151.12
444.476	141.12
444.698	134.12
444.919	147.12
445.14	276.12
445.361	192.12
445.582	153.12
445.803	139.12
446.024	139.12
446.245	168.12
446.466	156.12
446.687	159.12
446.908	148.12
447.129	148.12
447.35	144.12
447.571	144.12
447.792	141.12
448.013	141.12
448.234	136.12
448.455	134.12
448.675	126.12
448.896	132.12
449.117	137.12
449.338	135.12
449.559	132.12
449.779	133.12
450	147.12
450.221	135.12
450.442	124.12
450.662	151.12
450.883	141.12
451.104	145.12
451.324	125.12
451.545	122.12
451.766	132.12
451.986	134.12
452.207	129.12
452.428	120.12
452.648	132.12
452.869	120.12
453.089	127.12
453.31	110.12
453.53	112.12
453.751	103.12
453.971	106.12
454.192	110.12
454.412	113.12
454.633	115.12
454.853	121.12
455.073	123.12
455.294	121.12
455.514	110.12
455.734	119.12
455.955	116.12
456.175	110.12
456.395	108.12
456.616	107.12
456.836	92.12
457.056	112.12
457.276	98.12
457.497	105.12
457.717	117.12
457.937	107.12
458.157	100.12
458.377	109.12
458.598	96.12
458.818	101.12
459.038	84.12
459.258	80.12
459.478	82.12
459.698	92.12
459.918	81.12
460.138	99.12
460.358	111.12
460.578	122.12
460.798	104.12
461.018	121.12
461.238	114.12
461.458	104.12
461.678	90.12
461.898	113.12
462.118	102.12
462.338	113.12
462.558	112.12
462.777	108.12
462.997	102.12
463.217	102.12
463.437	104.12
463.657	110.12
463.876	104.12
464.096	96.12
464.316	101.12
464.536	107.12
464.755	111.12
464.975	101.12
465.195	123.12
465.414	113.12
465.634	112.12
465.854	111.12
466.073	111.12
466.293	120.12
466.512	127.12
466.732	113.12
466.951	131.12
467.171	141.12
467.391	127.12
467.61	125.12
467.829	124.12
468.049	118.12
468.268	131.12
468.488	130.12
468.707	116.12
468.927	134.12
469.146	143.12
469.365	132.12
469.585	129.12
469.804	141.12
470.023	143.12
470.243	147.12
470.462	130.12
470.681	122.12
470.901	137.12
471.12	137.12
471.339	126.12
471.558	157.12
471.777	129.12
471.997	142.12
472.216	121.12
472.435	104.12
472.654	102.12
472.873	93.12
473.092	109.12
473.311	124.12
473.53	119.12
473.749	125.12
473.968	137.12
474.187	127.12
474.406	113.12
474.625	126.12
474.844	124.12
475.063	129.12
475.282	125.12
475.501	124.12
475.72	119.12
475.939	104.12
476.158	118.12
476.377	119.12
476.596	124.12
476.814	109.12
477.033	100.12
477.252	93.12
477.471	113.12
477.69	128.12
477.908	141.12
478.127	126.12
478.346	122.12
478.564	133.12
478.783	125.12
479.002	136.12
479.22	133.12
479.439	120.12
479.658	113.12
479.876	116.12
480.095	107.12
480.313	125.12
480.532	117.12
480.751	116.12
480.969	85.12
481.188	83.12
481.406	79.12
481.624	89.12
481.843	87.12
482.061	81.12
482.28	122.12
482.498	103.12
482.717	111.12
482.935	128.12
483.153	137.12
483.372	150.12
483.59	151.12
483.808	143.12
484.027	135.12
484.245	129.12
484.463	153.12
484.681	162.12
484.9	147.12
485.118	144.12
485.336	129.12
485.554	111.12
485.772	93.12
485.99	103.12
486.209	101.12
486.427	97.12
486.645	116.12
486.863	137.12
487.081	132.12
487.299	125.12
487.517	129.12
487.735	143.12
487.953	185.12
488.171	169.12
488.389	155.12
488.607	161.12
488.825	128.12
489.043	123.12
489.261	131.12
489.479	128.12
489.696	130.12
489.914	140.12
490.132	124.12
490.35	148.12
490.568	149.12
490.786	164.12
491.003	152.12
491.221	177.12
491.439	171.12
491.657	172.12
491.874	190.12
492.092	214.12
492.31	251.12
492.527	229.12
492.745	211.12
492.963	197.12
493.18	185.12
493.398	168.12
493.615	181.12
493.833	185.12
494.05	178.12
494.268	162.12
494.485	175.12
494.703	167.12
494.92	176.12
495.138	169.12
495.355	167.12
495.573	156.12
495.79	168.12
496.008	167.12
496.225	180.12
496.442	167.12
496.66	168.12
496.877	154.12
497.094	163.12
497.312	167.12
497.529	156.12
497.746	150.12
497.963	143.12
498.181	135.12
498.398	121.12
498.615	123.12
498.832	111.12
499.049	131.12
499.267	117.12
499.484	124.12
499.701	111.12
499.918	132.12
500.135	145.12
500.352	135.12
500.569	136.12
500.786	131.12
501.003	141.12
501.22	135.12
501.437	127.12
501.654	115.12
501.871	143.12
502.088	131.12
502.305	127.12
502.522	125.12
502.739	135.12
502.956	124.12
503.172	130.12
503.389	132.12
503.606	118.12
503.823	125.12
504.04	123.12
504.256	117.12
504.473	119.12
504.69	114.12
504.907	116.12
505.123	107.12
505.34	114.12
505.557	114.12
505.773	112.12
505.99	123.12
506.207	119.12
506.423	135.12
506.64	117.12
506.856	133.12
507.073	120.12
507.289	116.12
507.506	114.12
507.722	111.12
507.939	109.12
508.155	110.12
508.372	110.12
508.588	113.12
508.805	113.12
509.021	110.12
509.238	105.12
509.454	103.12
509.67	90.12
509.887	100.12
510.103	89.12
510.319	90.12
510.536	93.12
510.752	89.12
510.968	82.12
511.184	90.12
511.401	73.12
511.617	91.12
511.833	85.12
512.049	90.12
