Data from Location2.07152019.Energy5.Lamp.07192019.3%Agarose_HRD10591_14-56-17-360.txt Node
Date: Fri Jul 19 14:56:17 EDT 2019
User: cochatt
Spectrometer: HR+D1059
Trigger mode: 1
Integration Time (sec): 1.000000E-1
Scans to average: 1
Electric dark correction enabled: true
Nonlinearity correction enabled: false
Boxcar width: 0
XAxis mode: Wavelengths
Number of Pixels in Spectrum: 2048
>>>>>Begin Spectral Data<<<<<
223.165	-9.81
223.4	-9.81
223.635	-9.81
223.869	-27.81
224.104	-20.81
224.338	-14.81
224.573	-21.81
224.808	-2.81
225.042	2.19
225.277	-5.81
225.511	-9.81
225.746	10.19
225.98	4.19
226.215	17.19
226.449	19.19
226.683	18.19
226.918	11.19
227.152	31.19
227.387	39.19
227.621	30.19
227.856	37.19
228.09	30.19
228.324	49.19
228.559	58.19
228.793	65.19
229.027	64.19
229.262	60.19
229.496	68.19
229.73	73.19
229.964	64.19
230.199	59.19
230.433	54.19
230.667	76.19
230.901	77.19
231.136	86.19
231.37	71.19
231.604	86.19
231.838	74.19
232.072	91.19
232.306	78.19
232.541	78.19
232.775	76.19
233.009	83.19
233.243	73.19
233.477	72.19
233.711	80.19
233.945	84.19
234.179	91.19
234.413	81.19
234.647	88.19
234.881	70.19
235.115	76.19
235.349	89.19
235.583	103.19
235.817	84.19
236.051	75.19
236.285	66.19
236.519	84.19
236.753	85.19
236.987	92.19
237.221	72.19
237.455	73.19
237.689	76.19
237.922	71.19
238.156	89.19
238.39	78.19
238.624	83.19
238.858	86.19
239.091	83.19
239.325	74.19
239.559	76.19
239.793	70.19
240.027	73.19
240.26	86.19
240.494	74.19
240.728	82.19
240.961	90.19
241.195	80.19
241.429	94.19
241.662	79.19
241.896	72.19
242.13	72.19
242.363	75.19
242.597	76.19
242.83	80.19
243.064	76.19
243.298	77.19
243.531	68.19
243.765	78.19
243.998	81.19
244.232	69.19
244.465	68.19
244.699	76.19
244.932	87.19
245.166	83.19
245.399	74.19
245.633	72.19
245.866	77.19
246.099	76.19
246.333	85.19
246.566	68.19
246.8	68.19
247.033	83.19
247.266	81.19
247.5	81.19
247.733	75.19
247.966	68.19
248.2	82.19
248.433	86.19
248.666	74.19
248.899	85.19
249.133	91.19
249.366	78.19
249.599	86.19
249.832	87.19
250.066	91.19
250.299	80.19
250.532	83.19
250.765	66.19
250.998	72.19
251.231	62.19
251.465	70.19
251.698	93.19
251.931	83.19
252.164	84.19
252.397	78.19
252.63	82.19
252.863	84.19
253.096	84.19
253.329	86.19
253.562	77.19
253.795	81.19
254.028	82.19
254.261	70.19
254.494	82.19
254.727	79.19
254.96	91.19
255.193	76.19
255.426	74.19
255.659	82.19
255.892	82.19
256.124	87.19
256.357	88.19
256.59	80.19
256.823	77.19
257.056	79.19
257.289	76.19
257.521	87.19
257.754	77.19
257.987	72.19
258.22	80.19
258.452	78.19
258.685	84.19
258.918	74.19
259.151	88.19
259.383	88.19
259.616	78.19
259.849	93.19
260.081	85.19
260.314	96.19
260.547	78.19
260.779	82.19
261.012	95.19
261.244	79.19
261.477	78.19
261.71	92.19
261.942	81.19
262.175	86.19
262.407	85.19
262.64	76.19
262.872	73.19
263.105	94.19
263.337	91.19
263.57	79.19
263.802	92.19
264.035	78.19
264.267	76.19
264.499	83.19
264.732	76.19
264.964	91.19
265.197	81.19
265.429	74.19
265.661	99.19
265.894	86.19
266.126	85.19
266.358	89.19
266.591	89.19
266.823	87.19
267.055	81.19
267.287	93.19
267.52	85.19
267.752	90.19
267.984	87.19
268.216	89.19
268.448	78.19
268.681	68.19
268.913	98.19
269.145	77.19
269.377	89.19
269.609	83.19
269.841	82.19
270.073	75.19
270.306	87.19
270.538	88.19
270.77	82.19
271.002	89.19
271.234	93.19
271.466	91.19
271.698	77.19
271.93	78.19
272.162	83.19
272.394	96.19
272.626	73.19
272.858	88.19
273.09	73.19
273.322	88.19
273.553	91.19
273.785	75.19
274.017	82.19
274.249	90.19
274.481	83.19
274.713	101.19
274.945	72.19
275.176	80.19
275.408	76.19
275.64	85.19
275.872	91.19
276.104	86.19
276.335	78.19
276.567	84.19
276.799	84.19
277.031	84.19
277.262	78.19
277.494	82.19
277.726	76.19
277.957	79.19
278.189	87.19
278.421	97.19
278.652	71.19
278.884	82.19
279.115	89.19
279.347	89.19
279.579	84.19
279.81	81.19
280.042	92.19
280.273	88.19
280.505	82.19
280.736	81.19
280.968	78.19
281.199	103.19
281.431	90.19
281.662	77.19
281.894	86.19
282.125	97.19
282.356	87.19
282.588	86.19
282.819	70.19
283.051	85.19
283.282	83.19
283.513	84.19
283.745	78.19
283.976	82.19
284.207	83.19
284.439	81.19
284.67	93.19
284.901	83.19
285.132	92.19
285.364	73.19
285.595	74.19
285.826	87.19
286.057	78.19
286.288	86.19
286.52	82.19
286.751	85.19
286.982	93.19
287.213	84.19
287.444	77.19
287.675	92.19
287.906	89.19
288.138	79.19
288.369	94.19
288.6	83.19
288.831	85.19
289.062	94.19
289.293	94.19
289.524	99.19
289.755	88.19
289.986	86.19
290.217	85.19
290.448	97.19
290.679	93.19
290.91	80.19
291.141	89.19
291.371	78.19
291.602	83.19
291.833	84.19
292.064	74.19
292.295	76.19
292.526	75.19
292.757	83.19
292.987	90.19
293.218	88.19
293.449	87.19
293.68	89.19
293.91	69.19
294.141	81.19
294.372	86.19
294.603	84.19
294.833	85.19
295.064	90.19
295.295	77.19
295.525	96.19
295.756	76.19
295.987	87.19
296.217	78.19
296.448	97.19
296.679	80.19
296.909	86.19
297.14	82.19
297.37	89.19
297.601	82.19
297.831	81.19
298.062	91.19
298.292	84.19
298.523	95.19
298.753	77.19
298.984	90.19
299.214	88.19
299.445	104.19
299.675	97.19
299.905	86.19
300.136	93.19
300.366	93.19
300.597	86.19
300.827	96.19
301.057	92.19
301.288	92.19
301.518	93.19
301.748	79.19
301.979	74.19
302.209	85.19
302.439	78.19
302.669	75.19
302.9	87.19
303.13	93.19
303.36	96.19
303.59	84.19
303.82	83.19
304.051	94.19
304.281	77.19
304.511	86.19
304.741	89.19
304.971	87.19
305.201	89.19
305.431	78.19
305.661	94.19
305.891	92.19
306.121	77.19
306.352	67.19
306.582	81.19
306.812	86.19
307.042	88.19
307.272	80.19
307.502	77.19
307.731	98.19
307.961	86.19
308.191	72.19
308.421	87.19
308.651	84.19
308.881	84.19
309.111	99.19
309.341	72.19
309.571	72.19
309.8	84.19
310.03	91.19
310.26	81.19
310.49	93.19
310.72	86.19
310.949	87.19
311.179	82.19
311.409	86.19
311.639	71.19
311.868	86.19
312.098	91.19
312.328	111.19
312.557	91.19
312.787	64.19
313.017	87.19
313.246	82.19
313.476	90.19
313.706	90.19
313.935	105.19
314.165	68.19
314.394	82.19
314.624	82.19
314.853	90.19
315.083	84.19
315.312	85.19
315.542	82.19
315.771	82.19
316.001	97.19
316.23	74.19
316.46	89.19
316.689	99.19
316.919	86.19
317.148	87.19
317.377	92.19
317.607	88.19
317.836	93.19
318.065	96.19
318.295	97.19
318.524	95.19
318.753	102.19
318.983	88.19
319.212	83.19
319.441	92.19
319.67	88.19
319.9	91.19
320.129	75.19
320.358	88.19
320.587	87.19
320.816	65.19
321.046	87.19
321.275	100.19
321.504	87.19
321.733	89.19
321.962	93.19
322.191	79.19
322.42	81.19
322.649	77.19
322.878	85.19
323.108	97.19
323.337	96.19
323.566	85.19
323.795	91.19
324.024	85.19
324.253	98.19
324.482	89.19
324.71	92.19
324.939	89.19
325.168	82.19
325.397	83.19
325.626	76.19
325.855	95.19
326.084	82.19
326.313	82.19
326.542	88.19
326.77	85.19
326.999	88.19
327.228	81.19
327.457	73.19
327.686	87.19
327.914	92.19
328.143	88.19
328.372	77.19
328.6	73.19
328.829	75.19
329.058	87.19
329.287	88.19
329.515	86.19
329.744	83.19
329.972	79.19
330.201	98.19
330.43	97.19
330.658	82.19
330.887	70.19
331.115	92.19
331.344	86.19
331.572	89.19
331.801	87.19
332.03	88.19
332.258	87.19
332.486	87.19
332.715	87.19
332.943	81.19
333.172	81.19
333.4	83.19
333.629	90.19
333.857	82.19
334.085	86.19
334.314	77.19
334.542	88.19
334.771	85.19
334.999	97.19
335.227	86.19
335.455	72.19
335.684	80.19
335.912	84.19
336.14	75.19
336.369	105.19
336.597	78.19
336.825	89.19
337.053	81.19
337.281	87.19
337.51	82.19
337.738	84.19
337.966	82.19
338.194	90.19
338.422	93.19
338.65	99.19
338.878	101.19
339.106	76.19
339.334	83.19
339.562	79.19
339.79	87.19
340.018	92.19
340.246	72.19
340.474	80.19
340.702	81.19
340.93	89.19
341.158	95.19
341.386	90.19
341.614	84.19
341.842	77.19
342.07	87.19
342.298	98.19
342.526	86.19
342.754	92.19
342.981	97.19
343.209	102.19
343.437	77.19
343.665	76.19
343.893	72.19
344.12	83.19
344.348	82.19
344.576	83.19
344.804	79.19
345.031	76.19
345.259	77.19
345.487	90.19
345.714	71.19
345.942	85.19
346.17	92.19
346.397	93.19
346.625	86.19
346.853	78.19
347.08	96.19
347.308	88.19
347.535	87.19
347.763	84.19
347.99	84.19
348.218	90.19
348.445	92.19
348.673	82.19
348.9	87.19
349.128	84.19
349.355	94.19
349.583	97.19
349.81	99.19
350.037	82.19
350.265	90.19
350.492	90.19
350.72	89.19
350.947	96.19
351.174	80.19
351.402	86.19
351.629	78.19
351.856	88.19
352.083	91.19
352.311	90.19
352.538	85.19
352.765	90.19
352.992	93.19
353.22	88.19
353.447	80.19
353.674	83.19
353.901	96.19
354.128	83.19
354.355	81.19
354.583	81.19
354.81	90.19
355.037	88.19
355.264	93.19
355.491	76.19
355.718	84.19
355.945	92.19
356.172	84.19
356.399	91.19
356.626	85.19
356.853	88.19
357.08	71.19
357.307	75.19
357.534	73.19
357.761	76.19
357.988	80.19
358.215	79.19
358.441	75.19
358.668	81.19
358.895	100.19
359.122	94.19
359.349	79.19
359.576	94.19
359.802	93.19
360.029	99.19
360.256	79.19
360.483	88.19
360.709	80.19
360.936	81.19
361.163	87.19
361.39	86.19
361.616	86.19
361.843	75.19
362.07	95.19
362.296	97.19
362.523	92.19
362.749	84.19
362.976	86.19
363.203	87.19
363.429	93.19
363.656	85.19
363.882	90.19
364.109	94.19
364.335	90.19
364.562	93.19
364.788	87.19
365.015	81.19
365.241	100.19
365.468	88.19
365.694	83.19
365.92	77.19
366.147	77.19
366.373	110.19
366.599	88.19
366.826	93.19
367.052	77.19
367.278	90.19
367.505	98.19
367.731	102.19
367.957	81.19
368.184	82.19
368.41	105.19
368.636	98.19
368.862	98.19
369.089	99.19
369.315	92.19
369.541	93.19
369.767	91.19
369.993	106.19
370.219	97.19
370.445	99.19
370.672	84.19
370.898	87.19
371.124	96.19
371.35	94.19
371.576	90.19
371.802	80.19
372.028	83.19
372.254	91.19
372.48	91.19
372.706	103.19
372.932	98.19
373.158	103.19
373.384	105.19
373.61	103.19
373.835	68.19
374.061	97.19
374.287	90.19
374.513	92.19
374.739	86.19
374.965	91.19
375.191	91.19
375.416	90.19
375.642	88.19
375.868	72.19
376.094	89.19
376.319	93.19
376.545	92.19
376.771	115.19
376.997	102.19
377.222	102.19
377.448	103.19
377.674	103.19
377.899	82.19
378.125	90.19
378.35	106.19
378.576	90.19
378.802	98.19
379.027	96.19
379.253	93.19
379.478	105.19
379.704	98.19
379.929	104.19
380.155	96.19
380.38	94.19
380.606	103.19
380.831	84.19
381.057	100.19
381.282	93.19
381.507	99.19
381.733	93.19
381.958	107.19
382.184	94.19
382.409	102.19
382.634	91.19
382.86	115.19
383.085	101.19
383.31	91.19
383.535	95.19
383.761	110.19
383.986	97.19
384.211	105.19
384.436	105.19
384.662	92.19
384.887	108.19
385.112	111.19
385.337	104.19
385.562	92.19
385.787	110.19
386.013	117.19
386.238	108.19
386.463	98.19
386.688	104.19
386.913	91.19
387.138	100.19
387.363	99.19
387.588	103.19
387.813	103.19
388.038	103.19
388.263	109.19
388.488	115.19
388.713	103.19
388.938	101.19
389.163	101.19
389.387	81.19
389.612	98.19
389.837	97.19
390.062	114.19
390.287	97.19
390.512	100.19
390.736	116.19
390.961	110.19
391.186	113.19
391.411	114.19
391.636	94.19
391.86	118.19
392.085	95.19
392.31	98.19
392.534	109.19
392.759	102.19
392.984	107.19
393.208	116.19
393.433	102.19
393.658	97.19
393.882	115.19
394.107	106.19
394.331	106.19
394.556	101.19
394.78	104.19
395.005	109.19
395.229	117.19
395.454	111.19
395.678	107.19
395.903	129.19
396.127	106.19
396.352	109.19
396.576	109.19
396.801	108.19
397.025	102.19
397.249	101.19
397.474	111.19
397.698	109.19
397.922	112.19
398.147	92.19
398.371	104.19
398.595	125.19
398.82	124.19
399.044	116.19
399.268	107.19
399.492	128.19
399.717	118.19
399.941	110.19
400.165	125.19
400.389	109.19
400.613	93.19
400.837	113.19
401.062	118.19
401.286	119.19
401.51	110.19
401.734	102.19
401.958	113.19
402.182	120.19
402.406	122.19
402.63	128.19
402.854	121.19
403.078	118.19
403.302	121.19
403.526	130.19
403.75	136.19
403.974	125.19
404.198	132.19
404.422	119.19
404.645	119.19
404.869	108.19
405.093	118.19
405.317	110.19
405.541	108.19
405.765	110.19
405.988	113.19
406.212	124.19
406.436	124.19
406.66	118.19
406.883	122.19
407.107	122.19
407.331	138.19
407.555	118.19
407.778	125.19
408.002	121.19
408.226	125.19
408.449	107.19
408.673	105.19
408.896	110.19
409.12	112.19
409.344	118.19
409.567	113.19
409.791	127.19
410.014	109.19
410.238	124.19
410.461	122.19
410.685	138.19
410.908	125.19
411.132	117.19
411.355	133.19
411.578	133.19
411.802	123.19
412.025	116.19
412.249	123.19
412.472	114.19
412.695	124.19
412.919	115.19
413.142	113.19
413.365	130.19
413.589	136.19
413.812	129.19
414.035	132.19
414.258	130.19
414.482	125.19
414.705	116.19
414.928	128.19
415.151	124.19
415.374	119.19
415.597	112.19
415.821	110.19
416.044	119.19
416.267	135.19
416.49	130.19
416.713	113.19
416.936	132.19
417.159	122.19
417.382	113.19
417.605	125.19
417.828	112.19
418.051	129.19
418.274	132.19
418.497	130.19
418.72	140.19
418.943	137.19
419.166	133.19
419.389	135.19
419.611	144.19
419.834	125.19
420.057	137.19
420.28	138.19
420.503	137.19
420.726	130.19
420.948	125.19
421.171	136.19
421.394	132.19
421.617	156.19
421.839	140.19
422.062	152.19
422.285	126.19
422.507	132.19
422.73	123.19
422.953	140.19
423.175	138.19
423.398	129.19
423.621	129.19
423.843	129.19
424.066	140.19
424.288	140.19
424.511	137.19
424.733	142.19
424.956	132.19
425.178	134.19
425.401	148.19
425.623	129.19
425.846	136.19
426.068	140.19
426.291	123.19
426.513	137.19
426.735	116.19
426.958	124.19
427.18	125.19
427.402	126.19
427.625	134.19
427.847	141.19
428.069	130.19
428.292	134.19
428.514	142.19
428.736	129.19
428.958	116.19
429.181	126.19
429.403	132.19
429.625	141.19
429.847	126.19
430.069	137.19
430.292	128.19
430.514	136.19
430.736	133.19
430.958	133.19
431.18	120.19
431.402	138.19
431.624	135.19
431.846	103.19
432.068	113.19
432.29	101.19
432.512	98.19
432.734	114.19
432.956	130.19
433.178	133.19
433.4	138.19
433.622	136.19
433.844	127.19
434.066	125.19
434.287	126.19
434.509	94.19
434.731	102.19
434.953	106.19
435.175	130.19
435.397	144.19
435.618	106.19
435.84	122.19
436.062	116.19
436.284	126.19
436.505	130.19
436.727	124.19
436.949	127.19
437.17	138.19
437.392	126.19
437.614	124.19
437.835	104.19
438.057	121.19
438.278	123.19
438.5	126.19
438.721	136.19
438.943	152.19
439.165	138.19
439.386	144.19
439.608	134.19
439.829	151.19
440.05	152.19
440.272	146.19
440.493	150.19
440.715	141.19
440.936	144.19
441.158	134.19
441.379	136.19
441.6	135.19
441.822	148.19
442.043	153.19
442.264	142.19
442.486	133.19
442.707	149.19
442.928	159.19
443.149	145.19
443.371	142.19
443.592	144.19
443.813	142.19
444.034	138.19
444.255	149.19
444.476	144.19
444.698	143.19
444.919	149.19
445.14	273.19
445.361	200.19
445.582	158.19
445.803	152.19
446.024	142.19
446.245	145.19
446.466	156.19
446.687	142.19
446.908	151.19
447.129	168.19
447.35	157.19
447.571	146.19
447.792	152.19
448.013	146.19
448.234	146.19
448.455	139.19
448.675	141.19
448.896	152.19
449.117	138.19
449.338	137.19
449.559	143.19
449.779	132.19
450	144.19
450.221	152.19
450.442	138.19
450.662	137.19
450.883	133.19
451.104	146.19
451.324	136.19
451.545	127.19
451.766	124.19
451.986	120.19
452.207	147.19
452.428	133.19
452.648	123.19
452.869	115.19
453.089	123.19
453.31	124.19
453.53	109.19
453.751	125.19
453.971	104.19
454.192	110.19
454.412	108.19
454.633	123.19
454.853	124.19
455.073	130.19
455.294	115.19
455.514	118.19
455.734	137.19
455.955	114.19
456.175	121.19
456.395	99.19
456.616	124.19
456.836	118.19
457.056	103.19
457.276	100.19
457.497	120.19
457.717	92.19
457.937	105.19
458.157	115.19
458.377	105.19
458.598	102.19
458.818	118.19
459.038	86.19
459.258	99.19
459.478	101.19
459.698	95.19
459.918	102.19
460.138	98.19
460.358	115.19
460.578	119.19
460.798	114.19
461.018	113.19
461.238	112.19
461.458	113.19
461.678	111.19
461.898	110.19
462.118	108.19
462.338	126.19
462.558	103.19
462.777	114.19
462.997	110.19
463.217	95.19
463.437	104.19
463.657	120.19
463.876	117.19
464.096	119.19
464.316	110.19
464.536	125.19
464.755	108.19
464.975	108.19
465.195	122.19
465.414	121.19
465.634	99.19
465.854	120.19
466.073	132.19
466.293	121.19
466.512	130.19
466.732	118.19
466.951	145.19
467.171	131.19
467.391	125.19
467.61	139.19
467.829	140.19
468.049	143.19
468.268	136.19
468.488	138.19
468.707	129.19
468.927	134.19
469.146	133.19
469.365	149.19
469.585	134.19
469.804	134.19
470.023	135.19
470.243	143.19
470.462	151.19
470.681	140.19
470.901	137.19
471.12	146.19
471.339	139.19
471.558	154.19
471.777	132.19
471.997	135.19
472.216	128.19
472.435	128.19
472.654	122.19
472.873	109.19
473.092	114.19
473.311	150.19
473.53	144.19
473.749	134.19
473.968	129.19
474.187	123.19
474.406	117.19
474.625	115.19
474.844	134.19
475.063	158.19
475.282	119.19
475.501	114.19
475.72	130.19
475.939	147.19
476.158	143.19
476.377	128.19
476.596	136.19
476.814	117.19
477.033	104.19
477.252	120.19
477.471	126.19
477.69	126.19
477.908	135.19
478.127	149.19
478.346	146.19
478.564	137.19
478.783	132.19
479.002	131.19
479.22	143.19
479.439	150.19
479.658	124.19
479.876	121.19
480.095	106.19
480.313	121.19
480.532	110.19
480.751	112.19
480.969	92.19
481.188	89.19
481.406	92.19
481.624	96.19
481.843	97.19
482.061	98.19
482.28	122.19
482.498	113.19
482.717	114.19
482.935	130.19
483.153	146.19
483.372	145.19
483.59	145.19
483.808	131.19
484.027	152.19
484.245	140.19
484.463	130.19
484.681	156.19
484.9	143.19
485.118	127.19
485.336	133.19
485.554	105.19
485.772	101.19
485.99	106.19
486.209	116.19
486.427	108.19
486.645	116.19
486.863	138.19
487.081	149.19
487.299	123.19
487.517	136.19
487.735	161.19
487.953	180.19
488.171	174.19
488.389	165.19
488.607	160.19
488.825	133.19
489.043	133.19
489.261	140.19
489.479	131.19
489.696	150.19
489.914	150.19
490.132	150.19
490.35	138.19
490.568	150.19
490.786	172.19
491.003	173.19
491.221	188.19
491.439	192.19
491.657	178.19
491.874	204.19
492.092	210.19
492.31	240.19
492.527	226.19
492.745	208.19
492.963	201.19
493.18	197.19
493.398	200.19
493.615	197.19
493.833	177.19
494.05	173.19
494.268	176.19
494.485	172.19
494.703	168.19
494.92	189.19
495.138	184.19
495.355	154.19
495.573	178.19
495.79	179.19
496.008	173.19
496.225	176.19
496.442	176.19
496.66	175.19
496.877	160.19
497.094	169.19
497.312	178.19
497.529	174.19
497.746	161.19
497.963	140.19
498.181	125.19
498.398	125.19
498.615	127.19
498.832	116.19
499.049	128.19
499.267	132.19
499.484	125.19
499.701	124.19
499.918	140.19
500.135	148.19
500.352	135.19
500.569	134.19
500.786	146.19
501.003	132.19
501.22	151.19
501.437	154.19
501.654	133.19
501.871	152.19
502.088	121.19
502.305	117.19
502.522	136.19
502.739	138.19
502.956	142.19
503.172	128.19
503.389	126.19
503.606	128.19
503.823	120.19
504.04	130.19
504.256	122.19
504.473	126.19
504.69	130.19
504.907	130.19
505.123	125.19
505.34	130.19
505.557	143.19
505.773	138.19
505.99	121.19
506.207	119.19
506.423	140.19
506.64	115.19
506.856	112.19
507.073	131.19
507.289	124.19
507.506	124.19
507.722	129.19
507.939	116.19
508.155	111.19
508.372	119.19
508.588	120.19
508.805	115.19
509.021	113.19
509.238	97.19
509.454	112.19
509.67	98.19
509.887	114.19
510.103	106.19
510.319	109.19
510.536	85.19
510.752	87.19
510.968	88.19
511.184	87.19
