Data from Location2.07152019.Energy5.Lamp.07192019.3%Agarose_HRD10591_14-56-37-358.txt Node
Date: Fri Jul 19 14:56:37 EDT 2019
User: cochatt
Spectrometer: HR+D1059
Trigger mode: 1
Integration Time (sec): 1.000000E-1
Scans to average: 1
Electric dark correction enabled: true
Nonlinearity correction enabled: false
Boxcar width: 0
XAxis mode: Wavelengths
Number of Pixels in Spectrum: 2048
>>>>>Begin Spectral Data<<<<<
223.165	-6.81
223.4	-6.81
223.635	-6.81
223.869	-9.81
224.104	-18.81
224.338	-11.81
224.573	-5.81
224.808	-13.81
225.042	-3.81
225.277	-14.81
225.511	-11.81
225.746	0.19
225.98	-1.81
226.215	9.19
226.449	23.19
226.683	20.19
226.918	15.19
227.152	31.19
227.387	38.19
227.621	36.19
227.856	33.19
228.09	57.19
228.324	52.19
228.559	45.19
228.793	52.19
229.027	59.19
229.262	72.19
229.496	60.19
229.73	60.19
229.964	81.19
230.199	83.19
230.433	72.19
230.667	69.19
230.901	92.19
231.136	87.19
231.37	70.19
231.604	88.19
231.838	82.19
232.072	83.19
232.306	80.19
232.541	86.19
232.775	96.19
233.009	77.19
233.243	78.19
233.477	72.19
233.711	82.19
233.945	83.19
234.179	73.19
234.413	73.19
234.647	77.19
234.881	88.19
235.115	91.19
235.349	78.19
235.583	72.19
235.817	74.19
236.051	80.19
236.285	82.19
236.519	68.19
236.753	82.19
236.987	81.19
237.221	88.19
237.455	76.19
237.689	76.19
237.922	79.19
238.156	73.19
238.39	81.19
238.624	75.19
238.858	66.19
239.091	61.19
239.325	75.19
239.559	66.19
239.793	83.19
240.027	89.19
240.26	71.19
240.494	82.19
240.728	59.19
240.961	89.19
241.195	71.19
241.429	75.19
241.662	70.19
241.896	77.19
242.13	77.19
242.363	77.19
242.597	70.19
242.83	55.19
243.064	77.19
243.298	80.19
243.531	81.19
243.765	79.19
243.998	77.19
244.232	76.19
244.465	68.19
244.699	76.19
244.932	84.19
245.166	70.19
245.399	81.19
245.633	88.19
245.866	85.19
246.099	77.19
246.333	74.19
246.566	64.19
246.8	77.19
247.033	67.19
247.266	88.19
247.5	64.19
247.733	80.19
247.966	83.19
248.2	85.19
248.433	84.19
248.666	85.19
248.899	82.19
249.133	91.19
249.366	55.19
249.599	77.19
249.832	87.19
250.066	68.19
250.299	79.19
250.532	91.19
250.765	80.19
250.998	77.19
251.231	75.19
251.465	80.19
251.698	69.19
251.931	99.19
252.164	91.19
252.397	87.19
252.63	83.19
252.863	74.19
253.096	80.19
253.329	87.19
253.562	91.19
253.795	81.19
254.028	84.19
254.261	68.19
254.494	75.19
254.727	82.19
254.96	83.19
255.193	88.19
255.426	82.19
255.659	66.19
255.892	85.19
256.124	78.19
256.357	76.19
256.59	88.19
256.823	89.19
257.056	74.19
257.289	83.19
257.521	69.19
257.754	77.19
257.987	81.19
258.22	81.19
258.452	83.19
258.685	72.19
258.918	60.19
259.151	62.19
259.383	88.19
259.616	84.19
259.849	91.19
260.081	81.19
260.314	85.19
260.547	83.19
260.779	76.19
261.012	82.19
261.244	76.19
261.477	92.19
261.71	81.19
261.942	71.19
262.175	83.19
262.407	85.19
262.64	77.19
262.872	76.19
263.105	84.19
263.337	81.19
263.57	83.19
263.802	70.19
264.035	92.19
264.267	75.19
264.499	71.19
264.732	85.19
264.964	90.19
265.197	87.19
265.429	92.19
265.661	77.19
265.894	100.19
266.126	77.19
266.358	73.19
266.591	90.19
266.823	88.19
267.055	87.19
267.287	93.19
267.52	79.19
267.752	87.19
267.984	86.19
268.216	83.19
268.448	71.19
268.681	80.19
268.913	71.19
269.145	95.19
269.377	95.19
269.609	90.19
269.841	92.19
270.073	85.19
270.306	93.19
270.538	82.19
270.77	86.19
271.002	76.19
271.234	82.19
271.466	91.19
271.698	82.19
271.93	86.19
272.162	98.19
272.394	81.19
272.626	98.19
272.858	80.19
273.09	71.19
273.322	86.19
273.553	65.19
273.785	79.19
274.017	81.19
274.249	82.19
274.481	89.19
274.713	76.19
274.945	60.19
275.176	83.19
275.408	92.19
275.64	80.19
275.872	87.19
276.104	93.19
276.335	83.19
276.567	92.19
276.799	92.19
277.031	79.19
277.262	87.19
277.494	91.19
277.726	83.19
277.957	80.19
278.189	91.19
278.421	83.19
278.652	90.19
278.884	81.19
279.115	83.19
279.347	82.19
279.579	82.19
279.81	75.19
280.042	92.19
280.273	85.19
280.505	65.19
280.736	82.19
280.968	82.19
281.199	82.19
281.431	82.19
281.662	74.19
281.894	90.19
282.125	94.19
282.356	85.19
282.588	74.19
282.819	81.19
283.051	97.19
283.282	88.19
283.513	89.19
283.745	71.19
283.976	96.19
284.207	81.19
284.439	87.19
284.67	85.19
284.901	89.19
285.132	81.19
285.364	83.19
285.595	80.19
285.826	78.19
286.057	87.19
286.288	81.19
286.52	88.19
286.751	95.19
286.982	96.19
287.213	68.19
287.444	88.19
287.675	95.19
287.906	83.19
288.138	75.19
288.369	87.19
288.6	84.19
288.831	92.19
289.062	82.19
289.293	101.19
289.524	83.19
289.755	76.19
289.986	76.19
290.217	79.19
290.448	90.19
290.679	79.19
290.91	81.19
291.141	85.19
291.371	87.19
291.602	85.19
291.833	86.19
292.064	81.19
292.295	91.19
292.526	79.19
292.757	78.19
292.987	74.19
293.218	73.19
293.449	78.19
293.68	93.19
293.91	91.19
294.141	79.19
294.372	88.19
294.603	87.19
294.833	95.19
295.064	73.19
295.295	74.19
295.525	72.19
295.756	93.19
295.987	86.19
296.217	98.19
296.448	88.19
296.679	85.19
296.909	84.19
297.14	83.19
297.37	89.19
297.601	90.19
297.831	93.19
298.062	81.19
298.292	86.19
298.523	88.19
298.753	87.19
298.984	83.19
299.214	69.19
299.445	83.19
299.675	79.19
299.905	93.19
300.136	98.19
300.366	97.19
300.597	74.19
300.827	94.19
301.057	89.19
301.288	109.19
301.518	84.19
301.748	76.19
301.979	99.19
302.209	80.19
302.439	81.19
302.669	98.19
302.9	85.19
303.13	73.19
303.36	91.19
303.59	86.19
303.82	95.19
304.051	85.19
304.281	83.19
304.511	102.19
304.741	96.19
304.971	92.19
305.201	93.19
305.431	86.19
305.661	81.19
305.891	88.19
306.121	85.19
306.352	83.19
306.582	86.19
306.812	73.19
307.042	63.19
307.272	89.19
307.502	87.19
307.731	75.19
307.961	90.19
308.191	82.19
308.421	84.19
308.651	90.19
308.881	82.19
309.111	79.19
309.341	93.19
309.571	78.19
309.8	73.19
310.03	89.19
310.26	75.19
310.49	80.19
310.72	82.19
310.949	91.19
311.179	95.19
311.409	82.19
311.639	86.19
311.868	84.19
312.098	82.19
312.328	76.19
312.557	74.19
312.787	88.19
313.017	88.19
313.246	81.19
313.476	92.19
313.706	84.19
313.935	94.19
314.165	93.19
314.394	79.19
314.624	91.19
314.853	76.19
315.083	77.19
315.312	85.19
315.542	89.19
315.771	81.19
316.001	85.19
316.23	86.19
316.46	78.19
316.689	90.19
316.919	89.19
317.148	101.19
317.377	86.19
317.607	102.19
317.836	101.19
318.065	92.19
318.295	80.19
318.524	101.19
318.753	90.19
318.983	92.19
319.212	83.19
319.441	83.19
319.67	80.19
319.9	82.19
320.129	77.19
320.358	86.19
320.587	88.19
320.816	91.19
321.046	91.19
321.275	88.19
321.504	79.19
321.733	76.19
321.962	79.19
322.191	94.19
322.42	87.19
322.649	72.19
322.878	86.19
323.108	86.19
323.337	75.19
323.566	88.19
323.795	79.19
324.024	79.19
324.253	85.19
324.482	84.19
324.71	81.19
324.939	80.19
325.168	88.19
325.397	78.19
325.626	80.19
325.855	81.19
326.084	96.19
326.313	80.19
326.542	72.19
326.77	71.19
326.999	85.19
327.228	82.19
327.457	85.19
327.686	76.19
327.914	72.19
328.143	83.19
328.372	84.19
328.6	90.19
328.829	81.19
329.058	82.19
329.287	77.19
329.515	84.19
329.744	87.19
329.972	94.19
330.201	88.19
330.43	95.19
330.658	64.19
330.887	89.19
331.115	77.19
331.344	73.19
331.572	92.19
331.801	90.19
332.03	86.19
332.258	78.19
332.486	83.19
332.715	83.19
332.943	98.19
333.172	70.19
333.4	81.19
333.629	95.19
333.857	90.19
334.085	93.19
334.314	89.19
334.542	83.19
334.771	87.19
334.999	87.19
335.227	87.19
335.455	103.19
335.684	75.19
335.912	84.19
336.14	81.19
336.369	97.19
336.597	79.19
336.825	86.19
337.053	88.19
337.281	90.19
337.51	102.19
337.738	88.19
337.966	91.19
338.194	90.19
338.422	74.19
338.65	79.19
338.878	86.19
339.106	82.19
339.334	95.19
339.562	79.19
339.79	83.19
340.018	89.19
340.246	79.19
340.474	92.19
340.702	85.19
340.93	92.19
341.158	82.19
341.386	93.19
341.614	84.19
341.842	78.19
342.07	79.19
342.298	94.19
342.526	103.19
342.754	81.19
342.981	86.19
343.209	90.19
343.437	95.19
343.665	100.19
343.893	79.19
344.12	75.19
344.348	106.19
344.576	102.19
344.804	85.19
345.031	79.19
345.259	89.19
345.487	96.19
345.714	78.19
345.942	76.19
346.17	92.19
346.397	76.19
346.625	92.19
346.853	76.19
347.08	76.19
347.308	96.19
347.535	88.19
347.763	96.19
347.99	86.19
348.218	76.19
348.445	83.19
348.673	86.19
348.9	82.19
349.128	99.19
349.355	81.19
349.583	93.19
349.81	70.19
350.037	92.19
350.265	84.19
350.492	83.19
350.72	87.19
350.947	82.19
351.174	96.19
351.402	88.19
351.629	88.19
351.856	83.19
352.083	77.19
352.311	88.19
352.538	83.19
352.765	89.19
352.992	82.19
353.22	72.19
353.447	85.19
353.674	86.19
353.901	88.19
354.128	75.19
354.355	86.19
354.583	80.19
354.81	83.19
355.037	100.19
355.264	87.19
355.491	71.19
355.718	79.19
355.945	96.19
356.172	74.19
356.399	72.19
356.626	95.19
356.853	79.19
357.08	93.19
357.307	81.19
357.534	71.19
357.761	90.19
357.988	100.19
358.215	93.19
358.441	79.19
358.668	75.19
358.895	80.19
359.122	87.19
359.349	75.19
359.576	82.19
359.802	87.19
360.029	97.19
360.256	87.19
360.483	86.19
360.709	76.19
360.936	80.19
361.163	89.19
361.39	83.19
361.616	76.19
361.843	87.19
362.07	87.19
362.296	76.19
362.523	75.19
362.749	72.19
362.976	73.19
363.203	75.19
363.429	83.19
363.656	84.19
363.882	88.19
364.109	104.19
364.335	87.19
364.562	81.19
364.788	85.19
365.015	91.19
365.241	73.19
365.468	80.19
365.694	79.19
365.92	79.19
366.147	86.19
366.373	88.19
366.599	89.19
366.826	92.19
367.052	74.19
367.278	87.19
367.505	106.19
367.731	92.19
367.957	76.19
368.184	99.19
368.41	86.19
368.636	100.19
368.862	92.19
369.089	99.19
369.315	86.19
369.541	94.19
369.767	87.19
369.993	100.19
370.219	93.19
370.445	94.19
370.672	95.19
370.898	97.19
371.124	85.19
371.35	89.19
371.576	98.19
371.802	101.19
372.028	90.19
372.254	96.19
372.48	86.19
372.706	80.19
372.932	94.19
373.158	86.19
373.384	82.19
373.61	99.19
373.835	90.19
374.061	80.19
374.287	77.19
374.513	98.19
374.739	84.19
374.965	90.19
375.191	92.19
375.416	93.19
375.642	87.19
375.868	103.19
376.094	89.19
376.319	92.19
376.545	77.19
376.771	104.19
376.997	85.19
377.222	99.19
377.448	88.19
377.674	86.19
377.899	97.19
378.125	86.19
378.35	105.19
378.576	104.19
378.802	103.19
379.027	88.19
379.253	92.19
379.478	97.19
379.704	98.19
379.929	85.19
380.155	84.19
380.38	105.19
380.606	101.19
380.831	86.19
381.057	90.19
381.282	98.19
381.507	107.19
381.733	100.19
381.958	91.19
382.184	95.19
382.409	107.19
382.634	85.19
382.86	92.19
383.085	93.19
383.31	99.19
383.535	81.19
383.761	103.19
383.986	103.19
384.211	96.19
384.436	106.19
384.662	103.19
384.887	103.19
385.112	101.19
385.337	92.19
385.562	103.19
385.787	89.19
386.013	123.19
386.238	114.19
386.463	108.19
386.688	100.19
386.913	97.19
387.138	97.19
387.363	98.19
387.588	108.19
387.813	103.19
388.038	107.19
388.263	107.19
388.488	114.19
388.713	98.19
388.938	105.19
389.163	91.19
389.387	103.19
389.612	112.19
389.837	101.19
390.062	111.19
390.287	98.19
390.512	105.19
390.736	106.19
390.961	102.19
391.186	107.19
391.411	106.19
391.636	120.19
391.86	97.19
392.085	96.19
392.31	119.19
392.534	105.19
392.759	104.19
392.984	113.19
393.208	108.19
393.433	102.19
393.658	103.19
393.882	103.19
394.107	108.19
394.331	101.19
394.556	103.19
394.78	106.19
395.005	113.19
395.229	96.19
395.454	118.19
395.678	103.19
395.903	121.19
396.127	103.19
396.352	104.19
396.576	102.19
396.801	109.19
397.025	112.19
397.249	119.19
397.474	113.19
397.698	108.19
397.922	111.19
398.147	126.19
398.371	114.19
398.595	96.19
398.82	83.19
399.044	109.19
399.268	119.19
399.492	104.19
399.717	99.19
399.941	105.19
400.165	113.19
400.389	99.19
400.613	117.19
400.837	104.19
401.062	101.19
401.286	116.19
401.51	114.19
401.734	122.19
401.958	109.19
402.182	108.19
402.406	112.19
402.63	115.19
402.854	122.19
403.078	121.19
403.302	131.19
403.526	114.19
403.75	118.19
403.974	119.19
404.198	114.19
404.422	116.19
404.645	104.19
404.869	117.19
405.093	116.19
405.317	112.19
405.541	117.19
405.765	114.19
405.988	129.19
406.212	119.19
406.436	121.19
406.66	106.19
406.883	108.19
407.107	116.19
407.331	123.19
407.555	111.19
407.778	116.19
408.002	124.19
408.226	105.19
408.449	114.19
408.673	91.19
408.896	118.19
409.12	119.19
409.344	122.19
409.567	125.19
409.791	127.19
410.014	129.19
410.238	121.19
410.461	132.19
410.685	116.19
410.908	117.19
411.132	117.19
411.355	103.19
411.578	124.19
411.802	120.19
412.025	119.19
412.249	117.19
412.472	124.19
412.695	135.19
412.919	127.19
413.142	107.19
413.365	113.19
413.589	116.19
413.812	115.19
414.035	131.19
414.258	104.19
414.482	105.19
414.705	123.19
414.928	125.19
415.151	125.19
415.374	130.19
415.597	119.19
415.821	130.19
416.044	118.19
416.267	121.19
416.49	122.19
416.713	120.19
416.936	126.19
417.159	125.19
417.382	129.19
417.605	115.19
417.828	130.19
418.051	128.19
418.274	127.19
418.497	135.19
418.72	131.19
418.943	136.19
419.166	120.19
419.389	128.19
419.611	147.19
419.834	129.19
420.057	137.19
420.28	123.19
420.503	127.19
420.726	139.19
420.948	126.19
421.171	132.19
421.394	130.19
421.617	123.19
421.839	144.19
422.062	141.19
422.285	135.19
422.507	124.19
422.73	124.19
422.953	129.19
423.175	128.19
423.398	117.19
423.621	131.19
423.843	127.19
424.066	123.19
424.288	136.19
424.511	141.19
424.733	143.19
424.956	131.19
425.178	123.19
425.401	128.19
425.623	141.19
425.846	137.19
426.068	125.19
426.291	148.19
426.513	117.19
426.735	127.19
426.958	125.19
427.18	134.19
427.402	127.19
427.625	127.19
427.847	122.19
428.069	120.19
428.292	122.19
428.514	123.19
428.736	130.19
428.958	135.19
429.181	117.19
429.403	137.19
429.625	139.19
429.847	128.19
430.069	139.19
430.292	140.19
430.514	125.19
430.736	129.19
430.958	117.19
431.18	122.19
431.402	123.19
431.624	117.19
431.846	107.19
432.068	101.19
432.29	95.19
432.512	117.19
432.734	115.19
432.956	133.19
433.178	131.19
433.4	120.19
433.622	153.19
433.844	141.19
434.066	120.19
434.287	91.19
434.509	105.19
434.731	100.19
434.953	122.19
435.175	113.19
435.397	125.19
435.618	123.19
435.84	116.19
436.062	127.19
436.284	114.19
436.505	125.19
436.727	132.19
436.949	119.19
437.17	144.19
437.392	143.19
437.614	134.19
437.835	115.19
438.057	102.19
438.278	111.19
438.5	122.19
438.721	128.19
438.943	131.19
439.165	143.19
439.386	128.19
439.608	129.19
439.829	156.19
440.05	138.19
440.272	145.19
440.493	135.19
440.715	144.19
440.936	145.19
441.158	123.19
441.379	150.19
441.6	140.19
441.822	163.19
442.043	137.19
442.264	140.19
442.486	131.19
442.707	139.19
442.928	140.19
443.149	147.19
443.371	136.19
443.592	131.19
443.813	140.19
444.034	161.19
444.255	145.19
444.476	141.19
444.698	149.19
444.919	129.19
445.14	273.19
445.361	203.19
445.582	137.19
445.803	123.19
446.024	153.19
446.245	148.19
446.466	143.19
446.687	152.19
446.908	156.19
447.129	159.19
447.35	147.19
447.571	162.19
447.792	150.19
448.013	140.19
448.234	127.19
448.455	140.19
448.675	134.19
448.896	123.19
449.117	136.19
449.338	136.19
449.559	135.19
449.779	143.19
450	124.19
450.221	132.19
450.442	135.19
450.662	124.19
450.883	145.19
451.104	136.19
451.324	129.19
451.545	138.19
451.766	127.19
451.986	133.19
452.207	138.19
452.428	129.19
452.648	137.19
452.869	125.19
453.089	115.19
453.31	105.19
453.53	103.19
453.751	88.19
453.971	96.19
454.192	117.19
454.412	124.19
454.633	113.19
454.853	123.19
455.073	131.19
455.294	128.19
455.514	135.19
455.734	102.19
455.955	133.19
456.175	120.19
456.395	112.19
456.616	110.19
456.836	119.19
457.056	105.19
457.276	87.19
457.497	86.19
457.717	92.19
457.937	109.19
458.157	108.19
458.377	104.19
458.598	105.19
458.818	99.19
459.038	86.19
459.258	83.19
459.478	95.19
459.698	100.19
459.918	108.19
460.138	126.19
460.358	120.19
460.578	114.19
460.798	117.19
461.018	98.19
461.238	132.19
461.458	112.19
461.678	107.19
461.898	106.19
462.118	99.19
462.338	105.19
462.558	124.19
462.777	130.19
462.997	110.19
463.217	108.19
463.437	95.19
463.657	115.19
463.876	111.19
464.096	118.19
464.316	95.19
464.536	111.19
464.755	113.19
464.975	122.19
465.195	128.19
465.414	115.19
465.634	129.19
465.854	121.19
466.073	108.19
466.293	116.19
466.512	124.19
466.732	127.19
466.951	137.19
467.171	137.19
467.391	136.19
467.61	125.19
467.829	149.19
468.049	154.19
468.268	131.19
468.488	142.19
468.707	137.19
468.927	121.19
469.146	132.19
469.365	136.19
469.585	136.19
469.804	137.19
470.023	137.19
470.243	136.19
470.462	141.19
470.681	140.19
470.901	128.19
471.12	133.19
471.339	156.19
471.558	136.19
471.777	140.19
471.997	136.19
472.216	122.19
472.435	109.19
472.654	116.19
472.873	109.19
473.092	109.19
473.311	121.19
473.53	127.19
473.749	113.19
473.968	121.19
474.187	125.19
474.406	120.19
474.625	120.19
474.844	133.19
475.063	126.19
475.282	112.19
475.501	123.19
475.72	108.19
475.939	139.19
476.158	127.19
476.377	139.19
476.596	125.19
476.814	132.19
477.033	100.19
477.252	116.19
477.471	119.19
477.69	145.19
477.908	139.19
478.127	130.19
478.346	134.19
478.564	132.19
478.783	123.19
479.002	138.19
479.22	137.19
479.439	137.19
479.658	116.19
479.876	120.19
480.095	102.19
480.313	111.19
480.532	122.19
480.751	120.19
480.969	97.19
481.188	99.19
481.406	108.19
481.624	92.19
481.843	71.19
482.061	89.19
482.28	105.19
482.498	119.19
482.717	116.19
482.935	108.19
483.153	144.19
483.372	147.19
483.59	161.19
483.808	133.19
484.027	126.19
484.245	119.19
484.463	133.19
484.681	163.19
484.9	134.19
485.118	155.19
485.336	133.19
485.554	120.19
485.772	98.19
485.99	83.19
486.209	100.19
486.427	113.19
486.645	132.19
486.863	140.19
487.081	152.19
487.299	141.19
487.517	141.19
487.735	165.19
487.953	178.19
488.171	180.19
488.389	161.19
488.607	150.19
488.825	152.19
489.043	111.19
489.261	129.19
489.479	124.19
489.696	129.19
489.914	150.19
490.132	148.19
490.35	162.19
490.568	154.19
490.786	169.19
491.003	177.19
491.221	191.19
491.439	175.19
491.657	190.19
491.874	200.19
492.092	235.19
492.31	232.19
492.527	214.19
492.745	210.19
492.963	195.19
493.18	181.19
493.398	196.19
493.615	172.19
493.833	172.19
494.05	187.19
494.268	170.19
494.485	160.19
494.703	176.19
494.92	161.19
495.138	163.19
495.355	170.19
495.573	177.19
495.79	179.19
496.008	183.19
496.225	165.19
496.442	157.19
496.66	162.19
496.877	165.19
497.094	150.19
497.312	150.19
497.529	154.19
497.746	155.19
497.963	142.19
498.181	131.19
498.398	131.19
498.615	122.19
498.832	124.19
499.049	108.19
499.267	123.19
499.484	127.19
499.701	121.19
499.918	127.19
500.135	131.19
500.352	144.19
500.569	141.19
500.786	147.19
501.003	139.19
501.22	140.19
501.437	124.19
501.654	141.19
501.871	138.19
502.088	128.19
502.305	144.19
502.522	120.19
502.739	132.19
502.956	135.19
503.172	129.19
503.389	129.19
503.606	116.19
503.823	133.19
504.04	126.19
504.256	122.19
504.473	123.19
504.69	104.19
504.907	109.19
505.123	115.19
505.34	118.19
505.557	124.19
505.773	133.19
505.99	124.19
506.207	128.19
506.423	124.19
506.64	113.19
506.856	124.19
507.073	105.19
507.289	119.19
507.506	120.19
507.722	114.19
507.939	113.19
508.155	127.19
508.372	121.19
508.588	128.19
508.805	111.19
509.021	99.19
509.238	106.19
509.454	105.19
509.67	96.19
509.887	98.19
510.103	93.19
510.319	91.19
510.536	94.19
510.752	81.19
510.968	95.19
511.184	91.19
511.401	77.19
