Data from Location2.07152019.Energy5.Lamp.07192019.3%Agarose_HRD10591_14-55-49-359.txt Node
Date: Fri Jul 19 14:55:49 EDT 2019
User: cochatt
Spectrometer: HR+D1059
Trigger mode: 1
Integration Time (sec): 1.000000E-1
Scans to average: 1
Electric dark correction enabled: true
Nonlinearity correction enabled: false
Boxcar width: 0
XAxis mode: Wavelengths
Number of Pixels in Spectrum: 2048
>>>>>Begin Spectral Data<<<<<
223.165	-10.69
223.4	-10.69
223.635	-10.69
223.869	-11.69
224.104	-8.69
224.338	-9.69
224.573	-29.69
224.808	-20.69
225.042	-19.69
225.277	2.31
225.511	-1.69
225.746	1.31
225.98	9.31
226.215	9.31
226.449	9.31
226.683	34.31
226.918	16.31
227.152	30.31
227.387	32.31
227.621	35.31
227.856	53.31
228.09	41.31
228.324	41.31
228.559	45.31
228.793	55.31
229.027	63.31
229.262	65.31
229.496	67.31
229.73	60.31
229.964	80.31
230.199	63.31
230.433	79.31
230.667	89.31
230.901	82.31
231.136	89.31
231.37	82.31
231.604	79.31
231.838	98.31
232.072	80.31
232.306	83.31
232.541	86.31
232.775	86.31
233.009	96.31
233.243	83.31
233.477	86.31
233.711	88.31
233.945	82.31
234.179	83.31
234.413	77.31
234.647	71.31
234.881	91.31
235.115	77.31
235.349	88.31
235.583	75.31
235.817	88.31
236.051	79.31
236.285	89.31
236.519	69.31
236.753	85.31
236.987	90.31
237.221	69.31
237.455	74.31
237.689	78.31
237.922	78.31
238.156	82.31
238.39	80.31
238.624	71.31
238.858	78.31
239.091	83.31
239.325	78.31
239.559	75.31
239.793	77.31
240.027	83.31
240.26	86.31
240.494	76.31
240.728	75.31
240.961	80.31
241.195	68.31
241.429	61.31
241.662	62.31
241.896	71.31
242.13	79.31
242.363	84.31
242.597	59.31
242.83	86.31
243.064	97.31
243.298	83.31
243.531	83.31
243.765	77.31
243.998	76.31
244.232	74.31
244.465	86.31
244.699	92.31
244.932	78.31
245.166	75.31
245.399	81.31
245.633	80.31
245.866	72.31
246.099	83.31
246.333	84.31
246.566	80.31
246.8	91.31
247.033	82.31
247.266	73.31
247.5	74.31
247.733	84.31
247.966	74.31
248.2	78.31
248.433	83.31
248.666	77.31
248.899	70.31
249.133	78.31
249.366	80.31
249.599	74.31
249.832	90.31
250.066	81.31
250.299	83.31
250.532	70.31
250.765	97.31
250.998	91.31
251.231	75.31
251.465	75.31
251.698	71.31
251.931	78.31
252.164	86.31
252.397	85.31
252.63	84.31
252.863	80.31
253.096	91.31
253.329	73.31
253.562	94.31
253.795	82.31
254.028	97.31
254.261	87.31
254.494	67.31
254.727	86.31
254.96	82.31
255.193	91.31
255.426	85.31
255.659	95.31
255.892	88.31
256.124	71.31
256.357	101.31
256.59	72.31
256.823	95.31
257.056	80.31
257.289	92.31
257.521	97.31
257.754	85.31
257.987	76.31
258.22	91.31
258.452	79.31
258.685	70.31
258.918	76.31
259.151	79.31
259.383	73.31
259.616	82.31
259.849	83.31
260.081	74.31
260.314	90.31
260.547	95.31
260.779	88.31
261.012	89.31
261.244	77.31
261.477	89.31
261.71	87.31
261.942	72.31
262.175	75.31
262.407	82.31
262.64	79.31
262.872	97.31
263.105	90.31
263.337	98.31
263.57	85.31
263.802	79.31
264.035	98.31
264.267	82.31
264.499	80.31
264.732	83.31
264.964	75.31
265.197	86.31
265.429	79.31
265.661	82.31
265.894	77.31
266.126	70.31
266.358	75.31
266.591	85.31
266.823	85.31
267.055	78.31
267.287	83.31
267.52	83.31
267.752	90.31
267.984	83.31
268.216	93.31
268.448	90.31
268.681	90.31
268.913	72.31
269.145	94.31
269.377	87.31
269.609	77.31
269.841	86.31
270.073	88.31
270.306	81.31
270.538	93.31
270.77	92.31
271.002	76.31
271.234	72.31
271.466	98.31
271.698	86.31
271.93	73.31
272.162	92.31
272.394	93.31
272.626	99.31
272.858	91.31
273.09	95.31
273.322	89.31
273.553	83.31
273.785	97.31
274.017	90.31
274.249	85.31
274.481	89.31
274.713	83.31
274.945	91.31
275.176	79.31
275.408	78.31
275.64	87.31
275.872	69.31
276.104	83.31
276.335	74.31
276.567	82.31
276.799	93.31
277.031	90.31
277.262	96.31
277.494	86.31
277.726	94.31
277.957	80.31
278.189	87.31
278.421	91.31
278.652	85.31
278.884	90.31
279.115	95.31
279.347	95.31
279.579	84.31
279.81	78.31
280.042	87.31
280.273	83.31
280.505	87.31
280.736	79.31
280.968	93.31
281.199	68.31
281.431	95.31
281.662	95.31
281.894	92.31
282.125	82.31
282.356	82.31
282.588	76.31
282.819	83.31
283.051	87.31
283.282	91.31
283.513	102.31
283.745	88.31
283.976	87.31
284.207	97.31
284.439	76.31
284.67	84.31
284.901	90.31
285.132	78.31
285.364	82.31
285.595	77.31
285.826	94.31
286.057	87.31
286.288	78.31
286.52	68.31
286.751	93.31
286.982	77.31
287.213	97.31
287.444	93.31
287.675	85.31
287.906	93.31
288.138	94.31
288.369	78.31
288.6	96.31
288.831	99.31
289.062	91.31
289.293	86.31
289.524	95.31
289.755	85.31
289.986	96.31
290.217	78.31
290.448	91.31
290.679	93.31
290.91	89.31
291.141	78.31
291.371	76.31
291.602	88.31
291.833	68.31
292.064	86.31
292.295	89.31
292.526	83.31
292.757	94.31
292.987	97.31
293.218	95.31
293.449	86.31
293.68	75.31
293.91	91.31
294.141	88.31
294.372	84.31
294.603	92.31
294.833	87.31
295.064	90.31
295.295	93.31
295.525	93.31
295.756	85.31
295.987	86.31
296.217	89.31
296.448	99.31
296.679	95.31
296.909	93.31
297.14	75.31
297.37	97.31
297.601	80.31
297.831	81.31
298.062	86.31
298.292	93.31
298.523	77.31
298.753	83.31
298.984	89.31
299.214	88.31
299.445	86.31
299.675	88.31
299.905	94.31
300.136	90.31
300.366	89.31
300.597	96.31
300.827	85.31
301.057	91.31
301.288	83.31
301.518	86.31
301.748	87.31
301.979	66.31
302.209	74.31
302.439	86.31
302.669	95.31
302.9	83.31
303.13	65.31
303.36	91.31
303.59	69.31
303.82	78.31
304.051	82.31
304.281	85.31
304.511	87.31
304.741	77.31
304.971	72.31
305.201	74.31
305.431	94.31
305.661	90.31
305.891	93.31
306.121	91.31
306.352	83.31
306.582	81.31
306.812	94.31
307.042	92.31
307.272	82.31
307.502	90.31
307.731	78.31
307.961	97.31
308.191	75.31
308.421	85.31
308.651	79.31
308.881	84.31
309.111	78.31
309.341	74.31
309.571	88.31
309.8	87.31
310.03	99.31
310.26	100.31
310.49	75.31
310.72	83.31
310.949	94.31
311.179	86.31
311.409	77.31
311.639	80.31
311.868	90.31
312.098	87.31
312.328	86.31
312.557	94.31
312.787	92.31
313.017	89.31
313.246	77.31
313.476	91.31
313.706	90.31
313.935	97.31
314.165	87.31
314.394	81.31
314.624	85.31
314.853	64.31
315.083	85.31
315.312	83.31
315.542	87.31
315.771	90.31
316.001	81.31
316.23	97.31
316.46	84.31
316.689	90.31
316.919	97.31
317.148	95.31
317.377	103.31
317.607	98.31
317.836	94.31
318.065	93.31
318.295	82.31
318.524	88.31
318.753	89.31
318.983	81.31
319.212	82.31
319.441	95.31
319.67	97.31
319.9	88.31
320.129	85.31
320.358	90.31
320.587	86.31
320.816	92.31
321.046	84.31
321.275	95.31
321.504	79.31
321.733	82.31
321.962	92.31
322.191	70.31
322.42	97.31
322.649	98.31
322.878	90.31
323.108	86.31
323.337	89.31
323.566	78.31
323.795	80.31
324.024	98.31
324.253	83.31
324.482	108.31
324.71	91.31
324.939	94.31
325.168	96.31
325.397	92.31
325.626	83.31
325.855	86.31
326.084	97.31
326.313	77.31
326.542	88.31
326.77	98.31
326.999	95.31
327.228	101.31
327.457	99.31
327.686	93.31
327.914	84.31
328.143	97.31
328.372	88.31
328.6	79.31
328.829	77.31
329.058	80.31
329.287	91.31
329.515	83.31
329.744	86.31
329.972	98.31
330.201	96.31
330.43	85.31
330.658	87.31
330.887	84.31
331.115	85.31
331.344	79.31
331.572	95.31
331.801	74.31
332.03	91.31
332.258	83.31
332.486	75.31
332.715	83.31
332.943	93.31
333.172	90.31
333.4	93.31
333.629	84.31
333.857	88.31
334.085	89.31
334.314	86.31
334.542	90.31
334.771	87.31
334.999	85.31
335.227	73.31
335.455	80.31
335.684	100.31
335.912	107.31
336.14	69.31
336.369	88.31
336.597	98.31
336.825	91.31
337.053	81.31
337.281	93.31
337.51	88.31
337.738	92.31
337.966	81.31
338.194	89.31
338.422	102.31
338.65	91.31
338.878	85.31
339.106	86.31
339.334	114.31
339.562	89.31
339.79	84.31
340.018	97.31
340.246	87.31
340.474	93.31
340.702	84.31
340.93	77.31
341.158	94.31
341.386	79.31
341.614	102.31
341.842	97.31
342.07	77.31
342.298	93.31
342.526	90.31
342.754	98.31
342.981	89.31
343.209	95.31
343.437	85.31
343.665	85.31
343.893	90.31
344.12	85.31
344.348	90.31
344.576	81.31
344.804	81.31
345.031	96.31
345.259	87.31
345.487	105.31
345.714	87.31
345.942	94.31
346.17	96.31
346.397	86.31
346.625	88.31
346.853	84.31
347.08	75.31
347.308	93.31
347.535	90.31
347.763	85.31
347.99	99.31
348.218	86.31
348.445	79.31
348.673	87.31
348.9	91.31
349.128	83.31
349.355	94.31
349.583	90.31
349.81	98.31
350.037	79.31
350.265	98.31
350.492	97.31
350.72	81.31
350.947	78.31
351.174	101.31
351.402	102.31
351.629	87.31
351.856	85.31
352.083	80.31
352.311	98.31
352.538	93.31
352.765	76.31
352.992	91.31
353.22	82.31
353.447	78.31
353.674	89.31
353.901	77.31
354.128	95.31
354.355	75.31
354.583	91.31
354.81	89.31
355.037	74.31
355.264	93.31
355.491	89.31
355.718	65.31
355.945	85.31
356.172	94.31
356.399	87.31
356.626	102.31
356.853	85.31
357.08	89.31
357.307	83.31
357.534	70.31
357.761	82.31
357.988	100.31
358.215	98.31
358.441	94.31
358.668	106.31
358.895	105.31
359.122	90.31
359.349	73.31
359.576	90.31
359.802	94.31
360.029	87.31
360.256	88.31
360.483	86.31
360.709	90.31
360.936	83.31
361.163	81.31
361.39	95.31
361.616	82.31
361.843	79.31
362.07	90.31
362.296	89.31
362.523	77.31
362.749	62.31
362.976	92.31
363.203	94.31
363.429	70.31
363.656	77.31
363.882	78.31
364.109	87.31
364.335	101.31
364.562	69.31
364.788	88.31
365.015	91.31
365.241	79.31
365.468	83.31
365.694	107.31
365.92	94.31
366.147	89.31
366.373	84.31
366.599	84.31
366.826	94.31
367.052	85.31
367.278	101.31
367.505	95.31
367.731	94.31
367.957	88.31
368.184	90.31
368.41	88.31
368.636	89.31
368.862	88.31
369.089	90.31
369.315	90.31
369.541	95.31
369.767	101.31
369.993	97.31
370.219	99.31
370.445	96.31
370.672	79.31
370.898	93.31
371.124	81.31
371.35	91.31
371.576	102.31
371.802	102.31
372.028	93.31
372.254	93.31
372.48	94.31
372.706	77.31
372.932	85.31
373.158	90.31
373.384	95.31
373.61	92.31
373.835	106.31
374.061	85.31
374.287	102.31
374.513	91.31
374.739	105.31
374.965	87.31
375.191	97.31
375.416	85.31
375.642	89.31
375.868	115.31
376.094	100.31
376.319	97.31
376.545	89.31
376.771	81.31
376.997	96.31
377.222	90.31
377.448	91.31
377.674	102.31
377.899	103.31
378.125	106.31
378.35	89.31
378.576	94.31
378.802	104.31
379.027	95.31
379.253	105.31
379.478	94.31
379.704	87.31
379.929	112.31
380.155	110.31
380.38	99.31
380.606	89.31
380.831	106.31
381.057	94.31
381.282	126.31
381.507	100.31
381.733	101.31
381.958	96.31
382.184	112.31
382.409	84.31
382.634	99.31
382.86	95.31
383.085	98.31
383.31	105.31
383.535	101.31
383.761	94.31
383.986	97.31
384.211	100.31
384.436	104.31
384.662	105.31
384.887	101.31
385.112	106.31
385.337	123.31
385.562	86.31
385.787	105.31
386.013	104.31
386.238	94.31
386.463	101.31
386.688	109.31
386.913	100.31
387.138	94.31
387.363	87.31
387.588	94.31
387.813	118.31
388.038	100.31
388.263	111.31
388.488	92.31
388.713	91.31
388.938	101.31
389.163	104.31
389.387	105.31
389.612	101.31
389.837	103.31
390.062	100.31
390.287	95.31
390.512	100.31
390.736	98.31
390.961	105.31
391.186	110.31
391.411	105.31
391.636	108.31
391.86	117.31
392.085	111.31
392.31	111.31
392.534	102.31
392.759	106.31
392.984	98.31
393.208	100.31
393.433	101.31
393.658	113.31
393.882	109.31
394.107	115.31
394.331	107.31
394.556	99.31
394.78	107.31
395.005	101.31
395.229	103.31
395.454	118.31
395.678	116.31
395.903	112.31
396.127	95.31
396.352	112.31
396.576	93.31
396.801	105.31
397.025	110.31
397.249	110.31
397.474	105.31
397.698	117.31
397.922	107.31
398.147	95.31
398.371	119.31
398.595	98.31
398.82	116.31
399.044	121.31
399.268	109.31
399.492	108.31
399.717	123.31
399.941	109.31
400.165	114.31
400.389	108.31
400.613	123.31
400.837	102.31
401.062	101.31
401.286	114.31
401.51	106.31
401.734	93.31
401.958	101.31
402.182	106.31
402.406	123.31
402.63	134.31
402.854	110.31
403.078	107.31
403.302	113.31
403.526	113.31
403.75	130.31
403.974	105.31
404.198	104.31
404.422	120.31
404.645	119.31
404.869	116.31
405.093	117.31
405.317	118.31
405.541	122.31
405.765	116.31
405.988	128.31
406.212	121.31
406.436	108.31
406.66	111.31
406.883	114.31
407.107	121.31
407.331	126.31
407.555	121.31
407.778	119.31
408.002	111.31
408.226	119.31
408.449	129.31
408.673	102.31
408.896	118.31
409.12	123.31
409.344	120.31
409.567	117.31
409.791	119.31
410.014	119.31
410.238	132.31
410.461	119.31
410.685	121.31
410.908	124.31
411.132	114.31
411.355	134.31
411.578	122.31
411.802	109.31
412.025	118.31
412.249	115.31
412.472	126.31
412.695	138.31
412.919	135.31
413.142	133.31
413.365	116.31
413.589	123.31
413.812	125.31
414.035	128.31
414.258	131.31
414.482	129.31
414.705	125.31
414.928	122.31
415.151	124.31
415.374	130.31
415.597	116.31
415.821	131.31
416.044	133.31
416.267	122.31
416.49	123.31
416.713	117.31
416.936	129.31
417.159	119.31
417.382	131.31
417.605	138.31
417.828	118.31
418.051	133.31
418.274	137.31
418.497	135.31
418.72	133.31
418.943	130.31
419.166	135.31
419.389	139.31
419.611	129.31
419.834	113.31
420.057	150.31
420.28	135.31
420.503	143.31
420.726	134.31
420.948	139.31
421.171	138.31
421.394	134.31
421.617	139.31
421.839	163.31
422.062	137.31
422.285	143.31
422.507	129.31
422.73	124.31
422.953	146.31
423.175	125.31
423.398	120.31
423.621	120.31
423.843	134.31
424.066	147.31
424.288	151.31
424.511	140.31
424.733	146.31
424.956	158.31
425.178	131.31
425.401	139.31
425.623	127.31
425.846	130.31
426.068	127.31
426.291	120.31
426.513	147.31
426.735	124.31
426.958	136.31
427.18	128.31
427.402	128.31
427.625	128.31
427.847	125.31
428.069	143.31
428.292	131.31
428.514	115.31
428.736	129.31
428.958	141.31
429.181	139.31
429.403	135.31
429.625	120.31
429.847	137.31
430.069	129.31
430.292	130.31
430.514	136.31
430.736	118.31
430.958	133.31
431.18	113.31
431.402	118.31
431.624	125.31
431.846	106.31
432.068	109.31
432.29	92.31
432.512	118.31
432.734	136.31
432.956	137.31
433.178	144.31
433.4	137.31
433.622	143.31
433.844	144.31
434.066	127.31
434.287	102.31
434.509	93.31
434.731	86.31
434.953	92.31
435.175	126.31
435.397	133.31
435.618	127.31
435.84	114.31
436.062	119.31
436.284	120.31
436.505	138.31
436.727	137.31
436.949	125.31
437.17	142.31
437.392	142.31
437.614	134.31
437.835	113.31
438.057	117.31
438.278	127.31
438.5	152.31
438.721	139.31
438.943	133.31
439.165	133.31
439.386	140.31
439.608	163.31
439.829	151.31
440.05	139.31
440.272	153.31
440.493	141.31
440.715	143.31
440.936	137.31
441.158	134.31
441.379	142.31
441.6	148.31
441.822	146.31
442.043	158.31
442.264	144.31
442.486	134.31
442.707	142.31
442.928	133.31
443.149	141.31
443.371	144.31
443.592	131.31
443.813	123.31
444.034	150.31
444.255	142.31
444.476	141.31
444.698	168.31
444.919	142.31
445.14	285.31
445.361	212.31
445.582	151.31
445.803	134.31
446.024	137.31
446.245	154.31
446.466	139.31
446.687	163.31
446.908	155.31
447.129	150.31
447.35	149.31
447.571	163.31
447.792	152.31
448.013	148.31
448.234	132.31
448.455	127.31
448.675	150.31
448.896	138.31
449.117	130.31
449.338	143.31
449.559	147.31
449.779	132.31
450	129.31
450.221	120.31
450.442	130.31
450.662	136.31
450.883	124.31
451.104	134.31
451.324	126.31
451.545	140.31
451.766	127.31
451.986	131.31
452.207	142.31
452.428	125.31
452.648	140.31
452.869	131.31
453.089	123.31
453.31	118.31
453.53	109.31
453.751	103.31
453.971	86.31
454.192	109.31
454.412	121.31
454.633	108.31
454.853	112.31
455.073	126.31
455.294	122.31
455.514	123.31
455.734	118.31
455.955	114.31
456.175	122.31
456.395	113.31
456.616	111.31
456.836	119.31
457.056	111.31
457.276	113.31
457.497	99.31
457.717	101.31
457.937	93.31
458.157	118.31
458.377	107.31
458.598	92.31
458.818	88.31
459.038	77.31
459.258	85.31
459.478	89.31
459.698	91.31
459.918	93.31
460.138	97.31
460.358	117.31
460.578	125.31
460.798	111.31
461.018	122.31
461.238	119.31
461.458	122.31
461.678	118.31
461.898	117.31
462.118	122.31
462.338	126.31
462.558	118.31
462.777	118.31
462.997	108.31
463.217	117.31
463.437	111.31
463.657	120.31
463.876	116.31
464.096	116.31
464.316	111.31
464.536	121.31
464.755	115.31
464.975	109.31
465.195	125.31
465.414	111.31
465.634	129.31
465.854	113.31
466.073	130.31
466.293	126.31
466.512	113.31
466.732	123.31
466.951	125.31
467.171	129.31
467.391	128.31
467.61	146.31
467.829	146.31
468.049	121.31
468.268	138.31
468.488	131.31
468.707	136.31
468.927	123.31
469.146	125.31
469.365	134.31
469.585	138.31
469.804	150.31
470.023	145.31
470.243	134.31
470.462	133.31
470.681	164.31
470.901	161.31
471.12	137.31
471.339	145.31
471.558	167.31
471.777	155.31
471.997	148.31
472.216	135.31
472.435	127.31
472.654	102.31
472.873	113.31
473.092	126.31
473.311	128.31
473.53	117.31
473.749	125.31
473.968	133.31
474.187	125.31
474.406	108.31
474.625	131.31
474.844	137.31
475.063	136.31
475.282	118.31
475.501	100.31
475.72	116.31
475.939	127.31
476.158	145.31
476.377	135.31
476.596	133.31
476.814	122.31
477.033	108.31
477.252	113.31
477.471	123.31
477.69	125.31
477.908	132.31
478.127	136.31
478.346	132.31
478.564	136.31
478.783	150.31
479.002	129.31
479.22	147.31
479.439	136.31
479.658	127.31
479.876	110.31
480.095	110.31
480.313	117.31
480.532	103.31
480.751	119.31
480.969	94.31
481.188	89.31
481.406	86.31
481.624	87.31
481.843	94.31
482.061	107.31
482.28	115.31
482.498	113.31
482.717	101.31
482.935	122.31
483.153	145.31
483.372	169.31
483.59	138.31
483.808	149.31
484.027	149.31
484.245	125.31
484.463	138.31
484.681	158.31
484.9	137.31
485.118	161.31
485.336	124.31
485.554	115.31
485.772	108.31
485.99	93.31
486.209	110.31
486.427	112.31
486.645	115.31
486.863	129.31
487.081	136.31
487.299	135.31
487.517	139.31
487.735	166.31
487.953	177.31
488.171	181.31
488.389	179.31
488.607	180.31
488.825	143.31
489.043	122.31
489.261	129.31
489.479	137.31
489.696	148.31
489.914	138.31
490.132	145.31
490.35	151.31
490.568	149.31
490.786	181.31
491.003	167.31
491.221	186.31
491.439	181.31
491.657	185.31
491.874	199.31
492.092	223.31
492.31	234.31
492.527	220.31
492.745	209.31
492.963	197.31
493.18	201.31
493.398	181.31
493.615	170.31
493.833	189.31
494.05	185.31
494.268	165.31
494.485	159.31
494.703	184.31
494.92	179.31
495.138	176.31
495.355	178.31
495.573	165.31
495.79	174.31
496.008	166.31
496.225	181.31
496.442	169.31
496.66	160.31
496.877	167.31
497.094	167.31
497.312	158.31
497.529	160.31
497.746	149.31
497.963	134.31
498.181	133.31
498.398	127.31
498.615	124.31
498.832	109.31
499.049	131.31
499.267	123.31
499.484	133.31
499.701	147.31
499.918	131.31
500.135	149.31
500.352	129.31
500.569	143.31
500.786	158.31
501.003	139.31
501.22	143.31
501.437	137.31
501.654	131.31
501.871	154.31
502.088	143.31
502.305	126.31
502.522	124.31
502.739	135.31
502.956	137.31
503.172	123.31
503.389	133.31
503.606	138.31
503.823	118.31
504.04	117.31
504.256	125.31
504.473	120.31
504.69	124.31
504.907	111.31
505.123	127.31
505.34	122.31
505.557	123.31
505.773	124.31
505.99	120.31
506.207	121.31
506.423	100.31
506.64	120.31
506.856	125.31
507.073	113.31
507.289	114.31
507.506	112.31
507.722	121.31
507.939	111.31
508.155	122.31
508.372	110.31
508.588	117.31
508.805	118.31
509.021	113.31
509.238	111.31
509.454	105.31
509.67	104.31
509.887	94.31
510.103	106.31
510.319	106.31
510.536	92.31
510.752	91.31
510.968	84.31
511.184	78.31
