Data from Location2.07152019.Energy5.Lamp.07192019.3%Agarose_HRD10591_14-58-40-359.txt Node
Date: Fri Jul 19 14:58:40 EDT 2019
User: cochatt
Spectrometer: HR+D1059
Trigger mode: 1
Integration Time (sec): 1.000000E-1
Scans to average: 1
Electric dark correction enabled: true
Nonlinearity correction enabled: false
Boxcar width: 0
XAxis mode: Wavelengths
Number of Pixels in Spectrum: 2048
>>>>>Begin Spectral Data<<<<<
223.165	-11.31
223.4	-11.31
223.635	-11.31
223.869	-7.31
224.104	-17.31
224.338	-10.31
224.573	-9.31
224.808	-6.31
225.042	-17.31
225.277	-10.31
225.511	8.69
225.746	2.69
225.98	6.69
226.215	4.69
226.449	15.69
226.683	5.69
226.918	12.69
227.152	32.69
227.387	25.69
227.621	19.69
227.856	41.69
228.09	42.69
228.324	40.69
228.559	58.69
228.793	43.69
229.027	59.69
229.262	56.69
229.496	61.69
229.73	74.69
229.964	62.69
230.199	70.69
230.433	77.69
230.667	73.69
230.901	70.69
231.136	79.69
231.37	68.69
231.604	80.69
231.838	73.69
232.072	77.69
232.306	84.69
232.541	82.69
232.775	81.69
233.009	82.69
233.243	83.69
233.477	80.69
233.711	84.69
233.945	83.69
234.179	59.69
234.413	74.69
234.647	79.69
234.881	85.69
235.115	79.69
235.349	81.69
235.583	80.69
235.817	80.69
236.051	71.69
236.285	78.69
236.519	88.69
236.753	76.69
236.987	74.69
237.221	83.69
237.455	70.69
237.689	81.69
237.922	72.69
238.156	65.69
238.39	68.69
238.624	65.69
238.858	73.69
239.091	67.69
239.325	69.69
239.559	71.69
239.793	85.69
240.027	78.69
240.26	68.69
240.494	79.69
240.728	79.69
240.961	74.69
241.195	72.69
241.429	82.69
241.662	70.69
241.896	69.69
242.13	77.69
242.363	78.69
242.597	74.69
242.83	79.69
243.064	72.69
243.298	78.69
243.531	80.69
243.765	85.69
243.998	86.69
244.232	76.69
244.465	73.69
244.699	67.69
244.932	74.69
245.166	70.69
245.399	74.69
245.633	69.69
245.866	85.69
246.099	93.69
246.333	74.69
246.566	81.69
246.8	81.69
247.033	74.69
247.266	66.69
247.5	73.69
247.733	92.69
247.966	77.69
248.2	82.69
248.433	75.69
248.666	87.69
248.899	88.69
249.133	84.69
249.366	87.69
249.599	85.69
249.832	72.69
250.066	84.69
250.299	81.69
250.532	81.69
250.765	85.69
250.998	85.69
251.231	80.69
251.465	83.69
251.698	66.69
251.931	61.69
252.164	89.69
252.397	71.69
252.63	78.69
252.863	56.69
253.096	77.69
253.329	85.69
253.562	78.69
253.795	87.69
254.028	82.69
254.261	65.69
254.494	84.69
254.727	70.69
254.96	71.69
255.193	72.69
255.426	74.69
255.659	79.69
255.892	82.69
256.124	77.69
256.357	70.69
256.59	73.69
256.823	76.69
257.056	81.69
257.289	89.69
257.521	66.69
257.754	79.69
257.987	73.69
258.22	77.69
258.452	73.69
258.685	87.69
258.918	82.69
259.151	74.69
259.383	83.69
259.616	75.69
259.849	73.69
260.081	66.69
260.314	85.69
260.547	73.69
260.779	93.69
261.012	85.69
261.244	74.69
261.477	81.69
261.71	85.69
261.942	68.69
262.175	85.69
262.407	86.69
262.64	81.69
262.872	83.69
263.105	78.69
263.337	83.69
263.57	78.69
263.802	97.69
264.035	88.69
264.267	88.69
264.499	82.69
264.732	89.69
264.964	77.69
265.197	81.69
265.429	104.69
265.661	68.69
265.894	64.69
266.126	80.69
266.358	76.69
266.591	76.69
266.823	79.69
267.055	78.69
267.287	81.69
267.52	83.69
267.752	82.69
267.984	70.69
268.216	90.69
268.448	86.69
268.681	93.69
268.913	89.69
269.145	77.69
269.377	71.69
269.609	76.69
269.841	87.69
270.073	82.69
270.306	78.69
270.538	88.69
270.77	82.69
271.002	92.69
271.234	80.69
271.466	79.69
271.698	88.69
271.93	86.69
272.162	83.69
272.394	94.69
272.626	99.69
272.858	76.69
273.09	83.69
273.322	86.69
273.553	80.69
273.785	79.69
274.017	83.69
274.249	62.69
274.481	81.69
274.713	80.69
274.945	76.69
275.176	86.69
275.408	79.69
275.64	88.69
275.872	66.69
276.104	80.69
276.335	86.69
276.567	94.69
276.799	72.69
277.031	90.69
277.262	78.69
277.494	90.69
277.726	82.69
277.957	93.69
278.189	71.69
278.421	88.69
278.652	82.69
278.884	74.69
279.115	81.69
279.347	72.69
279.579	76.69
279.81	70.69
280.042	76.69
280.273	74.69
280.505	80.69
280.736	80.69
280.968	94.69
281.199	91.69
281.431	82.69
281.662	93.69
281.894	70.69
282.125	74.69
282.356	81.69
282.588	83.69
282.819	78.69
283.051	91.69
283.282	86.69
283.513	90.69
283.745	91.69
283.976	80.69
284.207	81.69
284.439	77.69
284.67	88.69
284.901	74.69
285.132	91.69
285.364	79.69
285.595	70.69
285.826	78.69
286.057	88.69
286.288	77.69
286.52	86.69
286.751	85.69
286.982	77.69
287.213	72.69
287.444	77.69
287.675	88.69
287.906	92.69
288.138	80.69
288.369	70.69
288.6	70.69
288.831	66.69
289.062	90.69
289.293	85.69
289.524	82.69
289.755	72.69
289.986	84.69
290.217	80.69
290.448	87.69
290.679	86.69
290.91	70.69
291.141	88.69
291.371	78.69
291.602	70.69
291.833	96.69
292.064	95.69
292.295	84.69
292.526	87.69
292.757	89.69
292.987	87.69
293.218	67.69
293.449	80.69
293.68	80.69
293.91	82.69
294.141	97.69
294.372	96.69
294.603	85.69
294.833	83.69
295.064	76.69
295.295	86.69
295.525	82.69
295.756	94.69
295.987	82.69
296.217	81.69
296.448	73.69
296.679	92.69
296.909	77.69
297.14	94.69
297.37	73.69
297.601	72.69
297.831	97.69
298.062	62.69
298.292	78.69
298.523	94.69
298.753	89.69
298.984	81.69
299.214	74.69
299.445	88.69
299.675	82.69
299.905	73.69
300.136	83.69
300.366	74.69
300.597	79.69
300.827	78.69
301.057	72.69
301.288	80.69
301.518	86.69
301.748	76.69
301.979	68.69
302.209	85.69
302.439	82.69
302.669	80.69
302.9	83.69
303.13	68.69
303.36	87.69
303.59	84.69
303.82	97.69
304.051	89.69
304.281	83.69
304.511	79.69
304.741	88.69
304.971	82.69
305.201	94.69
305.431	86.69
305.661	81.69
305.891	63.69
306.121	71.69
306.352	87.69
306.582	88.69
306.812	81.69
307.042	89.69
307.272	76.69
307.502	81.69
307.731	89.69
307.961	81.69
308.191	88.69
308.421	70.69
308.651	82.69
308.881	79.69
309.111	77.69
309.341	86.69
309.571	84.69
309.8	75.69
310.03	82.69
310.26	75.69
310.49	87.69
310.72	93.69
310.949	77.69
311.179	71.69
311.409	82.69
311.639	86.69
311.868	89.69
312.098	88.69
312.328	78.69
312.557	87.69
312.787	79.69
313.017	86.69
313.246	85.69
313.476	88.69
313.706	83.69
313.935	87.69
314.165	80.69
314.394	65.69
314.624	77.69
314.853	89.69
315.083	84.69
315.312	83.69
315.542	82.69
315.771	78.69
316.001	78.69
316.23	89.69
316.46	89.69
316.689	79.69
316.919	96.69
317.148	80.69
317.377	85.69
317.607	97.69
317.836	77.69
318.065	84.69
318.295	86.69
318.524	81.69
318.753	90.69
318.983	84.69
319.212	81.69
319.441	99.69
319.67	85.69
319.9	83.69
320.129	83.69
320.358	72.69
320.587	79.69
320.816	86.69
321.046	72.69
321.275	94.69
321.504	87.69
321.733	85.69
321.962	71.69
322.191	83.69
322.42	73.69
322.649	76.69
322.878	71.69
323.108	80.69
323.337	85.69
323.566	86.69
323.795	94.69
324.024	87.69
324.253	82.69
324.482	87.69
324.71	78.69
324.939	83.69
325.168	74.69
325.397	83.69
325.626	84.69
325.855	84.69
326.084	67.69
326.313	87.69
326.542	81.69
326.77	74.69
326.999	87.69
327.228	74.69
327.457	78.69
327.686	75.69
327.914	86.69
328.143	84.69
328.372	79.69
328.6	69.69
328.829	84.69
329.058	75.69
329.287	77.69
329.515	77.69
329.744	102.69
329.972	81.69
330.201	80.69
330.43	82.69
330.658	97.69
330.887	84.69
331.115	85.69
331.344	80.69
331.572	63.69
331.801	74.69
332.03	85.69
332.258	74.69
332.486	91.69
332.715	78.69
332.943	77.69
333.172	93.69
333.4	82.69
333.629	74.69
333.857	87.69
334.085	82.69
334.314	72.69
334.542	85.69
334.771	81.69
334.999	71.69
335.227	88.69
335.455	87.69
335.684	90.69
335.912	80.69
336.14	81.69
336.369	95.69
336.597	66.69
336.825	87.69
337.053	90.69
337.281	95.69
337.51	90.69
337.738	77.69
337.966	84.69
338.194	66.69
338.422	80.69
338.65	83.69
338.878	78.69
339.106	81.69
339.334	79.69
339.562	68.69
339.79	87.69
340.018	73.69
340.246	80.69
340.474	80.69
340.702	90.69
340.93	82.69
341.158	75.69
341.386	64.69
341.614	98.69
341.842	76.69
342.07	86.69
342.298	91.69
342.526	101.69
342.754	69.69
342.981	72.69
343.209	80.69
343.437	77.69
343.665	79.69
343.893	80.69
344.12	89.69
344.348	88.69
344.576	78.69
344.804	88.69
345.031	86.69
345.259	94.69
345.487	73.69
345.714	88.69
345.942	79.69
346.17	89.69
346.397	76.69
346.625	97.69
346.853	90.69
347.08	88.69
347.308	70.69
347.535	78.69
347.763	84.69
347.99	64.69
348.218	88.69
348.445	77.69
348.673	81.69
348.9	90.69
349.128	89.69
349.355	74.69
349.583	92.69
349.81	84.69
350.037	80.69
350.265	76.69
350.492	80.69
350.72	91.69
350.947	92.69
351.174	85.69
351.402	78.69
351.629	86.69
351.856	85.69
352.083	72.69
352.311	88.69
352.538	70.69
352.765	96.69
352.992	80.69
353.22	80.69
353.447	85.69
353.674	74.69
353.901	82.69
354.128	96.69
354.355	84.69
354.583	89.69
354.81	83.69
355.037	89.69
355.264	90.69
355.491	73.69
355.718	66.69
355.945	88.69
356.172	79.69
356.399	80.69
356.626	77.69
356.853	90.69
357.08	90.69
357.307	67.69
357.534	82.69
357.761	84.69
357.988	90.69
358.215	81.69
358.441	74.69
358.668	75.69
358.895	92.69
359.122	94.69
359.349	81.69
359.576	95.69
359.802	77.69
360.029	84.69
360.256	89.69
360.483	89.69
360.709	78.69
360.936	94.69
361.163	81.69
361.39	86.69
361.616	70.69
361.843	87.69
362.07	86.69
362.296	78.69
362.523	75.69
362.749	86.69
362.976	90.69
363.203	75.69
363.429	91.69
363.656	81.69
363.882	78.69
364.109	89.69
364.335	82.69
364.562	81.69
364.788	85.69
365.015	84.69
365.241	77.69
365.468	101.69
365.694	95.69
365.92	90.69
366.147	78.69
366.373	84.69
366.599	78.69
366.826	96.69
367.052	82.69
367.278	94.69
367.505	81.69
367.731	92.69
367.957	84.69
368.184	71.69
368.41	100.69
368.636	90.69
368.862	86.69
369.089	84.69
369.315	97.69
369.541	101.69
369.767	94.69
369.993	86.69
370.219	86.69
370.445	96.69
370.672	82.69
370.898	80.69
371.124	96.69
371.35	77.69
371.576	91.69
371.802	78.69
372.028	85.69
372.254	100.69
372.48	84.69
372.706	87.69
372.932	99.69
373.158	94.69
373.384	93.69
373.61	83.69
373.835	89.69
374.061	93.69
374.287	83.69
374.513	99.69
374.739	87.69
374.965	90.69
375.191	85.69
375.416	92.69
375.642	90.69
375.868	87.69
376.094	91.69
376.319	88.69
376.545	96.69
376.771	101.69
376.997	89.69
377.222	82.69
377.448	101.69
377.674	101.69
377.899	94.69
378.125	93.69
378.35	112.69
378.576	88.69
378.802	99.69
379.027	94.69
379.253	90.69
379.478	102.69
379.704	85.69
379.929	93.69
380.155	83.69
380.38	96.69
380.606	88.69
380.831	90.69
381.057	104.69
381.282	108.69
381.507	94.69
381.733	84.69
381.958	80.69
382.184	82.69
382.409	86.69
382.634	103.69
382.86	105.69
383.085	92.69
383.31	95.69
383.535	93.69
383.761	91.69
383.986	103.69
384.211	92.69
384.436	82.69
384.662	101.69
384.887	84.69
385.112	97.69
385.337	89.69
385.562	100.69
385.787	101.69
386.013	104.69
386.238	97.69
386.463	101.69
386.688	93.69
386.913	105.69
387.138	86.69
387.363	85.69
387.588	105.69
387.813	110.69
388.038	104.69
388.263	111.69
388.488	104.69
388.713	94.69
388.938	98.69
389.163	101.69
389.387	113.69
389.612	98.69
389.837	93.69
390.062	97.69
390.287	107.69
390.512	109.69
390.736	89.69
390.961	98.69
391.186	94.69
391.411	117.69
391.636	92.69
391.86	89.69
392.085	101.69
392.31	104.69
392.534	107.69
392.759	106.69
392.984	105.69
393.208	96.69
393.433	105.69
393.658	121.69
393.882	108.69
394.107	98.69
394.331	114.69
394.556	113.69
394.78	101.69
395.005	93.69
395.229	93.69
395.454	104.69
395.678	104.69
395.903	105.69
396.127	107.69
396.352	110.69
396.576	115.69
396.801	106.69
397.025	119.69
397.249	100.69
397.474	98.69
397.698	101.69
397.922	120.69
398.147	115.69
398.371	102.69
398.595	112.69
398.82	94.69
399.044	92.69
399.268	109.69
399.492	106.69
399.717	92.69
399.941	101.69
400.165	111.69
400.389	112.69
400.613	97.69
400.837	114.69
401.062	114.69
401.286	113.69
401.51	122.69
401.734	115.69
401.958	135.69
402.182	118.69
402.406	103.69
402.63	103.69
402.854	117.69
403.078	107.69
403.302	109.69
403.526	114.69
403.75	115.69
403.974	107.69
404.198	108.69
404.422	122.69
404.645	120.69
404.869	112.69
405.093	103.69
405.317	118.69
405.541	120.69
405.765	133.69
405.988	116.69
406.212	113.69
406.436	118.69
406.66	120.69
406.883	125.69
407.107	124.69
407.331	104.69
407.555	126.69
407.778	117.69
408.002	119.69
408.226	127.69
408.449	115.69
408.673	110.69
408.896	128.69
409.12	123.69
409.344	129.69
409.567	119.69
409.791	124.69
410.014	110.69
410.238	101.69
410.461	109.69
410.685	116.69
410.908	114.69
411.132	128.69
411.355	118.69
411.578	115.69
411.802	111.69
412.025	105.69
412.249	108.69
412.472	124.69
412.695	125.69
412.919	124.69
413.142	110.69
413.365	115.69
413.589	126.69
413.812	120.69
414.035	121.69
414.258	117.69
414.482	125.69
414.705	112.69
414.928	120.69
415.151	120.69
415.374	127.69
415.597	120.69
415.821	122.69
416.044	130.69
416.267	127.69
416.49	121.69
416.713	117.69
416.936	122.69
417.159	116.69
417.382	124.69
417.605	122.69
417.828	134.69
418.051	117.69
418.274	138.69
418.497	139.69
418.72	132.69
418.943	127.69
419.166	133.69
419.389	136.69
419.611	142.69
419.834	126.69
420.057	130.69
420.28	133.69
420.503	143.69
420.726	134.69
420.948	142.69
421.171	126.69
421.394	128.69
421.617	120.69
421.839	143.69
422.062	126.69
422.285	128.69
422.507	125.69
422.73	121.69
422.953	126.69
423.175	140.69
423.398	120.69
423.621	131.69
423.843	141.69
424.066	128.69
424.288	120.69
424.511	134.69
424.733	135.69
424.956	145.69
425.178	150.69
425.401	137.69
425.623	142.69
425.846	130.69
426.068	122.69
426.291	126.69
426.513	137.69
426.735	134.69
426.958	125.69
427.18	125.69
427.402	118.69
427.625	129.69
427.847	139.69
428.069	123.69
428.292	138.69
428.514	125.69
428.736	116.69
428.958	113.69
429.181	126.69
429.403	116.69
429.625	135.69
429.847	137.69
430.069	135.69
430.292	143.69
430.514	126.69
430.736	126.69
430.958	136.69
431.18	123.69
431.402	129.69
431.624	135.69
431.846	110.69
432.068	96.69
432.29	96.69
432.512	105.69
432.734	127.69
432.956	121.69
433.178	129.69
433.4	129.69
433.622	145.69
433.844	134.69
434.066	130.69
434.287	99.69
434.509	99.69
434.731	92.69
434.953	124.69
435.175	132.69
435.397	126.69
435.618	118.69
435.84	117.69
436.062	109.69
436.284	122.69
436.505	118.69
436.727	114.69
436.949	136.69
437.17	127.69
437.392	124.69
437.614	119.69
437.835	107.69
438.057	105.69
438.278	103.69
438.5	133.69
438.721	133.69
438.943	121.69
439.165	128.69
439.386	138.69
439.608	145.69
439.829	131.69
440.05	164.69
440.272	150.69
440.493	121.69
440.715	127.69
440.936	150.69
441.158	137.69
441.379	129.69
441.6	162.69
441.822	143.69
442.043	129.69
442.264	144.69
442.486	142.69
442.707	145.69
442.928	135.69
443.149	120.69
443.371	134.69
443.592	134.69
443.813	135.69
444.034	141.69
444.255	128.69
444.476	134.69
444.698	138.69
444.919	129.69
445.14	275.69
445.361	207.69
445.582	159.69
445.803	145.69
446.024	138.69
446.245	157.69
446.466	142.69
446.687	145.69
446.908	138.69
447.129	143.69
447.35	152.69
447.571	156.69
447.792	152.69
448.013	140.69
448.234	136.69
448.455	119.69
448.675	129.69
448.896	146.69
449.117	136.69
449.338	135.69
449.559	116.69
449.779	119.69
450	130.69
450.221	133.69
450.442	122.69
450.662	135.69
450.883	123.69
451.104	132.69
451.324	126.69
451.545	132.69
451.766	114.69
451.986	116.69
452.207	119.69
452.428	113.69
452.648	127.69
452.869	121.69
453.089	119.69
453.31	117.69
453.53	94.69
453.751	103.69
453.971	121.69
454.192	108.69
454.412	103.69
454.633	92.69
454.853	109.69
455.073	115.69
455.294	109.69
455.514	127.69
455.734	129.69
455.955	116.69
456.175	102.69
456.395	95.69
456.616	112.69
456.836	105.69
457.056	116.69
457.276	104.69
457.497	101.69
457.717	106.69
457.937	113.69
458.157	106.69
458.377	100.69
458.598	110.69
458.818	92.69
459.038	91.69
459.258	80.69
459.478	86.69
459.698	90.69
459.918	85.69
460.138	99.69
460.358	118.69
460.578	111.69
460.798	122.69
461.018	117.69
461.238	110.69
461.458	108.69
461.678	113.69
461.898	105.69
462.118	119.69
462.338	124.69
462.558	118.69
462.777	118.69
462.997	108.69
463.217	111.69
463.437	96.69
463.657	111.69
463.876	116.69
464.096	106.69
464.316	120.69
464.536	98.69
464.755	121.69
464.975	120.69
465.195	117.69
465.414	112.69
465.634	121.69
465.854	101.69
466.073	100.69
466.293	116.69
466.512	118.69
466.732	128.69
466.951	128.69
467.171	133.69
467.391	134.69
467.61	119.69
467.829	134.69
468.049	137.69
468.268	129.69
468.488	138.69
468.707	139.69
468.927	126.69
469.146	163.69
469.365	136.69
469.585	133.69
469.804	117.69
470.023	161.69
470.243	129.69
470.462	147.69
470.681	129.69
470.901	145.69
471.12	130.69
471.339	120.69
471.558	148.69
471.777	134.69
471.997	138.69
472.216	127.69
472.435	108.69
472.654	105.69
472.873	100.69
473.092	109.69
473.311	111.69
473.53	129.69
473.749	119.69
473.968	122.69
474.187	121.69
474.406	116.69
474.625	126.69
474.844	133.69
475.063	125.69
475.282	118.69
475.501	120.69
475.72	123.69
475.939	128.69
476.158	117.69
476.377	106.69
476.596	139.69
476.814	130.69
477.033	108.69
477.252	123.69
477.471	121.69
477.69	114.69
477.908	129.69
478.127	128.69
478.346	135.69
478.564	125.69
478.783	117.69
479.002	128.69
479.22	122.69
479.439	125.69
479.658	119.69
479.876	94.69
480.095	108.69
480.313	117.69
480.532	110.69
480.751	96.69
480.969	84.69
481.188	93.69
481.406	89.69
481.624	95.69
481.843	87.69
482.061	81.69
482.28	96.69
482.498	125.69
482.717	108.69
482.935	124.69
483.153	135.69
483.372	132.69
483.59	154.69
483.808	136.69
484.027	130.69
484.245	123.69
484.463	157.69
484.681	145.69
484.9	119.69
485.118	130.69
485.336	128.69
485.554	108.69
485.772	97.69
485.99	105.69
486.209	109.69
486.427	118.69
486.645	121.69
486.863	136.69
487.081	137.69
487.299	135.69
487.517	147.69
487.735	167.69
487.953	188.69
488.171	176.69
488.389	177.69
488.607	156.69
488.825	143.69
489.043	110.69
489.261	126.69
489.479	126.69
489.696	135.69
489.914	114.69
490.132	138.69
490.35	145.69
490.568	151.69
490.786	178.69
491.003	170.69
491.221	167.69
491.439	179.69
491.657	166.69
491.874	186.69
492.092	221.69
492.31	216.69
492.527	226.69
492.745	208.69
492.963	201.69
493.18	192.69
493.398	166.69
493.615	181.69
493.833	171.69
494.05	193.69
494.268	173.69
494.485	167.69
494.703	170.69
494.92	178.69
495.138	169.69
495.355	180.69
495.573	184.69
495.79	164.69
496.008	175.69
496.225	160.69
496.442	167.69
496.66	158.69
496.877	167.69
497.094	175.69
497.312	166.69
497.529	148.69
497.746	136.69
497.963	131.69
498.181	132.69
498.398	124.69
498.615	118.69
498.832	143.69
499.049	102.69
499.267	122.69
499.484	140.69
499.701	128.69
499.918	136.69
500.135	137.69
500.352	141.69
500.569	152.69
500.786	148.69
501.003	147.69
501.22	152.69
501.437	146.69
501.654	138.69
501.871	132.69
502.088	122.69
502.305	116.69
502.522	127.69
502.739	129.69
502.956	115.69
503.172	121.69
503.389	113.69
503.606	108.69
503.823	117.69
504.04	117.69
504.256	123.69
504.473	112.69
504.69	121.69
504.907	116.69
505.123	129.69
505.34	117.69
505.557	120.69
505.773	132.69
505.99	101.69
506.207	126.69
506.423	122.69
506.64	113.69
506.856	125.69
507.073	113.69
507.289	118.69
507.506	124.69
507.722	103.69
507.939	104.69
508.155	105.69
508.372	104.69
508.588	86.69
508.805	98.69
509.021	106.69
509.238	99.69
509.454	105.69
509.67	92.69
509.887	84.69
510.103	104.69
510.319	94.69
510.536	100.69
510.752	70.69
510.968	82.69
511.184	84.69
511.401	82.69
511.617	93.69
511.833	89.69
