Data from Location2.07152019.Energy5.Lamp.07192019.3%Agarose_HRD10591_14-56-05-359.txt Node
Date: Fri Jul 19 14:56:05 EDT 2019
User: cochatt
Spectrometer: HR+D1059
Trigger mode: 1
Integration Time (sec): 1.000000E-1
Scans to average: 1
Electric dark correction enabled: true
Nonlinearity correction enabled: false
Boxcar width: 0
XAxis mode: Wavelengths
Number of Pixels in Spectrum: 2048
>>>>>Begin Spectral Data<<<<<
223.165	-20.44
223.4	-20.44
223.635	-20.44
223.869	-15.44
224.104	2.56
224.338	-17.44
224.573	-20.44
224.808	-14.44
225.042	-20.44
225.277	1.56
225.511	2.56
225.746	-1.44
225.98	4.56
226.215	7.56
226.449	16.56
226.683	15.56
226.918	25.56
227.152	33.56
227.387	34.56
227.621	33.56
227.856	42.56
228.09	35.56
228.324	41.56
228.559	62.56
228.793	54.56
229.027	64.56
229.262	62.56
229.496	60.56
229.73	68.56
229.964	74.56
230.199	71.56
230.433	72.56
230.667	78.56
230.901	72.56
231.136	82.56
231.37	70.56
231.604	85.56
231.838	90.56
232.072	71.56
232.306	78.56
232.541	85.56
232.775	77.56
233.009	79.56
233.243	74.56
233.477	75.56
233.711	80.56
233.945	80.56
234.179	85.56
234.413	88.56
234.647	97.56
234.881	91.56
235.115	71.56
235.349	78.56
235.583	101.56
235.817	94.56
236.051	73.56
236.285	76.56
236.519	76.56
236.753	92.56
236.987	70.56
237.221	76.56
237.455	75.56
237.689	86.56
237.922	75.56
238.156	86.56
238.39	91.56
238.624	80.56
238.858	76.56
239.091	75.56
239.325	68.56
239.559	63.56
239.793	68.56
240.027	77.56
240.26	66.56
240.494	89.56
240.728	86.56
240.961	85.56
241.195	84.56
241.429	84.56
241.662	87.56
241.896	79.56
242.13	71.56
242.363	76.56
242.597	75.56
242.83	60.56
243.064	78.56
243.298	64.56
243.531	73.56
243.765	75.56
243.998	75.56
244.232	88.56
244.465	75.56
244.699	89.56
244.932	66.56
245.166	77.56
245.399	59.56
245.633	79.56
245.866	82.56
246.099	78.56
246.333	65.56
246.566	80.56
246.8	70.56
247.033	90.56
247.266	76.56
247.5	81.56
247.733	75.56
247.966	79.56
248.2	59.56
248.433	92.56
248.666	84.56
248.899	75.56
249.133	81.56
249.366	75.56
249.599	74.56
249.832	83.56
250.066	87.56
250.299	80.56
250.532	79.56
250.765	67.56
250.998	83.56
251.231	68.56
251.465	82.56
251.698	84.56
251.931	84.56
252.164	83.56
252.397	85.56
252.63	71.56
252.863	70.56
253.096	81.56
253.329	87.56
253.562	85.56
253.795	84.56
254.028	89.56
254.261	83.56
254.494	78.56
254.727	75.56
254.96	78.56
255.193	86.56
255.426	82.56
255.659	90.56
255.892	87.56
256.124	96.56
256.357	64.56
256.59	82.56
256.823	76.56
257.056	78.56
257.289	73.56
257.521	91.56
257.754	75.56
257.987	79.56
258.22	77.56
258.452	84.56
258.685	81.56
258.918	74.56
259.151	79.56
259.383	86.56
259.616	73.56
259.849	90.56
260.081	86.56
260.314	70.56
260.547	79.56
260.779	78.56
261.012	87.56
261.244	78.56
261.477	80.56
261.71	78.56
261.942	88.56
262.175	83.56
262.407	72.56
262.64	75.56
262.872	96.56
263.105	81.56
263.337	84.56
263.57	78.56
263.802	76.56
264.035	84.56
264.267	82.56
264.499	70.56
264.732	75.56
264.964	76.56
265.197	86.56
265.429	88.56
265.661	87.56
265.894	85.56
266.126	91.56
266.358	97.56
266.591	81.56
266.823	65.56
267.055	75.56
267.287	77.56
267.52	86.56
267.752	86.56
267.984	80.56
268.216	79.56
268.448	86.56
268.681	75.56
268.913	91.56
269.145	81.56
269.377	91.56
269.609	66.56
269.841	90.56
270.073	95.56
270.306	92.56
270.538	77.56
270.77	70.56
271.002	90.56
271.234	87.56
271.466	86.56
271.698	82.56
271.93	86.56
272.162	81.56
272.394	83.56
272.626	75.56
272.858	84.56
273.09	88.56
273.322	82.56
273.553	66.56
273.785	86.56
274.017	91.56
274.249	79.56
274.481	75.56
274.713	78.56
274.945	87.56
275.176	77.56
275.408	81.56
275.64	98.56
275.872	82.56
276.104	80.56
276.335	76.56
276.567	78.56
276.799	80.56
277.031	84.56
277.262	88.56
277.494	70.56
277.726	76.56
277.957	87.56
278.189	97.56
278.421	81.56
278.652	93.56
278.884	87.56
279.115	89.56
279.347	89.56
279.579	84.56
279.81	90.56
280.042	87.56
280.273	87.56
280.505	92.56
280.736	91.56
280.968	97.56
281.199	84.56
281.431	100.56
281.662	84.56
281.894	80.56
282.125	86.56
282.356	85.56
282.588	67.56
282.819	76.56
283.051	78.56
283.282	102.56
283.513	86.56
283.745	103.56
283.976	87.56
284.207	84.56
284.439	67.56
284.67	86.56
284.901	89.56
285.132	82.56
285.364	88.56
285.595	82.56
285.826	74.56
286.057	88.56
286.288	80.56
286.52	76.56
286.751	73.56
286.982	86.56
287.213	91.56
287.444	85.56
287.675	90.56
287.906	77.56
288.138	78.56
288.369	87.56
288.6	93.56
288.831	65.56
289.062	82.56
289.293	91.56
289.524	98.56
289.755	95.56
289.986	94.56
290.217	70.56
290.448	92.56
290.679	84.56
290.91	74.56
291.141	79.56
291.371	89.56
291.602	87.56
291.833	75.56
292.064	85.56
292.295	101.56
292.526	95.56
292.757	88.56
292.987	79.56
293.218	86.56
293.449	87.56
293.68	73.56
293.91	81.56
294.141	94.56
294.372	75.56
294.603	72.56
294.833	79.56
295.064	83.56
295.295	91.56
295.525	78.56
295.756	76.56
295.987	79.56
296.217	86.56
296.448	80.56
296.679	91.56
296.909	83.56
297.14	92.56
297.37	78.56
297.601	78.56
297.831	76.56
298.062	93.56
298.292	83.56
298.523	88.56
298.753	90.56
298.984	89.56
299.214	88.56
299.445	92.56
299.675	82.56
299.905	77.56
300.136	81.56
300.366	88.56
300.597	82.56
300.827	82.56
301.057	84.56
301.288	81.56
301.518	79.56
301.748	80.56
301.979	88.56
302.209	80.56
302.439	75.56
302.669	73.56
302.9	68.56
303.13	83.56
303.36	73.56
303.59	92.56
303.82	85.56
304.051	84.56
304.281	89.56
304.511	75.56
304.741	82.56
304.971	82.56
305.201	84.56
305.431	84.56
305.661	83.56
305.891	81.56
306.121	94.56
306.352	86.56
306.582	87.56
306.812	83.56
307.042	85.56
307.272	76.56
307.502	78.56
307.731	86.56
307.961	75.56
308.191	93.56
308.421	80.56
308.651	82.56
308.881	74.56
309.111	71.56
309.341	88.56
309.571	85.56
309.8	74.56
310.03	91.56
310.26	86.56
310.49	75.56
310.72	71.56
310.949	90.56
311.179	82.56
311.409	86.56
311.639	82.56
311.868	81.56
312.098	88.56
312.328	80.56
312.557	90.56
312.787	80.56
313.017	82.56
313.246	85.56
313.476	82.56
313.706	84.56
313.935	75.56
314.165	70.56
314.394	79.56
314.624	83.56
314.853	89.56
315.083	86.56
315.312	72.56
315.542	94.56
315.771	88.56
316.001	86.56
316.23	82.56
316.46	85.56
316.689	71.56
316.919	88.56
317.148	77.56
317.377	83.56
317.607	96.56
317.836	82.56
318.065	84.56
318.295	74.56
318.524	75.56
318.753	73.56
318.983	86.56
319.212	94.56
319.441	85.56
319.67	90.56
319.9	87.56
320.129	90.56
320.358	86.56
320.587	96.56
320.816	84.56
321.046	89.56
321.275	107.56
321.504	82.56
321.733	84.56
321.962	107.56
322.191	104.56
322.42	86.56
322.649	83.56
322.878	91.56
323.108	83.56
323.337	91.56
323.566	83.56
323.795	82.56
324.024	77.56
324.253	83.56
324.482	82.56
324.71	79.56
324.939	94.56
325.168	77.56
325.397	79.56
325.626	79.56
325.855	73.56
326.084	91.56
326.313	91.56
326.542	70.56
326.77	91.56
326.999	75.56
327.228	85.56
327.457	82.56
327.686	72.56
327.914	91.56
328.143	76.56
328.372	97.56
328.6	80.56
328.829	86.56
329.058	82.56
329.287	83.56
329.515	83.56
329.744	90.56
329.972	75.56
330.201	72.56
330.43	91.56
330.658	93.56
330.887	75.56
331.115	72.56
331.344	72.56
331.572	83.56
331.801	78.56
332.03	86.56
332.258	92.56
332.486	99.56
332.715	86.56
332.943	86.56
333.172	79.56
333.4	72.56
333.629	87.56
333.857	82.56
334.085	95.56
334.314	74.56
334.542	71.56
334.771	93.56
334.999	96.56
335.227	76.56
335.455	94.56
335.684	90.56
335.912	90.56
336.14	77.56
336.369	95.56
336.597	94.56
336.825	67.56
337.053	74.56
337.281	78.56
337.51	76.56
337.738	89.56
337.966	94.56
338.194	82.56
338.422	93.56
338.65	82.56
338.878	86.56
339.106	73.56
339.334	85.56
339.562	81.56
339.79	69.56
340.018	97.56
340.246	89.56
340.474	97.56
340.702	75.56
340.93	83.56
341.158	84.56
341.386	81.56
341.614	84.56
341.842	81.56
342.07	94.56
342.298	84.56
342.526	89.56
342.754	75.56
342.981	86.56
343.209	81.56
343.437	83.56
343.665	88.56
343.893	76.56
344.12	70.56
344.348	84.56
344.576	75.56
344.804	76.56
345.031	84.56
345.259	80.56
345.487	92.56
345.714	78.56
345.942	78.56
346.17	85.56
346.397	84.56
346.625	86.56
346.853	96.56
347.08	91.56
347.308	75.56
347.535	99.56
347.763	80.56
347.99	81.56
348.218	84.56
348.445	86.56
348.673	73.56
348.9	86.56
349.128	78.56
349.355	89.56
349.583	88.56
349.81	90.56
350.037	68.56
350.265	77.56
350.492	75.56
350.72	78.56
350.947	93.56
351.174	81.56
351.402	83.56
351.629	78.56
351.856	84.56
352.083	79.56
352.311	89.56
352.538	91.56
352.765	84.56
352.992	81.56
353.22	87.56
353.447	91.56
353.674	86.56
353.901	88.56
354.128	83.56
354.355	78.56
354.583	94.56
354.81	87.56
355.037	80.56
355.264	78.56
355.491	83.56
355.718	72.56
355.945	89.56
356.172	83.56
356.399	86.56
356.626	96.56
356.853	82.56
357.08	84.56
357.307	79.56
357.534	86.56
357.761	88.56
357.988	70.56
358.215	91.56
358.441	93.56
358.668	99.56
358.895	74.56
359.122	80.56
359.349	77.56
359.576	84.56
359.802	77.56
360.029	88.56
360.256	89.56
360.483	88.56
360.709	82.56
360.936	103.56
361.163	83.56
361.39	87.56
361.616	94.56
361.843	82.56
362.07	89.56
362.296	87.56
362.523	76.56
362.749	80.56
362.976	84.56
363.203	91.56
363.429	79.56
363.656	90.56
363.882	88.56
364.109	89.56
364.335	89.56
364.562	83.56
364.788	80.56
365.015	81.56
365.241	86.56
365.468	94.56
365.694	96.56
365.92	90.56
366.147	86.56
366.373	91.56
366.599	98.56
366.826	73.56
367.052	89.56
367.278	83.56
367.505	98.56
367.731	88.56
367.957	101.56
368.184	95.56
368.41	92.56
368.636	86.56
368.862	91.56
369.089	86.56
369.315	84.56
369.541	89.56
369.767	89.56
369.993	92.56
370.219	99.56
370.445	88.56
370.672	84.56
370.898	89.56
371.124	94.56
371.35	96.56
371.576	97.56
371.802	90.56
372.028	82.56
372.254	85.56
372.48	91.56
372.706	87.56
372.932	79.56
373.158	91.56
373.384	88.56
373.61	85.56
373.835	84.56
374.061	102.56
374.287	89.56
374.513	89.56
374.739	85.56
374.965	84.56
375.191	92.56
375.416	88.56
375.642	80.56
375.868	103.56
376.094	95.56
376.319	107.56
376.545	90.56
376.771	86.56
376.997	94.56
377.222	91.56
377.448	93.56
377.674	98.56
377.899	103.56
378.125	105.56
378.35	101.56
378.576	87.56
378.802	93.56
379.027	101.56
379.253	93.56
379.478	97.56
379.704	99.56
379.929	91.56
380.155	98.56
380.38	101.56
380.606	102.56
380.831	89.56
381.057	84.56
381.282	93.56
381.507	102.56
381.733	98.56
381.958	98.56
382.184	87.56
382.409	83.56
382.634	86.56
382.86	112.56
383.085	92.56
383.31	90.56
383.535	96.56
383.761	89.56
383.986	96.56
384.211	98.56
384.436	96.56
384.662	102.56
384.887	92.56
385.112	107.56
385.337	98.56
385.562	92.56
385.787	106.56
386.013	99.56
386.238	100.56
386.463	103.56
386.688	99.56
386.913	92.56
387.138	111.56
387.363	115.56
387.588	99.56
387.813	90.56
388.038	96.56
388.263	96.56
388.488	95.56
388.713	95.56
388.938	88.56
389.163	88.56
389.387	107.56
389.612	94.56
389.837	90.56
390.062	82.56
390.287	100.56
390.512	95.56
390.736	112.56
390.961	94.56
391.186	118.56
391.411	119.56
391.636	111.56
391.86	98.56
392.085	107.56
392.31	94.56
392.534	89.56
392.759	89.56
392.984	92.56
393.208	113.56
393.433	103.56
393.658	102.56
393.882	107.56
394.107	122.56
394.331	99.56
394.556	109.56
394.78	100.56
395.005	98.56
395.229	108.56
395.454	102.56
395.678	98.56
395.903	112.56
396.127	122.56
396.352	116.56
396.576	105.56
396.801	116.56
397.025	87.56
397.249	90.56
397.474	114.56
397.698	106.56
397.922	104.56
398.147	118.56
398.371	110.56
398.595	118.56
398.82	116.56
399.044	113.56
399.268	85.56
399.492	110.56
399.717	98.56
399.941	102.56
400.165	110.56
400.389	112.56
400.613	110.56
400.837	117.56
401.062	102.56
401.286	107.56
401.51	111.56
401.734	114.56
401.958	111.56
402.182	106.56
402.406	112.56
402.63	111.56
402.854	118.56
403.078	100.56
403.302	91.56
403.526	101.56
403.75	128.56
403.974	105.56
404.198	105.56
404.422	114.56
404.645	105.56
404.869	126.56
405.093	112.56
405.317	120.56
405.541	116.56
405.765	130.56
405.988	111.56
406.212	121.56
406.436	118.56
406.66	121.56
406.883	113.56
407.107	106.56
407.331	126.56
407.555	121.56
407.778	131.56
408.002	125.56
408.226	108.56
408.449	117.56
408.673	108.56
408.896	98.56
409.12	124.56
409.344	118.56
409.567	108.56
409.791	124.56
410.014	120.56
410.238	124.56
410.461	118.56
410.685	125.56
410.908	125.56
411.132	125.56
411.355	123.56
411.578	132.56
411.802	121.56
412.025	117.56
412.249	116.56
412.472	121.56
412.695	117.56
412.919	126.56
413.142	104.56
413.365	121.56
413.589	122.56
413.812	121.56
414.035	124.56
414.258	121.56
414.482	127.56
414.705	104.56
414.928	126.56
415.151	106.56
415.374	141.56
415.597	120.56
415.821	129.56
416.044	142.56
416.267	132.56
416.49	120.56
416.713	124.56
416.936	131.56
417.159	132.56
417.382	131.56
417.605	132.56
417.828	125.56
418.051	126.56
418.274	136.56
418.497	126.56
418.72	143.56
418.943	129.56
419.166	130.56
419.389	134.56
419.611	125.56
419.834	139.56
420.057	128.56
420.28	132.56
420.503	127.56
420.726	150.56
420.948	148.56
421.171	111.56
421.394	127.56
421.617	138.56
421.839	137.56
422.062	134.56
422.285	133.56
422.507	121.56
422.73	122.56
422.953	130.56
423.175	122.56
423.398	131.56
423.621	130.56
423.843	124.56
424.066	123.56
424.288	134.56
424.511	145.56
424.733	138.56
424.956	131.56
425.178	130.56
425.401	154.56
425.623	119.56
425.846	126.56
426.068	124.56
426.291	117.56
426.513	126.56
426.735	126.56
426.958	141.56
427.18	135.56
427.402	140.56
427.625	133.56
427.847	122.56
428.069	126.56
428.292	118.56
428.514	133.56
428.736	122.56
428.958	137.56
429.181	123.56
429.403	125.56
429.625	122.56
429.847	121.56
430.069	129.56
430.292	137.56
430.514	128.56
430.736	134.56
430.958	134.56
431.18	122.56
431.402	123.56
431.624	122.56
431.846	96.56
432.068	97.56
432.29	88.56
432.512	102.56
432.734	114.56
432.956	126.56
433.178	137.56
433.4	135.56
433.622	140.56
433.844	129.56
434.066	114.56
434.287	103.56
434.509	101.56
434.731	102.56
434.953	116.56
435.175	132.56
435.397	115.56
435.618	121.56
435.84	101.56
436.062	130.56
436.284	121.56
436.505	124.56
436.727	127.56
436.949	118.56
437.17	138.56
437.392	127.56
437.614	106.56
437.835	110.56
438.057	105.56
438.278	112.56
438.5	128.56
438.721	123.56
438.943	132.56
439.165	121.56
439.386	128.56
439.608	134.56
439.829	138.56
440.05	145.56
440.272	153.56
440.493	130.56
440.715	131.56
440.936	145.56
441.158	156.56
441.379	131.56
441.6	135.56
441.822	147.56
442.043	156.56
442.264	150.56
442.486	163.56
442.707	136.56
442.928	125.56
443.149	151.56
443.371	157.56
443.592	134.56
443.813	138.56
444.034	140.56
444.255	125.56
444.476	145.56
444.698	137.56
444.919	153.56
445.14	248.56
445.361	187.56
445.582	122.56
445.803	163.56
446.024	155.56
446.245	155.56
446.466	162.56
446.687	152.56
446.908	150.56
447.129	150.56
447.35	154.56
447.571	152.56
447.792	142.56
448.013	151.56
448.234	146.56
448.455	149.56
448.675	143.56
448.896	134.56
449.117	126.56
449.338	143.56
449.559	144.56
449.779	132.56
450	145.56
450.221	120.56
450.442	118.56
450.662	147.56
450.883	131.56
451.104	138.56
451.324	130.56
451.545	122.56
451.766	118.56
451.986	122.56
452.207	130.56
452.428	127.56
452.648	140.56
452.869	117.56
453.089	123.56
453.31	113.56
453.53	114.56
453.751	106.56
453.971	120.56
454.192	104.56
454.412	122.56
454.633	122.56
454.853	119.56
455.073	117.56
455.294	123.56
455.514	118.56
455.734	126.56
455.955	113.56
456.175	96.56
456.395	98.56
456.616	114.56
456.836	114.56
457.056	112.56
457.276	110.56
457.497	118.56
457.717	110.56
457.937	107.56
458.157	94.56
458.377	106.56
458.598	91.56
458.818	84.56
459.038	97.56
459.258	92.56
459.478	85.56
459.698	86.56
459.918	103.56
460.138	120.56
460.358	110.56
460.578	115.56
460.798	115.56
461.018	117.56
461.238	115.56
461.458	110.56
461.678	104.56
461.898	126.56
462.118	110.56
462.338	122.56
462.558	122.56
462.777	103.56
462.997	108.56
463.217	99.56
463.437	111.56
463.657	116.56
463.876	117.56
464.096	94.56
464.316	103.56
464.536	95.56
464.755	116.56
464.975	111.56
465.195	121.56
465.414	123.56
465.634	119.56
465.854	125.56
466.073	124.56
466.293	114.56
466.512	131.56
466.732	132.56
466.951	140.56
467.171	129.56
467.391	121.56
467.61	136.56
467.829	141.56
468.049	144.56
468.268	146.56
468.488	121.56
468.707	126.56
468.927	141.56
469.146	128.56
469.365	126.56
469.585	144.56
469.804	145.56
470.023	130.56
470.243	149.56
470.462	137.56
470.681	139.56
470.901	153.56
471.12	148.56
471.339	146.56
471.558	142.56
471.777	133.56
471.997	141.56
472.216	120.56
472.435	120.56
472.654	98.56
472.873	117.56
473.092	106.56
473.311	124.56
473.53	138.56
473.749	126.56
473.968	123.56
474.187	122.56
474.406	121.56
474.625	122.56
474.844	121.56
475.063	134.56
475.282	124.56
475.501	128.56
475.72	130.56
475.939	124.56
476.158	123.56
476.377	138.56
476.596	126.56
476.814	107.56
477.033	88.56
477.252	111.56
477.471	108.56
477.69	128.56
477.908	138.56
478.127	138.56
478.346	127.56
478.564	141.56
478.783	131.56
479.002	124.56
479.22	136.56
479.439	126.56
479.658	131.56
479.876	126.56
480.095	119.56
480.313	111.56
480.532	112.56
480.751	116.56
480.969	95.56
481.188	91.56
481.406	97.56
481.624	97.56
481.843	85.56
482.061	90.56
482.28	112.56
482.498	110.56
482.717	106.56
482.935	122.56
483.153	138.56
483.372	159.56
483.59	130.56
483.808	134.56
484.027	130.56
484.245	140.56
484.463	135.56
484.681	160.56
484.9	145.56
485.118	142.56
485.336	120.56
485.554	116.56
485.772	98.56
485.99	106.56
486.209	100.56
486.427	100.56
486.645	123.56
486.863	140.56
487.081	161.56
487.299	138.56
487.517	136.56
487.735	145.56
487.953	176.56
488.171	162.56
488.389	167.56
488.607	147.56
488.825	138.56
489.043	122.56
489.261	134.56
489.479	134.56
489.696	161.56
489.914	156.56
490.132	138.56
490.35	164.56
490.568	143.56
490.786	162.56
491.003	185.56
491.221	180.56
491.439	188.56
491.657	199.56
491.874	201.56
492.092	216.56
492.31	242.56
492.527	230.56
492.745	204.56
492.963	196.56
493.18	194.56
493.398	175.56
493.615	175.56
493.833	175.56
494.05	186.56
494.268	165.56
494.485	174.56
494.703	179.56
494.92	169.56
495.138	168.56
495.355	163.56
495.573	177.56
495.79	156.56
496.008	170.56
496.225	170.56
496.442	160.56
496.66	178.56
496.877	180.56
497.094	174.56
497.312	163.56
497.529	155.56
497.746	161.56
497.963	146.56
498.181	138.56
498.398	129.56
498.615	128.56
498.832	115.56
499.049	111.56
499.267	125.56
499.484	111.56
499.701	129.56
499.918	134.56
500.135	136.56
500.352	137.56
500.569	144.56
500.786	136.56
501.003	140.56
501.22	155.56
501.437	145.56
501.654	133.56
501.871	133.56
502.088	127.56
502.305	134.56
502.522	140.56
502.739	126.56
502.956	124.56
503.172	124.56
503.389	122.56
503.606	116.56
503.823	107.56
504.04	130.56
504.256	130.56
504.473	123.56
504.69	133.56
504.907	122.56
505.123	119.56
505.34	116.56
505.557	124.56
505.773	113.56
505.99	131.56
506.207	117.56
506.423	110.56
506.64	134.56
506.856	120.56
507.073	107.56
507.289	117.56
507.506	100.56
507.722	121.56
507.939	126.56
508.155	120.56
508.372	117.56
508.588	108.56
508.805	116.56
509.021	111.56
509.238	98.56
509.454	99.56
509.67	95.56
509.887	96.56
510.103	98.56
510.319	96.56
510.536	103.56
510.752	86.56
510.968	90.56
511.184	87.56
511.401	82.56
511.617	82.56
511.833	80.56
