Data from Location2.07152019.Energy5.Lamp.07192019.3%Agarose_HRD10591_14-58-02-359.txt Node
Date: Fri Jul 19 14:58:02 EDT 2019
User: cochatt
Spectrometer: HR+D1059
Trigger mode: 1
Integration Time (sec): 1.000000E-1
Scans to average: 1
Electric dark correction enabled: true
Nonlinearity correction enabled: false
Boxcar width: 0
XAxis mode: Wavelengths
Number of Pixels in Spectrum: 2048
>>>>>Begin Spectral Data<<<<<
223.165	-18.75
223.4	-18.75
223.635	-18.75
223.869	-26.75
224.104	-13.75
224.338	-11.75
224.573	-9.75
224.808	-0.75
225.042	-9.75
225.277	6.25
225.511	-8.75
225.746	1.25
225.98	17.25
226.215	7.25
226.449	5.25
226.683	16.25
226.918	24.25
227.152	22.25
227.387	29.25
227.621	38.25
227.856	53.25
228.09	35.25
228.324	56.25
228.559	61.25
228.793	61.25
229.027	72.25
229.262	61.25
229.496	80.25
229.73	69.25
229.964	70.25
230.199	91.25
230.433	76.25
230.667	77.25
230.901	93.25
231.136	88.25
231.37	82.25
231.604	85.25
231.838	84.25
232.072	75.25
232.306	74.25
232.541	87.25
232.775	84.25
233.009	94.25
233.243	79.25
233.477	76.25
233.711	94.25
233.945	101.25
234.179	70.25
234.413	77.25
234.647	77.25
234.881	79.25
235.115	91.25
235.349	79.25
235.583	101.25
235.817	86.25
236.051	79.25
236.285	79.25
236.519	80.25
236.753	88.25
236.987	86.25
237.221	90.25
237.455	65.25
237.689	91.25
237.922	83.25
238.156	83.25
238.39	84.25
238.624	81.25
238.858	71.25
239.091	84.25
239.325	78.25
239.559	92.25
239.793	73.25
240.027	65.25
240.26	78.25
240.494	82.25
240.728	84.25
240.961	86.25
241.195	75.25
241.429	83.25
241.662	88.25
241.896	68.25
242.13	73.25
242.363	83.25
242.597	62.25
242.83	79.25
243.064	74.25
243.298	85.25
243.531	89.25
243.765	68.25
243.998	87.25
244.232	65.25
244.465	81.25
244.699	79.25
244.932	80.25
245.166	78.25
245.399	72.25
245.633	82.25
245.866	89.25
246.099	80.25
246.333	79.25
246.566	94.25
246.8	66.25
247.033	88.25
247.266	81.25
247.5	94.25
247.733	94.25
247.966	66.25
248.2	77.25
248.433	74.25
248.666	84.25
248.899	79.25
249.133	74.25
249.366	81.25
249.599	82.25
249.832	79.25
250.066	75.25
250.299	75.25
250.532	81.25
250.765	61.25
250.998	61.25
251.231	74.25
251.465	74.25
251.698	79.25
251.931	80.25
252.164	81.25
252.397	89.25
252.63	76.25
252.863	66.25
253.096	93.25
253.329	82.25
253.562	93.25
253.795	92.25
254.028	80.25
254.261	85.25
254.494	93.25
254.727	79.25
254.96	83.25
255.193	93.25
255.426	62.25
255.659	79.25
255.892	90.25
256.124	78.25
256.357	90.25
256.59	90.25
256.823	72.25
257.056	91.25
257.289	79.25
257.521	80.25
257.754	79.25
257.987	75.25
258.22	90.25
258.452	78.25
258.685	74.25
258.918	79.25
259.151	89.25
259.383	85.25
259.616	78.25
259.849	88.25
260.081	78.25
260.314	85.25
260.547	89.25
260.779	85.25
261.012	78.25
261.244	88.25
261.477	85.25
261.71	91.25
261.942	89.25
262.175	82.25
262.407	87.25
262.64	87.25
262.872	85.25
263.105	72.25
263.337	87.25
263.57	83.25
263.802	91.25
264.035	82.25
264.267	78.25
264.499	79.25
264.732	81.25
264.964	79.25
265.197	83.25
265.429	81.25
265.661	93.25
265.894	67.25
266.126	88.25
266.358	93.25
266.591	83.25
266.823	78.25
267.055	89.25
267.287	77.25
267.52	89.25
267.752	95.25
267.984	87.25
268.216	68.25
268.448	75.25
268.681	77.25
268.913	83.25
269.145	92.25
269.377	83.25
269.609	92.25
269.841	84.25
270.073	86.25
270.306	94.25
270.538	68.25
270.77	69.25
271.002	79.25
271.234	92.25
271.466	88.25
271.698	80.25
271.93	86.25
272.162	80.25
272.394	78.25
272.626	83.25
272.858	87.25
273.09	89.25
273.322	64.25
273.553	81.25
273.785	76.25
274.017	87.25
274.249	86.25
274.481	85.25
274.713	86.25
274.945	86.25
275.176	83.25
275.408	91.25
275.64	103.25
275.872	83.25
276.104	81.25
276.335	90.25
276.567	74.25
276.799	81.25
277.031	79.25
277.262	80.25
277.494	73.25
277.726	74.25
277.957	93.25
278.189	70.25
278.421	87.25
278.652	85.25
278.884	65.25
279.115	99.25
279.347	76.25
279.579	84.25
279.81	83.25
280.042	88.25
280.273	94.25
280.505	86.25
280.736	79.25
280.968	85.25
281.199	87.25
281.431	99.25
281.662	89.25
281.894	95.25
282.125	86.25
282.356	89.25
282.588	94.25
282.819	85.25
283.051	92.25
283.282	82.25
283.513	78.25
283.745	98.25
283.976	74.25
284.207	79.25
284.439	85.25
284.67	77.25
284.901	92.25
285.132	92.25
285.364	76.25
285.595	92.25
285.826	73.25
286.057	81.25
286.288	97.25
286.52	86.25
286.751	87.25
286.982	78.25
287.213	80.25
287.444	75.25
287.675	93.25
287.906	81.25
288.138	84.25
288.369	93.25
288.6	79.25
288.831	85.25
289.062	93.25
289.293	81.25
289.524	78.25
289.755	84.25
289.986	79.25
290.217	79.25
290.448	75.25
290.679	87.25
290.91	90.25
291.141	87.25
291.371	79.25
291.602	80.25
291.833	84.25
292.064	91.25
292.295	89.25
292.526	89.25
292.757	87.25
292.987	91.25
293.218	99.25
293.449	101.25
293.68	87.25
293.91	73.25
294.141	94.25
294.372	90.25
294.603	78.25
294.833	86.25
295.064	94.25
295.295	96.25
295.525	100.25
295.756	79.25
295.987	89.25
296.217	81.25
296.448	80.25
296.679	78.25
296.909	83.25
297.14	77.25
297.37	69.25
297.601	79.25
297.831	82.25
298.062	86.25
298.292	99.25
298.523	100.25
298.753	83.25
298.984	75.25
299.214	91.25
299.445	75.25
299.675	99.25
299.905	102.25
300.136	98.25
300.366	87.25
300.597	90.25
300.827	80.25
301.057	91.25
301.288	92.25
301.518	76.25
301.748	78.25
301.979	80.25
302.209	81.25
302.439	88.25
302.669	84.25
302.9	85.25
303.13	89.25
303.36	89.25
303.59	83.25
303.82	72.25
304.051	68.25
304.281	87.25
304.511	81.25
304.741	78.25
304.971	90.25
305.201	75.25
305.431	88.25
305.661	99.25
305.891	75.25
306.121	84.25
306.352	88.25
306.582	80.25
306.812	85.25
307.042	72.25
307.272	88.25
307.502	95.25
307.731	87.25
307.961	87.25
308.191	86.25
308.421	81.25
308.651	84.25
308.881	89.25
309.111	85.25
309.341	87.25
309.571	85.25
309.8	94.25
310.03	79.25
310.26	74.25
310.49	79.25
310.72	87.25
310.949	79.25
311.179	76.25
311.409	80.25
311.639	88.25
311.868	94.25
312.098	88.25
312.328	87.25
312.557	97.25
312.787	92.25
313.017	90.25
313.246	87.25
313.476	88.25
313.706	75.25
313.935	81.25
314.165	81.25
314.394	91.25
314.624	75.25
314.853	94.25
315.083	96.25
315.312	101.25
315.542	77.25
315.771	103.25
316.001	83.25
316.23	94.25
316.46	75.25
316.689	90.25
316.919	81.25
317.148	87.25
317.377	97.25
317.607	93.25
317.836	88.25
318.065	94.25
318.295	90.25
318.524	84.25
318.753	89.25
318.983	78.25
319.212	93.25
319.441	89.25
319.67	91.25
319.9	89.25
320.129	88.25
320.358	89.25
320.587	85.25
320.816	85.25
321.046	83.25
321.275	86.25
321.504	86.25
321.733	88.25
321.962	87.25
322.191	83.25
322.42	81.25
322.649	80.25
322.878	73.25
323.108	92.25
323.337	91.25
323.566	84.25
323.795	83.25
324.024	78.25
324.253	80.25
324.482	75.25
324.71	76.25
324.939	94.25
325.168	77.25
325.397	92.25
325.626	92.25
325.855	88.25
326.084	82.25
326.313	77.25
326.542	81.25
326.77	78.25
326.999	91.25
327.228	87.25
327.457	83.25
327.686	79.25
327.914	71.25
328.143	77.25
328.372	85.25
328.6	75.25
328.829	86.25
329.058	85.25
329.287	83.25
329.515	93.25
329.744	89.25
329.972	84.25
330.201	100.25
330.43	73.25
330.658	94.25
330.887	69.25
331.115	87.25
331.344	84.25
331.572	87.25
331.801	85.25
332.03	87.25
332.258	98.25
332.486	89.25
332.715	77.25
332.943	68.25
333.172	78.25
333.4	89.25
333.629	106.25
333.857	87.25
334.085	87.25
334.314	88.25
334.542	77.25
334.771	88.25
334.999	84.25
335.227	91.25
335.455	94.25
335.684	82.25
335.912	85.25
336.14	76.25
336.369	93.25
336.597	86.25
336.825	79.25
337.053	87.25
337.281	85.25
337.51	85.25
337.738	88.25
337.966	86.25
338.194	61.25
338.422	85.25
338.65	85.25
338.878	96.25
339.106	86.25
339.334	80.25
339.562	76.25
339.79	80.25
340.018	87.25
340.246	71.25
340.474	90.25
340.702	94.25
340.93	79.25
341.158	97.25
341.386	81.25
341.614	79.25
341.842	99.25
342.07	80.25
342.298	85.25
342.526	85.25
342.754	73.25
342.981	83.25
343.209	81.25
343.437	81.25
343.665	83.25
343.893	89.25
344.12	78.25
344.348	73.25
344.576	71.25
344.804	78.25
345.031	74.25
345.259	71.25
345.487	79.25
345.714	86.25
345.942	80.25
346.17	88.25
346.397	89.25
346.625	101.25
346.853	82.25
347.08	81.25
347.308	92.25
347.535	83.25
347.763	90.25
347.99	76.25
348.218	87.25
348.445	81.25
348.673	93.25
348.9	81.25
349.128	84.25
349.355	76.25
349.583	90.25
349.81	83.25
350.037	77.25
350.265	84.25
350.492	78.25
350.72	80.25
350.947	94.25
351.174	87.25
351.402	85.25
351.629	84.25
351.856	89.25
352.083	88.25
352.311	85.25
352.538	97.25
352.765	81.25
352.992	77.25
353.22	80.25
353.447	78.25
353.674	85.25
353.901	84.25
354.128	77.25
354.355	85.25
354.583	95.25
354.81	78.25
355.037	81.25
355.264	94.25
355.491	93.25
355.718	86.25
355.945	87.25
356.172	80.25
356.399	83.25
356.626	83.25
356.853	78.25
357.08	70.25
357.307	96.25
357.534	84.25
357.761	87.25
357.988	69.25
358.215	69.25
358.441	75.25
358.668	86.25
358.895	86.25
359.122	85.25
359.349	75.25
359.576	86.25
359.802	86.25
360.029	85.25
360.256	92.25
360.483	73.25
360.709	71.25
360.936	94.25
361.163	82.25
361.39	77.25
361.616	73.25
361.843	84.25
362.07	78.25
362.296	96.25
362.523	74.25
362.749	74.25
362.976	77.25
363.203	92.25
363.429	70.25
363.656	86.25
363.882	78.25
364.109	79.25
364.335	95.25
364.562	84.25
364.788	96.25
365.015	89.25
365.241	71.25
365.468	78.25
365.694	78.25
365.92	88.25
366.147	83.25
366.373	98.25
366.599	100.25
366.826	75.25
367.052	87.25
367.278	89.25
367.505	83.25
367.731	88.25
367.957	91.25
368.184	94.25
368.41	93.25
368.636	93.25
368.862	104.25
369.089	90.25
369.315	89.25
369.541	69.25
369.767	82.25
369.993	108.25
370.219	81.25
370.445	84.25
370.672	81.25
370.898	94.25
371.124	89.25
371.35	88.25
371.576	90.25
371.802	89.25
372.028	98.25
372.254	89.25
372.48	97.25
372.706	84.25
372.932	104.25
373.158	87.25
373.384	99.25
373.61	99.25
373.835	86.25
374.061	95.25
374.287	83.25
374.513	95.25
374.739	99.25
374.965	88.25
375.191	78.25
375.416	81.25
375.642	94.25
375.868	94.25
376.094	85.25
376.319	82.25
376.545	90.25
376.771	103.25
376.997	93.25
377.222	82.25
377.448	84.25
377.674	91.25
377.899	87.25
378.125	87.25
378.35	95.25
378.576	103.25
378.802	95.25
379.027	102.25
379.253	106.25
379.478	87.25
379.704	91.25
379.929	94.25
380.155	99.25
380.38	90.25
380.606	98.25
380.831	113.25
381.057	105.25
381.282	97.25
381.507	104.25
381.733	103.25
381.958	108.25
382.184	89.25
382.409	97.25
382.634	93.25
382.86	93.25
383.085	93.25
383.31	104.25
383.535	87.25
383.761	81.25
383.986	92.25
384.211	98.25
384.436	75.25
384.662	101.25
384.887	99.25
385.112	85.25
385.337	99.25
385.562	90.25
385.787	88.25
386.013	99.25
386.238	87.25
386.463	104.25
386.688	106.25
386.913	99.25
387.138	87.25
387.363	106.25
387.588	96.25
387.813	92.25
388.038	100.25
388.263	97.25
388.488	103.25
388.713	83.25
388.938	106.25
389.163	97.25
389.387	105.25
389.612	101.25
389.837	113.25
390.062	94.25
390.287	103.25
390.512	112.25
390.736	89.25
390.961	95.25
391.186	106.25
391.411	100.25
391.636	104.25
391.86	95.25
392.085	102.25
392.31	93.25
392.534	92.25
392.759	117.25
392.984	113.25
393.208	104.25
393.433	106.25
393.658	104.25
393.882	100.25
394.107	114.25
394.331	113.25
394.556	115.25
394.78	104.25
395.005	108.25
395.229	109.25
395.454	119.25
395.678	105.25
395.903	106.25
396.127	94.25
396.352	108.25
396.576	104.25
396.801	107.25
397.025	102.25
397.249	115.25
397.474	107.25
397.698	122.25
397.922	103.25
398.147	113.25
398.371	109.25
398.595	108.25
398.82	98.25
399.044	108.25
399.268	105.25
399.492	115.25
399.717	109.25
399.941	115.25
400.165	103.25
400.389	109.25
400.613	91.25
400.837	115.25
401.062	113.25
401.286	105.25
401.51	120.25
401.734	114.25
401.958	119.25
402.182	118.25
402.406	102.25
402.63	115.25
402.854	120.25
403.078	112.25
403.302	107.25
403.526	108.25
403.75	124.25
403.974	110.25
404.198	110.25
404.422	93.25
404.645	111.25
404.869	125.25
405.093	115.25
405.317	122.25
405.541	105.25
405.765	97.25
405.988	123.25
406.212	122.25
406.436	131.25
406.66	123.25
406.883	117.25
407.107	114.25
407.331	121.25
407.555	114.25
407.778	113.25
408.002	108.25
408.226	126.25
408.449	126.25
408.673	128.25
408.896	113.25
409.12	109.25
409.344	113.25
409.567	107.25
409.791	119.25
410.014	125.25
410.238	121.25
410.461	110.25
410.685	123.25
410.908	106.25
411.132	124.25
411.355	119.25
411.578	111.25
411.802	124.25
412.025	133.25
412.249	115.25
412.472	129.25
412.695	129.25
412.919	123.25
413.142	119.25
413.365	130.25
413.589	127.25
413.812	126.25
414.035	121.25
414.258	126.25
414.482	120.25
414.705	115.25
414.928	124.25
415.151	125.25
415.374	119.25
415.597	122.25
415.821	119.25
416.044	106.25
416.267	128.25
416.49	120.25
416.713	121.25
416.936	135.25
417.159	137.25
417.382	123.25
417.605	124.25
417.828	123.25
418.051	114.25
418.274	123.25
418.497	125.25
418.72	126.25
418.943	127.25
419.166	142.25
419.389	131.25
419.611	124.25
419.834	127.25
420.057	126.25
420.28	124.25
420.503	120.25
420.726	137.25
420.948	133.25
421.171	138.25
421.394	133.25
421.617	142.25
421.839	137.25
422.062	129.25
422.285	134.25
422.507	119.25
422.73	115.25
422.953	132.25
423.175	116.25
423.398	121.25
423.621	138.25
423.843	133.25
424.066	132.25
424.288	139.25
424.511	138.25
424.733	133.25
424.956	127.25
425.178	127.25
425.401	135.25
425.623	130.25
425.846	137.25
426.068	129.25
426.291	119.25
426.513	132.25
426.735	127.25
426.958	142.25
427.18	144.25
427.402	126.25
427.625	121.25
427.847	121.25
428.069	135.25
428.292	129.25
428.514	136.25
428.736	126.25
428.958	132.25
429.181	126.25
429.403	123.25
429.625	121.25
429.847	122.25
430.069	131.25
430.292	128.25
430.514	121.25
430.736	125.25
430.958	123.25
431.18	138.25
431.402	109.25
431.624	115.25
431.846	115.25
432.068	106.25
432.29	101.25
432.512	113.25
432.734	133.25
432.956	138.25
433.178	146.25
433.4	123.25
433.622	125.25
433.844	134.25
434.066	133.25
434.287	116.25
434.509	113.25
434.731	98.25
434.953	108.25
435.175	116.25
435.397	115.25
435.618	122.25
435.84	103.25
436.062	116.25
436.284	133.25
436.505	129.25
436.727	131.25
436.949	123.25
437.17	119.25
437.392	133.25
437.614	117.25
437.835	113.25
438.057	125.25
438.278	113.25
438.5	115.25
438.721	138.25
438.943	144.25
439.165	141.25
439.386	128.25
439.608	143.25
439.829	131.25
440.05	146.25
440.272	138.25
440.493	139.25
440.715	133.25
440.936	140.25
441.158	140.25
441.379	135.25
441.6	133.25
441.822	161.25
442.043	144.25
442.264	144.25
442.486	138.25
442.707	149.25
442.928	142.25
443.149	141.25
443.371	137.25
443.592	135.25
443.813	145.25
444.034	138.25
444.255	140.25
444.476	138.25
444.698	137.25
444.919	138.25
445.14	253.25
445.361	191.25
445.582	143.25
445.803	141.25
446.024	154.25
446.245	159.25
446.466	130.25
446.687	137.25
446.908	149.25
447.129	154.25
447.35	152.25
447.571	143.25
447.792	142.25
448.013	138.25
448.234	141.25
448.455	129.25
448.675	132.25
448.896	143.25
449.117	132.25
449.338	143.25
449.559	143.25
449.779	138.25
450	138.25
450.221	135.25
450.442	159.25
450.662	133.25
450.883	115.25
451.104	133.25
451.324	124.25
451.545	126.25
451.766	129.25
451.986	130.25
452.207	133.25
452.428	125.25
452.648	129.25
452.869	120.25
453.089	120.25
453.31	110.25
453.53	119.25
453.751	115.25
453.971	109.25
454.192	99.25
454.412	117.25
454.633	127.25
454.853	123.25
455.073	132.25
455.294	124.25
455.514	127.25
455.734	119.25
455.955	118.25
456.175	118.25
456.395	110.25
456.616	117.25
456.836	107.25
457.056	121.25
457.276	93.25
457.497	99.25
457.717	117.25
457.937	103.25
458.157	108.25
458.377	120.25
458.598	114.25
458.818	112.25
459.038	89.25
459.258	90.25
459.478	89.25
459.698	92.25
459.918	87.25
460.138	117.25
460.358	111.25
460.578	108.25
460.798	100.25
461.018	127.25
461.238	123.25
461.458	117.25
461.678	118.25
461.898	107.25
462.118	107.25
462.338	100.25
462.558	119.25
462.777	93.25
462.997	111.25
463.217	117.25
463.437	129.25
463.657	118.25
463.876	103.25
464.096	106.25
464.316	103.25
464.536	115.25
464.755	121.25
464.975	119.25
465.195	124.25
465.414	121.25
465.634	111.25
465.854	113.25
466.073	108.25
466.293	115.25
466.512	126.25
466.732	135.25
466.951	146.25
467.171	129.25
467.391	129.25
467.61	128.25
467.829	133.25
468.049	139.25
468.268	133.25
468.488	132.25
468.707	121.25
468.927	141.25
469.146	143.25
469.365	133.25
469.585	141.25
469.804	138.25
470.023	149.25
470.243	129.25
470.462	141.25
470.681	141.25
470.901	144.25
471.12	135.25
471.339	142.25
471.558	147.25
471.777	133.25
471.997	121.25
472.216	134.25
472.435	108.25
472.654	113.25
472.873	105.25
473.092	113.25
473.311	128.25
473.53	130.25
473.749	133.25
473.968	139.25
474.187	128.25
474.406	117.25
474.625	125.25
474.844	132.25
475.063	134.25
475.282	125.25
475.501	141.25
475.72	121.25
475.939	111.25
476.158	121.25
476.377	123.25
476.596	119.25
476.814	107.25
477.033	115.25
477.252	122.25
477.471	145.25
477.69	131.25
477.908	125.25
478.127	145.25
478.346	137.25
478.564	153.25
478.783	128.25
479.002	135.25
479.22	141.25
479.439	139.25
479.658	125.25
479.876	122.25
480.095	115.25
480.313	107.25
480.532	123.25
480.751	111.25
480.969	88.25
481.188	85.25
481.406	87.25
481.624	88.25
481.843	83.25
482.061	114.25
482.28	114.25
482.498	109.25
482.717	104.25
482.935	118.25
483.153	146.25
483.372	143.25
483.59	141.25
483.808	132.25
484.027	138.25
484.245	134.25
484.463	145.25
484.681	165.25
484.9	136.25
485.118	120.25
485.336	122.25
485.554	114.25
485.772	103.25
485.99	101.25
486.209	107.25
486.427	116.25
486.645	119.25
486.863	132.25
487.081	153.25
487.299	133.25
487.517	147.25
487.735	155.25
487.953	197.25
488.171	183.25
488.389	167.25
488.607	156.25
488.825	149.25
489.043	132.25
489.261	136.25
489.479	129.25
489.696	142.25
489.914	137.25
490.132	142.25
490.35	145.25
490.568	163.25
490.786	165.25
491.003	165.25
491.221	178.25
491.439	198.25
491.657	189.25
491.874	223.25
492.092	212.25
492.31	231.25
492.527	228.25
492.745	204.25
492.963	199.25
493.18	191.25
493.398	186.25
493.615	173.25
493.833	191.25
494.05	163.25
494.268	177.25
494.485	161.25
494.703	162.25
494.92	166.25
495.138	168.25
495.355	163.25
495.573	164.25
495.79	153.25
496.008	178.25
496.225	161.25
496.442	174.25
496.66	159.25
496.877	170.25
497.094	170.25
497.312	168.25
497.529	169.25
497.746	156.25
497.963	130.25
498.181	153.25
498.398	124.25
498.615	112.25
498.832	104.25
499.049	116.25
499.267	122.25
499.484	128.25
499.701	134.25
499.918	141.25
500.135	159.25
500.352	145.25
500.569	153.25
500.786	128.25
501.003	133.25
501.22	142.25
501.437	149.25
501.654	143.25
501.871	133.25
502.088	119.25
502.305	141.25
502.522	129.25
502.739	133.25
502.956	141.25
503.172	129.25
503.389	117.25
503.606	130.25
503.823	120.25
504.04	118.25
504.256	125.25
504.473	127.25
504.69	123.25
504.907	137.25
505.123	118.25
505.34	128.25
505.557	99.25
505.773	125.25
505.99	127.25
506.207	124.25
506.423	117.25
506.64	124.25
506.856	115.25
507.073	125.25
507.289	124.25
507.506	122.25
507.722	115.25
507.939	118.25
508.155	126.25
508.372	99.25
508.588	121.25
508.805	103.25
509.021	104.25
509.238	109.25
509.454	103.25
509.67	103.25
509.887	100.25
510.103	98.25
510.319	93.25
510.536	94.25
510.752	92.25
510.968	90.25
511.184	97.25
511.401	83.25
511.617	102.25
