Data from Location2.07152019.Energy5.Lamp.07192019.3%Agarose_HRD10591_14-58-33-359.txt Node
Date: Fri Jul 19 14:58:33 EDT 2019
User: cochatt
Spectrometer: HR+D1059
Trigger mode: 1
Integration Time (sec): 1.000000E-1
Scans to average: 1
Electric dark correction enabled: true
Nonlinearity correction enabled: false
Boxcar width: 0
XAxis mode: Wavelengths
Number of Pixels in Spectrum: 2048
>>>>>Begin Spectral Data<<<<<
223.165	-23.25
223.4	-23.25
223.635	-23.25
223.869	-25.25
224.104	-15.25
224.338	-20.25
224.573	-32.25
224.808	-14.25
225.042	-7.25
225.277	-0.25
225.511	-0.25
225.746	7.75
225.98	5.75
226.215	14.75
226.449	25.75
226.683	23.75
226.918	29.75
227.152	30.75
227.387	23.75
227.621	34.75
227.856	29.75
228.09	47.75
228.324	47.75
228.559	46.75
228.793	60.75
229.027	63.75
229.262	60.75
229.496	67.75
229.73	53.75
229.964	72.75
230.199	66.75
230.433	76.75
230.667	65.75
230.901	79.75
231.136	72.75
231.37	81.75
231.604	82.75
231.838	86.75
232.072	75.75
232.306	82.75
232.541	64.75
232.775	82.75
233.009	96.75
233.243	85.75
233.477	81.75
233.711	79.75
233.945	87.75
234.179	82.75
234.413	76.75
234.647	73.75
234.881	71.75
235.115	67.75
235.349	82.75
235.583	75.75
235.817	87.75
236.051	90.75
236.285	86.75
236.519	69.75
236.753	86.75
236.987	79.75
237.221	66.75
237.455	74.75
237.689	93.75
237.922	72.75
238.156	65.75
238.39	78.75
238.624	78.75
238.858	71.75
239.091	67.75
239.325	65.75
239.559	72.75
239.793	75.75
240.027	81.75
240.26	82.75
240.494	80.75
240.728	67.75
240.961	69.75
241.195	71.75
241.429	74.75
241.662	62.75
241.896	83.75
242.13	79.75
242.363	70.75
242.597	64.75
242.83	72.75
243.064	72.75
243.298	83.75
243.531	76.75
243.765	73.75
243.998	66.75
244.232	83.75
244.465	89.75
244.699	75.75
244.932	83.75
245.166	81.75
245.399	86.75
245.633	76.75
245.866	91.75
246.099	73.75
246.333	86.75
246.566	77.75
246.8	72.75
247.033	82.75
247.266	75.75
247.5	83.75
247.733	78.75
247.966	74.75
248.2	87.75
248.433	90.75
248.666	77.75
248.899	76.75
249.133	75.75
249.366	89.75
249.599	81.75
249.832	76.75
250.066	83.75
250.299	66.75
250.532	81.75
250.765	69.75
250.998	83.75
251.231	71.75
251.465	77.75
251.698	66.75
251.931	73.75
252.164	82.75
252.397	98.75
252.63	82.75
252.863	74.75
253.096	83.75
253.329	69.75
253.562	86.75
253.795	76.75
254.028	91.75
254.261	87.75
254.494	82.75
254.727	98.75
254.96	79.75
255.193	73.75
255.426	75.75
255.659	74.75
255.892	71.75
256.124	74.75
256.357	67.75
256.59	71.75
256.823	70.75
257.056	81.75
257.289	63.75
257.521	70.75
257.754	75.75
257.987	72.75
258.22	87.75
258.452	80.75
258.685	77.75
258.918	80.75
259.151	86.75
259.383	69.75
259.616	69.75
259.849	62.75
260.081	87.75
260.314	87.75
260.547	65.75
260.779	74.75
261.012	77.75
261.244	80.75
261.477	61.75
261.71	72.75
261.942	79.75
262.175	89.75
262.407	81.75
262.64	75.75
262.872	75.75
263.105	71.75
263.337	83.75
263.57	80.75
263.802	83.75
264.035	71.75
264.267	73.75
264.499	91.75
264.732	76.75
264.964	86.75
265.197	85.75
265.429	70.75
265.661	82.75
265.894	82.75
266.126	90.75
266.358	96.75
266.591	81.75
266.823	77.75
267.055	79.75
267.287	71.75
267.52	86.75
267.752	73.75
267.984	88.75
268.216	97.75
268.448	85.75
268.681	86.75
268.913	80.75
269.145	75.75
269.377	91.75
269.609	81.75
269.841	87.75
270.073	70.75
270.306	103.75
270.538	83.75
270.77	92.75
271.002	91.75
271.234	81.75
271.466	81.75
271.698	98.75
271.93	74.75
272.162	82.75
272.394	71.75
272.626	94.75
272.858	82.75
273.09	80.75
273.322	98.75
273.553	70.75
273.785	81.75
274.017	76.75
274.249	83.75
274.481	78.75
274.713	83.75
274.945	92.75
275.176	80.75
275.408	72.75
275.64	94.75
275.872	85.75
276.104	73.75
276.335	74.75
276.567	84.75
276.799	74.75
277.031	87.75
277.262	87.75
277.494	84.75
277.726	93.75
277.957	69.75
278.189	88.75
278.421	83.75
278.652	80.75
278.884	78.75
279.115	84.75
279.347	89.75
279.579	81.75
279.81	73.75
280.042	84.75
280.273	87.75
280.505	85.75
280.736	87.75
280.968	95.75
281.199	78.75
281.431	76.75
281.662	85.75
281.894	81.75
282.125	75.75
282.356	78.75
282.588	87.75
282.819	84.75
283.051	84.75
283.282	83.75
283.513	82.75
283.745	85.75
283.976	74.75
284.207	85.75
284.439	79.75
284.67	97.75
284.901	105.75
285.132	81.75
285.364	88.75
285.595	83.75
285.826	78.75
286.057	85.75
286.288	94.75
286.52	79.75
286.751	83.75
286.982	85.75
287.213	81.75
287.444	88.75
287.675	80.75
287.906	79.75
288.138	81.75
288.369	79.75
288.6	73.75
288.831	73.75
289.062	99.75
289.293	69.75
289.524	80.75
289.755	83.75
289.986	84.75
290.217	87.75
290.448	74.75
290.679	92.75
290.91	85.75
291.141	70.75
291.371	76.75
291.602	86.75
291.833	67.75
292.064	80.75
292.295	90.75
292.526	85.75
292.757	82.75
292.987	84.75
293.218	84.75
293.449	87.75
293.68	85.75
293.91	66.75
294.141	81.75
294.372	81.75
294.603	78.75
294.833	77.75
295.064	83.75
295.295	92.75
295.525	90.75
295.756	93.75
295.987	92.75
296.217	73.75
296.448	90.75
296.679	87.75
296.909	80.75
297.14	82.75
297.37	81.75
297.601	84.75
297.831	94.75
298.062	89.75
298.292	79.75
298.523	84.75
298.753	78.75
298.984	86.75
299.214	78.75
299.445	88.75
299.675	74.75
299.905	76.75
300.136	79.75
300.366	81.75
300.597	81.75
300.827	81.75
301.057	74.75
301.288	77.75
301.518	79.75
301.748	91.75
301.979	81.75
302.209	97.75
302.439	89.75
302.669	82.75
302.9	83.75
303.13	81.75
303.36	75.75
303.59	77.75
303.82	87.75
304.051	67.75
304.281	84.75
304.511	73.75
304.741	86.75
304.971	86.75
305.201	86.75
305.431	98.75
305.661	85.75
305.891	78.75
306.121	78.75
306.352	72.75
306.582	77.75
306.812	85.75
307.042	89.75
307.272	90.75
307.502	77.75
307.731	80.75
307.961	90.75
308.191	70.75
308.421	90.75
308.651	75.75
308.881	73.75
309.111	74.75
309.341	91.75
309.571	79.75
309.8	96.75
310.03	81.75
310.26	81.75
310.49	80.75
310.72	78.75
310.949	88.75
311.179	83.75
311.409	74.75
311.639	69.75
311.868	74.75
312.098	74.75
312.328	80.75
312.557	93.75
312.787	91.75
313.017	90.75
313.246	91.75
313.476	85.75
313.706	79.75
313.935	91.75
314.165	79.75
314.394	68.75
314.624	90.75
314.853	90.75
315.083	71.75
315.312	80.75
315.542	83.75
315.771	90.75
316.001	84.75
316.23	85.75
316.46	81.75
316.689	78.75
316.919	84.75
317.148	73.75
317.377	81.75
317.607	73.75
317.836	77.75
318.065	88.75
318.295	94.75
318.524	86.75
318.753	79.75
318.983	95.75
319.212	86.75
319.441	90.75
319.67	90.75
319.9	94.75
320.129	83.75
320.358	80.75
320.587	83.75
320.816	87.75
321.046	87.75
321.275	100.75
321.504	73.75
321.733	71.75
321.962	76.75
322.191	85.75
322.42	88.75
322.649	84.75
322.878	80.75
323.108	79.75
323.337	89.75
323.566	92.75
323.795	90.75
324.024	80.75
324.253	62.75
324.482	89.75
324.71	93.75
324.939	95.75
325.168	85.75
325.397	93.75
325.626	87.75
325.855	84.75
326.084	83.75
326.313	75.75
326.542	83.75
326.77	91.75
326.999	95.75
327.228	85.75
327.457	89.75
327.686	89.75
327.914	77.75
328.143	87.75
328.372	72.75
328.6	78.75
328.829	78.75
329.058	84.75
329.287	76.75
329.515	84.75
329.744	82.75
329.972	99.75
330.201	98.75
330.43	93.75
330.658	77.75
330.887	87.75
331.115	88.75
331.344	100.75
331.572	88.75
331.801	81.75
332.03	75.75
332.258	75.75
332.486	89.75
332.715	94.75
332.943	89.75
333.172	88.75
333.4	83.75
333.629	71.75
333.857	63.75
334.085	89.75
334.314	79.75
334.542	67.75
334.771	69.75
334.999	87.75
335.227	84.75
335.455	81.75
335.684	70.75
335.912	74.75
336.14	74.75
336.369	89.75
336.597	85.75
336.825	94.75
337.053	75.75
337.281	74.75
337.51	90.75
337.738	87.75
337.966	87.75
338.194	80.75
338.422	75.75
338.65	88.75
338.878	75.75
339.106	93.75
339.334	90.75
339.562	84.75
339.79	76.75
340.018	73.75
340.246	72.75
340.474	84.75
340.702	80.75
340.93	87.75
341.158	100.75
341.386	78.75
341.614	80.75
341.842	78.75
342.07	79.75
342.298	84.75
342.526	85.75
342.754	81.75
342.981	95.75
343.209	90.75
343.437	84.75
343.665	81.75
343.893	89.75
344.12	93.75
344.348	101.75
344.576	75.75
344.804	77.75
345.031	84.75
345.259	77.75
345.487	89.75
345.714	86.75
345.942	73.75
346.17	94.75
346.397	85.75
346.625	80.75
346.853	77.75
347.08	76.75
347.308	81.75
347.535	74.75
347.763	79.75
347.99	85.75
348.218	81.75
348.445	78.75
348.673	90.75
348.9	90.75
349.128	67.75
349.355	83.75
349.583	83.75
349.81	86.75
350.037	77.75
350.265	86.75
350.492	73.75
350.72	73.75
350.947	74.75
351.174	82.75
351.402	90.75
351.629	80.75
351.856	74.75
352.083	89.75
352.311	82.75
352.538	93.75
352.765	95.75
352.992	84.75
353.22	98.75
353.447	88.75
353.674	79.75
353.901	74.75
354.128	66.75
354.355	78.75
354.583	86.75
354.81	90.75
355.037	92.75
355.264	85.75
355.491	83.75
355.718	90.75
355.945	73.75
356.172	81.75
356.399	78.75
356.626	72.75
356.853	82.75
357.08	73.75
357.307	86.75
357.534	80.75
357.761	72.75
357.988	67.75
358.215	78.75
358.441	75.75
358.668	91.75
358.895	90.75
359.122	77.75
359.349	76.75
359.576	81.75
359.802	93.75
360.029	89.75
360.256	72.75
360.483	88.75
360.709	82.75
360.936	84.75
361.163	82.75
361.39	80.75
361.616	79.75
361.843	76.75
362.07	87.75
362.296	85.75
362.523	85.75
362.749	70.75
362.976	89.75
363.203	75.75
363.429	90.75
363.656	80.75
363.882	81.75
364.109	86.75
364.335	69.75
364.562	77.75
364.788	61.75
365.015	86.75
365.241	77.75
365.468	83.75
365.694	82.75
365.92	78.75
366.147	75.75
366.373	74.75
366.599	89.75
366.826	78.75
367.052	85.75
367.278	74.75
367.505	87.75
367.731	84.75
367.957	76.75
368.184	83.75
368.41	104.75
368.636	93.75
368.862	93.75
369.089	93.75
369.315	87.75
369.541	87.75
369.767	97.75
369.993	78.75
370.219	88.75
370.445	80.75
370.672	98.75
370.898	97.75
371.124	98.75
371.35	81.75
371.576	92.75
371.802	86.75
372.028	100.75
372.254	94.75
372.48	88.75
372.706	86.75
372.932	88.75
373.158	78.75
373.384	80.75
373.61	93.75
373.835	90.75
374.061	84.75
374.287	96.75
374.513	80.75
374.739	93.75
374.965	100.75
375.191	81.75
375.416	103.75
375.642	92.75
375.868	100.75
376.094	84.75
376.319	88.75
376.545	87.75
376.771	97.75
376.997	101.75
377.222	101.75
377.448	98.75
377.674	92.75
377.899	87.75
378.125	95.75
378.35	87.75
378.576	103.75
378.802	98.75
379.027	81.75
379.253	105.75
379.478	90.75
379.704	90.75
379.929	99.75
380.155	76.75
380.38	104.75
380.606	104.75
380.831	105.75
381.057	96.75
381.282	87.75
381.507	90.75
381.733	101.75
381.958	102.75
382.184	88.75
382.409	104.75
382.634	101.75
382.86	89.75
383.085	89.75
383.31	87.75
383.535	98.75
383.761	87.75
383.986	96.75
384.211	94.75
384.436	86.75
384.662	90.75
384.887	98.75
385.112	103.75
385.337	99.75
385.562	94.75
385.787	81.75
386.013	106.75
386.238	107.75
386.463	101.75
386.688	90.75
386.913	89.75
387.138	106.75
387.363	97.75
387.588	92.75
387.813	101.75
388.038	106.75
388.263	88.75
388.488	98.75
388.713	90.75
388.938	89.75
389.163	106.75
389.387	69.75
389.612	90.75
389.837	95.75
390.062	114.75
390.287	105.75
390.512	97.75
390.736	98.75
390.961	118.75
391.186	95.75
391.411	111.75
391.636	97.75
391.86	95.75
392.085	111.75
392.31	97.75
392.534	86.75
392.759	95.75
392.984	109.75
393.208	97.75
393.433	89.75
393.658	85.75
393.882	98.75
394.107	99.75
394.331	96.75
394.556	122.75
394.78	95.75
395.005	122.75
395.229	99.75
395.454	100.75
395.678	114.75
395.903	91.75
396.127	106.75
396.352	113.75
396.576	100.75
396.801	102.75
397.025	103.75
397.249	114.75
397.474	106.75
397.698	118.75
397.922	101.75
398.147	109.75
398.371	91.75
398.595	111.75
398.82	110.75
399.044	104.75
399.268	105.75
399.492	118.75
399.717	110.75
399.941	114.75
400.165	109.75
400.389	106.75
400.613	127.75
400.837	108.75
401.062	101.75
401.286	109.75
401.51	102.75
401.734	100.75
401.958	111.75
402.182	93.75
402.406	100.75
402.63	114.75
402.854	100.75
403.078	105.75
403.302	115.75
403.526	88.75
403.75	120.75
403.974	100.75
404.198	118.75
404.422	115.75
404.645	113.75
404.869	109.75
405.093	128.75
405.317	128.75
405.541	121.75
405.765	120.75
405.988	115.75
406.212	111.75
406.436	110.75
406.66	113.75
406.883	116.75
407.107	110.75
407.331	116.75
407.555	132.75
407.778	119.75
408.002	122.75
408.226	121.75
408.449	120.75
408.673	117.75
408.896	102.75
409.12	97.75
409.344	114.75
409.567	107.75
409.791	121.75
410.014	118.75
410.238	126.75
410.461	127.75
410.685	122.75
410.908	105.75
411.132	117.75
411.355	113.75
411.578	110.75
411.802	123.75
412.025	109.75
412.249	115.75
412.472	121.75
412.695	130.75
412.919	127.75
413.142	126.75
413.365	119.75
413.589	105.75
413.812	102.75
414.035	134.75
414.258	109.75
414.482	122.75
414.705	114.75
414.928	121.75
415.151	122.75
415.374	107.75
415.597	121.75
415.821	114.75
416.044	111.75
416.267	120.75
416.49	118.75
416.713	143.75
416.936	121.75
417.159	118.75
417.382	125.75
417.605	113.75
417.828	125.75
418.051	123.75
418.274	131.75
418.497	140.75
418.72	118.75
418.943	129.75
419.166	130.75
419.389	135.75
419.611	138.75
419.834	132.75
420.057	125.75
420.28	119.75
420.503	110.75
420.726	109.75
420.948	125.75
421.171	122.75
421.394	135.75
421.617	143.75
421.839	131.75
422.062	121.75
422.285	133.75
422.507	122.75
422.73	115.75
422.953	125.75
423.175	120.75
423.398	117.75
423.621	129.75
423.843	129.75
424.066	136.75
424.288	128.75
424.511	132.75
424.733	126.75
424.956	137.75
425.178	139.75
425.401	132.75
425.623	125.75
425.846	142.75
426.068	138.75
426.291	121.75
426.513	149.75
426.735	126.75
426.958	116.75
427.18	130.75
427.402	139.75
427.625	126.75
427.847	127.75
428.069	125.75
428.292	134.75
428.514	125.75
428.736	125.75
428.958	134.75
429.181	113.75
429.403	122.75
429.625	139.75
429.847	130.75
430.069	130.75
430.292	140.75
430.514	113.75
430.736	127.75
430.958	130.75
431.18	125.75
431.402	115.75
431.624	126.75
431.846	119.75
432.068	103.75
432.29	95.75
432.512	111.75
432.734	121.75
432.956	119.75
433.178	137.75
433.4	129.75
433.622	134.75
433.844	128.75
434.066	126.75
434.287	92.75
434.509	99.75
434.731	91.75
434.953	103.75
435.175	119.75
435.397	126.75
435.618	114.75
435.84	123.75
436.062	101.75
436.284	123.75
436.505	127.75
436.727	127.75
436.949	118.75
437.17	126.75
437.392	130.75
437.614	125.75
437.835	101.75
438.057	102.75
438.278	113.75
438.5	129.75
438.721	125.75
438.943	137.75
439.165	139.75
439.386	144.75
439.608	153.75
439.829	143.75
440.05	143.75
440.272	140.75
440.493	145.75
440.715	167.75
440.936	150.75
441.158	144.75
441.379	138.75
441.6	150.75
441.822	141.75
442.043	144.75
442.264	153.75
442.486	139.75
442.707	158.75
442.928	143.75
443.149	129.75
443.371	150.75
443.592	138.75
443.813	127.75
444.034	141.75
444.255	140.75
444.476	135.75
444.698	146.75
444.919	132.75
445.14	250.75
445.361	184.75
445.582	138.75
445.803	137.75
446.024	149.75
446.245	132.75
446.466	139.75
446.687	155.75
446.908	161.75
447.129	161.75
447.35	147.75
447.571	139.75
447.792	134.75
448.013	139.75
448.234	130.75
448.455	133.75
448.675	136.75
448.896	125.75
449.117	144.75
449.338	129.75
449.559	146.75
449.779	131.75
450	142.75
450.221	148.75
450.442	145.75
450.662	141.75
450.883	108.75
451.104	126.75
451.324	126.75
451.545	123.75
451.766	140.75
451.986	127.75
452.207	131.75
452.428	126.75
452.648	128.75
452.869	122.75
453.089	126.75
453.31	104.75
453.53	95.75
453.751	104.75
453.971	102.75
454.192	116.75
454.412	121.75
454.633	125.75
454.853	119.75
455.073	130.75
455.294	126.75
455.514	121.75
455.734	117.75
455.955	111.75
456.175	95.75
456.395	116.75
456.616	106.75
456.836	99.75
457.056	113.75
457.276	105.75
457.497	100.75
457.717	111.75
457.937	104.75
458.157	123.75
458.377	102.75
458.598	99.75
458.818	102.75
459.038	86.75
459.258	99.75
459.478	80.75
459.698	87.75
459.918	98.75
460.138	97.75
460.358	111.75
460.578	109.75
460.798	109.75
461.018	115.75
461.238	120.75
461.458	119.75
461.678	111.75
461.898	113.75
462.118	114.75
462.338	117.75
462.558	117.75
462.777	105.75
462.997	118.75
463.217	121.75
463.437	103.75
463.657	107.75
463.876	122.75
464.096	112.75
464.316	105.75
464.536	110.75
464.755	120.75
464.975	109.75
465.195	131.75
465.414	118.75
465.634	130.75
465.854	116.75
466.073	128.75
466.293	129.75
466.512	122.75
466.732	131.75
466.951	129.75
467.171	144.75
467.391	123.75
467.61	130.75
467.829	135.75
468.049	123.75
468.268	129.75
468.488	133.75
468.707	134.75
468.927	137.75
469.146	140.75
469.365	139.75
469.585	157.75
469.804	129.75
470.023	150.75
470.243	143.75
470.462	135.75
470.681	144.75
470.901	137.75
471.12	136.75
471.339	134.75
471.558	138.75
471.777	157.75
471.997	138.75
472.216	134.75
472.435	125.75
472.654	115.75
472.873	100.75
473.092	121.75
473.311	132.75
473.53	118.75
473.749	134.75
473.968	116.75
474.187	120.75
474.406	106.75
474.625	138.75
474.844	133.75
475.063	133.75
475.282	116.75
475.501	117.75
475.72	121.75
475.939	124.75
476.158	119.75
476.377	121.75
476.596	125.75
476.814	117.75
477.033	111.75
477.252	98.75
477.471	118.75
477.69	136.75
477.908	131.75
478.127	142.75
478.346	136.75
478.564	123.75
478.783	137.75
479.002	133.75
479.22	130.75
479.439	121.75
479.658	120.75
479.876	120.75
480.095	106.75
480.313	129.75
480.532	113.75
480.751	100.75
480.969	104.75
481.188	85.75
481.406	89.75
481.624	84.75
481.843	83.75
482.061	97.75
482.28	118.75
482.498	118.75
482.717	120.75
482.935	110.75
483.153	144.75
483.372	159.75
483.59	146.75
483.808	143.75
484.027	146.75
484.245	147.75
484.463	148.75
484.681	139.75
484.9	152.75
485.118	129.75
485.336	127.75
485.554	114.75
485.772	107.75
485.99	95.75
486.209	128.75
486.427	109.75
486.645	109.75
486.863	147.75
487.081	154.75
487.299	139.75
487.517	133.75
487.735	155.75
487.953	164.75
488.171	164.75
488.389	158.75
488.607	154.75
488.825	150.75
489.043	136.75
489.261	132.75
489.479	131.75
489.696	125.75
489.914	130.75
490.132	141.75
490.35	144.75
490.568	151.75
490.786	162.75
491.003	173.75
491.221	166.75
491.439	181.75
491.657	201.75
491.874	212.75
492.092	208.75
492.31	234.75
492.527	227.75
492.745	194.75
492.963	195.75
493.18	167.75
493.398	191.75
493.615	179.75
493.833	187.75
494.05	165.75
494.268	161.75
494.485	181.75
494.703	175.75
494.92	166.75
495.138	151.75
495.355	181.75
495.573	175.75
495.79	174.75
496.008	155.75
496.225	173.75
496.442	161.75
496.66	165.75
496.877	158.75
497.094	167.75
497.312	165.75
497.529	158.75
497.746	135.75
497.963	154.75
498.181	123.75
498.398	134.75
498.615	100.75
498.832	112.75
499.049	131.75
499.267	133.75
499.484	116.75
499.701	129.75
499.918	118.75
500.135	142.75
500.352	139.75
500.569	150.75
500.786	151.75
501.003	135.75
501.22	152.75
501.437	136.75
501.654	137.75
501.871	128.75
502.088	135.75
502.305	122.75
502.522	116.75
502.739	126.75
502.956	121.75
503.172	130.75
503.389	125.75
503.606	133.75
503.823	111.75
504.04	117.75
504.256	133.75
504.473	114.75
504.69	122.75
504.907	132.75
505.123	117.75
505.34	109.75
505.557	119.75
505.773	123.75
505.99	114.75
506.207	120.75
506.423	118.75
506.64	121.75
506.856	104.75
507.073	110.75
507.289	122.75
507.506	127.75
507.722	124.75
507.939	134.75
508.155	114.75
508.372	116.75
508.588	105.75
508.805	118.75
509.021	105.75
509.238	116.75
509.454	101.75
509.67	104.75
509.887	96.75
510.103	89.75
510.319	109.75
510.536	92.75
510.752	92.75
510.968	89.75
511.184	78.75
511.401	84.75
511.617	88.75
511.833	80.75
