Data from Location2.07152019.Energy5.Lamp.07192019.3%Agarose_HRD10591_14-55-58-358.txt Node
Date: Fri Jul 19 14:55:58 EDT 2019
User: cochatt
Spectrometer: HR+D1059
Trigger mode: 1
Integration Time (sec): 1.000000E-1
Scans to average: 1
Electric dark correction enabled: true
Nonlinearity correction enabled: false
Boxcar width: 0
XAxis mode: Wavelengths
Number of Pixels in Spectrum: 2048
>>>>>Begin Spectral Data<<<<<
223.165	-0.88
223.4	-0.88
223.635	-0.88
223.869	-9.88
224.104	-8.88
224.338	-26.88
224.573	-17.88
224.808	1.12
225.042	-0.88
225.277	-5.88
225.511	-8.88
225.746	-3.88
225.98	-0.88
226.215	4.12
226.449	22.12
226.683	17.12
226.918	17.12
227.152	23.12
227.387	32.12
227.621	32.12
227.856	43.12
228.09	63.12
228.324	54.12
228.559	51.12
228.793	69.12
229.027	64.12
229.262	54.12
229.496	68.12
229.73	68.12
229.964	67.12
230.199	81.12
230.433	66.12
230.667	74.12
230.901	73.12
231.136	70.12
231.37	66.12
231.604	70.12
231.838	83.12
232.072	75.12
232.306	77.12
232.541	77.12
232.775	89.12
233.009	75.12
233.243	69.12
233.477	87.12
233.711	75.12
233.945	63.12
234.179	85.12
234.413	84.12
234.647	105.12
234.881	78.12
235.115	74.12
235.349	72.12
235.583	88.12
235.817	72.12
236.051	84.12
236.285	79.12
236.519	82.12
236.753	92.12
236.987	70.12
237.221	80.12
237.455	76.12
237.689	76.12
237.922	64.12
238.156	68.12
238.39	78.12
238.624	66.12
238.858	83.12
239.091	71.12
239.325	79.12
239.559	63.12
239.793	79.12
240.027	75.12
240.26	82.12
240.494	86.12
240.728	73.12
240.961	75.12
241.195	67.12
241.429	73.12
241.662	78.12
241.896	71.12
242.13	71.12
242.363	69.12
242.597	69.12
242.83	70.12
243.064	73.12
243.298	82.12
243.531	59.12
243.765	83.12
243.998	66.12
244.232	72.12
244.465	83.12
244.699	88.12
244.932	82.12
245.166	70.12
245.399	72.12
245.633	89.12
245.866	72.12
246.099	84.12
246.333	85.12
246.566	76.12
246.8	96.12
247.033	83.12
247.266	75.12
247.5	74.12
247.733	78.12
247.966	64.12
248.2	78.12
248.433	76.12
248.666	60.12
248.899	83.12
249.133	75.12
249.366	69.12
249.599	76.12
249.832	80.12
250.066	92.12
250.299	73.12
250.532	75.12
250.765	86.12
250.998	78.12
251.231	66.12
251.465	65.12
251.698	89.12
251.931	90.12
252.164	81.12
252.397	76.12
252.63	76.12
252.863	71.12
253.096	74.12
253.329	80.12
253.562	83.12
253.795	82.12
254.028	91.12
254.261	75.12
254.494	65.12
254.727	86.12
254.96	75.12
255.193	73.12
255.426	66.12
255.659	84.12
255.892	84.12
256.124	84.12
256.357	87.12
256.59	70.12
256.823	69.12
257.056	92.12
257.289	79.12
257.521	81.12
257.754	71.12
257.987	75.12
258.22	100.12
258.452	84.12
258.685	80.12
258.918	81.12
259.151	66.12
259.383	74.12
259.616	74.12
259.849	80.12
260.081	84.12
260.314	84.12
260.547	80.12
260.779	87.12
261.012	83.12
261.244	75.12
261.477	65.12
261.71	78.12
261.942	84.12
262.175	84.12
262.407	72.12
262.64	89.12
262.872	73.12
263.105	73.12
263.337	80.12
263.57	76.12
263.802	83.12
264.035	83.12
264.267	78.12
264.499	72.12
264.732	76.12
264.964	90.12
265.197	79.12
265.429	84.12
265.661	71.12
265.894	67.12
266.126	92.12
266.358	74.12
266.591	85.12
266.823	90.12
267.055	81.12
267.287	88.12
267.52	83.12
267.752	87.12
267.984	68.12
268.216	84.12
268.448	87.12
268.681	81.12
268.913	96.12
269.145	85.12
269.377	87.12
269.609	88.12
269.841	86.12
270.073	80.12
270.306	84.12
270.538	80.12
270.77	99.12
271.002	89.12
271.234	85.12
271.466	92.12
271.698	78.12
271.93	73.12
272.162	89.12
272.394	86.12
272.626	86.12
272.858	73.12
273.09	68.12
273.322	89.12
273.553	75.12
273.785	88.12
274.017	87.12
274.249	83.12
274.481	81.12
274.713	75.12
274.945	101.12
275.176	77.12
275.408	87.12
275.64	86.12
275.872	83.12
276.104	81.12
276.335	84.12
276.567	82.12
276.799	71.12
277.031	81.12
277.262	81.12
277.494	74.12
277.726	84.12
277.957	97.12
278.189	87.12
278.421	89.12
278.652	91.12
278.884	89.12
279.115	86.12
279.347	76.12
279.579	99.12
279.81	81.12
280.042	80.12
280.273	89.12
280.505	87.12
280.736	72.12
280.968	88.12
281.199	90.12
281.431	72.12
281.662	99.12
281.894	75.12
282.125	83.12
282.356	89.12
282.588	87.12
282.819	91.12
283.051	81.12
283.282	79.12
283.513	90.12
283.745	89.12
283.976	72.12
284.207	77.12
284.439	79.12
284.67	65.12
284.901	82.12
285.132	77.12
285.364	80.12
285.595	91.12
285.826	82.12
286.057	82.12
286.288	84.12
286.52	89.12
286.751	82.12
286.982	86.12
287.213	76.12
287.444	90.12
287.675	87.12
287.906	83.12
288.138	80.12
288.369	92.12
288.6	81.12
288.831	79.12
289.062	85.12
289.293	88.12
289.524	89.12
289.755	80.12
289.986	79.12
290.217	97.12
290.448	95.12
290.679	69.12
290.91	73.12
291.141	86.12
291.371	83.12
291.602	73.12
291.833	85.12
292.064	80.12
292.295	88.12
292.526	88.12
292.757	90.12
292.987	93.12
293.218	70.12
293.449	81.12
293.68	75.12
293.91	83.12
294.141	92.12
294.372	88.12
294.603	92.12
294.833	92.12
295.064	83.12
295.295	79.12
295.525	89.12
295.756	95.12
295.987	95.12
296.217	94.12
296.448	82.12
296.679	91.12
296.909	85.12
297.14	85.12
297.37	78.12
297.601	85.12
297.831	85.12
298.062	77.12
298.292	86.12
298.523	88.12
298.753	81.12
298.984	76.12
299.214	78.12
299.445	80.12
299.675	72.12
299.905	70.12
300.136	93.12
300.366	90.12
300.597	88.12
300.827	75.12
301.057	69.12
301.288	83.12
301.518	96.12
301.748	84.12
301.979	76.12
302.209	84.12
302.439	87.12
302.669	81.12
302.9	78.12
303.13	77.12
303.36	89.12
303.59	84.12
303.82	67.12
304.051	82.12
304.281	93.12
304.511	77.12
304.741	87.12
304.971	75.12
305.201	87.12
305.431	81.12
305.661	83.12
305.891	81.12
306.121	80.12
306.352	83.12
306.582	83.12
306.812	86.12
307.042	79.12
307.272	70.12
307.502	80.12
307.731	83.12
307.961	75.12
308.191	81.12
308.421	80.12
308.651	89.12
308.881	82.12
309.111	85.12
309.341	81.12
309.571	87.12
309.8	87.12
310.03	90.12
310.26	95.12
310.49	87.12
310.72	83.12
310.949	76.12
311.179	80.12
311.409	85.12
311.639	84.12
311.868	91.12
312.098	87.12
312.328	90.12
312.557	76.12
312.787	74.12
313.017	88.12
313.246	80.12
313.476	92.12
313.706	74.12
313.935	103.12
314.165	83.12
314.394	89.12
314.624	91.12
314.853	77.12
315.083	92.12
315.312	92.12
315.542	96.12
315.771	93.12
316.001	93.12
316.23	87.12
316.46	82.12
316.689	76.12
316.919	74.12
317.148	84.12
317.377	96.12
317.607	89.12
317.836	88.12
318.065	72.12
318.295	87.12
318.524	107.12
318.753	89.12
318.983	79.12
319.212	90.12
319.441	80.12
319.67	80.12
319.9	72.12
320.129	86.12
320.358	85.12
320.587	89.12
320.816	88.12
321.046	90.12
321.275	107.12
321.504	74.12
321.733	94.12
321.962	81.12
322.191	81.12
322.42	93.12
322.649	81.12
322.878	74.12
323.108	79.12
323.337	74.12
323.566	80.12
323.795	71.12
324.024	86.12
324.253	91.12
324.482	83.12
324.71	77.12
324.939	88.12
325.168	90.12
325.397	86.12
325.626	78.12
325.855	95.12
326.084	86.12
326.313	91.12
326.542	82.12
326.77	93.12
326.999	85.12
327.228	80.12
327.457	77.12
327.686	85.12
327.914	83.12
328.143	78.12
328.372	86.12
328.6	92.12
328.829	84.12
329.058	83.12
329.287	84.12
329.515	86.12
329.744	74.12
329.972	82.12
330.201	92.12
330.43	82.12
330.658	97.12
330.887	82.12
331.115	95.12
331.344	85.12
331.572	87.12
331.801	83.12
332.03	81.12
332.258	84.12
332.486	91.12
332.715	88.12
332.943	87.12
333.172	85.12
333.4	79.12
333.629	87.12
333.857	82.12
334.085	85.12
334.314	76.12
334.542	83.12
334.771	72.12
334.999	88.12
335.227	82.12
335.455	82.12
335.684	93.12
335.912	84.12
336.14	88.12
336.369	87.12
336.597	106.12
336.825	81.12
337.053	90.12
337.281	80.12
337.51	79.12
337.738	87.12
337.966	95.12
338.194	77.12
338.422	84.12
338.65	89.12
338.878	88.12
339.106	83.12
339.334	86.12
339.562	72.12
339.79	83.12
340.018	56.12
340.246	67.12
340.474	88.12
340.702	95.12
340.93	82.12
341.158	85.12
341.386	76.12
341.614	85.12
341.842	81.12
342.07	88.12
342.298	98.12
342.526	85.12
342.754	88.12
342.981	77.12
343.209	83.12
343.437	91.12
343.665	87.12
343.893	80.12
344.12	72.12
344.348	79.12
344.576	81.12
344.804	88.12
345.031	87.12
345.259	73.12
345.487	75.12
345.714	87.12
345.942	79.12
346.17	87.12
346.397	86.12
346.625	90.12
346.853	90.12
347.08	90.12
347.308	78.12
347.535	77.12
347.763	87.12
347.99	84.12
348.218	75.12
348.445	81.12
348.673	92.12
348.9	85.12
349.128	99.12
349.355	74.12
349.583	87.12
349.81	82.12
350.037	97.12
350.265	92.12
350.492	87.12
350.72	92.12
350.947	92.12
351.174	84.12
351.402	83.12
351.629	80.12
351.856	80.12
352.083	87.12
352.311	81.12
352.538	72.12
352.765	81.12
352.992	77.12
353.22	83.12
353.447	81.12
353.674	73.12
353.901	95.12
354.128	86.12
354.355	80.12
354.583	82.12
354.81	98.12
355.037	77.12
355.264	88.12
355.491	91.12
355.718	88.12
355.945	84.12
356.172	78.12
356.399	77.12
356.626	79.12
356.853	79.12
357.08	80.12
357.307	86.12
357.534	80.12
357.761	76.12
357.988	92.12
358.215	85.12
358.441	101.12
358.668	81.12
358.895	81.12
359.122	98.12
359.349	89.12
359.576	67.12
359.802	89.12
360.029	91.12
360.256	88.12
360.483	95.12
360.709	71.12
360.936	71.12
361.163	77.12
361.39	90.12
361.616	87.12
361.843	71.12
362.07	89.12
362.296	78.12
362.523	80.12
362.749	92.12
362.976	90.12
363.203	82.12
363.429	77.12
363.656	71.12
363.882	88.12
364.109	85.12
364.335	89.12
364.562	89.12
364.788	83.12
365.015	88.12
365.241	72.12
365.468	67.12
365.694	94.12
365.92	87.12
366.147	97.12
366.373	85.12
366.599	86.12
366.826	85.12
367.052	87.12
367.278	83.12
367.505	88.12
367.731	91.12
367.957	81.12
368.184	80.12
368.41	87.12
368.636	79.12
368.862	81.12
369.089	93.12
369.315	83.12
369.541	81.12
369.767	91.12
369.993	80.12
370.219	64.12
370.445	89.12
370.672	94.12
370.898	81.12
371.124	73.12
371.35	81.12
371.576	82.12
371.802	82.12
372.028	85.12
372.254	90.12
372.48	85.12
372.706	81.12
372.932	105.12
373.158	89.12
373.384	101.12
373.61	92.12
373.835	99.12
374.061	87.12
374.287	92.12
374.513	104.12
374.739	92.12
374.965	80.12
375.191	83.12
375.416	95.12
375.642	92.12
375.868	104.12
376.094	96.12
376.319	83.12
376.545	95.12
376.771	85.12
376.997	98.12
377.222	101.12
377.448	103.12
377.674	107.12
377.899	109.12
378.125	83.12
378.35	96.12
378.576	106.12
378.802	97.12
379.027	94.12
379.253	87.12
379.478	101.12
379.704	96.12
379.929	96.12
380.155	98.12
380.38	103.12
380.606	92.12
380.831	81.12
381.057	104.12
381.282	92.12
381.507	99.12
381.733	105.12
381.958	86.12
382.184	100.12
382.409	95.12
382.634	105.12
382.86	102.12
383.085	98.12
383.31	104.12
383.535	97.12
383.761	83.12
383.986	91.12
384.211	86.12
384.436	94.12
384.662	98.12
384.887	94.12
385.112	101.12
385.337	105.12
385.562	96.12
385.787	85.12
386.013	103.12
386.238	103.12
386.463	99.12
386.688	97.12
386.913	94.12
387.138	104.12
387.363	93.12
387.588	100.12
387.813	84.12
388.038	112.12
388.263	90.12
388.488	101.12
388.713	96.12
388.938	96.12
389.163	115.12
389.387	108.12
389.612	103.12
389.837	98.12
390.062	95.12
390.287	107.12
390.512	106.12
390.736	90.12
390.961	108.12
391.186	92.12
391.411	104.12
391.636	118.12
391.86	103.12
392.085	108.12
392.31	101.12
392.534	105.12
392.759	102.12
392.984	104.12
393.208	107.12
393.433	92.12
393.658	96.12
393.882	108.12
394.107	99.12
394.331	109.12
394.556	97.12
394.78	92.12
395.005	100.12
395.229	110.12
395.454	100.12
395.678	100.12
395.903	112.12
396.127	98.12
396.352	114.12
396.576	101.12
396.801	104.12
397.025	105.12
397.249	107.12
397.474	115.12
397.698	97.12
397.922	113.12
398.147	115.12
398.371	102.12
398.595	111.12
398.82	108.12
399.044	111.12
399.268	105.12
399.492	123.12
399.717	92.12
399.941	103.12
400.165	109.12
400.389	111.12
400.613	93.12
400.837	107.12
401.062	111.12
401.286	112.12
401.51	109.12
401.734	108.12
401.958	120.12
402.182	107.12
402.406	107.12
402.63	109.12
402.854	100.12
403.078	120.12
403.302	101.12
403.526	116.12
403.75	114.12
403.974	112.12
404.198	122.12
404.422	124.12
404.645	130.12
404.869	124.12
405.093	119.12
405.317	113.12
405.541	129.12
405.765	122.12
405.988	117.12
406.212	123.12
406.436	108.12
406.66	125.12
406.883	133.12
407.107	111.12
407.331	118.12
407.555	119.12
407.778	129.12
408.002	131.12
408.226	100.12
408.449	119.12
408.673	115.12
408.896	120.12
409.12	119.12
409.344	133.12
409.567	124.12
409.791	134.12
410.014	104.12
410.238	124.12
410.461	115.12
410.685	125.12
410.908	124.12
411.132	127.12
411.355	116.12
411.578	117.12
411.802	121.12
412.025	109.12
412.249	118.12
412.472	120.12
412.695	113.12
412.919	138.12
413.142	121.12
413.365	134.12
413.589	132.12
413.812	111.12
414.035	117.12
414.258	116.12
414.482	128.12
414.705	116.12
414.928	130.12
415.151	116.12
415.374	114.12
415.597	114.12
415.821	103.12
416.044	122.12
416.267	135.12
416.49	98.12
416.713	136.12
416.936	127.12
417.159	133.12
417.382	127.12
417.605	122.12
417.828	141.12
418.051	127.12
418.274	118.12
418.497	116.12
418.72	111.12
418.943	138.12
419.166	139.12
419.389	144.12
419.611	127.12
419.834	137.12
420.057	144.12
420.28	118.12
420.503	114.12
420.726	126.12
420.948	136.12
421.171	127.12
421.394	147.12
421.617	133.12
421.839	149.12
422.062	120.12
422.285	133.12
422.507	131.12
422.73	126.12
422.953	107.12
423.175	116.12
423.398	123.12
423.621	131.12
423.843	127.12
424.066	144.12
424.288	135.12
424.511	139.12
424.733	144.12
424.956	127.12
425.178	122.12
425.401	133.12
425.623	132.12
425.846	125.12
426.068	132.12
426.291	133.12
426.513	131.12
426.735	125.12
426.958	134.12
427.18	128.12
427.402	118.12
427.625	125.12
427.847	129.12
428.069	133.12
428.292	130.12
428.514	116.12
428.736	139.12
428.958	123.12
429.181	121.12
429.403	126.12
429.625	126.12
429.847	141.12
430.069	131.12
430.292	125.12
430.514	137.12
430.736	133.12
430.958	131.12
431.18	127.12
431.402	116.12
431.624	115.12
431.846	116.12
432.068	93.12
432.29	100.12
432.512	105.12
432.734	124.12
432.956	132.12
433.178	140.12
433.4	146.12
433.622	142.12
433.844	135.12
434.066	127.12
434.287	106.12
434.509	91.12
434.731	91.12
434.953	108.12
435.175	135.12
435.397	119.12
435.618	109.12
435.84	105.12
436.062	122.12
436.284	120.12
436.505	130.12
436.727	125.12
436.949	121.12
437.17	134.12
437.392	133.12
437.614	127.12
437.835	124.12
438.057	112.12
438.278	109.12
438.5	127.12
438.721	134.12
438.943	135.12
439.165	137.12
439.386	136.12
439.608	133.12
439.829	129.12
440.05	141.12
440.272	129.12
440.493	145.12
440.715	123.12
440.936	139.12
441.158	132.12
441.379	149.12
441.6	153.12
441.822	149.12
442.043	136.12
442.264	153.12
442.486	145.12
442.707	130.12
442.928	140.12
443.149	147.12
443.371	141.12
443.592	121.12
443.813	117.12
444.034	141.12
444.255	138.12
444.476	149.12
444.698	154.12
444.919	135.12
445.14	258.12
445.361	175.12
445.582	153.12
445.803	151.12
446.024	136.12
446.245	142.12
446.466	149.12
446.687	148.12
446.908	160.12
447.129	147.12
447.35	159.12
447.571	141.12
447.792	153.12
448.013	130.12
448.234	135.12
448.455	138.12
448.675	139.12
448.896	155.12
449.117	134.12
449.338	145.12
449.559	141.12
449.779	126.12
450	143.12
450.221	131.12
450.442	136.12
450.662	142.12
450.883	137.12
451.104	147.12
451.324	148.12
451.545	117.12
451.766	141.12
451.986	129.12
452.207	128.12
452.428	135.12
452.648	115.12
452.869	113.12
453.089	129.12
453.31	106.12
453.53	101.12
453.751	103.12
453.971	88.12
454.192	103.12
454.412	95.12
454.633	119.12
454.853	121.12
455.073	119.12
455.294	118.12
455.514	119.12
455.734	133.12
455.955	116.12
456.175	128.12
456.395	111.12
456.616	106.12
456.836	108.12
457.056	112.12
457.276	121.12
457.497	115.12
457.717	100.12
457.937	114.12
458.157	97.12
458.377	95.12
458.598	88.12
458.818	95.12
459.038	98.12
459.258	99.12
459.478	90.12
459.698	83.12
459.918	96.12
460.138	105.12
460.358	106.12
460.578	94.12
460.798	117.12
461.018	115.12
461.238	106.12
461.458	123.12
461.678	106.12
461.898	124.12
462.118	106.12
462.338	117.12
462.558	110.12
462.777	107.12
462.997	131.12
463.217	114.12
463.437	119.12
463.657	119.12
463.876	112.12
464.096	95.12
464.316	120.12
464.536	111.12
464.755	121.12
464.975	109.12
465.195	135.12
465.414	118.12
465.634	113.12
465.854	103.12
466.073	126.12
466.293	116.12
466.512	121.12
466.732	119.12
466.951	140.12
467.171	131.12
467.391	123.12
467.61	135.12
467.829	134.12
468.049	128.12
468.268	150.12
468.488	127.12
468.707	137.12
468.927	127.12
469.146	131.12
469.365	140.12
469.585	143.12
469.804	133.12
470.023	159.12
470.243	149.12
470.462	139.12
470.681	136.12
470.901	143.12
471.12	133.12
471.339	142.12
471.558	140.12
471.777	135.12
471.997	123.12
472.216	130.12
472.435	109.12
472.654	116.12
472.873	107.12
473.092	119.12
473.311	121.12
473.53	113.12
473.749	123.12
473.968	124.12
474.187	147.12
474.406	141.12
474.625	123.12
474.844	126.12
475.063	131.12
475.282	130.12
475.501	101.12
475.72	117.12
475.939	124.12
476.158	125.12
476.377	127.12
476.596	124.12
476.814	104.12
477.033	110.12
477.252	117.12
477.471	121.12
477.69	123.12
477.908	134.12
478.127	131.12
478.346	129.12
478.564	140.12
478.783	125.12
479.002	141.12
479.22	136.12
479.439	129.12
479.658	126.12
479.876	109.12
480.095	109.12
480.313	115.12
480.532	113.12
480.751	114.12
480.969	99.12
481.188	93.12
481.406	99.12
481.624	83.12
481.843	80.12
482.061	89.12
482.28	116.12
482.498	105.12
482.717	96.12
482.935	114.12
483.153	143.12
483.372	156.12
483.59	145.12
483.808	128.12
484.027	131.12
484.245	122.12
484.463	136.12
484.681	161.12
484.9	152.12
485.118	136.12
485.336	145.12
485.554	104.12
485.772	98.12
485.99	106.12
486.209	115.12
486.427	111.12
486.645	107.12
486.863	127.12
487.081	131.12
487.299	130.12
487.517	131.12
487.735	152.12
487.953	167.12
488.171	191.12
488.389	182.12
488.607	154.12
488.825	136.12
489.043	127.12
489.261	128.12
489.479	142.12
489.696	125.12
489.914	135.12
490.132	140.12
490.35	159.12
490.568	154.12
490.786	173.12
491.003	182.12
491.221	181.12
491.439	194.12
491.657	189.12
491.874	195.12
492.092	215.12
492.31	223.12
492.527	223.12
492.745	198.12
492.963	185.12
493.18	181.12
493.398	195.12
493.615	168.12
493.833	175.12
494.05	185.12
494.268	175.12
494.485	164.12
494.703	181.12
494.92	172.12
495.138	182.12
495.355	185.12
495.573	159.12
495.79	179.12
496.008	157.12
496.225	165.12
496.442	164.12
496.66	165.12
496.877	170.12
497.094	159.12
497.312	166.12
497.529	145.12
497.746	138.12
497.963	143.12
498.181	149.12
498.398	110.12
498.615	118.12
498.832	116.12
499.049	118.12
499.267	135.12
499.484	116.12
499.701	130.12
499.918	125.12
500.135	125.12
500.352	137.12
500.569	136.12
500.786	166.12
501.003	136.12
501.22	137.12
501.437	138.12
501.654	149.12
501.871	131.12
502.088	130.12
502.305	127.12
502.522	133.12
502.739	132.12
502.956	124.12
503.172	128.12
503.389	120.12
503.606	123.12
503.823	129.12
504.04	130.12
504.256	121.12
504.473	127.12
504.69	119.12
504.907	133.12
505.123	117.12
505.34	121.12
505.557	127.12
505.773	132.12
505.99	132.12
506.207	118.12
506.423	135.12
506.64	138.12
506.856	109.12
507.073	120.12
507.289	119.12
507.506	111.12
507.722	120.12
507.939	112.12
508.155	105.12
508.372	130.12
508.588	105.12
508.805	119.12
509.021	112.12
509.238	93.12
509.454	88.12
509.67	96.12
509.887	84.12
510.103	95.12
510.319	90.12
510.536	91.12
510.752	99.12
510.968	90.12
511.184	71.12
511.401	89.12
511.617	91.12
511.833	94.12
