Data from Location2.07152019.Energy5.Lamp.07192019.3%Agarose_HRD10591_14-57-25-360.txt Node
Date: Fri Jul 19 14:57:25 EDT 2019
User: cochatt
Spectrometer: HR+D1059
Trigger mode: 1
Integration Time (sec): 1.000000E-1
Scans to average: 1
Electric dark correction enabled: true
Nonlinearity correction enabled: false
Boxcar width: 0
XAxis mode: Wavelengths
Number of Pixels in Spectrum: 2048
>>>>>Begin Spectral Data<<<<<
223.165	-18.5
223.4	-18.5
223.635	-18.5
223.869	-11.5
224.104	-14.5
224.338	-19.5
224.573	-10.5
224.808	-9.5
225.042	-13.5
225.277	1.5
225.511	-5.5
225.746	5.5
225.98	17.5
226.215	8.5
226.449	20.5
226.683	18.5
226.918	20.5
227.152	10.5
227.387	35.5
227.621	44.5
227.856	46.5
228.09	54.5
228.324	47.5
228.559	60.5
228.793	53.5
229.027	67.5
229.262	57.5
229.496	73.5
229.73	71.5
229.964	62.5
230.199	76.5
230.433	78.5
230.667	92.5
230.901	82.5
231.136	86.5
231.37	76.5
231.604	95.5
231.838	70.5
232.072	78.5
232.306	84.5
232.541	86.5
232.775	66.5
233.009	74.5
233.243	85.5
233.477	83.5
233.711	89.5
233.945	76.5
234.179	85.5
234.413	90.5
234.647	84.5
234.881	83.5
235.115	79.5
235.349	82.5
235.583	93.5
235.817	90.5
236.051	73.5
236.285	66.5
236.519	102.5
236.753	83.5
236.987	75.5
237.221	81.5
237.455	78.5
237.689	74.5
237.922	78.5
238.156	78.5
238.39	82.5
238.624	76.5
238.858	83.5
239.091	77.5
239.325	69.5
239.559	83.5
239.793	73.5
240.027	74.5
240.26	78.5
240.494	74.5
240.728	88.5
240.961	82.5
241.195	83.5
241.429	77.5
241.662	77.5
241.896	75.5
242.13	86.5
242.363	84.5
242.597	73.5
242.83	76.5
243.064	77.5
243.298	81.5
243.531	87.5
243.765	89.5
243.998	73.5
244.232	66.5
244.465	88.5
244.699	67.5
244.932	89.5
245.166	77.5
245.399	80.5
245.633	85.5
245.866	73.5
246.099	78.5
246.333	84.5
246.566	81.5
246.8	83.5
247.033	72.5
247.266	66.5
247.5	84.5
247.733	78.5
247.966	88.5
248.2	78.5
248.433	71.5
248.666	85.5
248.899	84.5
249.133	88.5
249.366	86.5
249.599	70.5
249.832	83.5
250.066	83.5
250.299	72.5
250.532	72.5
250.765	82.5
250.998	82.5
251.231	78.5
251.465	91.5
251.698	86.5
251.931	105.5
252.164	83.5
252.397	85.5
252.63	76.5
252.863	81.5
253.096	76.5
253.329	76.5
253.562	81.5
253.795	79.5
254.028	76.5
254.261	81.5
254.494	99.5
254.727	78.5
254.96	62.5
255.193	72.5
255.426	86.5
255.659	74.5
255.892	76.5
256.124	66.5
256.357	73.5
256.59	79.5
256.823	80.5
257.056	74.5
257.289	78.5
257.521	83.5
257.754	70.5
257.987	85.5
258.22	92.5
258.452	88.5
258.685	88.5
258.918	82.5
259.151	86.5
259.383	85.5
259.616	81.5
259.849	89.5
260.081	83.5
260.314	89.5
260.547	81.5
260.779	77.5
261.012	84.5
261.244	82.5
261.477	83.5
261.71	88.5
261.942	79.5
262.175	74.5
262.407	92.5
262.64	76.5
262.872	77.5
263.105	74.5
263.337	89.5
263.57	79.5
263.802	84.5
264.035	74.5
264.267	81.5
264.499	89.5
264.732	89.5
264.964	80.5
265.197	102.5
265.429	99.5
265.661	83.5
265.894	77.5
266.126	77.5
266.358	83.5
266.591	85.5
266.823	89.5
267.055	65.5
267.287	78.5
267.52	83.5
267.752	86.5
267.984	80.5
268.216	85.5
268.448	90.5
268.681	84.5
268.913	83.5
269.145	74.5
269.377	91.5
269.609	81.5
269.841	84.5
270.073	85.5
270.306	93.5
270.538	86.5
270.77	82.5
271.002	86.5
271.234	67.5
271.466	86.5
271.698	80.5
271.93	90.5
272.162	87.5
272.394	85.5
272.626	99.5
272.858	68.5
273.09	82.5
273.322	83.5
273.553	90.5
273.785	72.5
274.017	78.5
274.249	83.5
274.481	72.5
274.713	79.5
274.945	82.5
275.176	93.5
275.408	87.5
275.64	82.5
275.872	88.5
276.104	89.5
276.335	84.5
276.567	81.5
276.799	84.5
277.031	89.5
277.262	76.5
277.494	93.5
277.726	95.5
277.957	90.5
278.189	95.5
278.421	90.5
278.652	91.5
278.884	89.5
279.115	69.5
279.347	74.5
279.579	88.5
279.81	101.5
280.042	96.5
280.273	78.5
280.505	82.5
280.736	91.5
280.968	100.5
281.199	103.5
281.431	85.5
281.662	98.5
281.894	95.5
282.125	85.5
282.356	76.5
282.588	103.5
282.819	74.5
283.051	93.5
283.282	95.5
283.513	73.5
283.745	86.5
283.976	87.5
284.207	93.5
284.439	91.5
284.67	98.5
284.901	76.5
285.132	91.5
285.364	92.5
285.595	88.5
285.826	81.5
286.057	94.5
286.288	87.5
286.52	97.5
286.751	103.5
286.982	75.5
287.213	94.5
287.444	90.5
287.675	92.5
287.906	95.5
288.138	81.5
288.369	101.5
288.6	103.5
288.831	83.5
289.062	88.5
289.293	94.5
289.524	83.5
289.755	91.5
289.986	90.5
290.217	83.5
290.448	90.5
290.679	92.5
290.91	76.5
291.141	92.5
291.371	100.5
291.602	65.5
291.833	92.5
292.064	92.5
292.295	84.5
292.526	84.5
292.757	99.5
292.987	97.5
293.218	89.5
293.449	89.5
293.68	97.5
293.91	80.5
294.141	93.5
294.372	93.5
294.603	100.5
294.833	82.5
295.064	90.5
295.295	89.5
295.525	89.5
295.756	99.5
295.987	80.5
296.217	70.5
296.448	80.5
296.679	85.5
296.909	89.5
297.14	89.5
297.37	91.5
297.601	73.5
297.831	94.5
298.062	82.5
298.292	84.5
298.523	82.5
298.753	86.5
298.984	85.5
299.214	89.5
299.445	102.5
299.675	77.5
299.905	81.5
300.136	87.5
300.366	92.5
300.597	93.5
300.827	86.5
301.057	97.5
301.288	96.5
301.518	84.5
301.748	97.5
301.979	89.5
302.209	80.5
302.439	93.5
302.669	83.5
302.9	75.5
303.13	96.5
303.36	83.5
303.59	83.5
303.82	82.5
304.051	86.5
304.281	92.5
304.511	98.5
304.741	77.5
304.971	81.5
305.201	76.5
305.431	92.5
305.661	79.5
305.891	81.5
306.121	89.5
306.352	91.5
306.582	75.5
306.812	90.5
307.042	84.5
307.272	85.5
307.502	102.5
307.731	82.5
307.961	85.5
308.191	95.5
308.421	85.5
308.651	78.5
308.881	91.5
309.111	88.5
309.341	81.5
309.571	97.5
309.8	96.5
310.03	86.5
310.26	85.5
310.49	89.5
310.72	96.5
310.949	90.5
311.179	88.5
311.409	86.5
311.639	91.5
311.868	83.5
312.098	79.5
312.328	73.5
312.557	82.5
312.787	87.5
313.017	89.5
313.246	88.5
313.476	66.5
313.706	70.5
313.935	93.5
314.165	73.5
314.394	70.5
314.624	93.5
314.853	79.5
315.083	85.5
315.312	103.5
315.542	90.5
315.771	86.5
316.001	87.5
316.23	93.5
316.46	69.5
316.689	85.5
316.919	85.5
317.148	96.5
317.377	96.5
317.607	97.5
317.836	81.5
318.065	95.5
318.295	96.5
318.524	93.5
318.753	92.5
318.983	83.5
319.212	88.5
319.441	94.5
319.67	98.5
319.9	88.5
320.129	92.5
320.358	98.5
320.587	81.5
320.816	86.5
321.046	85.5
321.275	94.5
321.504	76.5
321.733	91.5
321.962	92.5
322.191	80.5
322.42	92.5
322.649	82.5
322.878	87.5
323.108	86.5
323.337	88.5
323.566	90.5
323.795	118.5
324.024	80.5
324.253	86.5
324.482	101.5
324.71	80.5
324.939	84.5
325.168	82.5
325.397	87.5
325.626	76.5
325.855	87.5
326.084	86.5
326.313	78.5
326.542	83.5
326.77	86.5
326.999	73.5
327.228	91.5
327.457	87.5
327.686	90.5
327.914	85.5
328.143	77.5
328.372	93.5
328.6	101.5
328.829	97.5
329.058	97.5
329.287	84.5
329.515	93.5
329.744	87.5
329.972	81.5
330.201	88.5
330.43	83.5
330.658	93.5
330.887	98.5
331.115	84.5
331.344	89.5
331.572	85.5
331.801	100.5
332.03	88.5
332.258	92.5
332.486	91.5
332.715	86.5
332.943	89.5
333.172	95.5
333.4	78.5
333.629	89.5
333.857	82.5
334.085	81.5
334.314	90.5
334.542	90.5
334.771	94.5
334.999	86.5
335.227	82.5
335.455	81.5
335.684	95.5
335.912	89.5
336.14	88.5
336.369	87.5
336.597	93.5
336.825	77.5
337.053	83.5
337.281	96.5
337.51	92.5
337.738	69.5
337.966	79.5
338.194	77.5
338.422	84.5
338.65	85.5
338.878	92.5
339.106	80.5
339.334	91.5
339.562	82.5
339.79	69.5
340.018	83.5
340.246	86.5
340.474	86.5
340.702	86.5
340.93	99.5
341.158	91.5
341.386	96.5
341.614	93.5
341.842	93.5
342.07	99.5
342.298	78.5
342.526	85.5
342.754	82.5
342.981	74.5
343.209	82.5
343.437	71.5
343.665	88.5
343.893	82.5
344.12	81.5
344.348	89.5
344.576	85.5
344.804	91.5
345.031	70.5
345.259	76.5
345.487	92.5
345.714	82.5
345.942	77.5
346.17	101.5
346.397	77.5
346.625	96.5
346.853	90.5
347.08	84.5
347.308	80.5
347.535	92.5
347.763	72.5
347.99	85.5
348.218	88.5
348.445	95.5
348.673	89.5
348.9	76.5
349.128	78.5
349.355	90.5
349.583	85.5
349.81	74.5
350.037	95.5
350.265	95.5
350.492	81.5
350.72	100.5
350.947	100.5
351.174	81.5
351.402	77.5
351.629	77.5
351.856	70.5
352.083	79.5
352.311	84.5
352.538	95.5
352.765	82.5
352.992	92.5
353.22	77.5
353.447	84.5
353.674	92.5
353.901	94.5
354.128	90.5
354.355	89.5
354.583	76.5
354.81	87.5
355.037	84.5
355.264	71.5
355.491	78.5
355.718	85.5
355.945	84.5
356.172	82.5
356.399	80.5
356.626	93.5
356.853	97.5
357.08	93.5
357.307	95.5
357.534	68.5
357.761	77.5
357.988	87.5
358.215	79.5
358.441	86.5
358.668	96.5
358.895	90.5
359.122	85.5
359.349	97.5
359.576	89.5
359.802	97.5
360.029	80.5
360.256	81.5
360.483	89.5
360.709	84.5
360.936	83.5
361.163	78.5
361.39	89.5
361.616	79.5
361.843	86.5
362.07	74.5
362.296	87.5
362.523	87.5
362.749	88.5
362.976	86.5
363.203	92.5
363.429	70.5
363.656	103.5
363.882	92.5
364.109	84.5
364.335	75.5
364.562	85.5
364.788	89.5
365.015	83.5
365.241	98.5
365.468	90.5
365.694	86.5
365.92	85.5
366.147	97.5
366.373	86.5
366.599	87.5
366.826	86.5
367.052	69.5
367.278	73.5
367.505	90.5
367.731	94.5
367.957	77.5
368.184	72.5
368.41	80.5
368.636	87.5
368.862	92.5
369.089	100.5
369.315	96.5
369.541	86.5
369.767	92.5
369.993	79.5
370.219	95.5
370.445	85.5
370.672	97.5
370.898	92.5
371.124	81.5
371.35	88.5
371.576	99.5
371.802	88.5
372.028	85.5
372.254	101.5
372.48	98.5
372.706	98.5
372.932	107.5
373.158	90.5
373.384	96.5
373.61	94.5
373.835	92.5
374.061	103.5
374.287	85.5
374.513	93.5
374.739	102.5
374.965	100.5
375.191	94.5
375.416	90.5
375.642	92.5
375.868	84.5
376.094	93.5
376.319	75.5
376.545	91.5
376.771	93.5
376.997	81.5
377.222	94.5
377.448	87.5
377.674	100.5
377.899	92.5
378.125	101.5
378.35	100.5
378.576	87.5
378.802	88.5
379.027	82.5
379.253	97.5
379.478	93.5
379.704	93.5
379.929	89.5
380.155	101.5
380.38	91.5
380.606	105.5
380.831	96.5
381.057	98.5
381.282	86.5
381.507	82.5
381.733	105.5
381.958	100.5
382.184	103.5
382.409	108.5
382.634	99.5
382.86	109.5
383.085	91.5
383.31	77.5
383.535	86.5
383.761	101.5
383.986	98.5
384.211	98.5
384.436	113.5
384.662	99.5
384.887	100.5
385.112	90.5
385.337	100.5
385.562	98.5
385.787	101.5
386.013	98.5
386.238	88.5
386.463	91.5
386.688	99.5
386.913	88.5
387.138	98.5
387.363	116.5
387.588	116.5
387.813	102.5
388.038	107.5
388.263	116.5
388.488	94.5
388.713	92.5
388.938	100.5
389.163	97.5
389.387	86.5
389.612	111.5
389.837	92.5
390.062	100.5
390.287	99.5
390.512	98.5
390.736	101.5
390.961	106.5
391.186	101.5
391.411	102.5
391.636	98.5
391.86	101.5
392.085	122.5
392.31	106.5
392.534	99.5
392.759	91.5
392.984	112.5
393.208	117.5
393.433	106.5
393.658	97.5
393.882	112.5
394.107	96.5
394.331	107.5
394.556	109.5
394.78	102.5
395.005	102.5
395.229	110.5
395.454	114.5
395.678	108.5
395.903	87.5
396.127	113.5
396.352	103.5
396.576	109.5
396.801	117.5
397.025	110.5
397.249	99.5
397.474	121.5
397.698	118.5
397.922	117.5
398.147	117.5
398.371	107.5
398.595	114.5
398.82	113.5
399.044	123.5
399.268	122.5
399.492	106.5
399.717	108.5
399.941	100.5
400.165	117.5
400.389	106.5
400.613	115.5
400.837	106.5
401.062	129.5
401.286	103.5
401.51	103.5
401.734	114.5
401.958	108.5
402.182	105.5
402.406	124.5
402.63	106.5
402.854	107.5
403.078	116.5
403.302	118.5
403.526	121.5
403.75	115.5
403.974	119.5
404.198	114.5
404.422	112.5
404.645	109.5
404.869	110.5
405.093	105.5
405.317	108.5
405.541	120.5
405.765	113.5
405.988	117.5
406.212	118.5
406.436	121.5
406.66	123.5
406.883	117.5
407.107	119.5
407.331	104.5
407.555	107.5
407.778	113.5
408.002	118.5
408.226	120.5
408.449	125.5
408.673	105.5
408.896	125.5
409.12	104.5
409.344	113.5
409.567	118.5
409.791	117.5
410.014	131.5
410.238	108.5
410.461	134.5
410.685	123.5
410.908	122.5
411.132	138.5
411.355	112.5
411.578	122.5
411.802	125.5
412.025	123.5
412.249	123.5
412.472	108.5
412.695	116.5
412.919	116.5
413.142	124.5
413.365	122.5
413.589	116.5
413.812	112.5
414.035	115.5
414.258	114.5
414.482	118.5
414.705	141.5
414.928	125.5
415.151	116.5
415.374	118.5
415.597	115.5
415.821	118.5
416.044	120.5
416.267	117.5
416.49	117.5
416.713	125.5
416.936	131.5
417.159	124.5
417.382	105.5
417.605	120.5
417.828	130.5
418.051	129.5
418.274	121.5
418.497	134.5
418.72	134.5
418.943	122.5
419.166	134.5
419.389	136.5
419.611	134.5
419.834	136.5
420.057	129.5
420.28	130.5
420.503	131.5
420.726	124.5
420.948	136.5
421.171	140.5
421.394	138.5
421.617	119.5
421.839	129.5
422.062	149.5
422.285	125.5
422.507	121.5
422.73	120.5
422.953	131.5
423.175	128.5
423.398	131.5
423.621	131.5
423.843	134.5
424.066	132.5
424.288	150.5
424.511	149.5
424.733	149.5
424.956	125.5
425.178	135.5
425.401	132.5
425.623	137.5
425.846	133.5
426.068	125.5
426.291	132.5
426.513	128.5
426.735	123.5
426.958	132.5
427.18	129.5
427.402	121.5
427.625	145.5
427.847	126.5
428.069	132.5
428.292	127.5
428.514	124.5
428.736	123.5
428.958	131.5
429.181	135.5
429.403	123.5
429.625	140.5
429.847	115.5
430.069	139.5
430.292	122.5
430.514	122.5
430.736	128.5
430.958	124.5
431.18	125.5
431.402	145.5
431.624	114.5
431.846	113.5
432.068	101.5
432.29	94.5
432.512	116.5
432.734	114.5
432.956	132.5
433.178	138.5
433.4	132.5
433.622	142.5
433.844	134.5
434.066	120.5
434.287	113.5
434.509	112.5
434.731	105.5
434.953	108.5
435.175	120.5
435.397	127.5
435.618	113.5
435.84	101.5
436.062	115.5
436.284	112.5
436.505	143.5
436.727	122.5
436.949	134.5
437.17	125.5
437.392	128.5
437.614	126.5
437.835	114.5
438.057	108.5
438.278	124.5
438.5	123.5
438.721	126.5
438.943	144.5
439.165	143.5
439.386	145.5
439.608	140.5
439.829	138.5
440.05	136.5
440.272	148.5
440.493	151.5
440.715	152.5
440.936	153.5
441.158	155.5
441.379	147.5
441.6	153.5
441.822	141.5
442.043	137.5
442.264	161.5
442.486	143.5
442.707	136.5
442.928	148.5
443.149	147.5
443.371	147.5
443.592	147.5
443.813	135.5
444.034	151.5
444.255	128.5
444.476	134.5
444.698	141.5
444.919	148.5
445.14	270.5
445.361	195.5
445.582	151.5
445.803	145.5
446.024	148.5
446.245	156.5
446.466	154.5
446.687	150.5
446.908	156.5
447.129	146.5
447.35	135.5
447.571	145.5
447.792	152.5
448.013	142.5
448.234	139.5
448.455	150.5
448.675	148.5
448.896	123.5
449.117	145.5
449.338	124.5
449.559	155.5
449.779	135.5
450	133.5
450.221	136.5
450.442	141.5
450.662	134.5
450.883	134.5
451.104	137.5
451.324	135.5
451.545	121.5
451.766	118.5
451.986	127.5
452.207	109.5
452.428	128.5
452.648	135.5
452.869	114.5
453.089	115.5
453.31	107.5
453.53	105.5
453.751	89.5
453.971	115.5
454.192	116.5
454.412	109.5
454.633	114.5
454.853	118.5
455.073	124.5
455.294	124.5
455.514	125.5
455.734	118.5
455.955	121.5
456.175	113.5
456.395	104.5
456.616	114.5
456.836	127.5
457.056	107.5
457.276	114.5
457.497	97.5
457.717	96.5
457.937	116.5
458.157	101.5
458.377	90.5
458.598	100.5
458.818	98.5
459.038	101.5
459.258	97.5
459.478	88.5
459.698	83.5
459.918	103.5
460.138	99.5
460.358	113.5
460.578	115.5
460.798	118.5
461.018	113.5
461.238	114.5
461.458	112.5
461.678	117.5
461.898	105.5
462.118	107.5
462.338	106.5
462.558	109.5
462.777	117.5
462.997	117.5
463.217	108.5
463.437	114.5
463.657	113.5
463.876	106.5
464.096	102.5
464.316	106.5
464.536	109.5
464.755	128.5
464.975	115.5
465.195	124.5
465.414	122.5
465.634	123.5
465.854	118.5
466.073	121.5
466.293	126.5
466.512	118.5
466.732	134.5
466.951	131.5
467.171	133.5
467.391	125.5
467.61	130.5
467.829	140.5
468.049	140.5
468.268	126.5
468.488	124.5
468.707	137.5
468.927	134.5
469.146	143.5
469.365	132.5
469.585	135.5
469.804	140.5
470.023	147.5
470.243	140.5
470.462	134.5
470.681	145.5
470.901	132.5
471.12	148.5
471.339	132.5
471.558	139.5
471.777	153.5
471.997	136.5
472.216	125.5
472.435	131.5
472.654	106.5
472.873	102.5
473.092	115.5
473.311	130.5
473.53	117.5
473.749	142.5
473.968	129.5
474.187	124.5
474.406	115.5
474.625	129.5
474.844	128.5
475.063	147.5
475.282	133.5
475.501	117.5
475.72	126.5
475.939	130.5
476.158	136.5
476.377	137.5
476.596	123.5
476.814	119.5
477.033	116.5
477.252	116.5
477.471	112.5
477.69	138.5
477.908	154.5
478.127	142.5
478.346	139.5
478.564	148.5
478.783	128.5
479.002	126.5
479.22	145.5
479.439	141.5
479.658	132.5
479.876	114.5
480.095	120.5
480.313	129.5
480.532	123.5
480.751	110.5
480.969	92.5
481.188	90.5
481.406	89.5
481.624	97.5
481.843	88.5
482.061	96.5
482.28	107.5
482.498	116.5
482.717	105.5
482.935	132.5
483.153	140.5
483.372	144.5
483.59	159.5
483.808	145.5
484.027	135.5
484.245	134.5
484.463	140.5
484.681	146.5
484.9	139.5
485.118	136.5
485.336	120.5
485.554	113.5
485.772	113.5
485.99	113.5
486.209	123.5
486.427	115.5
486.645	128.5
486.863	143.5
487.081	148.5
487.299	124.5
487.517	140.5
487.735	160.5
487.953	174.5
488.171	165.5
488.389	180.5
488.607	151.5
488.825	135.5
489.043	145.5
489.261	131.5
489.479	141.5
489.696	137.5
489.914	138.5
490.132	147.5
490.35	157.5
490.568	169.5
490.786	165.5
491.003	179.5
491.221	176.5
491.439	189.5
491.657	186.5
491.874	211.5
492.092	202.5
492.31	224.5
492.527	231.5
492.745	200.5
492.963	193.5
493.18	183.5
493.398	193.5
493.615	157.5
493.833	168.5
494.05	180.5
494.268	189.5
494.485	181.5
494.703	173.5
494.92	164.5
495.138	184.5
495.355	178.5
495.573	180.5
495.79	172.5
496.008	193.5
496.225	160.5
496.442	154.5
496.66	163.5
496.877	160.5
497.094	166.5
497.312	161.5
497.529	176.5
497.746	144.5
497.963	135.5
498.181	143.5
498.398	132.5
498.615	109.5
498.832	116.5
499.049	123.5
499.267	129.5
499.484	120.5
499.701	128.5
499.918	142.5
500.135	141.5
500.352	149.5
500.569	135.5
500.786	164.5
501.003	148.5
501.22	140.5
501.437	149.5
501.654	141.5
501.871	141.5
502.088	135.5
502.305	140.5
502.522	133.5
502.739	134.5
502.956	117.5
503.172	116.5
503.389	133.5
503.606	127.5
503.823	132.5
504.04	132.5
504.256	133.5
504.473	113.5
504.69	111.5
504.907	126.5
505.123	117.5
505.34	109.5
505.557	130.5
505.773	114.5
505.99	107.5
506.207	107.5
506.423	118.5
506.64	136.5
506.856	129.5
507.073	130.5
507.289	105.5
507.506	122.5
507.722	128.5
507.939	103.5
508.155	126.5
508.372	104.5
508.588	109.5
508.805	119.5
509.021	107.5
509.238	102.5
509.454	107.5
509.67	89.5
509.887	93.5
510.103	90.5
510.319	89.5
510.536	99.5
510.752	106.5
510.968	101.5
511.184	85.5
511.401	79.5
511.617	98.5
511.833	102.5
512.049	100.5
512.265	102.5
512.481	104.5
512.698	114.5
512.914	97.5
513.13	108.5
513.346	89.5
513.562	93.5
513.778	108.5
513.994	96.5
514.21	90.5
514.426	94.5
514.642	88.5
514.858	92.5
515.074	101.5
515.29	87.5
515.506	88.5
515.721	97.5
515.937	90.5
516.153	93.5
516.369	80.5
516.585	83.5
516.801	102.5
517.016	95.5
517.232	88.5
517.448	105.5
517.664	95.5
517.879	100.5
518.095	86.5
518.311	101.5
518.527	103.5
518.742	114.5
518.958	107.5
519.173	107.5
519.389	106.5
519.605	118.5
519.82	122.5
520.036	116.5
520.251	102.5
520.467	93.5
520.682	108.5
520.898	93.5
521.113	96.5
521.329	91.5
521.544	96.5
521.76	82.5
521.975	97.5
522.19	97.5
522.406	107.5
522.621	83.5
522.836	99.5
523.052	96.5
523.267	100.5
523.482	108.5
523.698	117.5
523.913	119.5
524.128	122.5
524.343	122.5
524.559	113.5
524.774	123.5
524.989	135.5
525.204	130.5
525.419	103.5
525.634	113.5
525.849	120.5
526.064	108.5
526.28	96.5
526.495	86.5
526.71	91.5
526.925	73.5
527.14	81.5
527.355	84.5
527.57	84.5
527.785	95.5
527.999	114.5
528.214	103.5
528.429	124.5
528.644	136.5
528.859	143.5
529.074	146.5
529.289	149.5
529.503	141.5
529.718	158.5
529.933	121.5
530.148	96.5
530.363	96.5
