Data from Location2.07152019.Energy5.Lamp.07192019.3%Agarose_HRD10591_14-57-29-359.txt Node
Date: Fri Jul 19 14:57:29 EDT 2019
User: cochatt
Spectrometer: HR+D1059
Trigger mode: 1
Integration Time (sec): 1.000000E-1
Scans to average: 1
Electric dark correction enabled: true
Nonlinearity correction enabled: false
Boxcar width: 0
XAxis mode: Wavelengths
Number of Pixels in Spectrum: 2048
>>>>>Begin Spectral Data<<<<<
223.165	-27.19
223.4	-27.19
223.635	-27.19
223.869	-21.19
224.104	-24.19
224.338	-3.19
224.573	-21.19
224.808	1.81
225.042	-17.19
225.277	-13.19
225.511	2.81
225.746	3.81
225.98	9.81
226.215	6.81
226.449	17.81
226.683	23.81
226.918	29.81
227.152	30.81
227.387	34.81
227.621	32.81
227.856	43.81
228.09	44.81
228.324	47.81
228.559	68.81
228.793	53.81
229.027	67.81
229.262	65.81
229.496	56.81
229.73	62.81
229.964	70.81
230.199	78.81
230.433	78.81
230.667	80.81
230.901	70.81
231.136	94.81
231.37	66.81
231.604	78.81
231.838	70.81
232.072	75.81
232.306	75.81
232.541	68.81
232.775	74.81
233.009	92.81
233.243	75.81
233.477	86.81
233.711	79.81
233.945	77.81
234.179	73.81
234.413	81.81
234.647	87.81
234.881	72.81
235.115	74.81
235.349	84.81
235.583	78.81
235.817	72.81
236.051	60.81
236.285	71.81
236.519	78.81
236.753	68.81
236.987	80.81
237.221	77.81
237.455	64.81
237.689	70.81
237.922	83.81
238.156	84.81
238.39	74.81
238.624	62.81
238.858	66.81
239.091	65.81
239.325	89.81
239.559	66.81
239.793	64.81
240.027	82.81
240.26	65.81
240.494	73.81
240.728	65.81
240.961	95.81
241.195	78.81
241.429	65.81
241.662	82.81
241.896	72.81
242.13	85.81
242.363	74.81
242.597	64.81
242.83	79.81
243.064	87.81
243.298	71.81
243.531	80.81
243.765	80.81
243.998	51.81
244.232	86.81
244.465	80.81
244.699	77.81
244.932	72.81
245.166	72.81
245.399	77.81
245.633	63.81
245.866	73.81
246.099	79.81
246.333	77.81
246.566	75.81
246.8	48.81
247.033	68.81
247.266	65.81
247.5	54.81
247.733	63.81
247.966	68.81
248.2	82.81
248.433	68.81
248.666	84.81
248.899	80.81
249.133	74.81
249.366	68.81
249.599	98.81
249.832	67.81
250.066	74.81
250.299	65.81
250.532	80.81
250.765	82.81
250.998	76.81
251.231	88.81
251.465	65.81
251.698	72.81
251.931	79.81
252.164	82.81
252.397	68.81
252.63	72.81
252.863	76.81
253.096	69.81
253.329	64.81
253.562	78.81
253.795	76.81
254.028	85.81
254.261	72.81
254.494	78.81
254.727	78.81
254.96	67.81
255.193	70.81
255.426	75.81
255.659	68.81
255.892	89.81
256.124	82.81
256.357	71.81
256.59	73.81
256.823	75.81
257.056	91.81
257.289	76.81
257.521	79.81
257.754	64.81
257.987	81.81
258.22	66.81
258.452	89.81
258.685	87.81
258.918	80.81
259.151	78.81
259.383	76.81
259.616	71.81
259.849	96.81
260.081	84.81
260.314	84.81
260.547	78.81
260.779	84.81
261.012	75.81
261.244	72.81
261.477	76.81
261.71	76.81
261.942	76.81
262.175	68.81
262.407	67.81
262.64	67.81
262.872	84.81
263.105	77.81
263.337	69.81
263.57	69.81
263.802	74.81
264.035	80.81
264.267	81.81
264.499	63.81
264.732	66.81
264.964	68.81
265.197	89.81
265.429	69.81
265.661	82.81
265.894	82.81
266.126	94.81
266.358	73.81
266.591	76.81
266.823	68.81
267.055	80.81
267.287	76.81
267.52	77.81
267.752	76.81
267.984	84.81
268.216	79.81
268.448	66.81
268.681	71.81
268.913	84.81
269.145	92.81
269.377	77.81
269.609	75.81
269.841	66.81
270.073	75.81
270.306	80.81
270.538	78.81
270.77	77.81
271.002	69.81
271.234	85.81
271.466	66.81
271.698	72.81
271.93	66.81
272.162	78.81
272.394	98.81
272.626	87.81
272.858	65.81
273.09	82.81
273.322	87.81
273.553	77.81
273.785	77.81
274.017	62.81
274.249	90.81
274.481	79.81
274.713	70.81
274.945	87.81
275.176	76.81
275.408	95.81
275.64	86.81
275.872	88.81
276.104	77.81
276.335	76.81
276.567	82.81
276.799	82.81
277.031	96.81
277.262	76.81
277.494	76.81
277.726	71.81
277.957	84.81
278.189	86.81
278.421	78.81
278.652	83.81
278.884	82.81
279.115	87.81
279.347	87.81
279.579	78.81
279.81	70.81
280.042	78.81
280.273	77.81
280.505	67.81
280.736	79.81
280.968	91.81
281.199	96.81
281.431	77.81
281.662	76.81
281.894	100.81
282.125	85.81
282.356	79.81
282.588	79.81
282.819	86.81
283.051	79.81
283.282	80.81
283.513	74.81
283.745	77.81
283.976	83.81
284.207	90.81
284.439	71.81
284.67	85.81
284.901	78.81
285.132	91.81
285.364	84.81
285.595	75.81
285.826	74.81
286.057	68.81
286.288	74.81
286.52	80.81
286.751	96.81
286.982	97.81
287.213	77.81
287.444	81.81
287.675	83.81
287.906	85.81
288.138	85.81
288.369	72.81
288.6	80.81
288.831	72.81
289.062	93.81
289.293	91.81
289.524	80.81
289.755	74.81
289.986	79.81
290.217	81.81
290.448	82.81
290.679	64.81
290.91	77.81
291.141	78.81
291.371	81.81
291.602	92.81
291.833	81.81
292.064	80.81
292.295	88.81
292.526	81.81
292.757	70.81
292.987	72.81
293.218	85.81
293.449	81.81
293.68	64.81
293.91	73.81
294.141	76.81
294.372	84.81
294.603	76.81
294.833	83.81
295.064	83.81
295.295	89.81
295.525	85.81
295.756	75.81
295.987	72.81
296.217	85.81
296.448	82.81
296.679	85.81
296.909	95.81
297.14	66.81
297.37	79.81
297.601	73.81
297.831	76.81
298.062	78.81
298.292	84.81
298.523	79.81
298.753	72.81
298.984	73.81
299.214	95.81
299.445	82.81
299.675	80.81
299.905	76.81
300.136	81.81
300.366	76.81
300.597	76.81
300.827	86.81
301.057	92.81
301.288	70.81
301.518	79.81
301.748	90.81
301.979	87.81
302.209	80.81
302.439	84.81
302.669	84.81
302.9	76.81
303.13	69.81
303.36	80.81
303.59	83.81
303.82	86.81
304.051	87.81
304.281	97.81
304.511	83.81
304.741	71.81
304.971	82.81
305.201	70.81
305.431	76.81
305.661	74.81
305.891	85.81
306.121	83.81
306.352	78.81
306.582	83.81
306.812	77.81
307.042	63.81
307.272	78.81
307.502	77.81
307.731	71.81
307.961	76.81
308.191	72.81
308.421	83.81
308.651	77.81
308.881	85.81
309.111	68.81
309.341	83.81
309.571	92.81
309.8	66.81
310.03	80.81
310.26	84.81
310.49	81.81
310.72	87.81
310.949	82.81
311.179	67.81
311.409	79.81
311.639	93.81
311.868	76.81
312.098	86.81
312.328	89.81
312.557	85.81
312.787	72.81
313.017	79.81
313.246	86.81
313.476	76.81
313.706	80.81
313.935	75.81
314.165	74.81
314.394	65.81
314.624	76.81
314.853	80.81
315.083	78.81
315.312	90.81
315.542	84.81
315.771	79.81
316.001	71.81
316.23	74.81
316.46	76.81
316.689	80.81
316.919	83.81
317.148	73.81
317.377	82.81
317.607	92.81
317.836	80.81
318.065	92.81
318.295	90.81
318.524	86.81
318.753	78.81
318.983	74.81
319.212	90.81
319.441	85.81
319.67	90.81
319.9	88.81
320.129	76.81
320.358	89.81
320.587	87.81
320.816	64.81
321.046	69.81
321.275	84.81
321.504	78.81
321.733	77.81
321.962	85.81
322.191	86.81
322.42	78.81
322.649	87.81
322.878	65.81
323.108	77.81
323.337	87.81
323.566	75.81
323.795	84.81
324.024	89.81
324.253	106.81
324.482	96.81
324.71	95.81
324.939	88.81
325.168	78.81
325.397	81.81
325.626	98.81
325.855	82.81
326.084	84.81
326.313	86.81
326.542	77.81
326.77	98.81
326.999	86.81
327.228	107.81
327.457	81.81
327.686	81.81
327.914	80.81
328.143	81.81
328.372	67.81
328.6	80.81
328.829	74.81
329.058	79.81
329.287	76.81
329.515	84.81
329.744	86.81
329.972	73.81
330.201	90.81
330.43	78.81
330.658	76.81
330.887	75.81
331.115	93.81
331.344	78.81
331.572	85.81
331.801	87.81
332.03	80.81
332.258	67.81
332.486	82.81
332.715	74.81
332.943	86.81
333.172	85.81
333.4	82.81
333.629	84.81
333.857	79.81
334.085	87.81
334.314	86.81
334.542	70.81
334.771	80.81
334.999	72.81
335.227	82.81
335.455	79.81
335.684	96.81
335.912	80.81
336.14	79.81
336.369	91.81
336.597	87.81
336.825	79.81
337.053	80.81
337.281	72.81
337.51	89.81
337.738	97.81
337.966	81.81
338.194	93.81
338.422	97.81
338.65	75.81
338.878	66.81
339.106	83.81
339.334	84.81
339.562	93.81
339.79	76.81
340.018	75.81
340.246	87.81
340.474	74.81
340.702	79.81
340.93	99.81
341.158	91.81
341.386	89.81
341.614	81.81
341.842	92.81
342.07	75.81
342.298	95.81
342.526	76.81
342.754	81.81
342.981	72.81
343.209	88.81
343.437	74.81
343.665	86.81
343.893	72.81
344.12	69.81
344.348	83.81
344.576	67.81
344.804	76.81
345.031	81.81
345.259	90.81
345.487	77.81
345.714	80.81
345.942	68.81
346.17	74.81
346.397	90.81
346.625	91.81
346.853	88.81
347.08	61.81
347.308	85.81
347.535	83.81
347.763	75.81
347.99	83.81
348.218	93.81
348.445	88.81
348.673	86.81
348.9	95.81
349.128	93.81
349.355	65.81
349.583	91.81
349.81	82.81
350.037	88.81
350.265	77.81
350.492	71.81
350.72	74.81
350.947	88.81
351.174	80.81
351.402	79.81
351.629	75.81
351.856	81.81
352.083	84.81
352.311	74.81
352.538	72.81
352.765	64.81
352.992	62.81
353.22	77.81
353.447	72.81
353.674	91.81
353.901	82.81
354.128	72.81
354.355	90.81
354.583	78.81
354.81	78.81
355.037	72.81
355.264	83.81
355.491	78.81
355.718	86.81
355.945	79.81
356.172	82.81
356.399	90.81
356.626	81.81
356.853	87.81
357.08	83.81
357.307	80.81
357.534	80.81
357.761	78.81
357.988	96.81
358.215	85.81
358.441	94.81
358.668	79.81
358.895	77.81
359.122	87.81
359.349	79.81
359.576	77.81
359.802	72.81
360.029	94.81
360.256	82.81
360.483	61.81
360.709	89.81
360.936	86.81
361.163	72.81
361.39	74.81
361.616	66.81
361.843	71.81
362.07	82.81
362.296	81.81
362.523	87.81
362.749	69.81
362.976	85.81
363.203	88.81
363.429	75.81
363.656	76.81
363.882	79.81
364.109	77.81
364.335	85.81
364.562	76.81
364.788	77.81
365.015	87.81
365.241	78.81
365.468	84.81
365.694	85.81
365.92	69.81
366.147	76.81
366.373	78.81
366.599	71.81
366.826	86.81
367.052	93.81
367.278	84.81
367.505	86.81
367.731	92.81
367.957	79.81
368.184	64.81
368.41	99.81
368.636	85.81
368.862	72.81
369.089	95.81
369.315	80.81
369.541	84.81
369.767	91.81
369.993	83.81
370.219	80.81
370.445	78.81
370.672	78.81
370.898	85.81
371.124	71.81
371.35	92.81
371.576	83.81
371.802	85.81
372.028	82.81
372.254	74.81
372.48	87.81
372.706	90.81
372.932	82.81
373.158	86.81
373.384	97.81
373.61	101.81
373.835	90.81
374.061	74.81
374.287	96.81
374.513	81.81
374.739	96.81
374.965	84.81
375.191	81.81
375.416	79.81
375.642	98.81
375.868	84.81
376.094	97.81
376.319	102.81
376.545	90.81
376.771	88.81
376.997	96.81
377.222	69.81
377.448	92.81
377.674	75.81
377.899	83.81
378.125	92.81
378.35	102.81
378.576	64.81
378.802	85.81
379.027	90.81
379.253	90.81
379.478	89.81
379.704	96.81
379.929	80.81
380.155	87.81
380.38	101.81
380.606	90.81
380.831	100.81
381.057	94.81
381.282	99.81
381.507	89.81
381.733	88.81
381.958	102.81
382.184	95.81
382.409	97.81
382.634	101.81
382.86	90.81
383.085	105.81
383.31	108.81
383.535	95.81
383.761	86.81
383.986	91.81
384.211	79.81
384.436	81.81
384.662	101.81
384.887	95.81
385.112	77.81
385.337	95.81
385.562	93.81
385.787	99.81
386.013	108.81
386.238	90.81
386.463	90.81
386.688	92.81
386.913	92.81
387.138	87.81
387.363	93.81
387.588	106.81
387.813	106.81
388.038	97.81
388.263	86.81
388.488	97.81
388.713	90.81
388.938	89.81
389.163	98.81
389.387	87.81
389.612	87.81
389.837	91.81
390.062	88.81
390.287	109.81
390.512	88.81
390.736	98.81
390.961	105.81
391.186	97.81
391.411	95.81
391.636	97.81
391.86	102.81
392.085	105.81
392.31	116.81
392.534	107.81
392.759	97.81
392.984	104.81
393.208	113.81
393.433	102.81
393.658	100.81
393.882	108.81
394.107	99.81
394.331	104.81
394.556	111.81
394.78	99.81
395.005	102.81
395.229	98.81
395.454	99.81
395.678	98.81
395.903	85.81
396.127	110.81
396.352	103.81
396.576	103.81
396.801	99.81
397.025	108.81
397.249	101.81
397.474	106.81
397.698	117.81
397.922	103.81
398.147	108.81
398.371	110.81
398.595	100.81
398.82	106.81
399.044	96.81
399.268	93.81
399.492	113.81
399.717	113.81
399.941	103.81
400.165	114.81
400.389	109.81
400.613	99.81
400.837	97.81
401.062	113.81
401.286	107.81
401.51	87.81
401.734	116.81
401.958	102.81
402.182	93.81
402.406	103.81
402.63	111.81
402.854	108.81
403.078	107.81
403.302	111.81
403.526	101.81
403.75	119.81
403.974	112.81
404.198	120.81
404.422	132.81
404.645	114.81
404.869	124.81
405.093	117.81
405.317	116.81
405.541	119.81
405.765	124.81
405.988	126.81
406.212	121.81
406.436	120.81
406.66	126.81
406.883	106.81
407.107	110.81
407.331	96.81
407.555	108.81
407.778	113.81
408.002	124.81
408.226	109.81
408.449	107.81
408.673	107.81
408.896	109.81
409.12	115.81
409.344	98.81
409.567	114.81
409.791	123.81
410.014	125.81
410.238	108.81
410.461	115.81
410.685	121.81
410.908	118.81
411.132	120.81
411.355	126.81
411.578	126.81
411.802	126.81
412.025	117.81
412.249	103.81
412.472	118.81
412.695	115.81
412.919	126.81
413.142	110.81
413.365	114.81
413.589	126.81
413.812	131.81
414.035	130.81
414.258	120.81
414.482	120.81
414.705	104.81
414.928	119.81
415.151	110.81
415.374	120.81
415.597	110.81
415.821	110.81
416.044	122.81
416.267	134.81
416.49	122.81
416.713	125.81
416.936	127.81
417.159	115.81
417.382	122.81
417.605	121.81
417.828	124.81
418.051	119.81
418.274	116.81
418.497	118.81
418.72	133.81
418.943	112.81
419.166	134.81
419.389	132.81
419.611	140.81
419.834	130.81
420.057	134.81
420.28	107.81
420.503	142.81
420.726	118.81
420.948	125.81
421.171	131.81
421.394	116.81
421.617	138.81
421.839	136.81
422.062	131.81
422.285	123.81
422.507	133.81
422.73	141.81
422.953	134.81
423.175	111.81
423.398	132.81
423.621	115.81
423.843	141.81
424.066	115.81
424.288	119.81
424.511	138.81
424.733	120.81
424.956	125.81
425.178	139.81
425.401	122.81
425.623	114.81
425.846	123.81
426.068	127.81
426.291	128.81
426.513	119.81
426.735	130.81
426.958	128.81
427.18	124.81
427.402	122.81
427.625	130.81
427.847	130.81
428.069	122.81
428.292	125.81
428.514	128.81
428.736	125.81
428.958	122.81
429.181	130.81
429.403	132.81
429.625	122.81
429.847	123.81
430.069	104.81
430.292	122.81
430.514	127.81
430.736	124.81
430.958	142.81
431.18	121.81
431.402	109.81
431.624	112.81
431.846	112.81
432.068	81.81
432.29	86.81
432.512	94.81
432.734	124.81
432.956	93.81
433.178	126.81
433.4	134.81
433.622	134.81
433.844	107.81
434.066	121.81
434.287	102.81
434.509	92.81
434.731	103.81
434.953	108.81
435.175	126.81
435.397	123.81
435.618	107.81
435.84	102.81
436.062	108.81
436.284	110.81
436.505	128.81
436.727	136.81
436.949	124.81
437.17	136.81
437.392	114.81
437.614	115.81
437.835	119.81
438.057	88.81
438.278	108.81
438.5	113.81
438.721	119.81
438.943	132.81
439.165	131.81
439.386	132.81
439.608	142.81
439.829	149.81
440.05	131.81
440.272	130.81
440.493	144.81
440.715	135.81
440.936	137.81
441.158	138.81
441.379	115.81
441.6	140.81
441.822	132.81
442.043	130.81
442.264	134.81
442.486	141.81
442.707	125.81
442.928	145.81
443.149	117.81
443.371	141.81
443.592	139.81
443.813	126.81
444.034	138.81
444.255	132.81
444.476	125.81
444.698	153.81
444.919	131.81
445.14	235.81
445.361	197.81
445.582	156.81
445.803	144.81
446.024	155.81
446.245	148.81
446.466	133.81
446.687	150.81
446.908	146.81
447.129	149.81
447.35	143.81
447.571	130.81
447.792	132.81
448.013	138.81
448.234	144.81
448.455	136.81
448.675	134.81
448.896	128.81
449.117	128.81
449.338	134.81
449.559	120.81
449.779	134.81
450	126.81
450.221	130.81
450.442	125.81
450.662	139.81
450.883	126.81
451.104	118.81
451.324	136.81
451.545	115.81
451.766	132.81
451.986	118.81
452.207	124.81
452.428	124.81
452.648	125.81
452.869	107.81
453.089	112.81
453.31	96.81
453.53	100.81
453.751	95.81
453.971	95.81
454.192	99.81
454.412	111.81
454.633	114.81
454.853	112.81
455.073	117.81
455.294	115.81
455.514	123.81
455.734	113.81
455.955	112.81
456.175	89.81
456.395	113.81
456.616	108.81
456.836	108.81
457.056	103.81
457.276	97.81
457.497	111.81
457.717	103.81
457.937	99.81
458.157	96.81
458.377	113.81
458.598	91.81
458.818	90.81
459.038	76.81
459.258	78.81
459.478	71.81
459.698	83.81
459.918	92.81
460.138	111.81
460.358	108.81
460.578	121.81
460.798	112.81
461.018	95.81
461.238	101.81
461.458	117.81
461.678	98.81
461.898	86.81
462.118	110.81
462.338	104.81
462.558	110.81
462.777	106.81
462.997	103.81
463.217	94.81
463.437	108.81
463.657	112.81
463.876	107.81
464.096	97.81
464.316	114.81
464.536	101.81
464.755	119.81
464.975	99.81
465.195	92.81
465.414	107.81
465.634	102.81
465.854	106.81
466.073	119.81
466.293	128.81
466.512	126.81
466.732	132.81
466.951	141.81
467.171	128.81
467.391	122.81
467.61	120.81
467.829	134.81
468.049	136.81
468.268	130.81
468.488	125.81
468.707	140.81
468.927	134.81
469.146	130.81
469.365	121.81
469.585	130.81
469.804	132.81
470.023	151.81
470.243	147.81
470.462	132.81
470.681	133.81
470.901	142.81
471.12	132.81
471.339	136.81
471.558	125.81
471.777	138.81
471.997	119.81
472.216	118.81
472.435	108.81
472.654	118.81
472.873	102.81
473.092	118.81
473.311	122.81
473.53	114.81
473.749	124.81
473.968	133.81
474.187	126.81
474.406	112.81
474.625	117.81
474.844	129.81
475.063	122.81
475.282	115.81
475.501	107.81
475.72	109.81
475.939	112.81
476.158	123.81
476.377	115.81
476.596	99.81
476.814	115.81
477.033	99.81
477.252	114.81
477.471	115.81
477.69	131.81
477.908	122.81
478.127	128.81
478.346	139.81
478.564	126.81
478.783	117.81
479.002	135.81
479.22	121.81
479.439	125.81
479.658	120.81
479.876	102.81
480.095	96.81
480.313	113.81
480.532	94.81
480.751	108.81
480.969	97.81
481.188	83.81
481.406	101.81
481.624	76.81
481.843	82.81
482.061	88.81
482.28	105.81
482.498	109.81
482.717	95.81
482.935	132.81
483.153	134.81
483.372	144.81
483.59	131.81
483.808	130.81
484.027	130.81
484.245	139.81
484.463	136.81
484.681	151.81
484.9	142.81
485.118	142.81
485.336	127.81
485.554	110.81
485.772	98.81
485.99	93.81
486.209	111.81
486.427	117.81
486.645	115.81
486.863	125.81
487.081	134.81
487.299	121.81
487.517	131.81
487.735	152.81
487.953	155.81
488.171	167.81
488.389	171.81
488.607	157.81
488.825	143.81
489.043	110.81
489.261	126.81
489.479	142.81
489.696	123.81
489.914	142.81
490.132	132.81
490.35	155.81
490.568	144.81
490.786	163.81
491.003	162.81
491.221	188.81
491.439	183.81
491.657	201.81
491.874	207.81
492.092	215.81
492.31	225.81
492.527	218.81
492.745	202.81
492.963	176.81
493.18	176.81
493.398	189.81
493.615	184.81
493.833	175.81
494.05	163.81
494.268	158.81
494.485	175.81
494.703	174.81
494.92	184.81
495.138	162.81
495.355	154.81
495.573	166.81
495.79	177.81
496.008	164.81
496.225	165.81
496.442	159.81
496.66	166.81
496.877	170.81
497.094	165.81
497.312	163.81
497.529	154.81
497.746	145.81
497.963	152.81
498.181	116.81
498.398	134.81
498.615	120.81
498.832	111.81
499.049	114.81
499.267	119.81
499.484	127.81
499.701	127.81
499.918	136.81
500.135	122.81
500.352	143.81
500.569	130.81
500.786	137.81
501.003	135.81
501.22	149.81
501.437	135.81
501.654	128.81
501.871	120.81
502.088	134.81
502.305	124.81
502.522	125.81
502.739	123.81
502.956	103.81
503.172	118.81
503.389	116.81
503.606	109.81
503.823	110.81
504.04	127.81
504.256	112.81
504.473	114.81
504.69	131.81
504.907	118.81
505.123	109.81
505.34	120.81
505.557	119.81
505.773	116.81
505.99	103.81
506.207	99.81
506.423	120.81
506.64	118.81
506.856	119.81
507.073	122.81
507.289	128.81
507.506	123.81
507.722	102.81
507.939	115.81
508.155	118.81
508.372	120.81
508.588	113.81
508.805	115.81
509.021	103.81
509.238	97.81
509.454	99.81
509.67	110.81
509.887	99.81
510.103	95.81
510.319	92.81
510.536	85.81
510.752	75.81
510.968	93.81
511.184	80.81
511.401	93.81
511.617	81.81
511.833	85.81
512.049	87.81
512.265	85.81
512.481	98.81
