Data from Location2.07152019.Energy5.Lamp.07192019.3%Agarose_HRD10591_14-57-44-358.txt Node
Date: Fri Jul 19 14:57:44 EDT 2019
User: cochatt
Spectrometer: HR+D1059
Trigger mode: 1
Integration Time (sec): 1.000000E-1
Scans to average: 1
Electric dark correction enabled: true
Nonlinearity correction enabled: false
Boxcar width: 0
XAxis mode: Wavelengths
Number of Pixels in Spectrum: 2048
>>>>>Begin Spectral Data<<<<<
223.165	-2.06
223.4	-2.06
223.635	-2.06
223.869	-31.06
224.104	-8.06
224.338	-11.06
224.573	-7.06
224.808	-6.06
225.042	-18.06
225.277	-18.06
225.511	-9.06
225.746	14.94
225.98	10.94
226.215	7.94
226.449	6.94
226.683	24.94
226.918	24.94
227.152	19.94
227.387	47.94
227.621	20.94
227.856	37.94
228.09	37.94
228.324	54.94
228.559	52.94
228.793	35.94
229.027	59.94
229.262	64.94
229.496	62.94
229.73	63.94
229.964	73.94
230.199	79.94
230.433	75.94
230.667	79.94
230.901	72.94
231.136	76.94
231.37	60.94
231.604	81.94
231.838	70.94
232.072	91.94
232.306	81.94
232.541	72.94
232.775	82.94
233.009	85.94
233.243	93.94
233.477	75.94
233.711	94.94
233.945	83.94
234.179	89.94
234.413	87.94
234.647	73.94
234.881	72.94
235.115	89.94
235.349	59.94
235.583	74.94
235.817	82.94
236.051	81.94
236.285	78.94
236.519	82.94
236.753	86.94
236.987	81.94
237.221	64.94
237.455	73.94
237.689	77.94
237.922	80.94
238.156	77.94
238.39	68.94
238.624	67.94
238.858	72.94
239.091	67.94
239.325	84.94
239.559	77.94
239.793	73.94
240.027	64.94
240.26	59.94
240.494	79.94
240.728	76.94
240.961	79.94
241.195	71.94
241.429	75.94
241.662	65.94
241.896	76.94
242.13	74.94
242.363	73.94
242.597	79.94
242.83	92.94
243.064	80.94
243.298	82.94
243.531	85.94
243.765	64.94
243.998	78.94
244.232	88.94
244.465	78.94
244.699	79.94
244.932	88.94
245.166	67.94
245.399	78.94
245.633	84.94
245.866	88.94
246.099	69.94
246.333	69.94
246.566	82.94
246.8	73.94
247.033	79.94
247.266	67.94
247.5	69.94
247.733	81.94
247.966	74.94
248.2	75.94
248.433	69.94
248.666	84.94
248.899	81.94
249.133	77.94
249.366	76.94
249.599	82.94
249.832	81.94
250.066	94.94
250.299	83.94
250.532	71.94
250.765	62.94
250.998	87.94
251.231	80.94
251.465	83.94
251.698	80.94
251.931	73.94
252.164	83.94
252.397	70.94
252.63	72.94
252.863	89.94
253.096	78.94
253.329	67.94
253.562	86.94
253.795	66.94
254.028	73.94
254.261	80.94
254.494	67.94
254.727	88.94
254.96	71.94
255.193	71.94
255.426	76.94
255.659	69.94
255.892	72.94
256.124	69.94
256.357	78.94
256.59	88.94
256.823	73.94
257.056	62.94
257.289	71.94
257.521	78.94
257.754	70.94
257.987	91.94
258.22	80.94
258.452	67.94
258.685	80.94
258.918	73.94
259.151	59.94
259.383	73.94
259.616	79.94
259.849	70.94
260.081	82.94
260.314	84.94
260.547	75.94
260.779	87.94
261.012	88.94
261.244	99.94
261.477	78.94
261.71	88.94
261.942	75.94
262.175	91.94
262.407	93.94
262.64	80.94
262.872	72.94
263.105	71.94
263.337	79.94
263.57	85.94
263.802	69.94
264.035	72.94
264.267	84.94
264.499	76.94
264.732	80.94
264.964	78.94
265.197	84.94
265.429	77.94
265.661	81.94
265.894	90.94
266.126	79.94
266.358	83.94
266.591	65.94
266.823	79.94
267.055	81.94
267.287	83.94
267.52	87.94
267.752	82.94
267.984	93.94
268.216	89.94
268.448	79.94
268.681	78.94
268.913	74.94
269.145	75.94
269.377	90.94
269.609	94.94
269.841	83.94
270.073	95.94
270.306	90.94
270.538	89.94
270.77	85.94
271.002	88.94
271.234	82.94
271.466	76.94
271.698	89.94
271.93	86.94
272.162	70.94
272.394	79.94
272.626	81.94
272.858	83.94
273.09	86.94
273.322	60.94
273.553	71.94
273.785	72.94
274.017	81.94
274.249	64.94
274.481	68.94
274.713	82.94
274.945	91.94
275.176	76.94
275.408	67.94
275.64	86.94
275.872	77.94
276.104	78.94
276.335	72.94
276.567	78.94
276.799	77.94
277.031	64.94
277.262	89.94
277.494	86.94
277.726	85.94
277.957	70.94
278.189	86.94
278.421	102.94
278.652	88.94
278.884	67.94
279.115	78.94
279.347	79.94
279.579	101.94
279.81	84.94
280.042	81.94
280.273	78.94
280.505	88.94
280.736	83.94
280.968	78.94
281.199	90.94
281.431	86.94
281.662	87.94
281.894	87.94
282.125	82.94
282.356	85.94
282.588	74.94
282.819	62.94
283.051	83.94
283.282	82.94
283.513	82.94
283.745	84.94
283.976	66.94
284.207	87.94
284.439	89.94
284.67	73.94
284.901	80.94
285.132	79.94
285.364	86.94
285.595	90.94
285.826	81.94
286.057	83.94
286.288	76.94
286.52	95.94
286.751	82.94
286.982	78.94
287.213	77.94
287.444	77.94
287.675	78.94
287.906	72.94
288.138	78.94
288.369	90.94
288.6	80.94
288.831	70.94
289.062	93.94
289.293	68.94
289.524	80.94
289.755	88.94
289.986	88.94
290.217	94.94
290.448	96.94
290.679	80.94
290.91	86.94
291.141	79.94
291.371	82.94
291.602	84.94
291.833	64.94
292.064	78.94
292.295	91.94
292.526	88.94
292.757	87.94
292.987	80.94
293.218	87.94
293.449	81.94
293.68	88.94
293.91	87.94
294.141	92.94
294.372	87.94
294.603	102.94
294.833	67.94
295.064	96.94
295.295	88.94
295.525	88.94
295.756	93.94
295.987	71.94
296.217	78.94
296.448	93.94
296.679	77.94
296.909	96.94
297.14	81.94
297.37	81.94
297.601	79.94
297.831	74.94
298.062	81.94
298.292	65.94
298.523	69.94
298.753	84.94
298.984	82.94
299.214	82.94
299.445	88.94
299.675	88.94
299.905	84.94
300.136	89.94
300.366	87.94
300.597	74.94
300.827	70.94
301.057	91.94
301.288	76.94
301.518	75.94
301.748	90.94
301.979	90.94
302.209	80.94
302.439	80.94
302.669	80.94
302.9	101.94
303.13	76.94
303.36	89.94
303.59	89.94
303.82	82.94
304.051	89.94
304.281	80.94
304.511	88.94
304.741	82.94
304.971	82.94
305.201	79.94
305.431	70.94
305.661	82.94
305.891	84.94
306.121	84.94
306.352	73.94
306.582	85.94
306.812	81.94
307.042	82.94
307.272	96.94
307.502	85.94
307.731	77.94
307.961	87.94
308.191	73.94
308.421	79.94
308.651	82.94
308.881	97.94
309.111	82.94
309.341	91.94
309.571	83.94
309.8	68.94
310.03	80.94
310.26	75.94
310.49	86.94
310.72	84.94
310.949	86.94
311.179	79.94
311.409	77.94
311.639	89.94
311.868	93.94
312.098	88.94
312.328	81.94
312.557	81.94
312.787	80.94
313.017	89.94
313.246	85.94
313.476	78.94
313.706	80.94
313.935	93.94
314.165	89.94
314.394	75.94
314.624	93.94
314.853	89.94
315.083	79.94
315.312	96.94
315.542	92.94
315.771	94.94
316.001	75.94
316.23	80.94
316.46	68.94
316.689	76.94
316.919	86.94
317.148	86.94
317.377	92.94
317.607	85.94
317.836	83.94
318.065	85.94
318.295	74.94
318.524	80.94
318.753	74.94
318.983	73.94
319.212	75.94
319.441	73.94
319.67	76.94
319.9	98.94
320.129	88.94
320.358	82.94
320.587	72.94
320.816	82.94
321.046	77.94
321.275	81.94
321.504	83.94
321.733	81.94
321.962	90.94
322.191	81.94
322.42	82.94
322.649	90.94
322.878	79.94
323.108	83.94
323.337	80.94
323.566	87.94
323.795	86.94
324.024	88.94
324.253	74.94
324.482	71.94
324.71	80.94
324.939	89.94
325.168	80.94
325.397	80.94
325.626	86.94
325.855	78.94
326.084	80.94
326.313	94.94
326.542	84.94
326.77	85.94
326.999	90.94
327.228	83.94
327.457	87.94
327.686	77.94
327.914	91.94
328.143	72.94
328.372	89.94
328.6	89.94
328.829	86.94
329.058	74.94
329.287	97.94
329.515	89.94
329.744	64.94
329.972	78.94
330.201	80.94
330.43	79.94
330.658	75.94
330.887	79.94
331.115	75.94
331.344	81.94
331.572	90.94
331.801	75.94
332.03	81.94
332.258	83.94
332.486	90.94
332.715	68.94
332.943	87.94
333.172	69.94
333.4	66.94
333.629	99.94
333.857	75.94
334.085	69.94
334.314	74.94
334.542	78.94
334.771	95.94
334.999	85.94
335.227	81.94
335.455	84.94
335.684	90.94
335.912	85.94
336.14	97.94
336.369	91.94
336.597	66.94
336.825	77.94
337.053	79.94
337.281	63.94
337.51	79.94
337.738	94.94
337.966	86.94
338.194	79.94
338.422	71.94
338.65	89.94
338.878	89.94
339.106	82.94
339.334	93.94
339.562	75.94
339.79	82.94
340.018	86.94
340.246	98.94
340.474	85.94
340.702	73.94
340.93	86.94
341.158	65.94
341.386	81.94
341.614	86.94
341.842	91.94
342.07	77.94
342.298	76.94
342.526	77.94
342.754	85.94
342.981	84.94
343.209	81.94
343.437	93.94
343.665	85.94
343.893	83.94
344.12	79.94
344.348	89.94
344.576	80.94
344.804	99.94
345.031	96.94
345.259	94.94
345.487	78.94
345.714	76.94
345.942	74.94
346.17	83.94
346.397	82.94
346.625	72.94
346.853	92.94
347.08	72.94
347.308	89.94
347.535	79.94
347.763	94.94
347.99	94.94
348.218	86.94
348.445	94.94
348.673	67.94
348.9	84.94
349.128	73.94
349.355	88.94
349.583	92.94
349.81	87.94
350.037	78.94
350.265	78.94
350.492	72.94
350.72	81.94
350.947	86.94
351.174	78.94
351.402	75.94
351.629	81.94
351.856	96.94
352.083	74.94
352.311	81.94
352.538	72.94
352.765	76.94
352.992	85.94
353.22	86.94
353.447	75.94
353.674	85.94
353.901	79.94
354.128	97.94
354.355	79.94
354.583	75.94
354.81	82.94
355.037	85.94
355.264	79.94
355.491	82.94
355.718	75.94
355.945	78.94
356.172	83.94
356.399	84.94
356.626	78.94
356.853	90.94
357.08	82.94
357.307	63.94
357.534	69.94
357.761	89.94
357.988	75.94
358.215	90.94
358.441	74.94
358.668	85.94
358.895	78.94
359.122	85.94
359.349	82.94
359.576	74.94
359.802	91.94
360.029	90.94
360.256	73.94
360.483	82.94
360.709	82.94
360.936	79.94
361.163	92.94
361.39	71.94
361.616	84.94
361.843	90.94
362.07	79.94
362.296	77.94
362.523	77.94
362.749	88.94
362.976	82.94
363.203	98.94
363.429	78.94
363.656	80.94
363.882	90.94
364.109	92.94
364.335	81.94
364.562	85.94
364.788	87.94
365.015	94.94
365.241	88.94
365.468	75.94
365.694	81.94
365.92	77.94
366.147	85.94
366.373	82.94
366.599	83.94
366.826	103.94
367.052	98.94
367.278	80.94
367.505	88.94
367.731	99.94
367.957	79.94
368.184	74.94
368.41	94.94
368.636	85.94
368.862	99.94
369.089	94.94
369.315	82.94
369.541	93.94
369.767	89.94
369.993	83.94
370.219	83.94
370.445	78.94
370.672	79.94
370.898	76.94
371.124	86.94
371.35	90.94
371.576	77.94
371.802	93.94
372.028	88.94
372.254	92.94
372.48	94.94
372.706	87.94
372.932	88.94
373.158	95.94
373.384	72.94
373.61	103.94
373.835	83.94
374.061	85.94
374.287	96.94
374.513	83.94
374.739	97.94
374.965	90.94
375.191	94.94
375.416	80.94
375.642	84.94
375.868	92.94
376.094	80.94
376.319	85.94
376.545	93.94
376.771	98.94
376.997	78.94
377.222	96.94
377.448	86.94
377.674	91.94
377.899	89.94
378.125	94.94
378.35	96.94
378.576	87.94
378.802	100.94
379.027	89.94
379.253	99.94
379.478	91.94
379.704	93.94
379.929	101.94
380.155	94.94
380.38	105.94
380.606	97.94
380.831	104.94
381.057	100.94
381.282	92.94
381.507	88.94
381.733	95.94
381.958	97.94
382.184	81.94
382.409	85.94
382.634	92.94
382.86	99.94
383.085	95.94
383.31	90.94
383.535	105.94
383.761	93.94
383.986	98.94
384.211	80.94
384.436	94.94
384.662	87.94
384.887	96.94
385.112	94.94
385.337	91.94
385.562	88.94
385.787	95.94
386.013	121.94
386.238	83.94
386.463	95.94
386.688	102.94
386.913	89.94
387.138	98.94
387.363	106.94
387.588	96.94
387.813	94.94
388.038	99.94
388.263	100.94
388.488	114.94
388.713	89.94
388.938	97.94
389.163	86.94
389.387	93.94
389.612	83.94
389.837	81.94
390.062	91.94
390.287	95.94
390.512	88.94
390.736	89.94
390.961	102.94
391.186	100.94
391.411	83.94
391.636	92.94
391.86	112.94
392.085	100.94
392.31	107.94
392.534	102.94
392.759	95.94
392.984	111.94
393.208	111.94
393.433	108.94
393.658	106.94
393.882	103.94
394.107	110.94
394.331	97.94
394.556	87.94
394.78	100.94
395.005	107.94
395.229	100.94
395.454	97.94
395.678	102.94
395.903	110.94
396.127	117.94
396.352	108.94
396.576	108.94
396.801	105.94
397.025	119.94
397.249	98.94
397.474	106.94
397.698	99.94
397.922	102.94
398.147	112.94
398.371	95.94
398.595	119.94
398.82	116.94
399.044	112.94
399.268	103.94
399.492	113.94
399.717	107.94
399.941	100.94
400.165	103.94
400.389	99.94
400.613	103.94
400.837	103.94
401.062	111.94
401.286	129.94
401.51	112.94
401.734	102.94
401.958	110.94
402.182	96.94
402.406	112.94
402.63	114.94
402.854	102.94
403.078	117.94
403.302	101.94
403.526	114.94
403.75	95.94
403.974	121.94
404.198	105.94
404.422	109.94
404.645	121.94
404.869	99.94
405.093	117.94
405.317	115.94
405.541	116.94
405.765	107.94
405.988	113.94
406.212	98.94
406.436	123.94
406.66	117.94
406.883	120.94
407.107	125.94
407.331	117.94
407.555	107.94
407.778	114.94
408.002	89.94
408.226	117.94
408.449	121.94
408.673	117.94
408.896	117.94
409.12	112.94
409.344	125.94
409.567	98.94
409.791	117.94
410.014	125.94
410.238	119.94
410.461	129.94
410.685	118.94
410.908	111.94
411.132	113.94
411.355	120.94
411.578	118.94
411.802	118.94
412.025	110.94
412.249	118.94
412.472	119.94
412.695	113.94
412.919	106.94
413.142	116.94
413.365	119.94
413.589	121.94
413.812	114.94
414.035	129.94
414.258	105.94
414.482	97.94
414.705	103.94
414.928	119.94
415.151	117.94
415.374	118.94
415.597	127.94
415.821	118.94
416.044	125.94
416.267	115.94
416.49	125.94
416.713	131.94
416.936	120.94
417.159	129.94
417.382	118.94
417.605	139.94
417.828	119.94
418.051	125.94
418.274	126.94
418.497	116.94
418.72	121.94
418.943	130.94
419.166	125.94
419.389	123.94
419.611	115.94
419.834	135.94
420.057	144.94
420.28	124.94
420.503	119.94
420.726	118.94
420.948	122.94
421.171	137.94
421.394	127.94
421.617	142.94
421.839	136.94
422.062	147.94
422.285	134.94
422.507	134.94
422.73	136.94
422.953	127.94
423.175	120.94
423.398	126.94
423.621	122.94
423.843	119.94
424.066	122.94
424.288	139.94
424.511	136.94
424.733	137.94
424.956	136.94
425.178	139.94
425.401	139.94
425.623	133.94
425.846	137.94
426.068	114.94
426.291	116.94
426.513	120.94
426.735	129.94
426.958	141.94
427.18	121.94
427.402	129.94
427.625	125.94
427.847	131.94
428.069	107.94
428.292	121.94
428.514	123.94
428.736	125.94
428.958	122.94
429.181	131.94
429.403	119.94
429.625	120.94
429.847	130.94
430.069	126.94
430.292	122.94
430.514	119.94
430.736	140.94
430.958	117.94
431.18	114.94
431.402	132.94
431.624	106.94
431.846	109.94
432.068	86.94
432.29	89.94
432.512	97.94
432.734	120.94
432.956	119.94
433.178	135.94
433.4	134.94
433.622	127.94
433.844	129.94
434.066	126.94
434.287	102.94
434.509	95.94
434.731	90.94
434.953	106.94
435.175	118.94
435.397	129.94
435.618	109.94
435.84	116.94
436.062	114.94
436.284	123.94
436.505	131.94
436.727	137.94
436.949	134.94
437.17	143.94
437.392	135.94
437.614	106.94
437.835	119.94
438.057	99.94
438.278	109.94
438.5	121.94
438.721	125.94
438.943	129.94
439.165	135.94
439.386	146.94
439.608	137.94
439.829	138.94
440.05	144.94
440.272	140.94
440.493	156.94
440.715	136.94
440.936	140.94
441.158	143.94
441.379	152.94
441.6	139.94
441.822	145.94
442.043	144.94
442.264	142.94
442.486	125.94
442.707	129.94
442.928	150.94
443.149	133.94
443.371	130.94
443.592	142.94
443.813	131.94
444.034	121.94
444.255	128.94
444.476	153.94
444.698	139.94
444.919	133.94
445.14	210.94
445.361	197.94
445.582	157.94
445.803	143.94
446.024	136.94
446.245	147.94
446.466	141.94
446.687	150.94
446.908	160.94
447.129	150.94
447.35	146.94
447.571	146.94
447.792	138.94
448.013	143.94
448.234	146.94
448.455	149.94
448.675	135.94
448.896	139.94
449.117	137.94
449.338	125.94
449.559	137.94
449.779	127.94
450	123.94
450.221	115.94
450.442	126.94
450.662	126.94
450.883	120.94
451.104	133.94
451.324	142.94
451.545	125.94
451.766	136.94
451.986	119.94
452.207	115.94
452.428	130.94
452.648	119.94
452.869	120.94
453.089	118.94
453.31	104.94
453.53	110.94
453.751	105.94
453.971	95.94
454.192	100.94
454.412	104.94
454.633	127.94
454.853	131.94
455.073	107.94
455.294	115.94
455.514	114.94
455.734	114.94
455.955	111.94
456.175	116.94
456.395	110.94
456.616	104.94
456.836	109.94
457.056	99.94
457.276	104.94
457.497	123.94
457.717	121.94
457.937	109.94
458.157	94.94
458.377	90.94
458.598	101.94
458.818	86.94
459.038	94.94
459.258	86.94
459.478	75.94
459.698	84.94
459.918	103.94
460.138	103.94
460.358	100.94
460.578	127.94
460.798	122.94
461.018	124.94
461.238	115.94
461.458	114.94
461.678	113.94
461.898	114.94
462.118	117.94
462.338	124.94
462.558	95.94
462.777	116.94
462.997	105.94
463.217	103.94
463.437	105.94
463.657	109.94
463.876	112.94
464.096	98.94
464.316	98.94
464.536	95.94
464.755	117.94
464.975	101.94
465.195	121.94
465.414	113.94
465.634	124.94
465.854	107.94
466.073	106.94
466.293	115.94
466.512	119.94
466.732	118.94
466.951	125.94
467.171	133.94
467.391	139.94
467.61	120.94
467.829	130.94
468.049	127.94
468.268	139.94
468.488	135.94
468.707	151.94
468.927	127.94
469.146	145.94
469.365	127.94
469.585	135.94
469.804	137.94
470.023	127.94
470.243	140.94
470.462	133.94
470.681	129.94
470.901	135.94
471.12	144.94
471.339	145.94
471.558	134.94
471.777	129.94
471.997	141.94
472.216	143.94
472.435	113.94
472.654	111.94
472.873	107.94
473.092	114.94
473.311	125.94
473.53	117.94
473.749	120.94
473.968	128.94
474.187	125.94
474.406	128.94
474.625	119.94
474.844	123.94
475.063	143.94
475.282	119.94
475.501	111.94
475.72	120.94
475.939	127.94
476.158	120.94
476.377	131.94
476.596	121.94
476.814	92.94
477.033	108.94
477.252	113.94
477.471	132.94
477.69	123.94
477.908	130.94
478.127	121.94
478.346	140.94
478.564	142.94
478.783	126.94
479.002	130.94
479.22	142.94
479.439	131.94
479.658	127.94
479.876	104.94
480.095	121.94
480.313	114.94
480.532	118.94
480.751	108.94
480.969	89.94
481.188	96.94
481.406	93.94
481.624	74.94
481.843	84.94
482.061	98.94
482.28	123.94
482.498	117.94
482.717	104.94
482.935	115.94
483.153	139.94
483.372	148.94
483.59	145.94
483.808	140.94
484.027	122.94
484.245	122.94
484.463	145.94
484.681	150.94
484.9	144.94
485.118	133.94
485.336	130.94
485.554	110.94
485.772	109.94
485.99	106.94
486.209	112.94
486.427	96.94
486.645	108.94
486.863	130.94
487.081	140.94
487.299	130.94
487.517	137.94
487.735	171.94
487.953	179.94
488.171	192.94
488.389	180.94
488.607	161.94
488.825	126.94
489.043	132.94
489.261	114.94
489.479	132.94
489.696	141.94
489.914	142.94
490.132	151.94
490.35	137.94
490.568	147.94
490.786	175.94
491.003	179.94
491.221	158.94
491.439	189.94
491.657	181.94
491.874	198.94
492.092	202.94
492.31	230.94
492.527	212.94
492.745	184.94
492.963	199.94
493.18	186.94
493.398	182.94
493.615	173.94
493.833	179.94
494.05	163.94
494.268	161.94
494.485	170.94
494.703	170.94
494.92	170.94
495.138	174.94
495.355	171.94
495.573	179.94
495.79	168.94
496.008	154.94
496.225	170.94
496.442	157.94
496.66	156.94
496.877	162.94
497.094	164.94
497.312	155.94
497.529	154.94
497.746	138.94
497.963	144.94
498.181	129.94
498.398	138.94
498.615	134.94
498.832	115.94
499.049	117.94
499.267	125.94
499.484	121.94
499.701	132.94
499.918	127.94
500.135	129.94
500.352	139.94
500.569	129.94
500.786	154.94
501.003	140.94
501.22	136.94
501.437	143.94
501.654	123.94
501.871	115.94
502.088	140.94
502.305	124.94
502.522	133.94
502.739	128.94
502.956	109.94
503.172	119.94
503.389	120.94
503.606	111.94
503.823	113.94
504.04	130.94
504.256	119.94
504.473	115.94
504.69	117.94
504.907	125.94
505.123	109.94
505.34	117.94
505.557	111.94
505.773	128.94
505.99	125.94
506.207	115.94
506.423	138.94
506.64	110.94
506.856	115.94
507.073	128.94
507.289	125.94
507.506	119.94
507.722	125.94
507.939	123.94
508.155	117.94
508.372	113.94
508.588	123.94
508.805	102.94
509.021	102.94
509.238	101.94
509.454	106.94
509.67	94.94
509.887	83.94
510.103	87.94
510.319	79.94
510.536	81.94
510.752	89.94
510.968	79.94
511.184	74.94
511.401	68.94
511.617	87.94
511.833	87.94
512.049	91.94
512.265	101.94
