Data from Location2.07152019.Energy5.Lamp.07192019.3%Agarose_HRD10591_14-56-00-358.txt Node
Date: Fri Jul 19 14:56:00 EDT 2019
User: cochatt
Spectrometer: HR+D1059
Trigger mode: 1
Integration Time (sec): 1.000000E-1
Scans to average: 1
Electric dark correction enabled: true
Nonlinearity correction enabled: false
Boxcar width: 0
XAxis mode: Wavelengths
Number of Pixels in Spectrum: 2048
>>>>>Begin Spectral Data<<<<<
223.165	-17.06
223.4	-17.06
223.635	-17.06
223.869	-12.06
224.104	0.94
224.338	-16.06
224.573	-18.06
224.808	-14.06
225.042	-14.06
225.277	-15.06
225.511	3.94
225.746	8.94
225.98	-5.06
226.215	7.94
226.449	11.94
226.683	16.94
226.918	31.94
227.152	28.94
227.387	34.94
227.621	40.94
227.856	50.94
228.09	58.94
228.324	39.94
228.559	46.94
228.793	49.94
229.027	58.94
229.262	57.94
229.496	71.94
229.73	75.94
229.964	73.94
230.199	67.94
230.433	76.94
230.667	71.94
230.901	73.94
231.136	87.94
231.37	79.94
231.604	78.94
231.838	84.94
232.072	80.94
232.306	76.94
232.541	85.94
232.775	80.94
233.009	86.94
233.243	77.94
233.477	71.94
233.711	95.94
233.945	82.94
234.179	88.94
234.413	79.94
234.647	71.94
234.881	65.94
235.115	88.94
235.349	82.94
235.583	79.94
235.817	73.94
236.051	84.94
236.285	78.94
236.519	70.94
236.753	82.94
236.987	73.94
237.221	65.94
237.455	78.94
237.689	66.94
237.922	67.94
238.156	75.94
238.39	78.94
238.624	81.94
238.858	72.94
239.091	73.94
239.325	62.94
239.559	74.94
239.793	73.94
240.027	76.94
240.26	71.94
240.494	78.94
240.728	68.94
240.961	86.94
241.195	80.94
241.429	61.94
241.662	72.94
241.896	58.94
242.13	64.94
242.363	69.94
242.597	75.94
242.83	78.94
243.064	71.94
243.298	76.94
243.531	86.94
243.765	86.94
243.998	66.94
244.232	80.94
244.465	80.94
244.699	73.94
244.932	78.94
245.166	80.94
245.399	83.94
245.633	84.94
245.866	80.94
246.099	71.94
246.333	81.94
246.566	94.94
246.8	82.94
247.033	73.94
247.266	70.94
247.5	80.94
247.733	75.94
247.966	68.94
248.2	73.94
248.433	69.94
248.666	68.94
248.899	79.94
249.133	80.94
249.366	90.94
249.599	83.94
249.832	86.94
250.066	72.94
250.299	89.94
250.532	92.94
250.765	71.94
250.998	85.94
251.231	69.94
251.465	70.94
251.698	84.94
251.931	76.94
252.164	69.94
252.397	76.94
252.63	71.94
252.863	77.94
253.096	79.94
253.329	86.94
253.562	74.94
253.795	68.94
254.028	76.94
254.261	73.94
254.494	76.94
254.727	85.94
254.96	87.94
255.193	78.94
255.426	75.94
255.659	87.94
255.892	82.94
256.124	85.94
256.357	72.94
256.59	87.94
256.823	81.94
257.056	71.94
257.289	91.94
257.521	67.94
257.754	77.94
257.987	83.94
258.22	84.94
258.452	83.94
258.685	59.94
258.918	80.94
259.151	73.94
259.383	90.94
259.616	90.94
259.849	89.94
260.081	92.94
260.314	76.94
260.547	83.94
260.779	55.94
261.012	69.94
261.244	90.94
261.477	79.94
261.71	74.94
261.942	71.94
262.175	71.94
262.407	69.94
262.64	75.94
262.872	88.94
263.105	95.94
263.337	87.94
263.57	82.94
263.802	59.94
264.035	87.94
264.267	73.94
264.499	76.94
264.732	88.94
264.964	84.94
265.197	80.94
265.429	76.94
265.661	82.94
265.894	88.94
266.126	82.94
266.358	90.94
266.591	81.94
266.823	81.94
267.055	69.94
267.287	83.94
267.52	59.94
267.752	84.94
267.984	74.94
268.216	80.94
268.448	86.94
268.681	81.94
268.913	80.94
269.145	80.94
269.377	79.94
269.609	63.94
269.841	94.94
270.073	75.94
270.306	91.94
270.538	75.94
270.77	82.94
271.002	75.94
271.234	81.94
271.466	83.94
271.698	89.94
271.93	78.94
272.162	101.94
272.394	73.94
272.626	81.94
272.858	74.94
273.09	81.94
273.322	86.94
273.553	73.94
273.785	91.94
274.017	72.94
274.249	89.94
274.481	70.94
274.713	82.94
274.945	74.94
275.176	94.94
275.408	96.94
275.64	94.94
275.872	70.94
276.104	88.94
276.335	81.94
276.567	64.94
276.799	78.94
277.031	83.94
277.262	68.94
277.494	82.94
277.726	87.94
277.957	75.94
278.189	80.94
278.421	86.94
278.652	87.94
278.884	85.94
279.115	86.94
279.347	85.94
279.579	76.94
279.81	96.94
280.042	74.94
280.273	92.94
280.505	82.94
280.736	81.94
280.968	71.94
281.199	74.94
281.431	81.94
281.662	85.94
281.894	81.94
282.125	96.94
282.356	83.94
282.588	86.94
282.819	78.94
283.051	75.94
283.282	93.94
283.513	77.94
283.745	65.94
283.976	69.94
284.207	88.94
284.439	103.94
284.67	90.94
284.901	88.94
285.132	76.94
285.364	83.94
285.595	91.94
285.826	72.94
286.057	81.94
286.288	93.94
286.52	87.94
286.751	73.94
286.982	78.94
287.213	82.94
287.444	91.94
287.675	98.94
287.906	73.94
288.138	94.94
288.369	96.94
288.6	96.94
288.831	94.94
289.062	80.94
289.293	94.94
289.524	89.94
289.755	101.94
289.986	67.94
290.217	81.94
290.448	89.94
290.679	75.94
290.91	83.94
291.141	83.94
291.371	75.94
291.602	76.94
291.833	93.94
292.064	79.94
292.295	94.94
292.526	89.94
292.757	82.94
292.987	73.94
293.218	82.94
293.449	91.94
293.68	86.94
293.91	79.94
294.141	88.94
294.372	82.94
294.603	78.94
294.833	85.94
295.064	65.94
295.295	66.94
295.525	87.94
295.756	85.94
295.987	83.94
296.217	82.94
296.448	85.94
296.679	75.94
296.909	95.94
297.14	67.94
297.37	88.94
297.601	80.94
297.831	81.94
298.062	82.94
298.292	90.94
298.523	106.94
298.753	70.94
298.984	94.94
299.214	86.94
299.445	81.94
299.675	87.94
299.905	91.94
300.136	91.94
300.366	88.94
300.597	80.94
300.827	67.94
301.057	90.94
301.288	77.94
301.518	82.94
301.748	80.94
301.979	80.94
302.209	86.94
302.439	91.94
302.669	80.94
302.9	79.94
303.13	83.94
303.36	86.94
303.59	85.94
303.82	101.94
304.051	82.94
304.281	80.94
304.511	92.94
304.741	96.94
304.971	66.94
305.201	81.94
305.431	87.94
305.661	81.94
305.891	71.94
306.121	86.94
306.352	88.94
306.582	87.94
306.812	75.94
307.042	72.94
307.272	96.94
307.502	91.94
307.731	83.94
307.961	90.94
308.191	83.94
308.421	87.94
308.651	88.94
308.881	78.94
309.111	84.94
309.341	80.94
309.571	92.94
309.8	80.94
310.03	70.94
310.26	90.94
310.49	77.94
310.72	80.94
310.949	83.94
311.179	76.94
311.409	82.94
311.639	86.94
311.868	65.94
312.098	89.94
312.328	78.94
312.557	76.94
312.787	83.94
313.017	79.94
313.246	90.94
313.476	83.94
313.706	68.94
313.935	80.94
314.165	83.94
314.394	79.94
314.624	77.94
314.853	90.94
315.083	79.94
315.312	86.94
315.542	91.94
315.771	74.94
316.001	93.94
316.23	65.94
316.46	77.94
316.689	72.94
316.919	81.94
317.148	98.94
317.377	93.94
317.607	71.94
317.836	89.94
318.065	95.94
318.295	91.94
318.524	81.94
318.753	93.94
318.983	70.94
319.212	87.94
319.441	82.94
319.67	86.94
319.9	84.94
320.129	81.94
320.358	82.94
320.587	97.94
320.816	93.94
321.046	78.94
321.275	77.94
321.504	83.94
321.733	69.94
321.962	86.94
322.191	89.94
322.42	84.94
322.649	82.94
322.878	83.94
323.108	76.94
323.337	75.94
323.566	89.94
323.795	83.94
324.024	83.94
324.253	73.94
324.482	77.94
324.71	77.94
324.939	78.94
325.168	74.94
325.397	101.94
325.626	84.94
325.855	86.94
326.084	74.94
326.313	73.94
326.542	72.94
326.77	85.94
326.999	86.94
327.228	80.94
327.457	93.94
327.686	83.94
327.914	86.94
328.143	86.94
328.372	85.94
328.6	85.94
328.829	86.94
329.058	80.94
329.287	67.94
329.515	88.94
329.744	87.94
329.972	96.94
330.201	72.94
330.43	80.94
330.658	85.94
330.887	76.94
331.115	87.94
331.344	75.94
331.572	85.94
331.801	73.94
332.03	82.94
332.258	91.94
332.486	83.94
332.715	78.94
332.943	75.94
333.172	93.94
333.4	81.94
333.629	93.94
333.857	78.94
334.085	92.94
334.314	94.94
334.542	77.94
334.771	74.94
334.999	79.94
335.227	79.94
335.455	80.94
335.684	82.94
335.912	97.94
336.14	87.94
336.369	86.94
336.597	70.94
336.825	80.94
337.053	92.94
337.281	79.94
337.51	74.94
337.738	91.94
337.966	75.94
338.194	84.94
338.422	77.94
338.65	89.94
338.878	80.94
339.106	71.94
339.334	88.94
339.562	72.94
339.79	73.94
340.018	79.94
340.246	83.94
340.474	83.94
340.702	74.94
340.93	78.94
341.158	71.94
341.386	90.94
341.614	86.94
341.842	82.94
342.07	75.94
342.298	67.94
342.526	93.94
342.754	86.94
342.981	86.94
343.209	89.94
343.437	90.94
343.665	100.94
343.893	79.94
344.12	74.94
344.348	88.94
344.576	80.94
344.804	78.94
345.031	79.94
345.259	93.94
345.487	87.94
345.714	91.94
345.942	79.94
346.17	88.94
346.397	88.94
346.625	68.94
346.853	66.94
347.08	92.94
347.308	82.94
347.535	85.94
347.763	90.94
347.99	82.94
348.218	80.94
348.445	67.94
348.673	78.94
348.9	101.94
349.128	95.94
349.355	81.94
349.583	81.94
349.81	77.94
350.037	72.94
350.265	83.94
350.492	92.94
350.72	95.94
350.947	84.94
351.174	81.94
351.402	80.94
351.629	86.94
351.856	74.94
352.083	80.94
352.311	87.94
352.538	85.94
352.765	87.94
352.992	82.94
353.22	93.94
353.447	74.94
353.674	82.94
353.901	74.94
354.128	104.94
354.355	90.94
354.583	80.94
354.81	83.94
355.037	69.94
355.264	81.94
355.491	89.94
355.718	80.94
355.945	70.94
356.172	82.94
356.399	73.94
356.626	82.94
356.853	82.94
357.08	88.94
357.307	97.94
357.534	79.94
357.761	87.94
357.988	92.94
358.215	88.94
358.441	86.94
358.668	83.94
358.895	78.94
359.122	90.94
359.349	82.94
359.576	91.94
359.802	81.94
360.029	80.94
360.256	79.94
360.483	90.94
360.709	70.94
360.936	85.94
361.163	82.94
361.39	86.94
361.616	90.94
361.843	94.94
362.07	93.94
362.296	65.94
362.523	83.94
362.749	74.94
362.976	76.94
363.203	73.94
363.429	77.94
363.656	70.94
363.882	94.94
364.109	90.94
364.335	76.94
364.562	87.94
364.788	82.94
365.015	90.94
365.241	91.94
365.468	85.94
365.694	94.94
365.92	87.94
366.147	76.94
366.373	85.94
366.599	90.94
366.826	80.94
367.052	79.94
367.278	84.94
367.505	86.94
367.731	85.94
367.957	79.94
368.184	86.94
368.41	84.94
368.636	87.94
368.862	91.94
369.089	85.94
369.315	82.94
369.541	90.94
369.767	105.94
369.993	67.94
370.219	87.94
370.445	67.94
370.672	97.94
370.898	68.94
371.124	86.94
371.35	91.94
371.576	82.94
371.802	77.94
372.028	95.94
372.254	97.94
372.48	94.94
372.706	82.94
372.932	85.94
373.158	107.94
373.384	95.94
373.61	103.94
373.835	99.94
374.061	87.94
374.287	98.94
374.513	96.94
374.739	88.94
374.965	105.94
375.191	88.94
375.416	110.94
375.642	89.94
375.868	91.94
376.094	81.94
376.319	92.94
376.545	90.94
376.771	89.94
376.997	99.94
377.222	78.94
377.448	82.94
377.674	79.94
377.899	87.94
378.125	95.94
378.35	86.94
378.576	90.94
378.802	101.94
379.027	93.94
379.253	88.94
379.478	90.94
379.704	89.94
379.929	86.94
380.155	91.94
380.38	89.94
380.606	91.94
380.831	105.94
381.057	95.94
381.282	89.94
381.507	82.94
381.733	93.94
381.958	112.94
382.184	103.94
382.409	92.94
382.634	104.94
382.86	100.94
383.085	90.94
383.31	71.94
383.535	100.94
383.761	96.94
383.986	85.94
384.211	80.94
384.436	87.94
384.662	93.94
384.887	79.94
385.112	93.94
385.337	95.94
385.562	96.94
385.787	102.94
386.013	107.94
386.238	89.94
386.463	96.94
386.688	89.94
386.913	96.94
387.138	99.94
387.363	109.94
387.588	100.94
387.813	106.94
388.038	92.94
388.263	104.94
388.488	101.94
388.713	95.94
388.938	114.94
389.163	97.94
389.387	100.94
389.612	98.94
389.837	102.94
390.062	102.94
390.287	110.94
390.512	101.94
390.736	107.94
390.961	95.94
391.186	109.94
391.411	103.94
391.636	98.94
391.86	98.94
392.085	97.94
392.31	103.94
392.534	112.94
392.759	98.94
392.984	111.94
393.208	88.94
393.433	107.94
393.658	112.94
393.882	105.94
394.107	112.94
394.331	115.94
394.556	102.94
394.78	99.94
395.005	102.94
395.229	98.94
395.454	102.94
395.678	100.94
395.903	103.94
396.127	110.94
396.352	92.94
396.576	109.94
396.801	107.94
397.025	94.94
397.249	103.94
397.474	115.94
397.698	104.94
397.922	95.94
398.147	111.94
398.371	101.94
398.595	100.94
398.82	104.94
399.044	97.94
399.268	104.94
399.492	114.94
399.717	111.94
399.941	96.94
400.165	120.94
400.389	105.94
400.613	121.94
400.837	101.94
401.062	109.94
401.286	118.94
401.51	117.94
401.734	111.94
401.958	115.94
402.182	96.94
402.406	95.94
402.63	107.94
402.854	117.94
403.078	104.94
403.302	97.94
403.526	118.94
403.75	100.94
403.974	115.94
404.198	125.94
404.422	121.94
404.645	121.94
404.869	114.94
405.093	99.94
405.317	110.94
405.541	113.94
405.765	102.94
405.988	115.94
406.212	109.94
406.436	111.94
406.66	118.94
406.883	132.94
407.107	123.94
407.331	127.94
407.555	115.94
407.778	124.94
408.002	117.94
408.226	117.94
408.449	105.94
408.673	110.94
408.896	102.94
409.12	114.94
409.344	114.94
409.567	126.94
409.791	121.94
410.014	119.94
410.238	111.94
410.461	128.94
410.685	122.94
410.908	122.94
411.132	118.94
411.355	116.94
411.578	120.94
411.802	118.94
412.025	123.94
412.249	116.94
412.472	127.94
412.695	102.94
412.919	109.94
413.142	121.94
413.365	116.94
413.589	128.94
413.812	116.94
414.035	121.94
414.258	116.94
414.482	111.94
414.705	112.94
414.928	119.94
415.151	112.94
415.374	122.94
415.597	119.94
415.821	126.94
416.044	118.94
416.267	110.94
416.49	116.94
416.713	127.94
416.936	140.94
417.159	121.94
417.382	118.94
417.605	116.94
417.828	112.94
418.051	118.94
418.274	126.94
418.497	126.94
418.72	148.94
418.943	139.94
419.166	126.94
419.389	119.94
419.611	135.94
419.834	137.94
420.057	143.94
420.28	143.94
420.503	122.94
420.726	139.94
420.948	139.94
421.171	148.94
421.394	125.94
421.617	131.94
421.839	126.94
422.062	134.94
422.285	115.94
422.507	123.94
422.73	117.94
422.953	105.94
423.175	124.94
423.398	110.94
423.621	131.94
423.843	120.94
424.066	138.94
424.288	154.94
424.511	125.94
424.733	134.94
424.956	126.94
425.178	135.94
425.401	128.94
425.623	130.94
425.846	143.94
426.068	131.94
426.291	133.94
426.513	132.94
426.735	136.94
426.958	126.94
427.18	127.94
427.402	136.94
427.625	153.94
427.847	134.94
428.069	126.94
428.292	119.94
428.514	126.94
428.736	132.94
428.958	126.94
429.181	124.94
429.403	132.94
429.625	133.94
429.847	125.94
430.069	134.94
430.292	120.94
430.514	123.94
430.736	134.94
430.958	115.94
431.18	117.94
431.402	141.94
431.624	112.94
431.846	101.94
432.068	91.94
432.29	98.94
432.512	102.94
432.734	120.94
432.956	126.94
433.178	131.94
433.4	137.94
433.622	137.94
433.844	151.94
434.066	126.94
434.287	103.94
434.509	83.94
434.731	94.94
434.953	119.94
435.175	129.94
435.397	123.94
435.618	113.94
435.84	111.94
436.062	103.94
436.284	135.94
436.505	142.94
436.727	127.94
436.949	126.94
437.17	122.94
437.392	127.94
437.614	102.94
437.835	98.94
438.057	105.94
438.278	105.94
438.5	124.94
438.721	135.94
438.943	135.94
439.165	138.94
439.386	131.94
439.608	137.94
439.829	142.94
440.05	159.94
440.272	151.94
440.493	133.94
440.715	142.94
440.936	135.94
441.158	124.94
441.379	140.94
441.6	131.94
441.822	148.94
442.043	141.94
442.264	147.94
442.486	138.94
442.707	144.94
442.928	145.94
443.149	146.94
443.371	139.94
443.592	144.94
443.813	137.94
444.034	133.94
444.255	147.94
444.476	121.94
444.698	145.94
444.919	138.94
445.14	258.94
445.361	198.94
445.582	134.94
445.803	149.94
446.024	138.94
446.245	158.94
446.466	151.94
446.687	157.94
446.908	141.94
447.129	153.94
447.35	142.94
447.571	167.94
447.792	139.94
448.013	143.94
448.234	145.94
448.455	139.94
448.675	145.94
448.896	147.94
449.117	136.94
449.338	140.94
449.559	129.94
449.779	124.94
450	137.94
450.221	134.94
450.442	144.94
450.662	125.94
450.883	125.94
451.104	132.94
451.324	129.94
451.545	152.94
451.766	141.94
451.986	121.94
452.207	142.94
452.428	119.94
452.648	111.94
452.869	112.94
453.089	115.94
453.31	106.94
453.53	101.94
453.751	89.94
453.971	113.94
454.192	109.94
454.412	110.94
454.633	110.94
454.853	122.94
455.073	117.94
455.294	113.94
455.514	123.94
455.734	117.94
455.955	116.94
456.175	111.94
456.395	117.94
456.616	109.94
456.836	106.94
457.056	115.94
457.276	118.94
457.497	112.94
457.717	109.94
457.937	116.94
458.157	107.94
458.377	101.94
458.598	88.94
458.818	84.94
459.038	71.94
459.258	81.94
459.478	75.94
459.698	85.94
459.918	94.94
460.138	95.94
460.358	112.94
460.578	99.94
460.798	100.94
461.018	128.94
461.238	118.94
461.458	118.94
461.678	107.94
461.898	125.94
462.118	114.94
462.338	114.94
462.558	109.94
462.777	100.94
462.997	101.94
463.217	119.94
463.437	112.94
463.657	112.94
463.876	111.94
464.096	107.94
464.316	101.94
464.536	103.94
464.755	124.94
464.975	111.94
465.195	120.94
465.414	121.94
465.634	118.94
465.854	125.94
466.073	129.94
466.293	129.94
466.512	143.94
466.732	135.94
466.951	122.94
467.171	136.94
467.391	116.94
467.61	121.94
467.829	118.94
468.049	137.94
468.268	136.94
468.488	120.94
468.707	127.94
468.927	130.94
469.146	141.94
469.365	131.94
469.585	153.94
469.804	123.94
470.023	138.94
470.243	137.94
470.462	135.94
470.681	129.94
470.901	142.94
471.12	143.94
471.339	132.94
471.558	140.94
471.777	128.94
471.997	134.94
472.216	121.94
472.435	123.94
472.654	109.94
472.873	100.94
473.092	113.94
473.311	121.94
473.53	112.94
473.749	114.94
473.968	127.94
474.187	100.94
474.406	103.94
474.625	123.94
474.844	137.94
475.063	116.94
475.282	125.94
475.501	130.94
475.72	130.94
475.939	123.94
476.158	130.94
476.377	116.94
476.596	129.94
476.814	129.94
477.033	109.94
477.252	123.94
477.471	114.94
477.69	130.94
477.908	152.94
478.127	131.94
478.346	140.94
478.564	139.94
478.783	125.94
479.002	126.94
479.22	150.94
479.439	135.94
479.658	139.94
479.876	117.94
480.095	111.94
480.313	115.94
480.532	119.94
480.751	118.94
480.969	93.94
481.188	86.94
481.406	99.94
481.624	93.94
481.843	83.94
482.061	82.94
482.28	112.94
482.498	91.94
482.717	88.94
482.935	110.94
483.153	129.94
483.372	155.94
483.59	149.94
483.808	134.94
484.027	119.94
484.245	124.94
484.463	149.94
484.681	134.94
484.9	145.94
485.118	137.94
485.336	122.94
485.554	122.94
485.772	115.94
485.99	109.94
486.209	113.94
486.427	106.94
486.645	117.94
486.863	139.94
487.081	148.94
487.299	133.94
487.517	125.94
487.735	149.94
487.953	175.94
488.171	189.94
488.389	169.94
488.607	154.94
488.825	127.94
489.043	125.94
489.261	127.94
489.479	144.94
489.696	143.94
489.914	133.94
490.132	137.94
490.35	144.94
490.568	161.94
490.786	178.94
491.003	153.94
491.221	181.94
491.439	197.94
491.657	188.94
491.874	191.94
492.092	212.94
492.31	234.94
492.527	232.94
492.745	197.94
492.963	182.94
493.18	193.94
493.398	186.94
493.615	177.94
493.833	171.94
494.05	180.94
494.268	148.94
494.485	160.94
494.703	179.94
494.92	170.94
495.138	166.94
495.355	166.94
495.573	174.94
495.79	170.94
496.008	166.94
496.225	169.94
496.442	164.94
496.66	164.94
496.877	158.94
497.094	156.94
497.312	165.94
497.529	155.94
497.746	149.94
497.963	147.94
498.181	126.94
498.398	114.94
498.615	121.94
498.832	105.94
499.049	112.94
499.267	108.94
499.484	120.94
499.701	131.94
499.918	131.94
500.135	124.94
500.352	140.94
500.569	137.94
500.786	133.94
501.003	136.94
501.22	139.94
501.437	140.94
501.654	145.94
501.871	146.94
502.088	134.94
502.305	149.94
502.522	131.94
502.739	149.94
502.956	123.94
503.172	113.94
503.389	129.94
503.606	132.94
503.823	119.94
504.04	125.94
504.256	119.94
504.473	117.94
504.69	124.94
504.907	124.94
505.123	126.94
505.34	131.94
505.557	135.94
505.773	128.94
505.99	126.94
506.207	118.94
506.423	111.94
506.64	137.94
506.856	120.94
507.073	120.94
507.289	118.94
507.506	101.94
507.722	119.94
507.939	109.94
508.155	113.94
508.372	103.94
508.588	109.94
508.805	93.94
509.021	104.94
509.238	98.94
509.454	101.94
509.67	85.94
509.887	88.94
510.103	86.94
510.319	94.94
510.536	98.94
510.752	93.94
510.968	98.94
511.184	76.94
511.401	79.94
511.617	84.94
511.833	78.94
