Data from Location2.07152019.Energy5.Lamp.07192019.3%Agarose_HRD10591_14-56-47-358.txt Node
Date: Fri Jul 19 14:56:47 EDT 2019
User: cochatt
Spectrometer: HR+D1059
Trigger mode: 1
Integration Time (sec): 1.000000E-1
Scans to average: 1
Electric dark correction enabled: true
Nonlinearity correction enabled: false
Boxcar width: 0
XAxis mode: Wavelengths
Number of Pixels in Spectrum: 2048
>>>>>Begin Spectral Data<<<<<
223.165	-13.31
223.4	-13.31
223.635	-13.31
223.869	-12.31
224.104	-21.31
224.338	-24.31
224.573	-14.31
224.808	1.69
225.042	-13.31
225.277	-6.31
225.511	-5.31
225.746	3.69
225.98	2.69
226.215	7.69
226.449	18.69
226.683	21.69
226.918	27.69
227.152	26.69
227.387	24.69
227.621	24.69
227.856	33.69
228.09	27.69
228.324	46.69
228.559	55.69
228.793	50.69
229.027	61.69
229.262	65.69
229.496	53.69
229.73	61.69
229.964	78.69
230.199	54.69
230.433	64.69
230.667	73.69
230.901	84.69
231.136	94.69
231.37	78.69
231.604	68.69
231.838	81.69
232.072	71.69
232.306	81.69
232.541	82.69
232.775	73.69
233.009	79.69
233.243	70.69
233.477	71.69
233.711	80.69
233.945	77.69
234.179	84.69
234.413	78.69
234.647	69.69
234.881	72.69
235.115	81.69
235.349	91.69
235.583	78.69
235.817	82.69
236.051	78.69
236.285	58.69
236.519	78.69
236.753	71.69
236.987	75.69
237.221	82.69
237.455	76.69
237.689	70.69
237.922	81.69
238.156	65.69
238.39	69.69
238.624	75.69
238.858	65.69
239.091	67.69
239.325	85.69
239.559	72.69
239.793	65.69
240.027	74.69
240.26	72.69
240.494	67.69
240.728	61.69
240.961	71.69
241.195	80.69
241.429	64.69
241.662	69.69
241.896	64.69
242.13	66.69
242.363	61.69
242.597	78.69
242.83	85.69
243.064	66.69
243.298	65.69
243.531	69.69
243.765	81.69
243.998	72.69
244.232	80.69
244.465	81.69
244.699	82.69
244.932	76.69
245.166	92.69
245.399	71.69
245.633	61.69
245.866	71.69
246.099	77.69
246.333	70.69
246.566	69.69
246.8	93.69
247.033	79.69
247.266	62.69
247.5	66.69
247.733	69.69
247.966	71.69
248.2	57.69
248.433	70.69
248.666	83.69
248.899	89.69
249.133	86.69
249.366	89.69
249.599	65.69
249.832	62.69
250.066	74.69
250.299	61.69
250.532	81.69
250.765	70.69
250.998	77.69
251.231	69.69
251.465	76.69
251.698	77.69
251.931	74.69
252.164	67.69
252.397	73.69
252.63	78.69
252.863	69.69
253.096	87.69
253.329	69.69
253.562	68.69
253.795	90.69
254.028	75.69
254.261	69.69
254.494	82.69
254.727	80.69
254.96	79.69
255.193	72.69
255.426	83.69
255.659	80.69
255.892	82.69
256.124	87.69
256.357	64.69
256.59	81.69
256.823	78.69
257.056	85.69
257.289	84.69
257.521	80.69
257.754	79.69
257.987	73.69
258.22	71.69
258.452	87.69
258.685	75.69
258.918	67.69
259.151	74.69
259.383	75.69
259.616	69.69
259.849	74.69
260.081	69.69
260.314	85.69
260.547	81.69
260.779	90.69
261.012	75.69
261.244	69.69
261.477	83.69
261.71	73.69
261.942	84.69
262.175	85.69
262.407	90.69
262.64	76.69
262.872	83.69
263.105	71.69
263.337	85.69
263.57	77.69
263.802	71.69
264.035	77.69
264.267	67.69
264.499	57.69
264.732	76.69
264.964	82.69
265.197	86.69
265.429	79.69
265.661	82.69
265.894	81.69
266.126	83.69
266.358	76.69
266.591	87.69
266.823	70.69
267.055	81.69
267.287	77.69
267.52	80.69
267.752	83.69
267.984	77.69
268.216	88.69
268.448	91.69
268.681	81.69
268.913	83.69
269.145	91.69
269.377	80.69
269.609	80.69
269.841	83.69
270.073	74.69
270.306	86.69
270.538	67.69
270.77	83.69
271.002	66.69
271.234	76.69
271.466	81.69
271.698	59.69
271.93	80.69
272.162	77.69
272.394	72.69
272.626	79.69
272.858	69.69
273.09	78.69
273.322	91.69
273.553	96.69
273.785	77.69
274.017	80.69
274.249	90.69
274.481	75.69
274.713	81.69
274.945	73.69
275.176	87.69
275.408	67.69
275.64	81.69
275.872	82.69
276.104	88.69
276.335	83.69
276.567	73.69
276.799	72.69
277.031	83.69
277.262	71.69
277.494	75.69
277.726	82.69
277.957	79.69
278.189	83.69
278.421	79.69
278.652	88.69
278.884	81.69
279.115	87.69
279.347	86.69
279.579	79.69
279.81	81.69
280.042	70.69
280.273	80.69
280.505	70.69
280.736	75.69
280.968	84.69
281.199	87.69
281.431	89.69
281.662	77.69
281.894	81.69
282.125	66.69
282.356	81.69
282.588	84.69
282.819	94.69
283.051	80.69
283.282	77.69
283.513	85.69
283.745	83.69
283.976	72.69
284.207	83.69
284.439	86.69
284.67	79.69
284.901	81.69
285.132	85.69
285.364	90.69
285.595	81.69
285.826	75.69
286.057	92.69
286.288	79.69
286.52	67.69
286.751	77.69
286.982	79.69
287.213	67.69
287.444	83.69
287.675	82.69
287.906	82.69
288.138	90.69
288.369	98.69
288.6	79.69
288.831	70.69
289.062	85.69
289.293	87.69
289.524	91.69
289.755	89.69
289.986	76.69
290.217	79.69
290.448	82.69
290.679	79.69
290.91	72.69
291.141	79.69
291.371	85.69
291.602	84.69
291.833	84.69
292.064	83.69
292.295	82.69
292.526	88.69
292.757	75.69
292.987	77.69
293.218	85.69
293.449	73.69
293.68	76.69
293.91	73.69
294.141	69.69
294.372	82.69
294.603	83.69
294.833	82.69
295.064	91.69
295.295	85.69
295.525	74.69
295.756	68.69
295.987	93.69
296.217	103.69
296.448	84.69
296.679	80.69
296.909	84.69
297.14	87.69
297.37	83.69
297.601	79.69
297.831	89.69
298.062	77.69
298.292	87.69
298.523	69.69
298.753	72.69
298.984	80.69
299.214	72.69
299.445	94.69
299.675	82.69
299.905	89.69
300.136	78.69
300.366	69.69
300.597	84.69
300.827	81.69
301.057	88.69
301.288	84.69
301.518	70.69
301.748	93.69
301.979	85.69
302.209	96.69
302.439	97.69
302.669	76.69
302.9	83.69
303.13	88.69
303.36	81.69
303.59	73.69
303.82	97.69
304.051	81.69
304.281	93.69
304.511	96.69
304.741	95.69
304.971	72.69
305.201	86.69
305.431	67.69
305.661	73.69
305.891	79.69
306.121	90.69
306.352	66.69
306.582	81.69
306.812	80.69
307.042	84.69
307.272	94.69
307.502	89.69
307.731	81.69
307.961	90.69
308.191	90.69
308.421	79.69
308.651	62.69
308.881	92.69
309.111	82.69
309.341	78.69
309.571	79.69
309.8	73.69
310.03	70.69
310.26	87.69
310.49	95.69
310.72	72.69
310.949	68.69
311.179	87.69
311.409	71.69
311.639	81.69
311.868	94.69
312.098	84.69
312.328	83.69
312.557	79.69
312.787	90.69
313.017	89.69
313.246	81.69
313.476	75.69
313.706	98.69
313.935	86.69
314.165	65.69
314.394	67.69
314.624	73.69
314.853	78.69
315.083	75.69
315.312	80.69
315.542	90.69
315.771	96.69
316.001	81.69
316.23	89.69
316.46	66.69
316.689	94.69
316.919	95.69
317.148	77.69
317.377	90.69
317.607	88.69
317.836	82.69
318.065	74.69
318.295	79.69
318.524	72.69
318.753	85.69
318.983	70.69
319.212	79.69
319.441	77.69
319.67	76.69
319.9	80.69
320.129	68.69
320.358	81.69
320.587	78.69
320.816	79.69
321.046	79.69
321.275	71.69
321.504	90.69
321.733	83.69
321.962	81.69
322.191	77.69
322.42	81.69
322.649	90.69
322.878	85.69
323.108	83.69
323.337	66.69
323.566	81.69
323.795	108.69
324.024	79.69
324.253	89.69
324.482	89.69
324.71	86.69
324.939	86.69
325.168	77.69
325.397	83.69
325.626	75.69
325.855	74.69
326.084	90.69
326.313	71.69
326.542	79.69
326.77	83.69
326.999	76.69
327.228	72.69
327.457	85.69
327.686	75.69
327.914	72.69
328.143	89.69
328.372	74.69
328.6	82.69
328.829	73.69
329.058	94.69
329.287	78.69
329.515	72.69
329.744	90.69
329.972	71.69
330.201	76.69
330.43	72.69
330.658	74.69
330.887	89.69
331.115	95.69
331.344	75.69
331.572	77.69
331.801	78.69
332.03	74.69
332.258	88.69
332.486	71.69
332.715	81.69
332.943	83.69
333.172	80.69
333.4	88.69
333.629	85.69
333.857	77.69
334.085	88.69
334.314	73.69
334.542	96.69
334.771	88.69
334.999	86.69
335.227	82.69
335.455	80.69
335.684	79.69
335.912	82.69
336.14	77.69
336.369	80.69
336.597	68.69
336.825	80.69
337.053	81.69
337.281	82.69
337.51	70.69
337.738	83.69
337.966	100.69
338.194	85.69
338.422	83.69
338.65	78.69
338.878	87.69
339.106	75.69
339.334	85.69
339.562	81.69
339.79	89.69
340.018	83.69
340.246	93.69
340.474	80.69
340.702	88.69
340.93	73.69
341.158	75.69
341.386	88.69
341.614	81.69
341.842	86.69
342.07	86.69
342.298	78.69
342.526	77.69
342.754	66.69
342.981	81.69
343.209	87.69
343.437	88.69
343.665	75.69
343.893	82.69
344.12	94.69
344.348	78.69
344.576	105.69
344.804	74.69
345.031	67.69
345.259	93.69
345.487	82.69
345.714	75.69
345.942	77.69
346.17	77.69
346.397	71.69
346.625	82.69
346.853	85.69
347.08	85.69
347.308	68.69
347.535	67.69
347.763	86.69
347.99	83.69
348.218	78.69
348.445	84.69
348.673	82.69
348.9	85.69
349.128	101.69
349.355	79.69
349.583	87.69
349.81	71.69
350.037	86.69
350.265	76.69
350.492	81.69
350.72	90.69
350.947	85.69
351.174	90.69
351.402	84.69
351.629	77.69
351.856	86.69
352.083	74.69
352.311	82.69
352.538	73.69
352.765	55.69
352.992	84.69
353.22	67.69
353.447	83.69
353.674	72.69
353.901	94.69
354.128	65.69
354.355	71.69
354.583	84.69
354.81	80.69
355.037	93.69
355.264	88.69
355.491	78.69
355.718	82.69
355.945	84.69
356.172	74.69
356.399	88.69
356.626	102.69
356.853	85.69
357.08	79.69
357.307	72.69
357.534	70.69
357.761	73.69
357.988	80.69
358.215	80.69
358.441	81.69
358.668	85.69
358.895	82.69
359.122	89.69
359.349	83.69
359.576	79.69
359.802	87.69
360.029	76.69
360.256	81.69
360.483	90.69
360.709	82.69
360.936	90.69
361.163	92.69
361.39	77.69
361.616	78.69
361.843	83.69
362.07	89.69
362.296	80.69
362.523	70.69
362.749	84.69
362.976	85.69
363.203	88.69
363.429	84.69
363.656	84.69
363.882	79.69
364.109	79.69
364.335	78.69
364.562	80.69
364.788	75.69
365.015	86.69
365.241	90.69
365.468	98.69
365.694	81.69
365.92	82.69
366.147	86.69
366.373	95.69
366.599	90.69
366.826	77.69
367.052	74.69
367.278	91.69
367.505	93.69
367.731	86.69
367.957	78.69
368.184	93.69
368.41	74.69
368.636	93.69
368.862	78.69
369.089	96.69
369.315	83.69
369.541	81.69
369.767	89.69
369.993	84.69
370.219	83.69
370.445	87.69
370.672	89.69
370.898	82.69
371.124	87.69
371.35	75.69
371.576	74.69
371.802	73.69
372.028	86.69
372.254	95.69
372.48	97.69
372.706	80.69
372.932	86.69
373.158	87.69
373.384	95.69
373.61	93.69
373.835	89.69
374.061	98.69
374.287	83.69
374.513	95.69
374.739	94.69
374.965	87.69
375.191	88.69
375.416	93.69
375.642	96.69
375.868	80.69
376.094	89.69
376.319	87.69
376.545	95.69
376.771	86.69
376.997	85.69
377.222	81.69
377.448	88.69
377.674	102.69
377.899	99.69
378.125	110.69
378.35	90.69
378.576	103.69
378.802	88.69
379.027	85.69
379.253	88.69
379.478	92.69
379.704	104.69
379.929	102.69
380.155	87.69
380.38	79.69
380.606	90.69
380.831	104.69
381.057	102.69
381.282	82.69
381.507	98.69
381.733	105.69
381.958	95.69
382.184	95.69
382.409	90.69
382.634	82.69
382.86	86.69
383.085	99.69
383.31	106.69
383.535	87.69
383.761	101.69
383.986	88.69
384.211	85.69
384.436	94.69
384.662	93.69
384.887	92.69
385.112	87.69
385.337	79.69
385.562	96.69
385.787	102.69
386.013	113.69
386.238	100.69
386.463	101.69
386.688	94.69
386.913	113.69
387.138	96.69
387.363	103.69
387.588	96.69
387.813	90.69
388.038	119.69
388.263	91.69
388.488	92.69
388.713	95.69
388.938	97.69
389.163	85.69
389.387	96.69
389.612	86.69
389.837	94.69
390.062	111.69
390.287	100.69
390.512	98.69
390.736	85.69
390.961	81.69
391.186	97.69
391.411	90.69
391.636	92.69
391.86	93.69
392.085	81.69
392.31	104.69
392.534	116.69
392.759	89.69
392.984	111.69
393.208	117.69
393.433	105.69
393.658	101.69
393.882	109.69
394.107	95.69
394.331	109.69
394.556	110.69
394.78	98.69
395.005	93.69
395.229	100.69
395.454	114.69
395.678	109.69
395.903	98.69
396.127	102.69
396.352	109.69
396.576	119.69
396.801	90.69
397.025	109.69
397.249	95.69
397.474	111.69
397.698	109.69
397.922	97.69
398.147	95.69
398.371	114.69
398.595	103.69
398.82	102.69
399.044	92.69
399.268	121.69
399.492	105.69
399.717	102.69
399.941	105.69
400.165	118.69
400.389	100.69
400.613	102.69
400.837	104.69
401.062	94.69
401.286	112.69
401.51	108.69
401.734	107.69
401.958	105.69
402.182	104.69
402.406	104.69
402.63	125.69
402.854	98.69
403.078	106.69
403.302	99.69
403.526	99.69
403.75	110.69
403.974	118.69
404.198	109.69
404.422	120.69
404.645	122.69
404.869	94.69
405.093	112.69
405.317	127.69
405.541	127.69
405.765	106.69
405.988	107.69
406.212	113.69
406.436	101.69
406.66	110.69
406.883	118.69
407.107	118.69
407.331	96.69
407.555	118.69
407.778	120.69
408.002	121.69
408.226	121.69
408.449	111.69
408.673	121.69
408.896	122.69
409.12	119.69
409.344	118.69
409.567	126.69
409.791	119.69
410.014	116.69
410.238	113.69
410.461	129.69
410.685	128.69
410.908	125.69
411.132	109.69
411.355	120.69
411.578	115.69
411.802	115.69
412.025	135.69
412.249	102.69
412.472	119.69
412.695	133.69
412.919	117.69
413.142	134.69
413.365	113.69
413.589	110.69
413.812	111.69
414.035	128.69
414.258	115.69
414.482	128.69
414.705	118.69
414.928	107.69
415.151	119.69
415.374	122.69
415.597	123.69
415.821	122.69
416.044	122.69
416.267	121.69
416.49	112.69
416.713	114.69
416.936	120.69
417.159	131.69
417.382	121.69
417.605	130.69
417.828	120.69
418.051	138.69
418.274	125.69
418.497	137.69
418.72	134.69
418.943	139.69
419.166	118.69
419.389	131.69
419.611	129.69
419.834	133.69
420.057	136.69
420.28	121.69
420.503	131.69
420.726	133.69
420.948	132.69
421.171	124.69
421.394	131.69
421.617	127.69
421.839	128.69
422.062	131.69
422.285	122.69
422.507	115.69
422.73	122.69
422.953	144.69
423.175	139.69
423.398	117.69
423.621	116.69
423.843	117.69
424.066	125.69
424.288	135.69
424.511	133.69
424.733	144.69
424.956	135.69
425.178	135.69
425.401	142.69
425.623	151.69
425.846	144.69
426.068	129.69
426.291	131.69
426.513	129.69
426.735	130.69
426.958	137.69
427.18	122.69
427.402	136.69
427.625	120.69
427.847	125.69
428.069	140.69
428.292	131.69
428.514	125.69
428.736	126.69
428.958	118.69
429.181	130.69
429.403	120.69
429.625	123.69
429.847	118.69
430.069	123.69
430.292	113.69
430.514	128.69
430.736	118.69
430.958	126.69
431.18	117.69
431.402	116.69
431.624	112.69
431.846	113.69
432.068	79.69
432.29	81.69
432.512	119.69
432.734	117.69
432.956	137.69
433.178	140.69
433.4	139.69
433.622	127.69
433.844	131.69
434.066	116.69
434.287	98.69
434.509	93.69
434.731	91.69
434.953	105.69
435.175	109.69
435.397	123.69
435.618	114.69
435.84	101.69
436.062	107.69
436.284	123.69
436.505	128.69
436.727	133.69
436.949	138.69
437.17	98.69
437.392	117.69
437.614	125.69
437.835	114.69
438.057	99.69
438.278	102.69
438.5	129.69
438.721	128.69
438.943	135.69
439.165	133.69
439.386	122.69
439.608	154.69
439.829	126.69
440.05	145.69
440.272	136.69
440.493	140.69
440.715	131.69
440.936	138.69
441.158	132.69
441.379	149.69
441.6	137.69
441.822	141.69
442.043	127.69
442.264	134.69
442.486	147.69
442.707	122.69
442.928	147.69
443.149	140.69
443.371	137.69
443.592	127.69
443.813	127.69
444.034	144.69
444.255	138.69
444.476	132.69
444.698	132.69
444.919	134.69
445.14	276.69
445.361	204.69
445.582	143.69
445.803	162.69
446.024	150.69
446.245	136.69
446.466	153.69
446.687	149.69
446.908	149.69
447.129	139.69
447.35	150.69
447.571	151.69
447.792	145.69
448.013	133.69
448.234	149.69
448.455	133.69
448.675	143.69
448.896	131.69
449.117	113.69
449.338	143.69
449.559	129.69
449.779	146.69
450	131.69
450.221	135.69
450.442	129.69
450.662	139.69
450.883	131.69
451.104	139.69
451.324	131.69
451.545	127.69
451.766	135.69
451.986	111.69
452.207	139.69
452.428	126.69
452.648	110.69
452.869	105.69
453.089	129.69
453.31	100.69
453.53	91.69
453.751	105.69
453.971	98.69
454.192	97.69
454.412	98.69
454.633	110.69
454.853	117.69
455.073	126.69
455.294	131.69
455.514	113.69
455.734	122.69
455.955	102.69
456.175	113.69
456.395	115.69
456.616	105.69
456.836	100.69
457.056	116.69
457.276	98.69
457.497	94.69
457.717	114.69
457.937	103.69
458.157	98.69
458.377	93.69
458.598	89.69
458.818	66.69
459.038	86.69
459.258	84.69
459.478	90.69
459.698	83.69
459.918	109.69
460.138	98.69
460.358	133.69
460.578	111.69
460.798	93.69
461.018	124.69
461.238	126.69
461.458	104.69
461.678	119.69
461.898	122.69
462.118	120.69
462.338	113.69
462.558	109.69
462.777	92.69
462.997	104.69
463.217	107.69
463.437	89.69
463.657	91.69
463.876	100.69
464.096	95.69
464.316	91.69
464.536	101.69
464.755	114.69
464.975	116.69
465.195	107.69
465.414	105.69
465.634	117.69
465.854	126.69
466.073	124.69
466.293	109.69
466.512	109.69
466.732	125.69
466.951	143.69
467.171	130.69
467.391	134.69
467.61	134.69
467.829	125.69
468.049	127.69
468.268	121.69
468.488	149.69
468.707	140.69
468.927	131.69
469.146	129.69
469.365	112.69
469.585	125.69
469.804	136.69
470.023	131.69
470.243	144.69
470.462	146.69
470.681	142.69
470.901	118.69
471.12	133.69
471.339	146.69
471.558	126.69
471.777	138.69
471.997	134.69
472.216	114.69
472.435	126.69
472.654	117.69
472.873	113.69
473.092	120.69
473.311	125.69
473.53	113.69
473.749	125.69
473.968	153.69
474.187	122.69
474.406	117.69
474.625	127.69
474.844	132.69
475.063	120.69
475.282	127.69
475.501	118.69
475.72	120.69
475.939	115.69
476.158	112.69
476.377	120.69
476.596	116.69
476.814	111.69
477.033	109.69
477.252	103.69
477.471	137.69
477.69	118.69
477.908	121.69
478.127	135.69
478.346	122.69
478.564	126.69
478.783	123.69
479.002	143.69
479.22	153.69
479.439	123.69
479.658	135.69
479.876	100.69
480.095	109.69
480.313	113.69
480.532	117.69
480.751	101.69
480.969	88.69
481.188	85.69
481.406	84.69
481.624	80.69
481.843	93.69
482.061	88.69
482.28	110.69
482.498	106.69
482.717	98.69
482.935	113.69
483.153	153.69
483.372	152.69
483.59	162.69
483.808	127.69
484.027	127.69
484.245	123.69
484.463	127.69
484.681	149.69
484.9	132.69
485.118	143.69
485.336	124.69
485.554	106.69
485.772	89.69
485.99	84.69
486.209	106.69
486.427	115.69
486.645	127.69
486.863	134.69
487.081	148.69
487.299	125.69
487.517	136.69
487.735	153.69
487.953	180.69
488.171	189.69
488.389	163.69
488.607	140.69
488.825	144.69
489.043	139.69
489.261	124.69
489.479	134.69
489.696	133.69
489.914	132.69
490.132	131.69
490.35	146.69
490.568	167.69
490.786	184.69
491.003	159.69
491.221	181.69
491.439	183.69
491.657	198.69
491.874	189.69
492.092	215.69
492.31	212.69
492.527	213.69
492.745	187.69
492.963	196.69
493.18	183.69
493.398	183.69
493.615	160.69
493.833	165.69
494.05	168.69
494.268	171.69
494.485	166.69
494.703	170.69
494.92	167.69
495.138	152.69
495.355	166.69
495.573	154.69
495.79	175.69
496.008	158.69
496.225	163.69
496.442	173.69
496.66	162.69
496.877	175.69
497.094	147.69
497.312	154.69
497.529	145.69
497.746	134.69
497.963	140.69
498.181	136.69
498.398	123.69
498.615	118.69
498.832	123.69
499.049	117.69
499.267	115.69
499.484	117.69
499.701	123.69
499.918	133.69
500.135	139.69
500.352	142.69
500.569	153.69
500.786	149.69
501.003	138.69
501.22	143.69
501.437	132.69
501.654	126.69
501.871	135.69
502.088	119.69
502.305	132.69
502.522	126.69
502.739	139.69
502.956	140.69
503.172	136.69
503.389	123.69
503.606	117.69
503.823	109.69
504.04	116.69
504.256	127.69
504.473	127.69
504.69	117.69
504.907	119.69
505.123	115.69
505.34	121.69
505.557	125.69
505.773	128.69
505.99	122.69
506.207	113.69
506.423	113.69
506.64	107.69
506.856	131.69
507.073	107.69
507.289	111.69
507.506	120.69
507.722	131.69
507.939	129.69
508.155	102.69
508.372	120.69
508.588	99.69
508.805	100.69
509.021	99.69
509.238	112.69
509.454	96.69
509.67	105.69
509.887	105.69
510.103	90.69
510.319	95.69
510.536	95.69
510.752	88.69
510.968	83.69
511.184	88.69
511.401	84.69
511.617	85.69
511.833	81.69
512.049	95.69
512.265	98.69
