Data from Location2.07152019.Energy5.Lamp.07192019.3%Agarose_HRD10591_14-57-31-358.txt Node
Date: Fri Jul 19 14:57:31 EDT 2019
User: cochatt
Spectrometer: HR+D1059
Trigger mode: 1
Integration Time (sec): 1.000000E-1
Scans to average: 1
Electric dark correction enabled: true
Nonlinearity correction enabled: false
Boxcar width: 0
XAxis mode: Wavelengths
Number of Pixels in Spectrum: 2048
>>>>>Begin Spectral Data<<<<<
223.165	-15.44
223.4	-15.44
223.635	-15.44
223.869	-10.44
224.104	-12.44
224.338	-7.44
224.573	-23.44
224.808	-16.44
225.042	-5.44
225.277	-5.44
225.511	-13.44
225.746	4.56
225.98	31.56
226.215	7.56
226.449	7.56
226.683	14.56
226.918	19.56
227.152	24.56
227.387	40.56
227.621	33.56
227.856	51.56
228.09	46.56
228.324	46.56
228.559	50.56
228.793	57.56
229.027	40.56
229.262	48.56
229.496	69.56
229.73	71.56
229.964	67.56
230.199	66.56
230.433	73.56
230.667	71.56
230.901	48.56
231.136	66.56
231.37	70.56
231.604	77.56
231.838	71.56
232.072	73.56
232.306	68.56
232.541	79.56
232.775	75.56
233.009	84.56
233.243	91.56
233.477	90.56
233.711	82.56
233.945	97.56
234.179	74.56
234.413	80.56
234.647	75.56
234.881	84.56
235.115	86.56
235.349	70.56
235.583	75.56
235.817	77.56
236.051	78.56
236.285	89.56
236.519	75.56
236.753	72.56
236.987	61.56
237.221	83.56
237.455	56.56
237.689	72.56
237.922	65.56
238.156	80.56
238.39	85.56
238.624	67.56
238.858	63.56
239.091	64.56
239.325	77.56
239.559	78.56
239.793	65.56
240.027	78.56
240.26	76.56
240.494	75.56
240.728	85.56
240.961	83.56
241.195	68.56
241.429	79.56
241.662	74.56
241.896	76.56
242.13	82.56
242.363	76.56
242.597	69.56
242.83	67.56
243.064	77.56
243.298	82.56
243.531	64.56
243.765	70.56
243.998	69.56
244.232	82.56
244.465	69.56
244.699	67.56
244.932	69.56
245.166	86.56
245.399	73.56
245.633	81.56
245.866	69.56
246.099	78.56
246.333	64.56
246.566	76.56
246.8	71.56
247.033	76.56
247.266	71.56
247.5	53.56
247.733	71.56
247.966	79.56
248.2	72.56
248.433	77.56
248.666	76.56
248.899	58.56
249.133	61.56
249.366	70.56
249.599	66.56
249.832	72.56
250.066	90.56
250.299	87.56
250.532	84.56
250.765	69.56
250.998	70.56
251.231	70.56
251.465	79.56
251.698	72.56
251.931	79.56
252.164	80.56
252.397	83.56
252.63	84.56
252.863	79.56
253.096	91.56
253.329	71.56
253.562	68.56
253.795	74.56
254.028	89.56
254.261	72.56
254.494	73.56
254.727	70.56
254.96	65.56
255.193	67.56
255.426	70.56
255.659	66.56
255.892	58.56
256.124	72.56
256.357	83.56
256.59	60.56
256.823	85.56
257.056	89.56
257.289	89.56
257.521	74.56
257.754	71.56
257.987	66.56
258.22	77.56
258.452	70.56
258.685	86.56
258.918	77.56
259.151	75.56
259.383	80.56
259.616	70.56
259.849	85.56
260.081	82.56
260.314	91.56
260.547	87.56
260.779	80.56
261.012	77.56
261.244	67.56
261.477	63.56
261.71	91.56
261.942	73.56
262.175	72.56
262.407	78.56
262.64	70.56
262.872	77.56
263.105	78.56
263.337	76.56
263.57	82.56
263.802	78.56
264.035	87.56
264.267	78.56
264.499	63.56
264.732	82.56
264.964	69.56
265.197	71.56
265.429	69.56
265.661	75.56
265.894	74.56
266.126	89.56
266.358	78.56
266.591	71.56
266.823	75.56
267.055	75.56
267.287	94.56
267.52	80.56
267.752	82.56
267.984	88.56
268.216	93.56
268.448	79.56
268.681	77.56
268.913	78.56
269.145	76.56
269.377	75.56
269.609	78.56
269.841	86.56
270.073	72.56
270.306	89.56
270.538	80.56
270.77	83.56
271.002	83.56
271.234	77.56
271.466	82.56
271.698	73.56
271.93	97.56
272.162	80.56
272.394	90.56
272.626	84.56
272.858	83.56
273.09	90.56
273.322	75.56
273.553	64.56
273.785	93.56
274.017	84.56
274.249	92.56
274.481	79.56
274.713	86.56
274.945	66.56
275.176	82.56
275.408	79.56
275.64	86.56
275.872	103.56
276.104	83.56
276.335	104.56
276.567	88.56
276.799	81.56
277.031	76.56
277.262	87.56
277.494	102.56
277.726	81.56
277.957	90.56
278.189	83.56
278.421	92.56
278.652	83.56
278.884	69.56
279.115	76.56
279.347	82.56
279.579	84.56
279.81	81.56
280.042	78.56
280.273	64.56
280.505	68.56
280.736	76.56
280.968	81.56
281.199	77.56
281.431	82.56
281.662	76.56
281.894	94.56
282.125	81.56
282.356	80.56
282.588	78.56
282.819	95.56
283.051	85.56
283.282	86.56
283.513	75.56
283.745	86.56
283.976	83.56
284.207	86.56
284.439	88.56
284.67	76.56
284.901	81.56
285.132	72.56
285.364	77.56
285.595	80.56
285.826	87.56
286.057	73.56
286.288	66.56
286.52	79.56
286.751	88.56
286.982	80.56
287.213	87.56
287.444	74.56
287.675	83.56
287.906	87.56
288.138	74.56
288.369	78.56
288.6	72.56
288.831	83.56
289.062	90.56
289.293	83.56
289.524	84.56
289.755	84.56
289.986	77.56
290.217	70.56
290.448	83.56
290.679	86.56
290.91	78.56
291.141	78.56
291.371	88.56
291.602	77.56
291.833	88.56
292.064	80.56
292.295	85.56
292.526	80.56
292.757	69.56
292.987	86.56
293.218	86.56
293.449	76.56
293.68	82.56
293.91	78.56
294.141	82.56
294.372	88.56
294.603	84.56
294.833	87.56
295.064	84.56
295.295	85.56
295.525	78.56
295.756	76.56
295.987	83.56
296.217	72.56
296.448	84.56
296.679	84.56
296.909	78.56
297.14	85.56
297.37	89.56
297.601	76.56
297.831	84.56
298.062	85.56
298.292	77.56
298.523	75.56
298.753	81.56
298.984	87.56
299.214	78.56
299.445	92.56
299.675	73.56
299.905	79.56
300.136	82.56
300.366	76.56
300.597	80.56
300.827	81.56
301.057	88.56
301.288	75.56
301.518	90.56
301.748	83.56
301.979	71.56
302.209	63.56
302.439	74.56
302.669	72.56
302.9	86.56
303.13	92.56
303.36	86.56
303.59	83.56
303.82	67.56
304.051	73.56
304.281	82.56
304.511	87.56
304.741	90.56
304.971	85.56
305.201	93.56
305.431	83.56
305.661	86.56
305.891	72.56
306.121	73.56
306.352	87.56
306.582	71.56
306.812	66.56
307.042	71.56
307.272	62.56
307.502	85.56
307.731	81.56
307.961	96.56
308.191	82.56
308.421	82.56
308.651	89.56
308.881	70.56
309.111	68.56
309.341	73.56
309.571	93.56
309.8	92.56
310.03	90.56
310.26	72.56
310.49	75.56
310.72	82.56
310.949	87.56
311.179	83.56
311.409	83.56
311.639	74.56
311.868	73.56
312.098	79.56
312.328	85.56
312.557	85.56
312.787	69.56
313.017	89.56
313.246	83.56
313.476	84.56
313.706	79.56
313.935	74.56
314.165	90.56
314.394	78.56
314.624	84.56
314.853	93.56
315.083	66.56
315.312	80.56
315.542	91.56
315.771	85.56
316.001	70.56
316.23	79.56
316.46	80.56
316.689	93.56
316.919	73.56
317.148	80.56
317.377	81.56
317.607	89.56
317.836	81.56
318.065	72.56
318.295	84.56
318.524	72.56
318.753	73.56
318.983	79.56
319.212	87.56
319.441	76.56
319.67	70.56
319.9	82.56
320.129	83.56
320.358	101.56
320.587	88.56
320.816	86.56
321.046	89.56
321.275	74.56
321.504	78.56
321.733	78.56
321.962	71.56
322.191	81.56
322.42	87.56
322.649	87.56
322.878	93.56
323.108	77.56
323.337	83.56
323.566	93.56
323.795	80.56
324.024	85.56
324.253	75.56
324.482	80.56
324.71	78.56
324.939	87.56
325.168	83.56
325.397	82.56
325.626	73.56
325.855	85.56
326.084	94.56
326.313	81.56
326.542	76.56
326.77	87.56
326.999	64.56
327.228	79.56
327.457	90.56
327.686	80.56
327.914	81.56
328.143	97.56
328.372	93.56
328.6	87.56
328.829	78.56
329.058	73.56
329.287	80.56
329.515	90.56
329.744	89.56
329.972	89.56
330.201	84.56
330.43	78.56
330.658	87.56
330.887	88.56
331.115	82.56
331.344	86.56
331.572	82.56
331.801	89.56
332.03	79.56
332.258	74.56
332.486	90.56
332.715	86.56
332.943	76.56
333.172	82.56
333.4	92.56
333.629	78.56
333.857	78.56
334.085	70.56
334.314	77.56
334.542	82.56
334.771	78.56
334.999	85.56
335.227	93.56
335.455	71.56
335.684	90.56
335.912	78.56
336.14	69.56
336.369	76.56
336.597	86.56
336.825	85.56
337.053	80.56
337.281	71.56
337.51	77.56
337.738	66.56
337.966	83.56
338.194	68.56
338.422	82.56
338.65	86.56
338.878	81.56
339.106	65.56
339.334	74.56
339.562	79.56
339.79	83.56
340.018	77.56
340.246	78.56
340.474	67.56
340.702	74.56
340.93	70.56
341.158	81.56
341.386	64.56
341.614	80.56
341.842	72.56
342.07	84.56
342.298	93.56
342.526	79.56
342.754	74.56
342.981	73.56
343.209	85.56
343.437	80.56
343.665	85.56
343.893	92.56
344.12	81.56
344.348	85.56
344.576	96.56
344.804	89.56
345.031	75.56
345.259	89.56
345.487	81.56
345.714	82.56
345.942	74.56
346.17	83.56
346.397	73.56
346.625	81.56
346.853	81.56
347.08	81.56
347.308	72.56
347.535	75.56
347.763	66.56
347.99	87.56
348.218	84.56
348.445	82.56
348.673	87.56
348.9	87.56
349.128	91.56
349.355	89.56
349.583	82.56
349.81	77.56
350.037	82.56
350.265	77.56
350.492	93.56
350.72	72.56
350.947	92.56
351.174	87.56
351.402	82.56
351.629	78.56
351.856	75.56
352.083	75.56
352.311	76.56
352.538	83.56
352.765	69.56
352.992	73.56
353.22	86.56
353.447	87.56
353.674	80.56
353.901	77.56
354.128	87.56
354.355	73.56
354.583	70.56
354.81	90.56
355.037	106.56
355.264	88.56
355.491	88.56
355.718	89.56
355.945	70.56
356.172	98.56
356.399	68.56
356.626	94.56
356.853	84.56
357.08	79.56
357.307	81.56
357.534	79.56
357.761	66.56
357.988	77.56
358.215	83.56
358.441	65.56
358.668	75.56
358.895	72.56
359.122	76.56
359.349	90.56
359.576	85.56
359.802	82.56
360.029	77.56
360.256	77.56
360.483	79.56
360.709	86.56
360.936	80.56
361.163	87.56
361.39	86.56
361.616	72.56
361.843	76.56
362.07	95.56
362.296	83.56
362.523	76.56
362.749	75.56
362.976	78.56
363.203	90.56
363.429	79.56
363.656	80.56
363.882	81.56
364.109	70.56
364.335	82.56
364.562	95.56
364.788	78.56
365.015	68.56
365.241	64.56
365.468	94.56
365.694	83.56
365.92	79.56
366.147	81.56
366.373	83.56
366.599	83.56
366.826	83.56
367.052	77.56
367.278	86.56
367.505	77.56
367.731	85.56
367.957	82.56
368.184	81.56
368.41	87.56
368.636	100.56
368.862	85.56
369.089	80.56
369.315	93.56
369.541	78.56
369.767	84.56
369.993	91.56
370.219	93.56
370.445	86.56
370.672	82.56
370.898	86.56
371.124	87.56
371.35	80.56
371.576	83.56
371.802	76.56
372.028	79.56
372.254	86.56
372.48	95.56
372.706	97.56
372.932	85.56
373.158	98.56
373.384	98.56
373.61	85.56
373.835	88.56
374.061	68.56
374.287	78.56
374.513	91.56
374.739	87.56
374.965	85.56
375.191	91.56
375.416	92.56
375.642	89.56
375.868	86.56
376.094	73.56
376.319	79.56
376.545	84.56
376.771	89.56
376.997	92.56
377.222	94.56
377.448	101.56
377.674	90.56
377.899	95.56
378.125	88.56
378.35	85.56
378.576	85.56
378.802	92.56
379.027	95.56
379.253	85.56
379.478	92.56
379.704	92.56
379.929	88.56
380.155	92.56
380.38	83.56
380.606	82.56
380.831	91.56
381.057	75.56
381.282	100.56
381.507	84.56
381.733	98.56
381.958	86.56
382.184	86.56
382.409	86.56
382.634	96.56
382.86	94.56
383.085	104.56
383.31	93.56
383.535	87.56
383.761	86.56
383.986	99.56
384.211	92.56
384.436	85.56
384.662	94.56
384.887	89.56
385.112	80.56
385.337	83.56
385.562	92.56
385.787	85.56
386.013	94.56
386.238	89.56
386.463	94.56
386.688	92.56
386.913	92.56
387.138	97.56
387.363	104.56
387.588	107.56
387.813	84.56
388.038	87.56
388.263	90.56
388.488	96.56
388.713	98.56
388.938	114.56
389.163	96.56
389.387	88.56
389.612	78.56
389.837	93.56
390.062	93.56
390.287	85.56
390.512	91.56
390.736	99.56
390.961	96.56
391.186	101.56
391.411	112.56
391.636	83.56
391.86	80.56
392.085	96.56
392.31	89.56
392.534	99.56
392.759	103.56
392.984	88.56
393.208	106.56
393.433	95.56
393.658	97.56
393.882	102.56
394.107	97.56
394.331	105.56
394.556	92.56
394.78	103.56
395.005	95.56
395.229	102.56
395.454	95.56
395.678	75.56
395.903	99.56
396.127	113.56
396.352	106.56
396.576	115.56
396.801	106.56
397.025	100.56
397.249	104.56
397.474	117.56
397.698	103.56
397.922	108.56
398.147	114.56
398.371	111.56
398.595	110.56
398.82	87.56
399.044	83.56
399.268	115.56
399.492	109.56
399.717	107.56
399.941	110.56
400.165	108.56
400.389	108.56
400.613	103.56
400.837	94.56
401.062	108.56
401.286	105.56
401.51	122.56
401.734	111.56
401.958	98.56
402.182	106.56
402.406	110.56
402.63	111.56
402.854	110.56
403.078	96.56
403.302	108.56
403.526	108.56
403.75	120.56
403.974	117.56
404.198	117.56
404.422	111.56
404.645	112.56
404.869	109.56
405.093	104.56
405.317	117.56
405.541	107.56
405.765	109.56
405.988	114.56
406.212	111.56
406.436	108.56
406.66	118.56
406.883	117.56
407.107	115.56
407.331	98.56
407.555	116.56
407.778	118.56
408.002	112.56
408.226	125.56
408.449	114.56
408.673	124.56
408.896	110.56
409.12	109.56
409.344	107.56
409.567	115.56
409.791	112.56
410.014	111.56
410.238	117.56
410.461	113.56
410.685	114.56
410.908	103.56
411.132	120.56
411.355	115.56
411.578	114.56
411.802	120.56
412.025	115.56
412.249	115.56
412.472	107.56
412.695	111.56
412.919	114.56
413.142	106.56
413.365	123.56
413.589	119.56
413.812	117.56
414.035	122.56
414.258	117.56
414.482	116.56
414.705	123.56
414.928	115.56
415.151	128.56
415.374	103.56
415.597	114.56
415.821	110.56
416.044	118.56
416.267	119.56
416.49	120.56
416.713	127.56
416.936	133.56
417.159	120.56
417.382	118.56
417.605	126.56
417.828	113.56
418.051	105.56
418.274	122.56
418.497	126.56
418.72	126.56
418.943	140.56
419.166	122.56
419.389	130.56
419.611	124.56
419.834	128.56
420.057	127.56
420.28	127.56
420.503	119.56
420.726	122.56
420.948	111.56
421.171	122.56
421.394	138.56
421.617	124.56
421.839	120.56
422.062	140.56
422.285	119.56
422.507	116.56
422.73	122.56
422.953	110.56
423.175	117.56
423.398	112.56
423.621	126.56
423.843	118.56
424.066	125.56
424.288	124.56
424.511	149.56
424.733	146.56
424.956	125.56
425.178	143.56
425.401	134.56
425.623	141.56
425.846	138.56
426.068	121.56
426.291	116.56
426.513	124.56
426.735	135.56
426.958	133.56
427.18	127.56
427.402	113.56
427.625	131.56
427.847	114.56
428.069	128.56
428.292	126.56
428.514	123.56
428.736	115.56
428.958	110.56
429.181	113.56
429.403	116.56
429.625	141.56
429.847	122.56
430.069	126.56
430.292	124.56
430.514	131.56
430.736	114.56
430.958	111.56
431.18	114.56
431.402	126.56
431.624	123.56
431.846	112.56
432.068	93.56
432.29	99.56
432.512	106.56
432.734	127.56
432.956	124.56
433.178	127.56
433.4	117.56
433.622	131.56
433.844	128.56
434.066	105.56
434.287	118.56
434.509	88.56
434.731	93.56
434.953	91.56
435.175	125.56
435.397	110.56
435.618	113.56
435.84	94.56
436.062	116.56
436.284	118.56
436.505	117.56
436.727	133.56
436.949	121.56
437.17	116.56
437.392	111.56
437.614	129.56
437.835	112.56
438.057	96.56
438.278	112.56
438.5	109.56
438.721	119.56
438.943	149.56
439.165	130.56
439.386	146.56
439.608	135.56
439.829	142.56
440.05	131.56
440.272	149.56
440.493	142.56
440.715	144.56
440.936	122.56
441.158	126.56
441.379	127.56
441.6	148.56
441.822	124.56
442.043	135.56
442.264	135.56
442.486	138.56
442.707	123.56
442.928	115.56
443.149	132.56
443.371	123.56
443.592	130.56
443.813	151.56
444.034	120.56
444.255	135.56
444.476	136.56
444.698	135.56
444.919	132.56
445.14	247.56
445.361	172.56
445.582	154.56
445.803	142.56
446.024	151.56
446.245	142.56
446.466	151.56
446.687	146.56
446.908	147.56
447.129	148.56
447.35	136.56
447.571	139.56
447.792	135.56
448.013	126.56
448.234	147.56
448.455	142.56
448.675	125.56
448.896	128.56
449.117	118.56
449.338	135.56
449.559	149.56
449.779	144.56
450	133.56
450.221	118.56
450.442	132.56
450.662	130.56
450.883	115.56
451.104	118.56
451.324	129.56
451.545	113.56
451.766	139.56
451.986	132.56
452.207	134.56
452.428	120.56
452.648	128.56
452.869	125.56
453.089	116.56
453.31	99.56
453.53	107.56
453.751	94.56
453.971	108.56
454.192	97.56
454.412	110.56
454.633	108.56
454.853	111.56
455.073	120.56
455.294	122.56
455.514	110.56
455.734	119.56
455.955	109.56
456.175	106.56
456.395	116.56
456.616	109.56
456.836	98.56
457.056	103.56
457.276	97.56
457.497	103.56
457.717	96.56
457.937	94.56
458.157	104.56
458.377	106.56
458.598	106.56
458.818	83.56
459.038	79.56
459.258	68.56
459.478	82.56
459.698	83.56
459.918	73.56
460.138	107.56
460.358	90.56
460.578	106.56
460.798	122.56
461.018	112.56
461.238	108.56
461.458	101.56
461.678	106.56
461.898	108.56
462.118	112.56
462.338	114.56
462.558	95.56
462.777	114.56
462.997	100.56
463.217	109.56
463.437	104.56
463.657	85.56
463.876	110.56
464.096	102.56
464.316	106.56
464.536	111.56
464.755	116.56
464.975	118.56
465.195	113.56
465.414	114.56
465.634	116.56
465.854	120.56
466.073	110.56
466.293	122.56
466.512	122.56
466.732	112.56
466.951	118.56
467.171	124.56
467.391	133.56
467.61	111.56
467.829	118.56
468.049	145.56
468.268	130.56
468.488	129.56
468.707	128.56
468.927	142.56
469.146	132.56
469.365	137.56
469.585	125.56
469.804	126.56
470.023	128.56
470.243	130.56
470.462	134.56
470.681	126.56
470.901	144.56
471.12	130.56
471.339	140.56
471.558	142.56
471.777	127.56
471.997	136.56
472.216	124.56
472.435	97.56
472.654	100.56
472.873	107.56
473.092	109.56
473.311	117.56
473.53	114.56
473.749	110.56
473.968	127.56
474.187	133.56
474.406	119.56
474.625	103.56
474.844	131.56
475.063	113.56
475.282	115.56
475.501	104.56
475.72	112.56
475.939	120.56
476.158	121.56
476.377	122.56
476.596	120.56
476.814	107.56
477.033	101.56
477.252	115.56
477.471	122.56
477.69	123.56
477.908	139.56
478.127	134.56
478.346	136.56
478.564	143.56
478.783	134.56
479.002	141.56
479.22	127.56
479.439	129.56
479.658	114.56
479.876	114.56
480.095	103.56
480.313	108.56
480.532	122.56
480.751	106.56
480.969	106.56
481.188	80.56
481.406	66.56
481.624	92.56
481.843	85.56
482.061	102.56
482.28	110.56
482.498	99.56
482.717	111.56
482.935	111.56
483.153	144.56
483.372	149.56
483.59	143.56
483.808	144.56
484.027	136.56
484.245	125.56
484.463	131.56
484.681	159.56
484.9	133.56
485.118	114.56
485.336	130.56
485.554	117.56
485.772	109.56
485.99	86.56
486.209	97.56
486.427	91.56
486.645	115.56
486.863	123.56
487.081	128.56
487.299	141.56
487.517	135.56
487.735	161.56
487.953	166.56
488.171	189.56
488.389	167.56
488.607	140.56
488.825	126.56
489.043	114.56
489.261	126.56
489.479	136.56
489.696	142.56
489.914	125.56
490.132	139.56
490.35	148.56
490.568	159.56
490.786	158.56
491.003	174.56
491.221	179.56
491.439	177.56
491.657	182.56
491.874	180.56
492.092	222.56
492.31	218.56
492.527	226.56
492.745	203.56
492.963	181.56
493.18	196.56
493.398	195.56
493.615	168.56
493.833	170.56
494.05	172.56
494.268	166.56
494.485	159.56
494.703	164.56
494.92	183.56
495.138	165.56
495.355	182.56
495.573	168.56
495.79	172.56
496.008	180.56
496.225	174.56
496.442	168.56
496.66	162.56
496.877	147.56
497.094	159.56
497.312	157.56
497.529	170.56
497.746	152.56
497.963	146.56
498.181	126.56
498.398	124.56
498.615	132.56
498.832	117.56
499.049	114.56
499.267	117.56
499.484	107.56
499.701	124.56
499.918	146.56
500.135	133.56
500.352	142.56
500.569	145.56
500.786	133.56
501.003	134.56
501.22	135.56
501.437	153.56
501.654	141.56
501.871	135.56
502.088	129.56
502.305	143.56
502.522	129.56
502.739	126.56
502.956	123.56
503.172	127.56
503.389	108.56
503.606	115.56
503.823	120.56
504.04	105.56
504.256	104.56
504.473	122.56
504.69	130.56
504.907	113.56
505.123	93.56
505.34	120.56
505.557	116.56
505.773	115.56
505.99	103.56
506.207	113.56
506.423	113.56
506.64	117.56
506.856	112.56
507.073	109.56
507.289	118.56
507.506	118.56
507.722	114.56
507.939	109.56
508.155	114.56
508.372	123.56
508.588	119.56
508.805	113.56
509.021	101.56
509.238	92.56
509.454	89.56
509.67	86.56
509.887	94.56
510.103	79.56
510.319	91.56
510.536	87.56
510.752	92.56
510.968	100.56
511.184	87.56
511.401	70.56
511.617	98.56
511.833	92.56
512.049	94.56
512.265	95.56
