Data from Location2.07152019.Energy5.Lamp.07192019.3%Agarose_HRD10591_14-56-02-358.txt Node
Date: Fri Jul 19 14:56:02 EDT 2019
User: cochatt
Spectrometer: HR+D1059
Trigger mode: 1
Integration Time (sec): 1.000000E-1
Scans to average: 1
Electric dark correction enabled: true
Nonlinearity correction enabled: false
Boxcar width: 0
XAxis mode: Wavelengths
Number of Pixels in Spectrum: 2048
>>>>>Begin Spectral Data<<<<<
223.165	-22.19
223.4	-22.19
223.635	-22.19
223.869	-22.19
224.104	-16.19
224.338	0.81
224.573	-10.19
224.808	-9.19
225.042	-1.19
225.277	12.81
225.511	-12.19
225.746	-11.19
225.98	6.81
226.215	13.81
226.449	3.81
226.683	14.81
226.918	22.81
227.152	28.81
227.387	22.81
227.621	49.81
227.856	53.81
228.09	50.81
228.324	61.81
228.559	34.81
228.793	55.81
229.027	64.81
229.262	68.81
229.496	69.81
229.73	71.81
229.964	68.81
230.199	63.81
230.433	67.81
230.667	64.81
230.901	74.81
231.136	83.81
231.37	85.81
231.604	84.81
231.838	91.81
232.072	85.81
232.306	81.81
232.541	94.81
232.775	82.81
233.009	75.81
233.243	73.81
233.477	63.81
233.711	75.81
233.945	87.81
234.179	66.81
234.413	90.81
234.647	86.81
234.881	79.81
235.115	80.81
235.349	77.81
235.583	80.81
235.817	76.81
236.051	68.81
236.285	68.81
236.519	64.81
236.753	75.81
236.987	76.81
237.221	83.81
237.455	84.81
237.689	83.81
237.922	67.81
238.156	79.81
238.39	73.81
238.624	69.81
238.858	73.81
239.091	76.81
239.325	74.81
239.559	70.81
239.793	89.81
240.027	76.81
240.26	74.81
240.494	85.81
240.728	79.81
240.961	74.81
241.195	69.81
241.429	82.81
241.662	70.81
241.896	70.81
242.13	79.81
242.363	67.81
242.597	83.81
242.83	70.81
243.064	79.81
243.298	64.81
243.531	75.81
243.765	76.81
243.998	71.81
244.232	80.81
244.465	78.81
244.699	82.81
244.932	64.81
245.166	73.81
245.399	73.81
245.633	71.81
245.866	82.81
246.099	75.81
246.333	88.81
246.566	75.81
246.8	81.81
247.033	72.81
247.266	78.81
247.5	73.81
247.733	89.81
247.966	71.81
248.2	88.81
248.433	75.81
248.666	76.81
248.899	80.81
249.133	79.81
249.366	94.81
249.599	76.81
249.832	73.81
250.066	75.81
250.299	69.81
250.532	86.81
250.765	87.81
250.998	71.81
251.231	80.81
251.465	80.81
251.698	86.81
251.931	72.81
252.164	77.81
252.397	88.81
252.63	78.81
252.863	73.81
253.096	83.81
253.329	70.81
253.562	70.81
253.795	79.81
254.028	82.81
254.261	72.81
254.494	81.81
254.727	79.81
254.96	73.81
255.193	76.81
255.426	80.81
255.659	82.81
255.892	70.81
256.124	70.81
256.357	77.81
256.59	71.81
256.823	81.81
257.056	78.81
257.289	77.81
257.521	82.81
257.754	67.81
257.987	67.81
258.22	83.81
258.452	82.81
258.685	79.81
258.918	72.81
259.151	80.81
259.383	75.81
259.616	77.81
259.849	70.81
260.081	78.81
260.314	83.81
260.547	77.81
260.779	70.81
261.012	68.81
261.244	79.81
261.477	84.81
261.71	81.81
261.942	80.81
262.175	89.81
262.407	79.81
262.64	81.81
262.872	84.81
263.105	87.81
263.337	75.81
263.57	79.81
263.802	87.81
264.035	89.81
264.267	87.81
264.499	76.81
264.732	84.81
264.964	82.81
265.197	74.81
265.429	61.81
265.661	84.81
265.894	79.81
266.126	77.81
266.358	74.81
266.591	72.81
266.823	76.81
267.055	87.81
267.287	76.81
267.52	80.81
267.752	86.81
267.984	70.81
268.216	70.81
268.448	87.81
268.681	84.81
268.913	75.81
269.145	85.81
269.377	79.81
269.609	82.81
269.841	80.81
270.073	85.81
270.306	63.81
270.538	91.81
270.77	84.81
271.002	88.81
271.234	81.81
271.466	79.81
271.698	76.81
271.93	78.81
272.162	82.81
272.394	74.81
272.626	81.81
272.858	77.81
273.09	72.81
273.322	71.81
273.553	88.81
273.785	95.81
274.017	82.81
274.249	60.81
274.481	76.81
274.713	79.81
274.945	71.81
275.176	101.81
275.408	89.81
275.64	87.81
275.872	84.81
276.104	70.81
276.335	85.81
276.567	80.81
276.799	81.81
277.031	85.81
277.262	73.81
277.494	75.81
277.726	70.81
277.957	67.81
278.189	72.81
278.421	75.81
278.652	84.81
278.884	79.81
279.115	92.81
279.347	73.81
279.579	76.81
279.81	85.81
280.042	70.81
280.273	82.81
280.505	88.81
280.736	74.81
280.968	90.81
281.199	84.81
281.431	76.81
281.662	75.81
281.894	83.81
282.125	87.81
282.356	92.81
282.588	80.81
282.819	87.81
283.051	86.81
283.282	94.81
283.513	89.81
283.745	79.81
283.976	90.81
284.207	85.81
284.439	83.81
284.67	80.81
284.901	90.81
285.132	85.81
285.364	75.81
285.595	82.81
285.826	85.81
286.057	80.81
286.288	82.81
286.52	76.81
286.751	71.81
286.982	88.81
287.213	82.81
287.444	92.81
287.675	91.81
287.906	89.81
288.138	67.81
288.369	91.81
288.6	73.81
288.831	77.81
289.062	78.81
289.293	90.81
289.524	91.81
289.755	69.81
289.986	76.81
290.217	81.81
290.448	97.81
290.679	73.81
290.91	88.81
291.141	81.81
291.371	86.81
291.602	75.81
291.833	82.81
292.064	75.81
292.295	79.81
292.526	80.81
292.757	88.81
292.987	86.81
293.218	86.81
293.449	86.81
293.68	73.81
293.91	91.81
294.141	81.81
294.372	83.81
294.603	87.81
294.833	83.81
295.064	75.81
295.295	74.81
295.525	80.81
295.756	96.81
295.987	84.81
296.217	89.81
296.448	79.81
296.679	79.81
296.909	88.81
297.14	79.81
297.37	80.81
297.601	90.81
297.831	90.81
298.062	82.81
298.292	92.81
298.523	99.81
298.753	87.81
298.984	94.81
299.214	95.81
299.445	78.81
299.675	70.81
299.905	71.81
300.136	74.81
300.366	84.81
300.597	89.81
300.827	95.81
301.057	88.81
301.288	82.81
301.518	92.81
301.748	81.81
301.979	88.81
302.209	92.81
302.439	76.81
302.669	88.81
302.9	69.81
303.13	101.81
303.36	88.81
303.59	94.81
303.82	77.81
304.051	75.81
304.281	88.81
304.511	81.81
304.741	85.81
304.971	98.81
305.201	102.81
305.431	88.81
305.661	93.81
305.891	87.81
306.121	83.81
306.352	79.81
306.582	81.81
306.812	74.81
307.042	77.81
307.272	81.81
307.502	91.81
307.731	85.81
307.961	88.81
308.191	81.81
308.421	100.81
308.651	84.81
308.881	85.81
309.111	90.81
309.341	76.81
309.571	91.81
309.8	71.81
310.03	90.81
310.26	88.81
310.49	96.81
310.72	82.81
310.949	86.81
311.179	75.81
311.409	78.81
311.639	73.81
311.868	85.81
312.098	87.81
312.328	93.81
312.557	89.81
312.787	81.81
313.017	82.81
313.246	82.81
313.476	85.81
313.706	89.81
313.935	76.81
314.165	94.81
314.394	93.81
314.624	79.81
314.853	94.81
315.083	80.81
315.312	89.81
315.542	80.81
315.771	76.81
316.001	75.81
316.23	80.81
316.46	74.81
316.689	93.81
316.919	91.81
317.148	87.81
317.377	91.81
317.607	83.81
317.836	79.81
318.065	82.81
318.295	82.81
318.524	72.81
318.753	84.81
318.983	77.81
319.212	67.81
319.441	93.81
319.67	93.81
319.9	90.81
320.129	96.81
320.358	90.81
320.587	79.81
320.816	83.81
321.046	96.81
321.275	87.81
321.504	91.81
321.733	66.81
321.962	75.81
322.191	85.81
322.42	85.81
322.649	84.81
322.878	84.81
323.108	76.81
323.337	88.81
323.566	80.81
323.795	87.81
324.024	74.81
324.253	90.81
324.482	80.81
324.71	81.81
324.939	89.81
325.168	87.81
325.397	88.81
325.626	82.81
325.855	85.81
326.084	73.81
326.313	85.81
326.542	82.81
326.77	83.81
326.999	77.81
327.228	87.81
327.457	83.81
327.686	88.81
327.914	91.81
328.143	89.81
328.372	85.81
328.6	84.81
328.829	91.81
329.058	89.81
329.287	91.81
329.515	89.81
329.744	87.81
329.972	93.81
330.201	92.81
330.43	80.81
330.658	90.81
330.887	82.81
331.115	69.81
331.344	79.81
331.572	96.81
331.801	70.81
332.03	83.81
332.258	89.81
332.486	84.81
332.715	73.81
332.943	83.81
333.172	75.81
333.4	81.81
333.629	96.81
333.857	66.81
334.085	89.81
334.314	79.81
334.542	94.81
334.771	95.81
334.999	96.81
335.227	81.81
335.455	76.81
335.684	93.81
335.912	82.81
336.14	75.81
336.369	91.81
336.597	77.81
336.825	80.81
337.053	89.81
337.281	79.81
337.51	76.81
337.738	88.81
337.966	82.81
338.194	82.81
338.422	70.81
338.65	83.81
338.878	83.81
339.106	76.81
339.334	98.81
339.562	79.81
339.79	78.81
340.018	76.81
340.246	85.81
340.474	93.81
340.702	86.81
340.93	86.81
341.158	96.81
341.386	87.81
341.614	96.81
341.842	93.81
342.07	70.81
342.298	79.81
342.526	65.81
342.754	83.81
342.981	77.81
343.209	91.81
343.437	86.81
343.665	85.81
343.893	94.81
344.12	91.81
344.348	80.81
344.576	83.81
344.804	84.81
345.031	86.81
345.259	83.81
345.487	80.81
345.714	76.81
345.942	89.81
346.17	83.81
346.397	80.81
346.625	76.81
346.853	67.81
347.08	75.81
347.308	86.81
347.535	86.81
347.763	69.81
347.99	80.81
348.218	87.81
348.445	85.81
348.673	79.81
348.9	78.81
349.128	97.81
349.355	89.81
349.583	82.81
349.81	84.81
350.037	85.81
350.265	80.81
350.492	82.81
350.72	74.81
350.947	82.81
351.174	86.81
351.402	82.81
351.629	75.81
351.856	84.81
352.083	84.81
352.311	74.81
352.538	87.81
352.765	85.81
352.992	81.81
353.22	85.81
353.447	71.81
353.674	83.81
353.901	81.81
354.128	67.81
354.355	80.81
354.583	68.81
354.81	74.81
355.037	71.81
355.264	92.81
355.491	78.81
355.718	78.81
355.945	76.81
356.172	81.81
356.399	87.81
356.626	76.81
356.853	83.81
357.08	94.81
357.307	95.81
357.534	88.81
357.761	91.81
357.988	82.81
358.215	84.81
358.441	86.81
358.668	79.81
358.895	82.81
359.122	89.81
359.349	87.81
359.576	96.81
359.802	69.81
360.029	83.81
360.256	76.81
360.483	82.81
360.709	73.81
360.936	86.81
361.163	73.81
361.39	90.81
361.616	95.81
361.843	84.81
362.07	81.81
362.296	93.81
362.523	79.81
362.749	85.81
362.976	96.81
363.203	67.81
363.429	96.81
363.656	82.81
363.882	90.81
364.109	89.81
364.335	79.81
364.562	75.81
364.788	81.81
365.015	90.81
365.241	82.81
365.468	80.81
365.694	82.81
365.92	76.81
366.147	83.81
366.373	82.81
366.599	80.81
366.826	84.81
367.052	100.81
367.278	79.81
367.505	89.81
367.731	86.81
367.957	84.81
368.184	74.81
368.41	89.81
368.636	86.81
368.862	90.81
369.089	77.81
369.315	87.81
369.541	100.81
369.767	93.81
369.993	86.81
370.219	97.81
370.445	89.81
370.672	87.81
370.898	100.81
371.124	85.81
371.35	84.81
371.576	87.81
371.802	82.81
372.028	75.81
372.254	86.81
372.48	95.81
372.706	91.81
372.932	73.81
373.158	91.81
373.384	92.81
373.61	91.81
373.835	83.81
374.061	103.81
374.287	98.81
374.513	90.81
374.739	89.81
374.965	89.81
375.191	94.81
375.416	102.81
375.642	87.81
375.868	87.81
376.094	93.81
376.319	87.81
376.545	77.81
376.771	102.81
376.997	99.81
377.222	86.81
377.448	89.81
377.674	97.81
377.899	86.81
378.125	104.81
378.35	122.81
378.576	102.81
378.802	87.81
379.027	92.81
379.253	83.81
379.478	88.81
379.704	97.81
379.929	88.81
380.155	97.81
380.38	84.81
380.606	91.81
380.831	89.81
381.057	85.81
381.282	92.81
381.507	103.81
381.733	85.81
381.958	97.81
382.184	101.81
382.409	95.81
382.634	92.81
382.86	104.81
383.085	108.81
383.31	105.81
383.535	113.81
383.761	99.81
383.986	108.81
384.211	97.81
384.436	98.81
384.662	83.81
384.887	94.81
385.112	97.81
385.337	100.81
385.562	106.81
385.787	102.81
386.013	91.81
386.238	100.81
386.463	114.81
386.688	99.81
386.913	75.81
387.138	90.81
387.363	84.81
387.588	111.81
387.813	97.81
388.038	92.81
388.263	100.81
388.488	96.81
388.713	101.81
388.938	106.81
389.163	113.81
389.387	111.81
389.612	107.81
389.837	110.81
390.062	90.81
390.287	111.81
390.512	115.81
390.736	80.81
390.961	111.81
391.186	94.81
391.411	107.81
391.636	117.81
391.86	114.81
392.085	106.81
392.31	106.81
392.534	95.81
392.759	107.81
392.984	106.81
393.208	116.81
393.433	94.81
393.658	101.81
393.882	101.81
394.107	109.81
394.331	89.81
394.556	104.81
394.78	96.81
395.005	103.81
395.229	125.81
395.454	112.81
395.678	110.81
395.903	94.81
396.127	105.81
396.352	114.81
396.576	110.81
396.801	114.81
397.025	100.81
397.249	107.81
397.474	116.81
397.698	105.81
397.922	110.81
398.147	112.81
398.371	112.81
398.595	97.81
398.82	110.81
399.044	95.81
399.268	114.81
399.492	98.81
399.717	115.81
399.941	112.81
400.165	99.81
400.389	103.81
400.613	104.81
400.837	98.81
401.062	119.81
401.286	100.81
401.51	120.81
401.734	106.81
401.958	109.81
402.182	111.81
402.406	111.81
402.63	110.81
402.854	116.81
403.078	114.81
403.302	107.81
403.526	118.81
403.75	100.81
403.974	114.81
404.198	110.81
404.422	112.81
404.645	105.81
404.869	106.81
405.093	108.81
405.317	107.81
405.541	119.81
405.765	107.81
405.988	106.81
406.212	114.81
406.436	106.81
406.66	124.81
406.883	134.81
407.107	112.81
407.331	103.81
407.555	125.81
407.778	118.81
408.002	114.81
408.226	116.81
408.449	116.81
408.673	126.81
408.896	103.81
409.12	101.81
409.344	123.81
409.567	110.81
409.791	95.81
410.014	118.81
410.238	115.81
410.461	121.81
410.685	115.81
410.908	113.81
411.132	133.81
411.355	127.81
411.578	121.81
411.802	136.81
412.025	131.81
412.249	111.81
412.472	105.81
412.695	124.81
412.919	129.81
413.142	124.81
413.365	125.81
413.589	117.81
413.812	117.81
414.035	122.81
414.258	128.81
414.482	124.81
414.705	114.81
414.928	120.81
415.151	131.81
415.374	127.81
415.597	129.81
415.821	125.81
416.044	110.81
416.267	128.81
416.49	132.81
416.713	121.81
416.936	111.81
417.159	123.81
417.382	126.81
417.605	138.81
417.828	126.81
418.051	130.81
418.274	125.81
418.497	138.81
418.72	122.81
418.943	149.81
419.166	145.81
419.389	138.81
419.611	134.81
419.834	122.81
420.057	130.81
420.28	133.81
420.503	113.81
420.726	125.81
420.948	130.81
421.171	123.81
421.394	122.81
421.617	132.81
421.839	145.81
422.062	145.81
422.285	128.81
422.507	132.81
422.73	121.81
422.953	130.81
423.175	116.81
423.398	135.81
423.621	126.81
423.843	128.81
424.066	130.81
424.288	148.81
424.511	129.81
424.733	142.81
424.956	128.81
425.178	121.81
425.401	130.81
425.623	136.81
425.846	146.81
426.068	129.81
426.291	132.81
426.513	127.81
426.735	134.81
426.958	130.81
427.18	114.81
427.402	127.81
427.625	120.81
427.847	131.81
428.069	136.81
428.292	116.81
428.514	125.81
428.736	120.81
428.958	126.81
429.181	120.81
429.403	136.81
429.625	124.81
429.847	118.81
430.069	116.81
430.292	116.81
430.514	128.81
430.736	130.81
430.958	128.81
431.18	134.81
431.402	131.81
431.624	125.81
431.846	99.81
432.068	89.81
432.29	103.81
432.512	112.81
432.734	132.81
432.956	127.81
433.178	138.81
433.4	144.81
433.622	137.81
433.844	127.81
434.066	118.81
434.287	102.81
434.509	84.81
434.731	94.81
434.953	110.81
435.175	120.81
435.397	133.81
435.618	117.81
435.84	119.81
436.062	113.81
436.284	123.81
436.505	115.81
436.727	124.81
436.949	124.81
437.17	132.81
437.392	118.81
437.614	115.81
437.835	122.81
438.057	100.81
438.278	115.81
438.5	102.81
438.721	126.81
438.943	144.81
439.165	123.81
439.386	135.81
439.608	134.81
439.829	125.81
440.05	152.81
440.272	138.81
440.493	143.81
440.715	134.81
440.936	134.81
441.158	138.81
441.379	137.81
441.6	145.81
441.822	144.81
442.043	147.81
442.264	155.81
442.486	144.81
442.707	134.81
442.928	130.81
443.149	135.81
443.371	146.81
443.592	141.81
443.813	126.81
444.034	146.81
444.255	141.81
444.476	138.81
444.698	146.81
444.919	136.81
445.14	265.81
445.361	192.81
445.582	151.81
445.803	133.81
446.024	154.81
446.245	126.81
446.466	151.81
446.687	149.81
446.908	144.81
447.129	159.81
447.35	153.81
447.571	153.81
447.792	147.81
448.013	139.81
448.234	140.81
448.455	139.81
448.675	138.81
448.896	151.81
449.117	139.81
449.338	131.81
449.559	129.81
449.779	131.81
450	134.81
450.221	139.81
450.442	145.81
450.662	129.81
450.883	144.81
451.104	130.81
451.324	133.81
451.545	143.81
451.766	112.81
451.986	118.81
452.207	130.81
452.428	115.81
452.648	136.81
452.869	116.81
453.089	118.81
453.31	92.81
453.53	111.81
453.751	102.81
453.971	107.81
454.192	101.81
454.412	102.81
454.633	98.81
454.853	111.81
455.073	128.81
455.294	119.81
455.514	111.81
455.734	123.81
455.955	131.81
456.175	107.81
456.395	113.81
456.616	114.81
456.836	103.81
457.056	117.81
457.276	97.81
457.497	102.81
457.717	100.81
457.937	116.81
458.157	97.81
458.377	113.81
458.598	104.81
458.818	110.81
459.038	96.81
459.258	86.81
459.478	83.81
459.698	92.81
459.918	103.81
460.138	110.81
460.358	105.81
460.578	114.81
460.798	99.81
461.018	102.81
461.238	107.81
461.458	106.81
461.678	102.81
461.898	119.81
462.118	126.81
462.338	115.81
462.558	104.81
462.777	119.81
462.997	102.81
463.217	115.81
463.437	108.81
463.657	111.81
463.876	92.81
464.096	99.81
464.316	101.81
464.536	95.81
464.755	122.81
464.975	115.81
465.195	131.81
465.414	101.81
465.634	111.81
465.854	105.81
466.073	116.81
466.293	117.81
466.512	124.81
466.732	134.81
466.951	131.81
467.171	129.81
467.391	140.81
467.61	131.81
467.829	134.81
468.049	139.81
468.268	116.81
468.488	137.81
468.707	118.81
468.927	130.81
469.146	136.81
469.365	130.81
469.585	146.81
469.804	135.81
470.023	140.81
470.243	130.81
470.462	128.81
470.681	139.81
470.901	136.81
471.12	138.81
471.339	144.81
471.558	143.81
471.777	131.81
471.997	123.81
472.216	118.81
472.435	114.81
472.654	100.81
472.873	99.81
473.092	135.81
473.311	130.81
473.53	119.81
473.749	139.81
473.968	125.81
474.187	120.81
474.406	114.81
474.625	115.81
474.844	140.81
475.063	124.81
475.282	123.81
475.501	133.81
475.72	122.81
475.939	126.81
476.158	132.81
476.377	148.81
476.596	126.81
476.814	115.81
477.033	108.81
477.252	122.81
477.471	121.81
477.69	131.81
477.908	138.81
478.127	123.81
478.346	134.81
478.564	138.81
478.783	134.81
479.002	112.81
479.22	144.81
479.439	122.81
479.658	104.81
479.876	111.81
480.095	109.81
480.313	106.81
480.532	130.81
480.751	122.81
480.969	107.81
481.188	87.81
481.406	95.81
481.624	94.81
481.843	95.81
482.061	98.81
482.28	105.81
482.498	106.81
482.717	122.81
482.935	128.81
483.153	129.81
483.372	136.81
483.59	149.81
483.808	146.81
484.027	133.81
484.245	132.81
484.463	137.81
484.681	161.81
484.9	135.81
485.118	150.81
485.336	143.81
485.554	123.81
485.772	111.81
485.99	99.81
486.209	113.81
486.427	118.81
486.645	112.81
486.863	143.81
487.081	130.81
487.299	136.81
487.517	137.81
487.735	172.81
487.953	172.81
488.171	178.81
488.389	170.81
488.607	161.81
488.825	138.81
489.043	126.81
489.261	126.81
489.479	130.81
489.696	144.81
489.914	136.81
490.132	138.81
490.35	140.81
490.568	162.81
490.786	174.81
491.003	156.81
491.221	171.81
491.439	178.81
491.657	185.81
491.874	197.81
492.092	216.81
492.31	236.81
492.527	233.81
492.745	208.81
492.963	214.81
493.18	192.81
493.398	179.81
493.615	168.81
493.833	175.81
494.05	172.81
494.268	176.81
494.485	159.81
494.703	179.81
494.92	182.81
495.138	156.81
495.355	161.81
495.573	169.81
495.79	184.81
496.008	169.81
496.225	174.81
496.442	164.81
496.66	160.81
496.877	157.81
497.094	158.81
497.312	180.81
497.529	158.81
497.746	152.81
497.963	146.81
498.181	124.81
498.398	124.81
498.615	139.81
498.832	107.81
499.049	96.81
499.267	125.81
499.484	131.81
499.701	126.81
499.918	140.81
500.135	128.81
500.352	151.81
500.569	128.81
500.786	152.81
501.003	138.81
501.22	137.81
501.437	119.81
501.654	127.81
501.871	142.81
502.088	133.81
502.305	135.81
502.522	128.81
502.739	128.81
502.956	136.81
503.172	129.81
503.389	111.81
503.606	122.81
503.823	116.81
504.04	126.81
504.256	117.81
504.473	103.81
504.69	128.81
504.907	112.81
505.123	98.81
505.34	110.81
505.557	113.81
505.773	134.81
505.99	120.81
506.207	120.81
506.423	123.81
506.64	124.81
506.856	118.81
507.073	118.81
507.289	101.81
507.506	106.81
507.722	108.81
507.939	130.81
508.155	118.81
508.372	116.81
508.588	108.81
508.805	114.81
509.021	96.81
509.238	110.81
509.454	86.81
509.67	86.81
509.887	98.81
510.103	110.81
510.319	79.81
510.536	103.81
510.752	96.81
510.968	98.81
511.184	84.81
511.401	91.81
511.617	85.81
511.833	94.81
