Data from Location2.07152019.Energy5.Lamp.07192019.3%Agarose_HRD10591_14-57-39-359.txt Node
Date: Fri Jul 19 14:57:39 EDT 2019
User: cochatt
Spectrometer: HR+D1059
Trigger mode: 1
Integration Time (sec): 1.000000E-1
Scans to average: 1
Electric dark correction enabled: true
Nonlinearity correction enabled: false
Boxcar width: 0
XAxis mode: Wavelengths
Number of Pixels in Spectrum: 2048
>>>>>Begin Spectral Data<<<<<
223.165	-15.25
223.4	-15.25
223.635	-15.25
223.869	-13.25
224.104	-10.25
224.338	-13.25
224.573	-2.25
224.808	-14.25
225.042	-11.25
225.277	-13.25
225.511	-1.25
225.746	-4.25
225.98	7.75
226.215	5.75
226.449	18.75
226.683	15.75
226.918	19.75
227.152	30.75
227.387	30.75
227.621	47.75
227.856	42.75
228.09	35.75
228.324	49.75
228.559	66.75
228.793	57.75
229.027	54.75
229.262	53.75
229.496	53.75
229.73	73.75
229.964	54.75
230.199	81.75
230.433	69.75
230.667	84.75
230.901	90.75
231.136	85.75
231.37	71.75
231.604	75.75
231.838	95.75
232.072	75.75
232.306	86.75
232.541	86.75
232.775	78.75
233.009	95.75
233.243	86.75
233.477	75.75
233.711	84.75
233.945	87.75
234.179	97.75
234.413	76.75
234.647	73.75
234.881	76.75
235.115	82.75
235.349	78.75
235.583	88.75
235.817	85.75
236.051	78.75
236.285	66.75
236.519	87.75
236.753	80.75
236.987	80.75
237.221	86.75
237.455	69.75
237.689	72.75
237.922	54.75
238.156	76.75
238.39	66.75
238.624	76.75
238.858	68.75
239.091	62.75
239.325	76.75
239.559	82.75
239.793	77.75
240.027	80.75
240.26	75.75
240.494	78.75
240.728	73.75
240.961	72.75
241.195	65.75
241.429	74.75
241.662	72.75
241.896	75.75
242.13	82.75
242.363	82.75
242.597	73.75
242.83	84.75
243.064	82.75
243.298	76.75
243.531	81.75
243.765	86.75
243.998	76.75
244.232	93.75
244.465	91.75
244.699	74.75
244.932	80.75
245.166	77.75
245.399	74.75
245.633	68.75
245.866	83.75
246.099	86.75
246.333	80.75
246.566	75.75
246.8	75.75
247.033	72.75
247.266	77.75
247.5	88.75
247.733	77.75
247.966	87.75
248.2	82.75
248.433	75.75
248.666	79.75
248.899	88.75
249.133	74.75
249.366	99.75
249.599	82.75
249.832	64.75
250.066	100.75
250.299	86.75
250.532	72.75
250.765	84.75
250.998	91.75
251.231	78.75
251.465	76.75
251.698	74.75
251.931	87.75
252.164	72.75
252.397	80.75
252.63	91.75
252.863	81.75
253.096	92.75
253.329	81.75
253.562	89.75
253.795	91.75
254.028	78.75
254.261	86.75
254.494	73.75
254.727	99.75
254.96	78.75
255.193	78.75
255.426	71.75
255.659	89.75
255.892	77.75
256.124	83.75
256.357	88.75
256.59	83.75
256.823	89.75
257.056	93.75
257.289	85.75
257.521	85.75
257.754	85.75
257.987	79.75
258.22	81.75
258.452	92.75
258.685	77.75
258.918	77.75
259.151	70.75
259.383	68.75
259.616	87.75
259.849	80.75
260.081	75.75
260.314	65.75
260.547	82.75
260.779	84.75
261.012	83.75
261.244	70.75
261.477	94.75
261.71	76.75
261.942	74.75
262.175	93.75
262.407	92.75
262.64	82.75
262.872	77.75
263.105	80.75
263.337	88.75
263.57	84.75
263.802	87.75
264.035	80.75
264.267	85.75
264.499	82.75
264.732	77.75
264.964	81.75
265.197	77.75
265.429	84.75
265.661	75.75
265.894	101.75
266.126	87.75
266.358	79.75
266.591	75.75
266.823	69.75
267.055	89.75
267.287	86.75
267.52	88.75
267.752	86.75
267.984	91.75
268.216	88.75
268.448	84.75
268.681	83.75
268.913	77.75
269.145	80.75
269.377	87.75
269.609	83.75
269.841	87.75
270.073	81.75
270.306	85.75
270.538	87.75
270.77	82.75
271.002	80.75
271.234	69.75
271.466	93.75
271.698	78.75
271.93	78.75
272.162	77.75
272.394	90.75
272.626	84.75
272.858	82.75
273.09	76.75
273.322	82.75
273.553	80.75
273.785	80.75
274.017	94.75
274.249	84.75
274.481	78.75
274.713	80.75
274.945	85.75
275.176	86.75
275.408	84.75
275.64	88.75
275.872	83.75
276.104	82.75
276.335	76.75
276.567	74.75
276.799	82.75
277.031	84.75
277.262	88.75
277.494	77.75
277.726	98.75
277.957	86.75
278.189	86.75
278.421	83.75
278.652	90.75
278.884	88.75
279.115	92.75
279.347	76.75
279.579	92.75
279.81	85.75
280.042	87.75
280.273	84.75
280.505	85.75
280.736	83.75
280.968	101.75
281.199	85.75
281.431	90.75
281.662	100.75
281.894	91.75
282.125	89.75
282.356	73.75
282.588	77.75
282.819	76.75
283.051	89.75
283.282	82.75
283.513	73.75
283.745	84.75
283.976	83.75
284.207	86.75
284.439	92.75
284.67	93.75
284.901	88.75
285.132	83.75
285.364	68.75
285.595	82.75
285.826	89.75
286.057	100.75
286.288	73.75
286.52	78.75
286.751	77.75
286.982	93.75
287.213	86.75
287.444	85.75
287.675	89.75
287.906	85.75
288.138	90.75
288.369	88.75
288.6	79.75
288.831	85.75
289.062	93.75
289.293	79.75
289.524	70.75
289.755	77.75
289.986	86.75
290.217	85.75
290.448	85.75
290.679	84.75
290.91	85.75
291.141	76.75
291.371	94.75
291.602	87.75
291.833	61.75
292.064	78.75
292.295	90.75
292.526	89.75
292.757	77.75
292.987	83.75
293.218	77.75
293.449	86.75
293.68	84.75
293.91	75.75
294.141	90.75
294.372	89.75
294.603	87.75
294.833	86.75
295.064	87.75
295.295	93.75
295.525	98.75
295.756	80.75
295.987	83.75
296.217	83.75
296.448	87.75
296.679	90.75
296.909	90.75
297.14	83.75
297.37	85.75
297.601	93.75
297.831	84.75
298.062	93.75
298.292	85.75
298.523	86.75
298.753	82.75
298.984	80.75
299.214	85.75
299.445	86.75
299.675	98.75
299.905	73.75
300.136	92.75
300.366	82.75
300.597	94.75
300.827	82.75
301.057	82.75
301.288	90.75
301.518	81.75
301.748	76.75
301.979	83.75
302.209	89.75
302.439	94.75
302.669	88.75
302.9	74.75
303.13	81.75
303.36	90.75
303.59	84.75
303.82	89.75
304.051	106.75
304.281	89.75
304.511	84.75
304.741	106.75
304.971	84.75
305.201	92.75
305.431	81.75
305.661	82.75
305.891	88.75
306.121	86.75
306.352	84.75
306.582	86.75
306.812	82.75
307.042	84.75
307.272	76.75
307.502	84.75
307.731	89.75
307.961	77.75
308.191	70.75
308.421	87.75
308.651	89.75
308.881	91.75
309.111	61.75
309.341	93.75
309.571	96.75
309.8	100.75
310.03	103.75
310.26	76.75
310.49	86.75
310.72	80.75
310.949	71.75
311.179	88.75
311.409	79.75
311.639	72.75
311.868	88.75
312.098	100.75
312.328	81.75
312.557	86.75
312.787	80.75
313.017	93.75
313.246	92.75
313.476	83.75
313.706	98.75
313.935	77.75
314.165	91.75
314.394	83.75
314.624	85.75
314.853	77.75
315.083	91.75
315.312	82.75
315.542	82.75
315.771	87.75
316.001	90.75
316.23	92.75
316.46	90.75
316.689	86.75
316.919	76.75
317.148	99.75
317.377	81.75
317.607	94.75
317.836	74.75
318.065	76.75
318.295	101.75
318.524	86.75
318.753	77.75
318.983	83.75
319.212	105.75
319.441	90.75
319.67	73.75
319.9	102.75
320.129	83.75
320.358	99.75
320.587	74.75
320.816	82.75
321.046	88.75
321.275	87.75
321.504	85.75
321.733	77.75
321.962	83.75
322.191	89.75
322.42	73.75
322.649	77.75
322.878	70.75
323.108	68.75
323.337	90.75
323.566	75.75
323.795	76.75
324.024	90.75
324.253	82.75
324.482	96.75
324.71	76.75
324.939	89.75
325.168	90.75
325.397	97.75
325.626	83.75
325.855	84.75
326.084	88.75
326.313	85.75
326.542	77.75
326.77	81.75
326.999	88.75
327.228	91.75
327.457	78.75
327.686	116.75
327.914	98.75
328.143	76.75
328.372	85.75
328.6	86.75
328.829	84.75
329.058	74.75
329.287	89.75
329.515	89.75
329.744	78.75
329.972	77.75
330.201	77.75
330.43	77.75
330.658	81.75
330.887	91.75
331.115	91.75
331.344	84.75
331.572	98.75
331.801	86.75
332.03	86.75
332.258	97.75
332.486	73.75
332.715	94.75
332.943	76.75
333.172	91.75
333.4	91.75
333.629	84.75
333.857	96.75
334.085	74.75
334.314	90.75
334.542	94.75
334.771	87.75
334.999	85.75
335.227	90.75
335.455	89.75
335.684	97.75
335.912	81.75
336.14	85.75
336.369	105.75
336.597	88.75
336.825	84.75
337.053	106.75
337.281	71.75
337.51	82.75
337.738	92.75
337.966	87.75
338.194	84.75
338.422	92.75
338.65	101.75
338.878	99.75
339.106	74.75
339.334	82.75
339.562	71.75
339.79	93.75
340.018	79.75
340.246	100.75
340.474	98.75
340.702	85.75
340.93	69.75
341.158	77.75
341.386	83.75
341.614	93.75
341.842	89.75
342.07	86.75
342.298	79.75
342.526	88.75
342.754	88.75
342.981	79.75
343.209	86.75
343.437	88.75
343.665	87.75
343.893	90.75
344.12	74.75
344.348	86.75
344.576	88.75
344.804	66.75
345.031	83.75
345.259	88.75
345.487	81.75
345.714	90.75
345.942	72.75
346.17	81.75
346.397	91.75
346.625	92.75
346.853	81.75
347.08	78.75
347.308	87.75
347.535	95.75
347.763	87.75
347.99	80.75
348.218	100.75
348.445	88.75
348.673	81.75
348.9	82.75
349.128	80.75
349.355	73.75
349.583	79.75
349.81	89.75
350.037	79.75
350.265	93.75
350.492	79.75
350.72	96.75
350.947	85.75
351.174	90.75
351.402	88.75
351.629	96.75
351.856	81.75
352.083	80.75
352.311	84.75
352.538	80.75
352.765	85.75
352.992	82.75
353.22	80.75
353.447	82.75
353.674	96.75
353.901	100.75
354.128	90.75
354.355	93.75
354.583	84.75
354.81	95.75
355.037	92.75
355.264	93.75
355.491	82.75
355.718	80.75
355.945	80.75
356.172	80.75
356.399	78.75
356.626	85.75
356.853	89.75
357.08	93.75
357.307	90.75
357.534	75.75
357.761	76.75
357.988	73.75
358.215	83.75
358.441	83.75
358.668	93.75
358.895	98.75
359.122	77.75
359.349	90.75
359.576	96.75
359.802	102.75
360.029	100.75
360.256	85.75
360.483	100.75
360.709	76.75
360.936	93.75
361.163	101.75
361.39	75.75
361.616	85.75
361.843	71.75
362.07	77.75
362.296	81.75
362.523	74.75
362.749	73.75
362.976	82.75
363.203	75.75
363.429	88.75
363.656	83.75
363.882	76.75
364.109	85.75
364.335	94.75
364.562	91.75
364.788	86.75
365.015	73.75
365.241	93.75
365.468	81.75
365.694	77.75
365.92	89.75
366.147	89.75
366.373	94.75
366.599	93.75
366.826	82.75
367.052	84.75
367.278	82.75
367.505	89.75
367.731	90.75
367.957	83.75
368.184	86.75
368.41	101.75
368.636	85.75
368.862	87.75
369.089	82.75
369.315	91.75
369.541	92.75
369.767	86.75
369.993	94.75
370.219	95.75
370.445	93.75
370.672	76.75
370.898	79.75
371.124	91.75
371.35	100.75
371.576	98.75
371.802	91.75
372.028	77.75
372.254	85.75
372.48	89.75
372.706	100.75
372.932	104.75
373.158	106.75
373.384	97.75
373.61	93.75
373.835	86.75
374.061	99.75
374.287	93.75
374.513	91.75
374.739	90.75
374.965	82.75
375.191	88.75
375.416	88.75
375.642	97.75
375.868	89.75
376.094	94.75
376.319	96.75
376.545	95.75
376.771	90.75
376.997	101.75
377.222	86.75
377.448	90.75
377.674	97.75
377.899	103.75
378.125	102.75
378.35	101.75
378.576	101.75
378.802	94.75
379.027	98.75
379.253	98.75
379.478	94.75
379.704	90.75
379.929	97.75
380.155	83.75
380.38	101.75
380.606	97.75
380.831	85.75
381.057	98.75
381.282	96.75
381.507	98.75
381.733	96.75
381.958	102.75
382.184	105.75
382.409	112.75
382.634	98.75
382.86	96.75
383.085	105.75
383.31	101.75
383.535	93.75
383.761	93.75
383.986	99.75
384.211	81.75
384.436	100.75
384.662	88.75
384.887	82.75
385.112	98.75
385.337	111.75
385.562	103.75
385.787	98.75
386.013	101.75
386.238	88.75
386.463	99.75
386.688	99.75
386.913	93.75
387.138	93.75
387.363	85.75
387.588	88.75
387.813	99.75
388.038	103.75
388.263	98.75
388.488	111.75
388.713	103.75
388.938	97.75
389.163	100.75
389.387	107.75
389.612	100.75
389.837	117.75
390.062	117.75
390.287	113.75
390.512	103.75
390.736	93.75
390.961	102.75
391.186	114.75
391.411	109.75
391.636	110.75
391.86	130.75
392.085	111.75
392.31	101.75
392.534	95.75
392.759	105.75
392.984	107.75
393.208	108.75
393.433	105.75
393.658	100.75
393.882	108.75
394.107	126.75
394.331	105.75
394.556	114.75
394.78	103.75
395.005	98.75
395.229	97.75
395.454	96.75
395.678	116.75
395.903	103.75
396.127	121.75
396.352	111.75
396.576	116.75
396.801	123.75
397.025	106.75
397.249	109.75
397.474	118.75
397.698	118.75
397.922	100.75
398.147	106.75
398.371	103.75
398.595	113.75
398.82	117.75
399.044	104.75
399.268	97.75
399.492	122.75
399.717	113.75
399.941	118.75
400.165	109.75
400.389	116.75
400.613	120.75
400.837	118.75
401.062	116.75
401.286	116.75
401.51	122.75
401.734	118.75
401.958	124.75
402.182	107.75
402.406	119.75
402.63	118.75
402.854	114.75
403.078	106.75
403.302	110.75
403.526	115.75
403.75	112.75
403.974	116.75
404.198	125.75
404.422	116.75
404.645	114.75
404.869	112.75
405.093	110.75
405.317	112.75
405.541	114.75
405.765	112.75
405.988	118.75
406.212	118.75
406.436	117.75
406.66	122.75
406.883	134.75
407.107	125.75
407.331	108.75
407.555	106.75
407.778	128.75
408.002	131.75
408.226	123.75
408.449	126.75
408.673	117.75
408.896	120.75
409.12	126.75
409.344	113.75
409.567	122.75
409.791	110.75
410.014	131.75
410.238	124.75
410.461	140.75
410.685	126.75
410.908	123.75
411.132	117.75
411.355	112.75
411.578	125.75
411.802	125.75
412.025	123.75
412.249	114.75
412.472	128.75
412.695	127.75
412.919	112.75
413.142	110.75
413.365	106.75
413.589	117.75
413.812	117.75
414.035	116.75
414.258	123.75
414.482	117.75
414.705	125.75
414.928	133.75
415.151	121.75
415.374	124.75
415.597	124.75
415.821	132.75
416.044	117.75
416.267	128.75
416.49	138.75
416.713	131.75
416.936	126.75
417.159	122.75
417.382	133.75
417.605	126.75
417.828	119.75
418.051	128.75
418.274	128.75
418.497	126.75
418.72	117.75
418.943	138.75
419.166	128.75
419.389	140.75
419.611	128.75
419.834	127.75
420.057	131.75
420.28	118.75
420.503	142.75
420.726	129.75
420.948	124.75
421.171	140.75
421.394	139.75
421.617	126.75
421.839	134.75
422.062	139.75
422.285	148.75
422.507	128.75
422.73	135.75
422.953	129.75
423.175	134.75
423.398	138.75
423.621	139.75
423.843	130.75
424.066	132.75
424.288	140.75
424.511	150.75
424.733	152.75
424.956	149.75
425.178	144.75
425.401	135.75
425.623	131.75
425.846	147.75
426.068	134.75
426.291	127.75
426.513	123.75
426.735	128.75
426.958	132.75
427.18	139.75
427.402	118.75
427.625	132.75
427.847	123.75
428.069	136.75
428.292	126.75
428.514	134.75
428.736	118.75
428.958	133.75
429.181	134.75
429.403	130.75
429.625	127.75
429.847	122.75
430.069	132.75
430.292	132.75
430.514	125.75
430.736	122.75
430.958	135.75
431.18	122.75
431.402	133.75
431.624	136.75
431.846	112.75
432.068	124.75
432.29	83.75
432.512	103.75
432.734	122.75
432.956	141.75
433.178	143.75
433.4	128.75
433.622	134.75
433.844	122.75
434.066	124.75
434.287	113.75
434.509	104.75
434.731	99.75
434.953	112.75
435.175	121.75
435.397	145.75
435.618	117.75
435.84	117.75
436.062	117.75
436.284	120.75
436.505	130.75
436.727	124.75
436.949	115.75
437.17	142.75
437.392	132.75
437.614	136.75
437.835	122.75
438.057	115.75
438.278	118.75
438.5	119.75
438.721	123.75
438.943	150.75
439.165	152.75
439.386	147.75
439.608	153.75
439.829	159.75
440.05	139.75
440.272	145.75
440.493	153.75
440.715	143.75
440.936	151.75
441.158	147.75
441.379	142.75
441.6	133.75
441.822	161.75
442.043	157.75
442.264	125.75
442.486	126.75
442.707	134.75
442.928	134.75
443.149	132.75
443.371	136.75
443.592	144.75
443.813	134.75
444.034	143.75
444.255	145.75
444.476	152.75
444.698	146.75
444.919	143.75
445.14	219.75
445.361	173.75
445.582	151.75
445.803	139.75
446.024	154.75
446.245	161.75
446.466	148.75
446.687	155.75
446.908	160.75
447.129	170.75
447.35	151.75
447.571	136.75
447.792	139.75
448.013	147.75
448.234	148.75
448.455	143.75
448.675	129.75
448.896	132.75
449.117	130.75
449.338	133.75
449.559	141.75
449.779	131.75
450	142.75
450.221	131.75
450.442	148.75
450.662	133.75
450.883	142.75
451.104	146.75
451.324	128.75
451.545	128.75
451.766	124.75
451.986	123.75
452.207	141.75
452.428	123.75
452.648	121.75
452.869	126.75
453.089	123.75
453.31	107.75
453.53	109.75
453.751	96.75
453.971	101.75
454.192	91.75
454.412	124.75
454.633	100.75
454.853	114.75
455.073	124.75
455.294	122.75
455.514	127.75
455.734	115.75
455.955	124.75
456.175	121.75
456.395	130.75
456.616	113.75
456.836	110.75
457.056	100.75
457.276	116.75
457.497	128.75
457.717	95.75
457.937	103.75
458.157	107.75
458.377	112.75
458.598	102.75
458.818	88.75
459.038	71.75
459.258	89.75
459.478	99.75
459.698	96.75
459.918	106.75
460.138	109.75
460.358	114.75
460.578	109.75
460.798	128.75
461.018	112.75
461.238	121.75
461.458	114.75
461.678	113.75
461.898	104.75
462.118	114.75
462.338	118.75
462.558	118.75
462.777	112.75
462.997	116.75
463.217	101.75
463.437	89.75
463.657	109.75
463.876	101.75
464.096	111.75
464.316	109.75
464.536	106.75
464.755	117.75
464.975	110.75
465.195	124.75
465.414	121.75
465.634	109.75
465.854	109.75
466.073	104.75
466.293	130.75
466.512	125.75
466.732	123.75
466.951	138.75
467.171	133.75
467.391	118.75
467.61	142.75
467.829	146.75
468.049	136.75
468.268	133.75
468.488	127.75
468.707	148.75
468.927	136.75
469.146	138.75
469.365	124.75
469.585	131.75
469.804	150.75
470.023	146.75
470.243	146.75
470.462	135.75
470.681	142.75
470.901	131.75
471.12	136.75
471.339	136.75
471.558	126.75
471.777	134.75
471.997	126.75
472.216	125.75
472.435	108.75
472.654	108.75
472.873	119.75
473.092	126.75
473.311	122.75
473.53	132.75
473.749	135.75
473.968	135.75
474.187	121.75
474.406	126.75
474.625	120.75
474.844	133.75
475.063	142.75
475.282	123.75
475.501	120.75
475.72	119.75
475.939	117.75
476.158	118.75
476.377	131.75
476.596	116.75
476.814	114.75
477.033	106.75
477.252	120.75
477.471	122.75
477.69	142.75
477.908	140.75
478.127	145.75
478.346	144.75
478.564	140.75
478.783	129.75
479.002	140.75
479.22	137.75
479.439	142.75
479.658	122.75
479.876	117.75
480.095	114.75
480.313	114.75
480.532	121.75
480.751	117.75
480.969	104.75
481.188	100.75
481.406	100.75
481.624	77.75
481.843	84.75
482.061	98.75
482.28	122.75
482.498	104.75
482.717	121.75
482.935	128.75
483.153	142.75
483.372	141.75
483.59	158.75
483.808	136.75
484.027	130.75
484.245	135.75
484.463	133.75
484.681	154.75
484.9	136.75
485.118	126.75
485.336	130.75
485.554	124.75
485.772	104.75
485.99	98.75
486.209	102.75
486.427	115.75
486.645	122.75
486.863	136.75
487.081	133.75
487.299	126.75
487.517	135.75
487.735	176.75
487.953	177.75
488.171	172.75
488.389	166.75
488.607	154.75
488.825	159.75
489.043	124.75
489.261	123.75
489.479	134.75
489.696	149.75
489.914	148.75
490.132	139.75
490.35	150.75
490.568	156.75
490.786	170.75
491.003	187.75
491.221	171.75
491.439	167.75
491.657	202.75
491.874	195.75
492.092	225.75
492.31	246.75
492.527	240.75
492.745	209.75
492.963	189.75
493.18	184.75
493.398	185.75
493.615	192.75
493.833	180.75
494.05	170.75
494.268	180.75
494.485	170.75
494.703	168.75
494.92	171.75
495.138	171.75
495.355	170.75
495.573	165.75
495.79	164.75
496.008	157.75
496.225	174.75
496.442	172.75
496.66	168.75
496.877	149.75
497.094	161.75
497.312	170.75
497.529	154.75
497.746	151.75
497.963	143.75
498.181	132.75
498.398	122.75
498.615	132.75
498.832	120.75
499.049	121.75
499.267	121.75
499.484	145.75
499.701	130.75
499.918	141.75
500.135	144.75
500.352	130.75
500.569	145.75
500.786	144.75
501.003	136.75
501.22	133.75
501.437	141.75
501.654	148.75
501.871	152.75
502.088	126.75
502.305	122.75
502.522	139.75
502.739	130.75
502.956	129.75
503.172	128.75
503.389	120.75
503.606	118.75
503.823	122.75
504.04	129.75
504.256	133.75
504.473	116.75
504.69	114.75
504.907	143.75
505.123	122.75
505.34	116.75
505.557	126.75
505.773	129.75
505.99	135.75
506.207	117.75
506.423	124.75
506.64	104.75
506.856	110.75
507.073	127.75
507.289	140.75
507.506	130.75
507.722	118.75
507.939	120.75
508.155	114.75
508.372	120.75
508.588	121.75
508.805	116.75
509.021	117.75
509.238	98.75
509.454	106.75
509.67	103.75
509.887	100.75
510.103	101.75
510.319	105.75
510.536	77.75
510.752	101.75
510.968	95.75
511.184	91.75
