Data from Location2.07152019.Energy5.Lamp.07192019.3%Agarose_HRD10591_14-58-50-359.txt Node
Date: Fri Jul 19 14:58:50 EDT 2019
User: cochatt
Spectrometer: HR+D1059
Trigger mode: 1
Integration Time (sec): 1.000000E-1
Scans to average: 1
Electric dark correction enabled: true
Nonlinearity correction enabled: false
Boxcar width: 0
XAxis mode: Wavelengths
Number of Pixels in Spectrum: 2048
>>>>>Begin Spectral Data<<<<<
223.165	-7.5
223.4	-7.5
223.635	-7.5
223.869	-13.5
224.104	-16.5
224.338	-10.5
224.573	-11.5
224.808	-12.5
225.042	18.5
225.277	-11.5
225.511	6.5
225.746	-3.5
225.98	2.5
226.215	-7.5
226.449	7.5
226.683	9.5
226.918	24.5
227.152	25.5
227.387	32.5
227.621	24.5
227.856	38.5
228.09	46.5
228.324	46.5
228.559	50.5
228.793	64.5
229.027	63.5
229.262	68.5
229.496	69.5
229.73	72.5
229.964	75.5
230.199	81.5
230.433	71.5
230.667	77.5
230.901	66.5
231.136	71.5
231.37	77.5
231.604	80.5
231.838	74.5
232.072	82.5
232.306	86.5
232.541	76.5
232.775	80.5
233.009	85.5
233.243	96.5
233.477	92.5
233.711	92.5
233.945	78.5
234.179	82.5
234.413	78.5
234.647	74.5
234.881	74.5
235.115	81.5
235.349	77.5
235.583	87.5
235.817	72.5
236.051	68.5
236.285	87.5
236.519	82.5
236.753	67.5
236.987	79.5
237.221	64.5
237.455	81.5
237.689	79.5
237.922	77.5
238.156	76.5
238.39	71.5
238.624	79.5
238.858	86.5
239.091	67.5
239.325	82.5
239.559	91.5
239.793	65.5
240.027	75.5
240.26	77.5
240.494	85.5
240.728	66.5
240.961	82.5
241.195	81.5
241.429	66.5
241.662	69.5
241.896	74.5
242.13	75.5
242.363	77.5
242.597	82.5
242.83	77.5
243.064	85.5
243.298	97.5
243.531	95.5
243.765	86.5
243.998	84.5
244.232	88.5
244.465	74.5
244.699	79.5
244.932	91.5
245.166	79.5
245.399	69.5
245.633	80.5
245.866	82.5
246.099	68.5
246.333	71.5
246.566	73.5
246.8	76.5
247.033	98.5
247.266	90.5
247.5	80.5
247.733	76.5
247.966	79.5
248.2	96.5
248.433	77.5
248.666	81.5
248.899	73.5
249.133	74.5
249.366	94.5
249.599	93.5
249.832	83.5
250.066	82.5
250.299	70.5
250.532	75.5
250.765	65.5
250.998	87.5
251.231	85.5
251.465	87.5
251.698	76.5
251.931	81.5
252.164	75.5
252.397	67.5
252.63	73.5
252.863	80.5
253.096	77.5
253.329	82.5
253.562	84.5
253.795	65.5
254.028	72.5
254.261	87.5
254.494	98.5
254.727	84.5
254.96	88.5
255.193	90.5
255.426	73.5
255.659	91.5
255.892	81.5
256.124	87.5
256.357	72.5
256.59	82.5
256.823	79.5
257.056	94.5
257.289	83.5
257.521	74.5
257.754	72.5
257.987	80.5
258.22	90.5
258.452	85.5
258.685	78.5
258.918	81.5
259.151	81.5
259.383	86.5
259.616	70.5
259.849	90.5
260.081	84.5
260.314	75.5
260.547	79.5
260.779	75.5
261.012	89.5
261.244	78.5
261.477	78.5
261.71	96.5
261.942	82.5
262.175	59.5
262.407	88.5
262.64	87.5
262.872	79.5
263.105	75.5
263.337	89.5
263.57	84.5
263.802	82.5
264.035	84.5
264.267	82.5
264.499	68.5
264.732	84.5
264.964	94.5
265.197	75.5
265.429	86.5
265.661	77.5
265.894	79.5
266.126	89.5
266.358	86.5
266.591	80.5
266.823	70.5
267.055	93.5
267.287	81.5
267.52	82.5
267.752	100.5
267.984	75.5
268.216	75.5
268.448	103.5
268.681	81.5
268.913	88.5
269.145	87.5
269.377	82.5
269.609	81.5
269.841	69.5
270.073	82.5
270.306	82.5
270.538	93.5
270.77	82.5
271.002	81.5
271.234	97.5
271.466	78.5
271.698	88.5
271.93	85.5
272.162	74.5
272.394	100.5
272.626	80.5
272.858	74.5
273.09	77.5
273.322	85.5
273.553	88.5
273.785	85.5
274.017	72.5
274.249	75.5
274.481	85.5
274.713	76.5
274.945	73.5
275.176	83.5
275.408	96.5
275.64	98.5
275.872	81.5
276.104	80.5
276.335	81.5
276.567	82.5
276.799	90.5
277.031	87.5
277.262	82.5
277.494	73.5
277.726	81.5
277.957	83.5
278.189	83.5
278.421	74.5
278.652	83.5
278.884	80.5
279.115	78.5
279.347	86.5
279.579	87.5
279.81	85.5
280.042	78.5
280.273	75.5
280.505	87.5
280.736	80.5
280.968	71.5
281.199	76.5
281.431	92.5
281.662	95.5
281.894	89.5
282.125	81.5
282.356	97.5
282.588	81.5
282.819	72.5
283.051	79.5
283.282	71.5
283.513	84.5
283.745	80.5
283.976	82.5
284.207	84.5
284.439	79.5
284.67	96.5
284.901	79.5
285.132	70.5
285.364	81.5
285.595	79.5
285.826	69.5
286.057	91.5
286.288	83.5
286.52	91.5
286.751	74.5
286.982	94.5
287.213	88.5
287.444	81.5
287.675	76.5
287.906	82.5
288.138	90.5
288.369	97.5
288.6	87.5
288.831	72.5
289.062	93.5
289.293	81.5
289.524	74.5
289.755	80.5
289.986	90.5
290.217	86.5
290.448	84.5
290.679	92.5
290.91	80.5
291.141	91.5
291.371	87.5
291.602	97.5
291.833	84.5
292.064	90.5
292.295	75.5
292.526	88.5
292.757	85.5
292.987	81.5
293.218	77.5
293.449	80.5
293.68	74.5
293.91	83.5
294.141	80.5
294.372	75.5
294.603	76.5
294.833	79.5
295.064	94.5
295.295	86.5
295.525	98.5
295.756	78.5
295.987	88.5
296.217	83.5
296.448	70.5
296.679	84.5
296.909	101.5
297.14	97.5
297.37	86.5
297.601	87.5
297.831	73.5
298.062	87.5
298.292	90.5
298.523	88.5
298.753	86.5
298.984	95.5
299.214	82.5
299.445	78.5
299.675	90.5
299.905	86.5
300.136	98.5
300.366	81.5
300.597	84.5
300.827	88.5
301.057	91.5
301.288	87.5
301.518	87.5
301.748	88.5
301.979	82.5
302.209	83.5
302.439	92.5
302.669	89.5
302.9	87.5
303.13	92.5
303.36	90.5
303.59	82.5
303.82	83.5
304.051	81.5
304.281	86.5
304.511	99.5
304.741	87.5
304.971	93.5
305.201	91.5
305.431	91.5
305.661	78.5
305.891	86.5
306.121	94.5
306.352	95.5
306.582	75.5
306.812	85.5
307.042	78.5
307.272	70.5
307.502	92.5
307.731	71.5
307.961	72.5
308.191	86.5
308.421	91.5
308.651	92.5
308.881	92.5
309.111	80.5
309.341	96.5
309.571	77.5
309.8	91.5
310.03	85.5
310.26	94.5
310.49	75.5
310.72	90.5
310.949	82.5
311.179	86.5
311.409	80.5
311.639	100.5
311.868	89.5
312.098	85.5
312.328	82.5
312.557	92.5
312.787	79.5
313.017	88.5
313.246	89.5
313.476	82.5
313.706	95.5
313.935	81.5
314.165	102.5
314.394	76.5
314.624	67.5
314.853	74.5
315.083	85.5
315.312	94.5
315.542	91.5
315.771	85.5
316.001	79.5
316.23	92.5
316.46	84.5
316.689	91.5
316.919	85.5
317.148	86.5
317.377	94.5
317.607	99.5
317.836	82.5
318.065	73.5
318.295	82.5
318.524	78.5
318.753	90.5
318.983	74.5
319.212	74.5
319.441	78.5
319.67	78.5
319.9	90.5
320.129	72.5
320.358	81.5
320.587	95.5
320.816	84.5
321.046	90.5
321.275	90.5
321.504	91.5
321.733	83.5
321.962	75.5
322.191	91.5
322.42	87.5
322.649	95.5
322.878	86.5
323.108	82.5
323.337	78.5
323.566	74.5
323.795	76.5
324.024	96.5
324.253	80.5
324.482	83.5
324.71	81.5
324.939	81.5
325.168	81.5
325.397	73.5
325.626	94.5
325.855	84.5
326.084	81.5
326.313	73.5
326.542	76.5
326.77	87.5
326.999	70.5
327.228	88.5
327.457	94.5
327.686	83.5
327.914	89.5
328.143	78.5
328.372	106.5
328.6	87.5
328.829	86.5
329.058	90.5
329.287	82.5
329.515	76.5
329.744	84.5
329.972	80.5
330.201	90.5
330.43	88.5
330.658	91.5
330.887	95.5
331.115	76.5
331.344	96.5
331.572	82.5
331.801	84.5
332.03	82.5
332.258	105.5
332.486	76.5
332.715	88.5
332.943	84.5
333.172	82.5
333.4	73.5
333.629	87.5
333.857	90.5
334.085	90.5
334.314	86.5
334.542	84.5
334.771	75.5
334.999	83.5
335.227	83.5
335.455	82.5
335.684	86.5
335.912	84.5
336.14	81.5
336.369	70.5
336.597	87.5
336.825	76.5
337.053	71.5
337.281	84.5
337.51	85.5
337.738	87.5
337.966	83.5
338.194	87.5
338.422	95.5
338.65	84.5
338.878	91.5
339.106	70.5
339.334	84.5
339.562	76.5
339.79	71.5
340.018	70.5
340.246	90.5
340.474	86.5
340.702	75.5
340.93	84.5
341.158	84.5
341.386	81.5
341.614	94.5
341.842	84.5
342.07	75.5
342.298	83.5
342.526	74.5
342.754	77.5
342.981	85.5
343.209	85.5
343.437	81.5
343.665	74.5
343.893	79.5
344.12	74.5
344.348	80.5
344.576	82.5
344.804	82.5
345.031	90.5
345.259	98.5
345.487	76.5
345.714	92.5
345.942	89.5
346.17	87.5
346.397	85.5
346.625	86.5
346.853	84.5
347.08	95.5
347.308	68.5
347.535	70.5
347.763	70.5
347.99	96.5
348.218	92.5
348.445	84.5
348.673	80.5
348.9	78.5
349.128	105.5
349.355	99.5
349.583	79.5
349.81	79.5
350.037	87.5
350.265	78.5
350.492	76.5
350.72	80.5
350.947	96.5
351.174	79.5
351.402	74.5
351.629	74.5
351.856	83.5
352.083	95.5
352.311	85.5
352.538	81.5
352.765	82.5
352.992	84.5
353.22	80.5
353.447	82.5
353.674	90.5
353.901	95.5
354.128	86.5
354.355	86.5
354.583	83.5
354.81	85.5
355.037	84.5
355.264	96.5
355.491	84.5
355.718	82.5
355.945	86.5
356.172	82.5
356.399	86.5
356.626	84.5
356.853	95.5
357.08	86.5
357.307	89.5
357.534	82.5
357.761	67.5
357.988	91.5
358.215	88.5
358.441	76.5
358.668	92.5
358.895	84.5
359.122	92.5
359.349	87.5
359.576	82.5
359.802	90.5
360.029	82.5
360.256	74.5
360.483	94.5
360.709	76.5
360.936	89.5
361.163	79.5
361.39	79.5
361.616	81.5
361.843	73.5
362.07	80.5
362.296	84.5
362.523	68.5
362.749	73.5
362.976	88.5
363.203	94.5
363.429	75.5
363.656	83.5
363.882	96.5
364.109	89.5
364.335	78.5
364.562	77.5
364.788	78.5
365.015	89.5
365.241	75.5
365.468	101.5
365.694	81.5
365.92	86.5
366.147	81.5
366.373	71.5
366.599	74.5
366.826	73.5
367.052	91.5
367.278	61.5
367.505	71.5
367.731	85.5
367.957	94.5
368.184	67.5
368.41	85.5
368.636	90.5
368.862	97.5
369.089	84.5
369.315	103.5
369.541	92.5
369.767	95.5
369.993	77.5
370.219	75.5
370.445	97.5
370.672	89.5
370.898	93.5
371.124	110.5
371.35	88.5
371.576	90.5
371.802	88.5
372.028	93.5
372.254	103.5
372.48	101.5
372.706	110.5
372.932	92.5
373.158	90.5
373.384	95.5
373.61	98.5
373.835	80.5
374.061	80.5
374.287	104.5
374.513	87.5
374.739	90.5
374.965	94.5
375.191	90.5
375.416	98.5
375.642	98.5
375.868	77.5
376.094	88.5
376.319	95.5
376.545	92.5
376.771	94.5
376.997	100.5
377.222	93.5
377.448	101.5
377.674	99.5
377.899	81.5
378.125	102.5
378.35	88.5
378.576	94.5
378.802	82.5
379.027	89.5
379.253	101.5
379.478	105.5
379.704	92.5
379.929	75.5
380.155	104.5
380.38	99.5
380.606	87.5
380.831	102.5
381.057	99.5
381.282	89.5
381.507	98.5
381.733	91.5
381.958	88.5
382.184	85.5
382.409	95.5
382.634	105.5
382.86	91.5
383.085	103.5
383.31	86.5
383.535	97.5
383.761	101.5
383.986	95.5
384.211	96.5
384.436	96.5
384.662	99.5
384.887	86.5
385.112	94.5
385.337	92.5
385.562	98.5
385.787	102.5
386.013	96.5
386.238	102.5
386.463	98.5
386.688	96.5
386.913	88.5
387.138	94.5
387.363	98.5
387.588	106.5
387.813	103.5
388.038	111.5
388.263	106.5
388.488	102.5
388.713	100.5
388.938	95.5
389.163	103.5
389.387	111.5
389.612	95.5
389.837	87.5
390.062	113.5
390.287	108.5
390.512	102.5
390.736	99.5
390.961	89.5
391.186	112.5
391.411	97.5
391.636	110.5
391.86	97.5
392.085	112.5
392.31	96.5
392.534	100.5
392.759	102.5
392.984	104.5
393.208	114.5
393.433	106.5
393.658	120.5
393.882	114.5
394.107	103.5
394.331	120.5
394.556	106.5
394.78	114.5
395.005	103.5
395.229	99.5
395.454	110.5
395.678	106.5
395.903	114.5
396.127	113.5
396.352	104.5
396.576	104.5
396.801	106.5
397.025	103.5
397.249	116.5
397.474	118.5
397.698	96.5
397.922	108.5
398.147	102.5
398.371	104.5
398.595	103.5
398.82	114.5
399.044	96.5
399.268	120.5
399.492	110.5
399.717	116.5
399.941	103.5
400.165	117.5
400.389	98.5
400.613	120.5
400.837	111.5
401.062	100.5
401.286	110.5
401.51	110.5
401.734	112.5
401.958	105.5
402.182	118.5
402.406	116.5
402.63	107.5
402.854	107.5
403.078	121.5
403.302	123.5
403.526	112.5
403.75	111.5
403.974	115.5
404.198	123.5
404.422	115.5
404.645	112.5
404.869	111.5
405.093	119.5
405.317	127.5
405.541	107.5
405.765	109.5
405.988	121.5
406.212	115.5
406.436	113.5
406.66	112.5
406.883	116.5
407.107	109.5
407.331	101.5
407.555	108.5
407.778	117.5
408.002	107.5
408.226	108.5
408.449	130.5
408.673	135.5
408.896	118.5
409.12	122.5
409.344	131.5
409.567	128.5
409.791	122.5
410.014	122.5
410.238	103.5
410.461	110.5
410.685	120.5
410.908	126.5
411.132	122.5
411.355	120.5
411.578	123.5
411.802	111.5
412.025	121.5
412.249	126.5
412.472	121.5
412.695	122.5
412.919	121.5
413.142	128.5
413.365	117.5
413.589	119.5
413.812	105.5
414.035	104.5
414.258	115.5
414.482	111.5
414.705	117.5
414.928	130.5
415.151	122.5
415.374	121.5
415.597	117.5
415.821	115.5
416.044	130.5
416.267	122.5
416.49	132.5
416.713	131.5
416.936	120.5
417.159	122.5
417.382	127.5
417.605	138.5
417.828	123.5
418.051	127.5
418.274	139.5
418.497	122.5
418.72	126.5
418.943	121.5
419.166	134.5
419.389	128.5
419.611	138.5
419.834	130.5
420.057	138.5
420.28	134.5
420.503	127.5
420.726	143.5
420.948	126.5
421.171	132.5
421.394	140.5
421.617	135.5
421.839	130.5
422.062	132.5
422.285	115.5
422.507	122.5
422.73	119.5
422.953	126.5
423.175	128.5
423.398	122.5
423.621	116.5
423.843	131.5
424.066	127.5
424.288	121.5
424.511	139.5
424.733	146.5
424.956	140.5
425.178	136.5
425.401	130.5
425.623	131.5
425.846	142.5
426.068	120.5
426.291	124.5
426.513	134.5
426.735	123.5
426.958	122.5
427.18	128.5
427.402	112.5
427.625	135.5
427.847	134.5
428.069	128.5
428.292	114.5
428.514	118.5
428.736	124.5
428.958	130.5
429.181	130.5
429.403	108.5
429.625	129.5
429.847	137.5
430.069	132.5
430.292	138.5
430.514	121.5
430.736	135.5
430.958	135.5
431.18	131.5
431.402	120.5
431.624	120.5
431.846	104.5
432.068	101.5
432.29	94.5
432.512	112.5
432.734	135.5
432.956	130.5
433.178	155.5
433.4	140.5
433.622	136.5
433.844	131.5
434.066	122.5
434.287	120.5
434.509	95.5
434.731	92.5
434.953	114.5
435.175	130.5
435.397	131.5
435.618	124.5
435.84	114.5
436.062	114.5
436.284	124.5
436.505	121.5
436.727	130.5
436.949	128.5
437.17	125.5
437.392	123.5
437.614	110.5
437.835	94.5
438.057	110.5
438.278	110.5
438.5	112.5
438.721	129.5
438.943	136.5
439.165	126.5
439.386	143.5
439.608	142.5
439.829	145.5
440.05	120.5
440.272	125.5
440.493	135.5
440.715	143.5
440.936	148.5
441.158	134.5
441.379	132.5
441.6	144.5
441.822	140.5
442.043	148.5
442.264	140.5
442.486	130.5
442.707	132.5
442.928	138.5
443.149	144.5
443.371	131.5
443.592	138.5
443.813	138.5
444.034	131.5
444.255	140.5
444.476	138.5
444.698	150.5
444.919	128.5
445.14	269.5
445.361	201.5
445.582	136.5
445.803	140.5
446.024	141.5
446.245	146.5
446.466	148.5
446.687	157.5
446.908	141.5
447.129	157.5
447.35	148.5
447.571	148.5
447.792	136.5
448.013	155.5
448.234	142.5
448.455	139.5
448.675	140.5
448.896	142.5
449.117	136.5
449.338	126.5
449.559	122.5
449.779	150.5
450	135.5
450.221	126.5
450.442	140.5
450.662	136.5
450.883	133.5
451.104	135.5
451.324	141.5
451.545	136.5
451.766	130.5
451.986	131.5
452.207	128.5
452.428	124.5
452.648	129.5
452.869	123.5
453.089	118.5
453.31	117.5
453.53	100.5
453.751	101.5
453.971	87.5
454.192	113.5
454.412	114.5
454.633	118.5
454.853	120.5
455.073	134.5
455.294	121.5
455.514	123.5
455.734	120.5
455.955	105.5
456.175	110.5
456.395	112.5
456.616	122.5
456.836	114.5
457.056	115.5
457.276	113.5
457.497	99.5
457.717	116.5
457.937	107.5
458.157	102.5
458.377	119.5
458.598	102.5
458.818	93.5
459.038	89.5
459.258	81.5
459.478	89.5
459.698	83.5
459.918	93.5
460.138	99.5
460.358	107.5
460.578	126.5
460.798	119.5
461.018	128.5
461.238	121.5
461.458	108.5
461.678	103.5
461.898	113.5
462.118	143.5
462.338	111.5
462.558	100.5
462.777	117.5
462.997	106.5
463.217	107.5
463.437	115.5
463.657	104.5
463.876	111.5
464.096	96.5
464.316	107.5
464.536	121.5
464.755	124.5
464.975	115.5
465.195	120.5
465.414	108.5
465.634	115.5
465.854	110.5
466.073	114.5
466.293	119.5
466.512	124.5
466.732	130.5
466.951	126.5
467.171	130.5
467.391	147.5
467.61	128.5
467.829	136.5
468.049	126.5
468.268	124.5
468.488	139.5
468.707	129.5
468.927	140.5
469.146	139.5
469.365	143.5
469.585	128.5
469.804	128.5
470.023	141.5
470.243	144.5
470.462	130.5
470.681	158.5
470.901	119.5
471.12	136.5
471.339	144.5
471.558	138.5
471.777	144.5
471.997	138.5
472.216	127.5
472.435	130.5
472.654	105.5
472.873	111.5
473.092	114.5
473.311	115.5
473.53	138.5
473.749	119.5
473.968	127.5
474.187	126.5
474.406	121.5
474.625	118.5
474.844	131.5
475.063	128.5
475.282	122.5
475.501	115.5
475.72	131.5
475.939	118.5
476.158	133.5
476.377	139.5
476.596	115.5
476.814	113.5
477.033	105.5
477.252	118.5
477.471	119.5
477.69	133.5
477.908	130.5
478.127	131.5
478.346	138.5
478.564	134.5
478.783	127.5
479.002	147.5
479.22	112.5
479.439	138.5
479.658	137.5
479.876	120.5
480.095	124.5
480.313	107.5
480.532	132.5
480.751	112.5
480.969	93.5
481.188	87.5
481.406	84.5
481.624	96.5
481.843	97.5
482.061	96.5
482.28	120.5
482.498	117.5
482.717	107.5
482.935	114.5
483.153	144.5
483.372	155.5
483.59	155.5
483.808	144.5
484.027	134.5
484.245	120.5
484.463	145.5
484.681	170.5
484.9	153.5
485.118	155.5
485.336	140.5
485.554	107.5
485.772	101.5
485.99	91.5
486.209	103.5
486.427	113.5
486.645	124.5
486.863	142.5
487.081	149.5
487.299	124.5
487.517	142.5
487.735	160.5
487.953	179.5
488.171	183.5
488.389	159.5
488.607	168.5
488.825	144.5
489.043	139.5
489.261	138.5
489.479	148.5
489.696	152.5
489.914	141.5
490.132	141.5
490.35	151.5
490.568	166.5
490.786	165.5
491.003	151.5
491.221	171.5
491.439	183.5
491.657	190.5
491.874	204.5
492.092	194.5
492.31	238.5
492.527	212.5
492.745	202.5
492.963	206.5
493.18	179.5
493.398	177.5
493.615	179.5
493.833	181.5
494.05	183.5
494.268	181.5
494.485	165.5
494.703	162.5
494.92	175.5
495.138	168.5
495.355	167.5
495.573	174.5
495.79	182.5
496.008	184.5
496.225	179.5
496.442	169.5
496.66	171.5
496.877	161.5
497.094	154.5
497.312	154.5
497.529	151.5
497.746	142.5
497.963	135.5
498.181	122.5
498.398	129.5
498.615	135.5
498.832	110.5
499.049	115.5
499.267	127.5
499.484	127.5
499.701	136.5
499.918	147.5
500.135	142.5
500.352	136.5
500.569	146.5
500.786	134.5
501.003	143.5
501.22	163.5
501.437	140.5
501.654	138.5
501.871	148.5
502.088	135.5
502.305	153.5
502.522	125.5
502.739	130.5
502.956	133.5
503.172	119.5
503.389	112.5
503.606	124.5
503.823	116.5
504.04	120.5
504.256	108.5
504.473	115.5
504.69	125.5
504.907	144.5
505.123	123.5
505.34	126.5
505.557	120.5
505.773	130.5
505.99	112.5
506.207	113.5
506.423	139.5
506.64	129.5
506.856	116.5
507.073	111.5
507.289	114.5
507.506	120.5
507.722	124.5
507.939	126.5
508.155	122.5
508.372	117.5
508.588	119.5
508.805	112.5
509.021	110.5
509.238	107.5
509.454	101.5
509.67	106.5
509.887	100.5
510.103	106.5
510.319	91.5
510.536	82.5
510.752	102.5
510.968	86.5
511.184	92.5
511.401	92.5
511.617	88.5
511.833	88.5
512.049	96.5
512.265	88.5
512.481	99.5
512.698	86.5
512.914	104.5
513.13	102.5
513.346	83.5
513.562	82.5
513.778	95.5
513.994	76.5
514.21	96.5
514.426	84.5
514.642	93.5
514.858	90.5
515.074	93.5
515.29	89.5
515.506	82.5
515.721	101.5
515.937	85.5
516.153	94.5
516.369	86.5
516.585	90.5
516.801	85.5
517.016	109.5
517.232	88.5
517.448	89.5
517.664	79.5
517.879	95.5
518.095	95.5
518.311	104.5
518.527	103.5
518.742	90.5
518.958	105.5
519.173	96.5
519.389	120.5
519.605	109.5
519.82	110.5
520.036	104.5
520.251	94.5
520.467	102.5
520.682	98.5
520.898	109.5
521.113	97.5
521.329	90.5
521.544	85.5
521.76	92.5
521.975	97.5
522.19	114.5
522.406	104.5
522.621	102.5
522.836	108.5
523.052	114.5
523.267	113.5
523.482	106.5
523.698	114.5
523.913	110.5
524.128	132.5
524.343	125.5
524.559	120.5
524.774	106.5
524.989	130.5
525.204	129.5
525.419	116.5
525.634	115.5
525.849	100.5
526.064	111.5
526.28	98.5
526.495	95.5
526.71	98.5
526.925	98.5
527.14	87.5
527.355	90.5
527.57	92.5
527.785	97.5
527.999	106.5
528.214	99.5
528.429	104.5
528.644	115.5
528.859	118.5
529.074	157.5
529.289	156.5
529.503	152.5
529.718	140.5
529.933	130.5
530.148	121.5
530.363	94.5
530.577	80.5
530.792	94.5
