Data from Location2.07152019.Energy5.Lamp.07192019.3%Agarose_HRD10591_14-56-57-358.txt Node
Date: Fri Jul 19 14:56:57 EDT 2019
User: cochatt
Spectrometer: HR+D1059
Trigger mode: 1
Integration Time (sec): 1.000000E-1
Scans to average: 1
Electric dark correction enabled: true
Nonlinearity correction enabled: false
Boxcar width: 0
XAxis mode: Wavelengths
Number of Pixels in Spectrum: 2048
>>>>>Begin Spectral Data<<<<<
223.165	-14.19
223.4	-14.19
223.635	-14.19
223.869	-12.19
224.104	-13.19
224.338	-22.19
224.573	-7.19
224.808	-27.19
225.042	-6.19
225.277	-18.19
225.511	-7.19
225.746	4.81
225.98	2.81
226.215	20.81
226.449	16.81
226.683	15.81
226.918	29.81
227.152	36.81
227.387	33.81
227.621	37.81
227.856	49.81
228.09	51.81
228.324	54.81
228.559	55.81
228.793	65.81
229.027	68.81
229.262	65.81
229.496	60.81
229.73	65.81
229.964	69.81
230.199	70.81
230.433	73.81
230.667	81.81
230.901	76.81
231.136	78.81
231.37	83.81
231.604	79.81
231.838	83.81
232.072	85.81
232.306	62.81
232.541	81.81
232.775	89.81
233.009	86.81
233.243	76.81
233.477	97.81
233.711	76.81
233.945	86.81
234.179	83.81
234.413	95.81
234.647	74.81
234.881	82.81
235.115	74.81
235.349	71.81
235.583	72.81
235.817	85.81
236.051	69.81
236.285	79.81
236.519	76.81
236.753	78.81
236.987	80.81
237.221	73.81
237.455	93.81
237.689	78.81
237.922	70.81
238.156	78.81
238.39	80.81
238.624	75.81
238.858	72.81
239.091	75.81
239.325	90.81
239.559	75.81
239.793	74.81
240.027	90.81
240.26	65.81
240.494	71.81
240.728	78.81
240.961	69.81
241.195	76.81
241.429	68.81
241.662	84.81
241.896	77.81
242.13	72.81
242.363	77.81
242.597	78.81
242.83	67.81
243.064	80.81
243.298	86.81
243.531	78.81
243.765	79.81
243.998	75.81
244.232	78.81
244.465	83.81
244.699	77.81
244.932	86.81
245.166	78.81
245.399	79.81
245.633	95.81
245.866	85.81
246.099	89.81
246.333	78.81
246.566	84.81
246.8	87.81
247.033	68.81
247.266	85.81
247.5	72.81
247.733	78.81
247.966	72.81
248.2	78.81
248.433	85.81
248.666	84.81
248.899	86.81
249.133	82.81
249.366	87.81
249.599	78.81
249.832	86.81
250.066	90.81
250.299	98.81
250.532	92.81
250.765	88.81
250.998	80.81
251.231	85.81
251.465	81.81
251.698	71.81
251.931	65.81
252.164	86.81
252.397	81.81
252.63	94.81
252.863	87.81
253.096	70.81
253.329	83.81
253.562	82.81
253.795	76.81
254.028	78.81
254.261	89.81
254.494	93.81
254.727	76.81
254.96	82.81
255.193	70.81
255.426	80.81
255.659	79.81
255.892	75.81
256.124	76.81
256.357	94.81
256.59	79.81
256.823	88.81
257.056	78.81
257.289	78.81
257.521	89.81
257.754	77.81
257.987	86.81
258.22	84.81
258.452	85.81
258.685	68.81
258.918	89.81
259.151	77.81
259.383	78.81
259.616	71.81
259.849	96.81
260.081	82.81
260.314	85.81
260.547	80.81
260.779	90.81
261.012	78.81
261.244	91.81
261.477	93.81
261.71	77.81
261.942	87.81
262.175	89.81
262.407	69.81
262.64	86.81
262.872	100.81
263.105	91.81
263.337	76.81
263.57	75.81
263.802	94.81
264.035	72.81
264.267	78.81
264.499	85.81
264.732	64.81
264.964	72.81
265.197	91.81
265.429	88.81
265.661	77.81
265.894	85.81
266.126	74.81
266.358	75.81
266.591	85.81
266.823	72.81
267.055	76.81
267.287	92.81
267.52	91.81
267.752	94.81
267.984	91.81
268.216	75.81
268.448	87.81
268.681	75.81
268.913	86.81
269.145	74.81
269.377	79.81
269.609	83.81
269.841	88.81
270.073	88.81
270.306	91.81
270.538	86.81
270.77	83.81
271.002	83.81
271.234	74.81
271.466	83.81
271.698	76.81
271.93	70.81
272.162	80.81
272.394	89.81
272.626	93.81
272.858	86.81
273.09	76.81
273.322	81.81
273.553	75.81
273.785	83.81
274.017	77.81
274.249	89.81
274.481	78.81
274.713	83.81
274.945	79.81
275.176	92.81
275.408	84.81
275.64	83.81
275.872	80.81
276.104	89.81
276.335	88.81
276.567	83.81
276.799	97.81
277.031	77.81
277.262	98.81
277.494	84.81
277.726	81.81
277.957	91.81
278.189	86.81
278.421	82.81
278.652	82.81
278.884	84.81
279.115	90.81
279.347	93.81
279.579	86.81
279.81	89.81
280.042	92.81
280.273	95.81
280.505	90.81
280.736	92.81
280.968	58.81
281.199	90.81
281.431	80.81
281.662	91.81
281.894	84.81
282.125	81.81
282.356	82.81
282.588	91.81
282.819	84.81
283.051	86.81
283.282	88.81
283.513	83.81
283.745	97.81
283.976	91.81
284.207	86.81
284.439	97.81
284.67	96.81
284.901	88.81
285.132	84.81
285.364	94.81
285.595	91.81
285.826	81.81
286.057	87.81
286.288	96.81
286.52	83.81
286.751	85.81
286.982	94.81
287.213	94.81
287.444	83.81
287.675	77.81
287.906	88.81
288.138	75.81
288.369	90.81
288.6	85.81
288.831	90.81
289.062	94.81
289.293	94.81
289.524	85.81
289.755	74.81
289.986	82.81
290.217	90.81
290.448	85.81
290.679	96.81
290.91	90.81
291.141	90.81
291.371	83.81
291.602	85.81
291.833	75.81
292.064	71.81
292.295	85.81
292.526	98.81
292.757	90.81
292.987	94.81
293.218	91.81
293.449	80.81
293.68	93.81
293.91	83.81
294.141	84.81
294.372	91.81
294.603	90.81
294.833	85.81
295.064	94.81
295.295	82.81
295.525	89.81
295.756	93.81
295.987	90.81
296.217	87.81
296.448	90.81
296.679	89.81
296.909	92.81
297.14	74.81
297.37	93.81
297.601	92.81
297.831	96.81
298.062	93.81
298.292	93.81
298.523	84.81
298.753	78.81
298.984	88.81
299.214	85.81
299.445	67.81
299.675	83.81
299.905	77.81
300.136	94.81
300.366	85.81
300.597	80.81
300.827	79.81
301.057	91.81
301.288	85.81
301.518	85.81
301.748	89.81
301.979	99.81
302.209	86.81
302.439	93.81
302.669	84.81
302.9	82.81
303.13	95.81
303.36	101.81
303.59	90.81
303.82	88.81
304.051	82.81
304.281	90.81
304.511	96.81
304.741	92.81
304.971	93.81
305.201	81.81
305.431	85.81
305.661	82.81
305.891	89.81
306.121	75.81
306.352	99.81
306.582	97.81
306.812	96.81
307.042	90.81
307.272	81.81
307.502	85.81
307.731	84.81
307.961	108.81
308.191	102.81
308.421	95.81
308.651	94.81
308.881	91.81
309.111	88.81
309.341	85.81
309.571	91.81
309.8	97.81
310.03	83.81
310.26	76.81
310.49	88.81
310.72	77.81
310.949	96.81
311.179	89.81
311.409	97.81
311.639	91.81
311.868	84.81
312.098	88.81
312.328	84.81
312.557	88.81
312.787	90.81
313.017	95.81
313.246	93.81
313.476	91.81
313.706	83.81
313.935	84.81
314.165	87.81
314.394	83.81
314.624	84.81
314.853	79.81
315.083	70.81
315.312	82.81
315.542	83.81
315.771	97.81
316.001	85.81
316.23	85.81
316.46	88.81
316.689	88.81
316.919	81.81
317.148	82.81
317.377	80.81
317.607	99.81
317.836	75.81
318.065	94.81
318.295	93.81
318.524	68.81
318.753	83.81
318.983	89.81
319.212	90.81
319.441	102.81
319.67	97.81
319.9	84.81
320.129	91.81
320.358	89.81
320.587	96.81
320.816	84.81
321.046	90.81
321.275	79.81
321.504	71.81
321.733	86.81
321.962	84.81
322.191	89.81
322.42	87.81
322.649	92.81
322.878	70.81
323.108	84.81
323.337	92.81
323.566	82.81
323.795	91.81
324.024	84.81
324.253	91.81
324.482	74.81
324.71	87.81
324.939	97.81
325.168	98.81
325.397	101.81
325.626	92.81
325.855	87.81
326.084	86.81
326.313	79.81
326.542	78.81
326.77	91.81
326.999	80.81
327.228	87.81
327.457	83.81
327.686	83.81
327.914	78.81
328.143	90.81
328.372	70.81
328.6	93.81
328.829	85.81
329.058	91.81
329.287	80.81
329.515	90.81
329.744	90.81
329.972	69.81
330.201	85.81
330.43	71.81
330.658	93.81
330.887	81.81
331.115	101.81
331.344	84.81
331.572	100.81
331.801	94.81
332.03	98.81
332.258	86.81
332.486	82.81
332.715	79.81
332.943	94.81
333.172	89.81
333.4	101.81
333.629	76.81
333.857	85.81
334.085	97.81
334.314	84.81
334.542	87.81
334.771	86.81
334.999	73.81
335.227	78.81
335.455	88.81
335.684	85.81
335.912	85.81
336.14	76.81
336.369	75.81
336.597	87.81
336.825	82.81
337.053	85.81
337.281	88.81
337.51	81.81
337.738	89.81
337.966	90.81
338.194	87.81
338.422	88.81
338.65	82.81
338.878	92.81
339.106	79.81
339.334	93.81
339.562	98.81
339.79	76.81
340.018	81.81
340.246	91.81
340.474	83.81
340.702	96.81
340.93	88.81
341.158	89.81
341.386	85.81
341.614	79.81
341.842	83.81
342.07	87.81
342.298	91.81
342.526	76.81
342.754	99.81
342.981	97.81
343.209	89.81
343.437	90.81
343.665	98.81
343.893	75.81
344.12	74.81
344.348	97.81
344.576	84.81
344.804	80.81
345.031	84.81
345.259	79.81
345.487	80.81
345.714	93.81
345.942	80.81
346.17	80.81
346.397	87.81
346.625	77.81
346.853	97.81
347.08	83.81
347.308	94.81
347.535	82.81
347.763	99.81
347.99	90.81
348.218	97.81
348.445	100.81
348.673	109.81
348.9	90.81
349.128	86.81
349.355	91.81
349.583	81.81
349.81	78.81
350.037	83.81
350.265	85.81
350.492	81.81
350.72	84.81
350.947	90.81
351.174	89.81
351.402	76.81
351.629	88.81
351.856	90.81
352.083	81.81
352.311	84.81
352.538	73.81
352.765	78.81
352.992	102.81
353.22	83.81
353.447	84.81
353.674	86.81
353.901	87.81
354.128	89.81
354.355	84.81
354.583	82.81
354.81	97.81
355.037	92.81
355.264	88.81
355.491	81.81
355.718	81.81
355.945	91.81
356.172	95.81
356.399	92.81
356.626	86.81
356.853	94.81
357.08	89.81
357.307	89.81
357.534	77.81
357.761	84.81
357.988	88.81
358.215	93.81
358.441	81.81
358.668	80.81
358.895	91.81
359.122	74.81
359.349	84.81
359.576	86.81
359.802	85.81
360.029	93.81
360.256	100.81
360.483	79.81
360.709	86.81
360.936	99.81
361.163	91.81
361.39	75.81
361.616	84.81
361.843	91.81
362.07	99.81
362.296	95.81
362.523	82.81
362.749	88.81
362.976	77.81
363.203	85.81
363.429	78.81
363.656	90.81
363.882	87.81
364.109	88.81
364.335	88.81
364.562	82.81
364.788	104.81
365.015	85.81
365.241	97.81
365.468	87.81
365.694	72.81
365.92	86.81
366.147	90.81
366.373	79.81
366.599	95.81
366.826	94.81
367.052	89.81
367.278	93.81
367.505	82.81
367.731	97.81
367.957	93.81
368.184	102.81
368.41	85.81
368.636	93.81
368.862	85.81
369.089	89.81
369.315	106.81
369.541	88.81
369.767	104.81
369.993	78.81
370.219	97.81
370.445	97.81
370.672	94.81
370.898	108.81
371.124	94.81
371.35	105.81
371.576	94.81
371.802	90.81
372.028	92.81
372.254	101.81
372.48	92.81
372.706	99.81
372.932	90.81
373.158	103.81
373.384	96.81
373.61	91.81
373.835	97.81
374.061	101.81
374.287	103.81
374.513	104.81
374.739	90.81
374.965	91.81
375.191	79.81
375.416	89.81
375.642	104.81
375.868	92.81
376.094	92.81
376.319	90.81
376.545	92.81
376.771	98.81
376.997	92.81
377.222	80.81
377.448	102.81
377.674	101.81
377.899	99.81
378.125	103.81
378.35	107.81
378.576	86.81
378.802	94.81
379.027	103.81
379.253	111.81
379.478	92.81
379.704	102.81
379.929	97.81
380.155	88.81
380.38	102.81
380.606	88.81
380.831	87.81
381.057	110.81
381.282	107.81
381.507	90.81
381.733	101.81
381.958	107.81
382.184	104.81
382.409	93.81
382.634	90.81
382.86	98.81
383.085	100.81
383.31	106.81
383.535	109.81
383.761	85.81
383.986	114.81
384.211	89.81
384.436	91.81
384.662	99.81
384.887	92.81
385.112	88.81
385.337	87.81
385.562	100.81
385.787	98.81
386.013	88.81
386.238	90.81
386.463	109.81
386.688	103.81
386.913	109.81
387.138	117.81
387.363	108.81
387.588	102.81
387.813	106.81
388.038	102.81
388.263	83.81
388.488	98.81
388.713	103.81
388.938	108.81
389.163	95.81
389.387	101.81
389.612	105.81
389.837	104.81
390.062	101.81
390.287	110.81
390.512	103.81
390.736	97.81
390.961	116.81
391.186	115.81
391.411	107.81
391.636	102.81
391.86	104.81
392.085	87.81
392.31	111.81
392.534	102.81
392.759	110.81
392.984	86.81
393.208	107.81
393.433	106.81
393.658	109.81
393.882	109.81
394.107	111.81
394.331	106.81
394.556	113.81
394.78	106.81
395.005	115.81
395.229	110.81
395.454	104.81
395.678	103.81
395.903	112.81
396.127	104.81
396.352	127.81
396.576	109.81
396.801	108.81
397.025	126.81
397.249	107.81
397.474	113.81
397.698	116.81
397.922	129.81
398.147	119.81
398.371	117.81
398.595	114.81
398.82	104.81
399.044	103.81
399.268	119.81
399.492	103.81
399.717	120.81
399.941	123.81
400.165	114.81
400.389	104.81
400.613	104.81
400.837	120.81
401.062	110.81
401.286	101.81
401.51	109.81
401.734	114.81
401.958	104.81
402.182	117.81
402.406	105.81
402.63	109.81
402.854	118.81
403.078	123.81
403.302	119.81
403.526	124.81
403.75	103.81
403.974	105.81
404.198	115.81
404.422	123.81
404.645	114.81
404.869	129.81
405.093	114.81
405.317	115.81
405.541	118.81
405.765	110.81
405.988	133.81
406.212	125.81
406.436	113.81
406.66	121.81
406.883	128.81
407.107	124.81
407.331	123.81
407.555	122.81
407.778	125.81
408.002	118.81
408.226	117.81
408.449	114.81
408.673	118.81
408.896	123.81
409.12	119.81
409.344	121.81
409.567	108.81
409.791	109.81
410.014	109.81
410.238	130.81
410.461	116.81
410.685	121.81
410.908	121.81
411.132	115.81
411.355	134.81
411.578	135.81
411.802	118.81
412.025	131.81
412.249	116.81
412.472	109.81
412.695	121.81
412.919	134.81
413.142	119.81
413.365	120.81
413.589	117.81
413.812	117.81
414.035	130.81
414.258	118.81
414.482	127.81
414.705	117.81
414.928	121.81
415.151	125.81
415.374	128.81
415.597	127.81
415.821	124.81
416.044	115.81
416.267	133.81
416.49	131.81
416.713	123.81
416.936	132.81
417.159	116.81
417.382	133.81
417.605	127.81
417.828	128.81
418.051	123.81
418.274	99.81
418.497	134.81
418.72	134.81
418.943	130.81
419.166	134.81
419.389	132.81
419.611	125.81
419.834	133.81
420.057	139.81
420.28	132.81
420.503	111.81
420.726	119.81
420.948	148.81
421.171	125.81
421.394	133.81
421.617	129.81
421.839	150.81
422.062	135.81
422.285	125.81
422.507	136.81
422.73	116.81
422.953	142.81
423.175	149.81
423.398	123.81
423.621	137.81
423.843	134.81
424.066	142.81
424.288	145.81
424.511	140.81
424.733	141.81
424.956	133.81
425.178	148.81
425.401	129.81
425.623	143.81
425.846	143.81
426.068	142.81
426.291	123.81
426.513	117.81
426.735	125.81
426.958	136.81
427.18	135.81
427.402	133.81
427.625	124.81
427.847	130.81
428.069	127.81
428.292	133.81
428.514	127.81
428.736	145.81
428.958	140.81
429.181	129.81
429.403	129.81
429.625	121.81
429.847	137.81
430.069	131.81
430.292	122.81
430.514	122.81
430.736	137.81
430.958	142.81
431.18	133.81
431.402	132.81
431.624	120.81
431.846	111.81
432.068	97.81
432.29	102.81
432.512	110.81
432.734	110.81
432.956	122.81
433.178	130.81
433.4	135.81
433.622	135.81
433.844	135.81
434.066	111.81
434.287	99.81
434.509	98.81
434.731	91.81
434.953	108.81
435.175	120.81
435.397	119.81
435.618	125.81
435.84	101.81
436.062	115.81
436.284	121.81
436.505	145.81
436.727	122.81
436.949	138.81
437.17	142.81
437.392	129.81
437.614	129.81
437.835	109.81
438.057	115.81
438.278	123.81
438.5	133.81
438.721	135.81
438.943	133.81
439.165	142.81
439.386	138.81
439.608	153.81
439.829	146.81
440.05	141.81
440.272	159.81
440.493	143.81
440.715	127.81
440.936	134.81
441.158	151.81
441.379	142.81
441.6	151.81
441.822	169.81
442.043	138.81
442.264	139.81
442.486	132.81
442.707	145.81
442.928	120.81
443.149	143.81
443.371	134.81
443.592	136.81
443.813	138.81
444.034	131.81
444.255	134.81
444.476	139.81
444.698	148.81
444.919	133.81
445.14	282.81
445.361	215.81
445.582	138.81
445.803	143.81
446.024	134.81
446.245	148.81
446.466	160.81
446.687	161.81
446.908	151.81
447.129	149.81
447.35	154.81
447.571	146.81
447.792	129.81
448.013	145.81
448.234	136.81
448.455	125.81
448.675	139.81
448.896	153.81
449.117	123.81
449.338	136.81
449.559	128.81
449.779	123.81
450	147.81
450.221	136.81
450.442	133.81
450.662	126.81
450.883	141.81
451.104	136.81
451.324	124.81
451.545	139.81
451.766	128.81
451.986	116.81
452.207	128.81
452.428	131.81
452.648	138.81
452.869	126.81
453.089	123.81
453.31	113.81
453.53	109.81
453.751	110.81
453.971	104.81
454.192	123.81
454.412	102.81
454.633	98.81
454.853	118.81
455.073	125.81
455.294	123.81
455.514	132.81
455.734	110.81
455.955	126.81
456.175	125.81
456.395	108.81
456.616	111.81
456.836	98.81
457.056	137.81
457.276	116.81
457.497	111.81
457.717	101.81
457.937	111.81
458.157	106.81
458.377	121.81
458.598	113.81
458.818	88.81
459.038	96.81
459.258	105.81
459.478	94.81
459.698	109.81
459.918	99.81
460.138	99.81
460.358	106.81
460.578	111.81
460.798	102.81
461.018	117.81
461.238	122.81
461.458	109.81
461.678	129.81
461.898	118.81
462.118	121.81
462.338	128.81
462.558	119.81
462.777	119.81
462.997	119.81
463.217	104.81
463.437	114.81
463.657	111.81
463.876	125.81
464.096	111.81
464.316	115.81
464.536	104.81
464.755	117.81
464.975	124.81
465.195	128.81
465.414	128.81
465.634	125.81
465.854	122.81
466.073	122.81
466.293	110.81
466.512	131.81
466.732	135.81
466.951	139.81
467.171	135.81
467.391	135.81
467.61	124.81
467.829	118.81
468.049	155.81
468.268	129.81
468.488	129.81
468.707	122.81
468.927	149.81
469.146	131.81
469.365	136.81
469.585	141.81
469.804	153.81
470.023	137.81
470.243	142.81
470.462	143.81
470.681	146.81
470.901	149.81
471.12	149.81
471.339	137.81
471.558	151.81
471.777	155.81
471.997	144.81
472.216	132.81
472.435	114.81
472.654	103.81
472.873	100.81
473.092	108.81
473.311	126.81
473.53	129.81
473.749	124.81
473.968	122.81
474.187	139.81
474.406	114.81
474.625	109.81
474.844	128.81
475.063	128.81
475.282	139.81
475.501	124.81
475.72	120.81
475.939	121.81
476.158	127.81
476.377	123.81
476.596	125.81
476.814	110.81
477.033	106.81
477.252	109.81
477.471	135.81
477.69	128.81
477.908	148.81
478.127	145.81
478.346	137.81
478.564	133.81
478.783	121.81
479.002	143.81
479.22	154.81
479.439	142.81
479.658	136.81
479.876	118.81
480.095	113.81
480.313	118.81
480.532	125.81
480.751	101.81
480.969	94.81
481.188	93.81
481.406	89.81
481.624	94.81
481.843	105.81
482.061	103.81
482.28	101.81
482.498	115.81
482.717	123.81
482.935	121.81
483.153	122.81
483.372	152.81
483.59	152.81
483.808	143.81
484.027	149.81
484.245	151.81
484.463	147.81
484.681	152.81
484.9	124.81
485.118	150.81
485.336	130.81
485.554	118.81
485.772	99.81
485.99	113.81
486.209	113.81
486.427	115.81
486.645	124.81
486.863	138.81
487.081	140.81
487.299	134.81
487.517	132.81
487.735	153.81
487.953	180.81
488.171	184.81
488.389	161.81
488.607	157.81
488.825	138.81
489.043	123.81
489.261	130.81
489.479	158.81
489.696	142.81
489.914	150.81
490.132	136.81
490.35	143.81
490.568	159.81
490.786	168.81
491.003	183.81
491.221	186.81
491.439	190.81
491.657	195.81
491.874	188.81
492.092	215.81
492.31	224.81
492.527	225.81
492.745	194.81
492.963	201.81
493.18	188.81
493.398	188.81
493.615	200.81
493.833	170.81
494.05	178.81
494.268	179.81
494.485	182.81
494.703	187.81
494.92	186.81
495.138	177.81
495.355	181.81
495.573	172.81
495.79	159.81
496.008	159.81
496.225	156.81
496.442	165.81
496.66	173.81
496.877	174.81
497.094	162.81
497.312	166.81
497.529	167.81
497.746	159.81
497.963	134.81
498.181	139.81
498.398	124.81
498.615	117.81
498.832	114.81
499.049	113.81
499.267	123.81
499.484	123.81
499.701	125.81
499.918	127.81
500.135	137.81
500.352	141.81
500.569	143.81
500.786	126.81
501.003	140.81
501.22	138.81
501.437	144.81
501.654	132.81
501.871	139.81
502.088	133.81
502.305	133.81
502.522	140.81
502.739	139.81
502.956	131.81
503.172	125.81
503.389	111.81
503.606	124.81
503.823	113.81
504.04	119.81
504.256	122.81
504.473	126.81
504.69	123.81
504.907	125.81
505.123	131.81
505.34	142.81
505.557	134.81
505.773	124.81
505.99	125.81
506.207	124.81
506.423	127.81
506.64	109.81
506.856	116.81
507.073	123.81
507.289	125.81
507.506	110.81
507.722	99.81
507.939	131.81
508.155	107.81
508.372	118.81
508.588	121.81
508.805	105.81
509.021	102.81
509.238	117.81
509.454	104.81
509.67	100.81
509.887	92.81
510.103	96.81
510.319	86.81
510.536	88.81
510.752	90.81
510.968	89.81
511.184	93.81
