Data from Location2.07152019.Energy5.Lamp.07192019.3%Agarose_HRD10591_14-58-05-359.txt Node
Date: Fri Jul 19 14:58:05 EDT 2019
User: cochatt
Spectrometer: HR+D1059
Trigger mode: 1
Integration Time (sec): 1.000000E-1
Scans to average: 1
Electric dark correction enabled: true
Nonlinearity correction enabled: false
Boxcar width: 0
XAxis mode: Wavelengths
Number of Pixels in Spectrum: 2048
>>>>>Begin Spectral Data<<<<<
223.165	-20.88
223.4	-20.88
223.635	-20.88
223.869	-4.88
224.104	-11.88
224.338	-10.88
224.573	-9.88
224.808	-8.88
225.042	-4.88
225.277	0.12
225.511	-21.88
225.746	7.12
225.98	8.12
226.215	6.12
226.449	19.12
226.683	12.12
226.918	22.12
227.152	19.12
227.387	39.12
227.621	48.12
227.856	48.12
228.09	55.12
228.324	41.12
228.559	60.12
228.793	70.12
229.027	59.12
229.262	62.12
229.496	64.12
229.73	61.12
229.964	79.12
230.199	73.12
230.433	64.12
230.667	66.12
230.901	68.12
231.136	63.12
231.37	84.12
231.604	53.12
231.838	86.12
232.072	75.12
232.306	81.12
232.541	79.12
232.775	95.12
233.009	77.12
233.243	96.12
233.477	79.12
233.711	85.12
233.945	77.12
234.179	85.12
234.413	98.12
234.647	93.12
234.881	74.12
235.115	70.12
235.349	75.12
235.583	88.12
235.817	75.12
236.051	83.12
236.285	81.12
236.519	77.12
236.753	69.12
236.987	76.12
237.221	87.12
237.455	69.12
237.689	82.12
237.922	68.12
238.156	84.12
238.39	73.12
238.624	69.12
238.858	61.12
239.091	74.12
239.325	65.12
239.559	82.12
239.793	88.12
240.027	73.12
240.26	84.12
240.494	83.12
240.728	65.12
240.961	88.12
241.195	68.12
241.429	72.12
241.662	90.12
241.896	80.12
242.13	95.12
242.363	77.12
242.597	82.12
242.83	77.12
243.064	70.12
243.298	68.12
243.531	81.12
243.765	59.12
243.998	77.12
244.232	75.12
244.465	85.12
244.699	80.12
244.932	84.12
245.166	84.12
245.399	87.12
245.633	92.12
245.866	74.12
246.099	80.12
246.333	59.12
246.566	75.12
246.8	78.12
247.033	80.12
247.266	80.12
247.5	61.12
247.733	78.12
247.966	94.12
248.2	83.12
248.433	70.12
248.666	72.12
248.899	84.12
249.133	84.12
249.366	81.12
249.599	88.12
249.832	90.12
250.066	88.12
250.299	84.12
250.532	74.12
250.765	87.12
250.998	77.12
251.231	70.12
251.465	83.12
251.698	80.12
251.931	88.12
252.164	78.12
252.397	81.12
252.63	77.12
252.863	69.12
253.096	72.12
253.329	84.12
253.562	71.12
253.795	80.12
254.028	82.12
254.261	79.12
254.494	91.12
254.727	83.12
254.96	73.12
255.193	78.12
255.426	89.12
255.659	78.12
255.892	74.12
256.124	75.12
256.357	86.12
256.59	71.12
256.823	93.12
257.056	86.12
257.289	77.12
257.521	82.12
257.754	93.12
257.987	75.12
258.22	85.12
258.452	88.12
258.685	88.12
258.918	83.12
259.151	84.12
259.383	85.12
259.616	72.12
259.849	77.12
260.081	73.12
260.314	73.12
260.547	88.12
260.779	81.12
261.012	90.12
261.244	90.12
261.477	73.12
261.71	70.12
261.942	89.12
262.175	85.12
262.407	78.12
262.64	87.12
262.872	83.12
263.105	77.12
263.337	80.12
263.57	89.12
263.802	70.12
264.035	95.12
264.267	81.12
264.499	77.12
264.732	89.12
264.964	91.12
265.197	91.12
265.429	81.12
265.661	80.12
265.894	84.12
266.126	78.12
266.358	77.12
266.591	81.12
266.823	79.12
267.055	76.12
267.287	84.12
267.52	78.12
267.752	95.12
267.984	69.12
268.216	95.12
268.448	95.12
268.681	81.12
268.913	85.12
269.145	81.12
269.377	64.12
269.609	97.12
269.841	89.12
270.073	88.12
270.306	82.12
270.538	99.12
270.77	84.12
271.002	78.12
271.234	74.12
271.466	74.12
271.698	81.12
271.93	77.12
272.162	80.12
272.394	82.12
272.626	71.12
272.858	78.12
273.09	90.12
273.322	69.12
273.553	86.12
273.785	92.12
274.017	87.12
274.249	81.12
274.481	93.12
274.713	73.12
274.945	75.12
275.176	78.12
275.408	79.12
275.64	83.12
275.872	87.12
276.104	92.12
276.335	89.12
276.567	82.12
276.799	90.12
277.031	90.12
277.262	90.12
277.494	96.12
277.726	82.12
277.957	82.12
278.189	77.12
278.421	77.12
278.652	91.12
278.884	76.12
279.115	78.12
279.347	75.12
279.579	88.12
279.81	70.12
280.042	83.12
280.273	86.12
280.505	70.12
280.736	78.12
280.968	86.12
281.199	84.12
281.431	81.12
281.662	89.12
281.894	87.12
282.125	82.12
282.356	90.12
282.588	84.12
282.819	76.12
283.051	73.12
283.282	87.12
283.513	73.12
283.745	88.12
283.976	94.12
284.207	93.12
284.439	91.12
284.67	95.12
284.901	94.12
285.132	88.12
285.364	76.12
285.595	82.12
285.826	75.12
286.057	84.12
286.288	86.12
286.52	96.12
286.751	91.12
286.982	77.12
287.213	72.12
287.444	76.12
287.675	83.12
287.906	99.12
288.138	88.12
288.369	84.12
288.6	89.12
288.831	89.12
289.062	94.12
289.293	81.12
289.524	86.12
289.755	82.12
289.986	73.12
290.217	96.12
290.448	91.12
290.679	88.12
290.91	91.12
291.141	82.12
291.371	101.12
291.602	77.12
291.833	86.12
292.064	94.12
292.295	83.12
292.526	86.12
292.757	81.12
292.987	77.12
293.218	77.12
293.449	93.12
293.68	84.12
293.91	78.12
294.141	86.12
294.372	85.12
294.603	72.12
294.833	83.12
295.064	80.12
295.295	89.12
295.525	98.12
295.756	92.12
295.987	78.12
296.217	74.12
296.448	76.12
296.679	72.12
296.909	87.12
297.14	70.12
297.37	96.12
297.601	103.12
297.831	83.12
298.062	73.12
298.292	74.12
298.523	101.12
298.753	86.12
298.984	77.12
299.214	70.12
299.445	84.12
299.675	83.12
299.905	86.12
300.136	92.12
300.366	75.12
300.597	86.12
300.827	82.12
301.057	83.12
301.288	84.12
301.518	91.12
301.748	78.12
301.979	80.12
302.209	90.12
302.439	90.12
302.669	82.12
302.9	68.12
303.13	89.12
303.36	87.12
303.59	68.12
303.82	86.12
304.051	82.12
304.281	80.12
304.511	91.12
304.741	83.12
304.971	88.12
305.201	96.12
305.431	76.12
305.661	89.12
305.891	89.12
306.121	85.12
306.352	87.12
306.582	81.12
306.812	87.12
307.042	76.12
307.272	88.12
307.502	84.12
307.731	95.12
307.961	90.12
308.191	89.12
308.421	96.12
308.651	86.12
308.881	88.12
309.111	87.12
309.341	85.12
309.571	82.12
309.8	94.12
310.03	98.12
310.26	83.12
310.49	87.12
310.72	84.12
310.949	89.12
311.179	86.12
311.409	70.12
311.639	87.12
311.868	87.12
312.098	90.12
312.328	83.12
312.557	92.12
312.787	80.12
313.017	87.12
313.246	80.12
313.476	78.12
313.706	69.12
313.935	93.12
314.165	70.12
314.394	90.12
314.624	99.12
314.853	89.12
315.083	84.12
315.312	77.12
315.542	91.12
315.771	90.12
316.001	73.12
316.23	84.12
316.46	76.12
316.689	80.12
316.919	91.12
317.148	84.12
317.377	86.12
317.607	91.12
317.836	88.12
318.065	78.12
318.295	77.12
318.524	89.12
318.753	82.12
318.983	81.12
319.212	84.12
319.441	80.12
319.67	87.12
319.9	89.12
320.129	75.12
320.358	81.12
320.587	76.12
320.816	82.12
321.046	92.12
321.275	85.12
321.504	83.12
321.733	90.12
321.962	85.12
322.191	91.12
322.42	93.12
322.649	92.12
322.878	81.12
323.108	89.12
323.337	78.12
323.566	91.12
323.795	92.12
324.024	109.12
324.253	87.12
324.482	90.12
324.71	92.12
324.939	79.12
325.168	77.12
325.397	80.12
325.626	85.12
325.855	89.12
326.084	79.12
326.313	91.12
326.542	83.12
326.77	91.12
326.999	89.12
327.228	75.12
327.457	86.12
327.686	78.12
327.914	91.12
328.143	82.12
328.372	72.12
328.6	78.12
328.829	84.12
329.058	72.12
329.287	78.12
329.515	84.12
329.744	85.12
329.972	95.12
330.201	85.12
330.43	91.12
330.658	82.12
330.887	73.12
331.115	82.12
331.344	87.12
331.572	98.12
331.801	87.12
332.03	79.12
332.258	85.12
332.486	82.12
332.715	89.12
332.943	88.12
333.172	84.12
333.4	86.12
333.629	85.12
333.857	81.12
334.085	85.12
334.314	88.12
334.542	84.12
334.771	77.12
334.999	81.12
335.227	89.12
335.455	86.12
335.684	91.12
335.912	91.12
336.14	82.12
336.369	93.12
336.597	95.12
336.825	94.12
337.053	87.12
337.281	70.12
337.51	96.12
337.738	105.12
337.966	90.12
338.194	81.12
338.422	84.12
338.65	86.12
338.878	84.12
339.106	83.12
339.334	82.12
339.562	77.12
339.79	86.12
340.018	80.12
340.246	80.12
340.474	84.12
340.702	89.12
340.93	77.12
341.158	75.12
341.386	89.12
341.614	75.12
341.842	76.12
342.07	89.12
342.298	88.12
342.526	92.12
342.754	86.12
342.981	78.12
343.209	103.12
343.437	101.12
343.665	85.12
343.893	82.12
344.12	85.12
344.348	83.12
344.576	77.12
344.804	97.12
345.031	93.12
345.259	81.12
345.487	77.12
345.714	79.12
345.942	77.12
346.17	96.12
346.397	78.12
346.625	86.12
346.853	96.12
347.08	86.12
347.308	83.12
347.535	90.12
347.763	86.12
347.99	88.12
348.218	82.12
348.445	81.12
348.673	101.12
348.9	74.12
349.128	72.12
349.355	83.12
349.583	84.12
349.81	92.12
350.037	90.12
350.265	86.12
350.492	76.12
350.72	89.12
350.947	78.12
351.174	95.12
351.402	83.12
351.629	91.12
351.856	85.12
352.083	96.12
352.311	96.12
352.538	96.12
352.765	92.12
352.992	75.12
353.22	85.12
353.447	77.12
353.674	99.12
353.901	94.12
354.128	88.12
354.355	90.12
354.583	95.12
354.81	87.12
355.037	91.12
355.264	77.12
355.491	86.12
355.718	88.12
355.945	78.12
356.172	83.12
356.399	92.12
356.626	78.12
356.853	88.12
357.08	89.12
357.307	85.12
357.534	96.12
357.761	82.12
357.988	87.12
358.215	96.12
358.441	78.12
358.668	98.12
358.895	85.12
359.122	87.12
359.349	77.12
359.576	82.12
359.802	84.12
360.029	86.12
360.256	88.12
360.483	77.12
360.709	83.12
360.936	83.12
361.163	82.12
361.39	66.12
361.616	85.12
361.843	83.12
362.07	89.12
362.296	76.12
362.523	87.12
362.749	73.12
362.976	85.12
363.203	104.12
363.429	92.12
363.656	100.12
363.882	89.12
364.109	80.12
364.335	89.12
364.562	82.12
364.788	85.12
365.015	82.12
365.241	75.12
365.468	97.12
365.694	83.12
365.92	87.12
366.147	69.12
366.373	82.12
366.599	84.12
366.826	90.12
367.052	83.12
367.278	80.12
367.505	86.12
367.731	99.12
367.957	93.12
368.184	96.12
368.41	82.12
368.636	82.12
368.862	94.12
369.089	79.12
369.315	82.12
369.541	96.12
369.767	99.12
369.993	102.12
370.219	95.12
370.445	97.12
370.672	80.12
370.898	77.12
371.124	93.12
371.35	95.12
371.576	89.12
371.802	90.12
372.028	88.12
372.254	89.12
372.48	88.12
372.706	103.12
372.932	96.12
373.158	85.12
373.384	98.12
373.61	100.12
373.835	102.12
374.061	90.12
374.287	97.12
374.513	87.12
374.739	94.12
374.965	91.12
375.191	86.12
375.416	92.12
375.642	100.12
375.868	105.12
376.094	99.12
376.319	98.12
376.545	86.12
376.771	86.12
376.997	90.12
377.222	93.12
377.448	81.12
377.674	88.12
377.899	99.12
378.125	86.12
378.35	93.12
378.576	107.12
378.802	80.12
379.027	86.12
379.253	96.12
379.478	95.12
379.704	107.12
379.929	96.12
380.155	104.12
380.38	97.12
380.606	83.12
380.831	108.12
381.057	96.12
381.282	104.12
381.507	99.12
381.733	83.12
381.958	75.12
382.184	94.12
382.409	101.12
382.634	91.12
382.86	88.12
383.085	98.12
383.31	86.12
383.535	92.12
383.761	93.12
383.986	97.12
384.211	78.12
384.436	95.12
384.662	79.12
384.887	91.12
385.112	107.12
385.337	114.12
385.562	102.12
385.787	99.12
386.013	113.12
386.238	91.12
386.463	93.12
386.688	102.12
386.913	107.12
387.138	91.12
387.363	102.12
387.588	104.12
387.813	102.12
388.038	90.12
388.263	88.12
388.488	112.12
388.713	100.12
388.938	94.12
389.163	96.12
389.387	102.12
389.612	112.12
389.837	102.12
390.062	104.12
390.287	108.12
390.512	97.12
390.736	99.12
390.961	97.12
391.186	104.12
391.411	97.12
391.636	96.12
391.86	104.12
392.085	109.12
392.31	108.12
392.534	102.12
392.759	105.12
392.984	88.12
393.208	85.12
393.433	105.12
393.658	124.12
393.882	118.12
394.107	104.12
394.331	101.12
394.556	88.12
394.78	98.12
395.005	101.12
395.229	115.12
395.454	99.12
395.678	108.12
395.903	119.12
396.127	109.12
396.352	104.12
396.576	119.12
396.801	107.12
397.025	106.12
397.249	110.12
397.474	100.12
397.698	114.12
397.922	122.12
398.147	106.12
398.371	113.12
398.595	110.12
398.82	119.12
399.044	115.12
399.268	110.12
399.492	105.12
399.717	99.12
399.941	122.12
400.165	101.12
400.389	118.12
400.613	118.12
400.837	115.12
401.062	106.12
401.286	110.12
401.51	112.12
401.734	110.12
401.958	107.12
402.182	103.12
402.406	112.12
402.63	122.12
402.854	103.12
403.078	136.12
403.302	120.12
403.526	107.12
403.75	128.12
403.974	114.12
404.198	128.12
404.422	123.12
404.645	110.12
404.869	121.12
405.093	121.12
405.317	112.12
405.541	122.12
405.765	110.12
405.988	103.12
406.212	124.12
406.436	118.12
406.66	117.12
406.883	105.12
407.107	120.12
407.331	107.12
407.555	104.12
407.778	123.12
408.002	132.12
408.226	116.12
408.449	116.12
408.673	101.12
408.896	113.12
409.12	118.12
409.344	134.12
409.567	132.12
409.791	120.12
410.014	123.12
410.238	130.12
410.461	131.12
410.685	116.12
410.908	128.12
411.132	125.12
411.355	118.12
411.578	137.12
411.802	105.12
412.025	115.12
412.249	117.12
412.472	138.12
412.695	120.12
412.919	113.12
413.142	121.12
413.365	129.12
413.589	121.12
413.812	135.12
414.035	129.12
414.258	120.12
414.482	124.12
414.705	128.12
414.928	124.12
415.151	128.12
415.374	118.12
415.597	126.12
415.821	121.12
416.044	108.12
416.267	133.12
416.49	128.12
416.713	125.12
416.936	134.12
417.159	128.12
417.382	120.12
417.605	125.12
417.828	128.12
418.051	132.12
418.274	137.12
418.497	134.12
418.72	128.12
418.943	131.12
419.166	146.12
419.389	134.12
419.611	143.12
419.834	142.12
420.057	145.12
420.28	133.12
420.503	148.12
420.726	121.12
420.948	121.12
421.171	117.12
421.394	135.12
421.617	133.12
421.839	145.12
422.062	141.12
422.285	140.12
422.507	138.12
422.73	134.12
422.953	131.12
423.175	124.12
423.398	132.12
423.621	126.12
423.843	130.12
424.066	132.12
424.288	124.12
424.511	148.12
424.733	147.12
424.956	148.12
425.178	137.12
425.401	147.12
425.623	143.12
425.846	140.12
426.068	128.12
426.291	130.12
426.513	135.12
426.735	130.12
426.958	137.12
427.18	133.12
427.402	126.12
427.625	142.12
427.847	138.12
428.069	126.12
428.292	123.12
428.514	108.12
428.736	123.12
428.958	124.12
429.181	130.12
429.403	128.12
429.625	121.12
429.847	128.12
430.069	137.12
430.292	122.12
430.514	112.12
430.736	128.12
430.958	121.12
431.18	118.12
431.402	122.12
431.624	121.12
431.846	96.12
432.068	108.12
432.29	100.12
432.512	96.12
432.734	116.12
432.956	126.12
433.178	130.12
433.4	125.12
433.622	131.12
433.844	132.12
434.066	117.12
434.287	114.12
434.509	101.12
434.731	91.12
434.953	110.12
435.175	124.12
435.397	123.12
435.618	116.12
435.84	114.12
436.062	123.12
436.284	133.12
436.505	132.12
436.727	133.12
436.949	119.12
437.17	134.12
437.392	132.12
437.614	132.12
437.835	117.12
438.057	118.12
438.278	121.12
438.5	112.12
438.721	124.12
438.943	136.12
439.165	138.12
439.386	126.12
439.608	126.12
439.829	148.12
440.05	148.12
440.272	168.12
440.493	142.12
440.715	138.12
440.936	142.12
441.158	138.12
441.379	135.12
441.6	153.12
441.822	145.12
442.043	137.12
442.264	136.12
442.486	140.12
442.707	157.12
442.928	137.12
443.149	131.12
443.371	135.12
443.592	144.12
443.813	142.12
444.034	139.12
444.255	136.12
444.476	154.12
444.698	157.12
444.919	151.12
445.14	267.12
445.361	205.12
445.582	142.12
445.803	138.12
446.024	139.12
446.245	135.12
446.466	150.12
446.687	149.12
446.908	152.12
447.129	143.12
447.35	152.12
447.571	132.12
447.792	144.12
448.013	146.12
448.234	137.12
448.455	139.12
448.675	138.12
448.896	132.12
449.117	127.12
449.338	141.12
449.559	148.12
449.779	129.12
450	150.12
450.221	144.12
450.442	132.12
450.662	126.12
450.883	125.12
451.104	129.12
451.324	141.12
451.545	153.12
451.766	118.12
451.986	132.12
452.207	124.12
452.428	124.12
452.648	122.12
452.869	130.12
453.089	114.12
453.31	106.12
453.53	103.12
453.751	126.12
453.971	109.12
454.192	106.12
454.412	105.12
454.633	108.12
454.853	114.12
455.073	106.12
455.294	121.12
455.514	124.12
455.734	134.12
455.955	104.12
456.175	122.12
456.395	108.12
456.616	104.12
456.836	109.12
457.056	122.12
457.276	99.12
457.497	92.12
457.717	113.12
457.937	113.12
458.157	98.12
458.377	106.12
458.598	109.12
458.818	97.12
459.038	89.12
459.258	77.12
459.478	85.12
459.698	101.12
459.918	105.12
460.138	114.12
460.358	109.12
460.578	109.12
460.798	105.12
461.018	110.12
461.238	145.12
461.458	116.12
461.678	116.12
461.898	119.12
462.118	130.12
462.338	114.12
462.558	117.12
462.777	106.12
462.997	124.12
463.217	115.12
463.437	100.12
463.657	124.12
463.876	112.12
464.096	114.12
464.316	110.12
464.536	126.12
464.755	109.12
464.975	107.12
465.195	133.12
465.414	122.12
465.634	117.12
465.854	118.12
466.073	117.12
466.293	117.12
466.512	127.12
466.732	132.12
466.951	140.12
467.171	130.12
467.391	122.12
467.61	119.12
467.829	136.12
468.049	134.12
468.268	133.12
468.488	139.12
468.707	130.12
468.927	140.12
469.146	128.12
469.365	143.12
469.585	120.12
469.804	136.12
470.023	137.12
470.243	119.12
470.462	138.12
470.681	148.12
470.901	142.12
471.12	126.12
471.339	140.12
471.558	141.12
471.777	146.12
471.997	158.12
472.216	141.12
472.435	126.12
472.654	107.12
472.873	117.12
473.092	108.12
473.311	134.12
473.53	117.12
473.749	129.12
473.968	137.12
474.187	121.12
474.406	123.12
474.625	130.12
474.844	118.12
475.063	135.12
475.282	130.12
475.501	126.12
475.72	115.12
475.939	122.12
476.158	130.12
476.377	141.12
476.596	132.12
476.814	118.12
477.033	110.12
477.252	115.12
477.471	123.12
477.69	130.12
477.908	152.12
478.127	136.12
478.346	160.12
478.564	132.12
478.783	137.12
479.002	132.12
479.22	142.12
479.439	148.12
479.658	132.12
479.876	125.12
480.095	116.12
480.313	106.12
480.532	124.12
480.751	114.12
480.969	94.12
481.188	77.12
481.406	75.12
481.624	75.12
481.843	78.12
482.061	100.12
482.28	116.12
482.498	110.12
482.717	107.12
482.935	113.12
483.153	132.12
483.372	135.12
483.59	139.12
483.808	153.12
484.027	133.12
484.245	131.12
484.463	134.12
484.681	150.12
484.9	143.12
485.118	131.12
485.336	132.12
485.554	116.12
485.772	112.12
485.99	105.12
486.209	110.12
486.427	103.12
486.645	113.12
486.863	132.12
487.081	142.12
487.299	126.12
487.517	143.12
487.735	162.12
487.953	180.12
488.171	181.12
488.389	157.12
488.607	149.12
488.825	154.12
489.043	140.12
489.261	130.12
489.479	162.12
489.696	152.12
489.914	135.12
490.132	129.12
490.35	148.12
490.568	155.12
490.786	166.12
491.003	161.12
491.221	182.12
491.439	184.12
491.657	180.12
491.874	192.12
492.092	205.12
492.31	223.12
492.527	224.12
492.745	209.12
492.963	196.12
493.18	208.12
493.398	187.12
493.615	180.12
493.833	180.12
494.05	165.12
494.268	179.12
494.485	179.12
494.703	179.12
494.92	177.12
495.138	171.12
495.355	176.12
495.573	162.12
495.79	156.12
496.008	160.12
496.225	183.12
496.442	162.12
496.66	167.12
496.877	168.12
497.094	169.12
497.312	177.12
497.529	164.12
497.746	147.12
497.963	118.12
498.181	138.12
498.398	147.12
498.615	118.12
498.832	124.12
499.049	119.12
499.267	127.12
499.484	140.12
499.701	123.12
499.918	125.12
500.135	142.12
500.352	123.12
500.569	146.12
500.786	142.12
501.003	145.12
501.22	134.12
501.437	138.12
501.654	122.12
501.871	121.12
502.088	129.12
502.305	123.12
502.522	124.12
502.739	126.12
502.956	126.12
503.172	133.12
503.389	129.12
503.606	124.12
503.823	120.12
504.04	118.12
504.256	125.12
504.473	119.12
504.69	118.12
504.907	132.12
505.123	131.12
505.34	119.12
505.557	120.12
505.773	121.12
505.99	125.12
506.207	119.12
506.423	110.12
506.64	130.12
506.856	120.12
507.073	137.12
507.289	138.12
507.506	129.12
507.722	130.12
507.939	130.12
508.155	120.12
508.372	121.12
508.588	118.12
508.805	118.12
509.021	105.12
509.238	125.12
509.454	101.12
509.67	105.12
509.887	92.12
510.103	96.12
510.319	98.12
510.536	88.12
510.752	92.12
510.968	86.12
511.184	79.12
511.401	73.12
511.617	103.12
