Data from Location2.07152019.Energy5.Lamp.07192019.3%Agarose_HRD10591_14-56-10-359.txt Node
Date: Fri Jul 19 14:56:10 EDT 2019
User: cochatt
Spectrometer: HR+D1059
Trigger mode: 1
Integration Time (sec): 1.000000E-1
Scans to average: 1
Electric dark correction enabled: true
Nonlinearity correction enabled: false
Boxcar width: 0
XAxis mode: Wavelengths
Number of Pixels in Spectrum: 2048
>>>>>Begin Spectral Data<<<<<
223.165	-24.81
223.4	-24.81
223.635	-24.81
223.869	-26.81
224.104	-20.81
224.338	-1.81
224.573	-12.81
224.808	-15.81
225.042	-3.81
225.277	1.19
225.511	-7.81
225.746	-1.81
225.98	22.19
226.215	24.19
226.449	6.19
226.683	19.19
226.918	25.19
227.152	18.19
227.387	25.19
227.621	31.19
227.856	42.19
228.09	56.19
228.324	32.19
228.559	56.19
228.793	51.19
229.027	50.19
229.262	53.19
229.496	55.19
229.73	78.19
229.964	80.19
230.199	79.19
230.433	58.19
230.667	64.19
230.901	85.19
231.136	77.19
231.37	78.19
231.604	75.19
231.838	99.19
232.072	71.19
232.306	74.19
232.541	82.19
232.775	84.19
233.009	78.19
233.243	73.19
233.477	84.19
233.711	100.19
233.945	79.19
234.179	66.19
234.413	88.19
234.647	68.19
234.881	84.19
235.115	71.19
235.349	69.19
235.583	75.19
235.817	86.19
236.051	72.19
236.285	81.19
236.519	65.19
236.753	71.19
236.987	81.19
237.221	65.19
237.455	82.19
237.689	77.19
237.922	72.19
238.156	79.19
238.39	74.19
238.624	64.19
238.858	66.19
239.091	83.19
239.325	66.19
239.559	87.19
239.793	79.19
240.027	89.19
240.26	81.19
240.494	67.19
240.728	65.19
240.961	86.19
241.195	83.19
241.429	81.19
241.662	81.19
241.896	73.19
242.13	66.19
242.363	72.19
242.597	69.19
242.83	76.19
243.064	66.19
243.298	85.19
243.531	74.19
243.765	77.19
243.998	70.19
244.232	71.19
244.465	81.19
244.699	75.19
244.932	81.19
245.166	71.19
245.399	71.19
245.633	80.19
245.866	78.19
246.099	82.19
246.333	75.19
246.566	77.19
246.8	74.19
247.033	81.19
247.266	73.19
247.5	72.19
247.733	72.19
247.966	74.19
248.2	84.19
248.433	83.19
248.666	85.19
248.899	79.19
249.133	70.19
249.366	74.19
249.599	84.19
249.832	76.19
250.066	77.19
250.299	78.19
250.532	93.19
250.765	73.19
250.998	79.19
251.231	71.19
251.465	71.19
251.698	87.19
251.931	83.19
252.164	78.19
252.397	76.19
252.63	84.19
252.863	79.19
253.096	79.19
253.329	88.19
253.562	79.19
253.795	87.19
254.028	79.19
254.261	74.19
254.494	78.19
254.727	71.19
254.96	75.19
255.193	77.19
255.426	76.19
255.659	72.19
255.892	78.19
256.124	89.19
256.357	70.19
256.59	89.19
256.823	86.19
257.056	69.19
257.289	90.19
257.521	69.19
257.754	90.19
257.987	81.19
258.22	78.19
258.452	72.19
258.685	77.19
258.918	70.19
259.151	70.19
259.383	67.19
259.616	84.19
259.849	65.19
260.081	69.19
260.314	91.19
260.547	87.19
260.779	83.19
261.012	69.19
261.244	81.19
261.477	64.19
261.71	81.19
261.942	82.19
262.175	78.19
262.407	74.19
262.64	78.19
262.872	80.19
263.105	76.19
263.337	78.19
263.57	82.19
263.802	76.19
264.035	81.19
264.267	72.19
264.499	77.19
264.732	71.19
264.964	78.19
265.197	89.19
265.429	83.19
265.661	79.19
265.894	80.19
266.126	83.19
266.358	78.19
266.591	87.19
266.823	87.19
267.055	85.19
267.287	84.19
267.52	70.19
267.752	101.19
267.984	74.19
268.216	90.19
268.448	85.19
268.681	85.19
268.913	92.19
269.145	77.19
269.377	68.19
269.609	100.19
269.841	85.19
270.073	76.19
270.306	72.19
270.538	92.19
270.77	79.19
271.002	81.19
271.234	92.19
271.466	86.19
271.698	85.19
271.93	85.19
272.162	74.19
272.394	89.19
272.626	76.19
272.858	80.19
273.09	64.19
273.322	78.19
273.553	67.19
273.785	74.19
274.017	78.19
274.249	88.19
274.481	83.19
274.713	81.19
274.945	82.19
275.176	78.19
275.408	81.19
275.64	89.19
275.872	94.19
276.104	92.19
276.335	83.19
276.567	80.19
276.799	84.19
277.031	69.19
277.262	83.19
277.494	98.19
277.726	68.19
277.957	76.19
278.189	86.19
278.421	94.19
278.652	88.19
278.884	81.19
279.115	83.19
279.347	102.19
279.579	85.19
279.81	76.19
280.042	92.19
280.273	72.19
280.505	75.19
280.736	88.19
280.968	81.19
281.199	85.19
281.431	78.19
281.662	103.19
281.894	79.19
282.125	74.19
282.356	74.19
282.588	86.19
282.819	78.19
283.051	94.19
283.282	87.19
283.513	87.19
283.745	88.19
283.976	75.19
284.207	78.19
284.439	77.19
284.67	77.19
284.901	91.19
285.132	73.19
285.364	83.19
285.595	80.19
285.826	87.19
286.057	99.19
286.288	77.19
286.52	91.19
286.751	76.19
286.982	80.19
287.213	79.19
287.444	81.19
287.675	79.19
287.906	82.19
288.138	85.19
288.369	80.19
288.6	74.19
288.831	80.19
289.062	69.19
289.293	78.19
289.524	69.19
289.755	78.19
289.986	81.19
290.217	82.19
290.448	83.19
290.679	71.19
290.91	82.19
291.141	85.19
291.371	77.19
291.602	88.19
291.833	83.19
292.064	80.19
292.295	80.19
292.526	70.19
292.757	71.19
292.987	79.19
293.218	89.19
293.449	79.19
293.68	76.19
293.91	79.19
294.141	74.19
294.372	73.19
294.603	88.19
294.833	97.19
295.064	74.19
295.295	89.19
295.525	89.19
295.756	93.19
295.987	79.19
296.217	86.19
296.448	84.19
296.679	93.19
296.909	80.19
297.14	93.19
297.37	83.19
297.601	81.19
297.831	84.19
298.062	88.19
298.292	97.19
298.523	82.19
298.753	79.19
298.984	92.19
299.214	99.19
299.445	88.19
299.675	87.19
299.905	79.19
300.136	76.19
300.366	98.19
300.597	73.19
300.827	90.19
301.057	89.19
301.288	84.19
301.518	70.19
301.748	87.19
301.979	96.19
302.209	87.19
302.439	79.19
302.669	85.19
302.9	85.19
303.13	97.19
303.36	88.19
303.59	75.19
303.82	94.19
304.051	80.19
304.281	79.19
304.511	99.19
304.741	94.19
304.971	81.19
305.201	76.19
305.431	87.19
305.661	89.19
305.891	85.19
306.121	84.19
306.352	97.19
306.582	81.19
306.812	75.19
307.042	75.19
307.272	94.19
307.502	78.19
307.731	84.19
307.961	94.19
308.191	88.19
308.421	78.19
308.651	87.19
308.881	92.19
309.111	79.19
309.341	81.19
309.571	87.19
309.8	78.19
310.03	94.19
310.26	90.19
310.49	95.19
310.72	73.19
310.949	77.19
311.179	78.19
311.409	88.19
311.639	80.19
311.868	83.19
312.098	82.19
312.328	82.19
312.557	76.19
312.787	96.19
313.017	86.19
313.246	74.19
313.476	79.19
313.706	85.19
313.935	90.19
314.165	89.19
314.394	76.19
314.624	83.19
314.853	90.19
315.083	90.19
315.312	74.19
315.542	89.19
315.771	85.19
316.001	90.19
316.23	88.19
316.46	77.19
316.689	93.19
316.919	70.19
317.148	83.19
317.377	89.19
317.607	85.19
317.836	84.19
318.065	92.19
318.295	91.19
318.524	71.19
318.753	78.19
318.983	69.19
319.212	87.19
319.441	82.19
319.67	88.19
319.9	88.19
320.129	89.19
320.358	83.19
320.587	71.19
320.816	84.19
321.046	71.19
321.275	73.19
321.504	82.19
321.733	93.19
321.962	96.19
322.191	89.19
322.42	80.19
322.649	71.19
322.878	79.19
323.108	72.19
323.337	86.19
323.566	92.19
323.795	67.19
324.024	90.19
324.253	98.19
324.482	77.19
324.71	79.19
324.939	79.19
325.168	82.19
325.397	80.19
325.626	78.19
325.855	78.19
326.084	81.19
326.313	78.19
326.542	82.19
326.77	75.19
326.999	75.19
327.228	89.19
327.457	76.19
327.686	76.19
327.914	91.19
328.143	90.19
328.372	81.19
328.6	91.19
328.829	76.19
329.058	84.19
329.287	84.19
329.515	76.19
329.744	82.19
329.972	89.19
330.201	87.19
330.43	83.19
330.658	70.19
330.887	91.19
331.115	79.19
331.344	87.19
331.572	96.19
331.801	86.19
332.03	83.19
332.258	80.19
332.486	88.19
332.715	80.19
332.943	72.19
333.172	74.19
333.4	85.19
333.629	83.19
333.857	80.19
334.085	89.19
334.314	82.19
334.542	80.19
334.771	73.19
334.999	77.19
335.227	74.19
335.455	92.19
335.684	77.19
335.912	66.19
336.14	92.19
336.369	95.19
336.597	89.19
336.825	83.19
337.053	77.19
337.281	79.19
337.51	87.19
337.738	69.19
337.966	71.19
338.194	78.19
338.422	81.19
338.65	78.19
338.878	82.19
339.106	87.19
339.334	79.19
339.562	70.19
339.79	80.19
340.018	83.19
340.246	79.19
340.474	81.19
340.702	92.19
340.93	85.19
341.158	84.19
341.386	85.19
341.614	79.19
341.842	87.19
342.07	81.19
342.298	86.19
342.526	94.19
342.754	90.19
342.981	80.19
343.209	85.19
343.437	76.19
343.665	75.19
343.893	76.19
344.12	97.19
344.348	81.19
344.576	66.19
344.804	82.19
345.031	75.19
345.259	83.19
345.487	88.19
345.714	79.19
345.942	79.19
346.17	76.19
346.397	84.19
346.625	77.19
346.853	79.19
347.08	92.19
347.308	87.19
347.535	92.19
347.763	82.19
347.99	80.19
348.218	88.19
348.445	75.19
348.673	86.19
348.9	94.19
349.128	88.19
349.355	88.19
349.583	97.19
349.81	74.19
350.037	87.19
350.265	76.19
350.492	67.19
350.72	89.19
350.947	105.19
351.174	82.19
351.402	77.19
351.629	93.19
351.856	90.19
352.083	73.19
352.311	85.19
352.538	101.19
352.765	87.19
352.992	74.19
353.22	87.19
353.447	78.19
353.674	87.19
353.901	84.19
354.128	84.19
354.355	85.19
354.583	83.19
354.81	87.19
355.037	77.19
355.264	92.19
355.491	89.19
355.718	79.19
355.945	77.19
356.172	92.19
356.399	93.19
356.626	84.19
356.853	65.19
357.08	71.19
357.307	71.19
357.534	65.19
357.761	75.19
357.988	79.19
358.215	75.19
358.441	90.19
358.668	74.19
358.895	87.19
359.122	67.19
359.349	77.19
359.576	71.19
359.802	82.19
360.029	86.19
360.256	84.19
360.483	78.19
360.709	88.19
360.936	75.19
361.163	91.19
361.39	84.19
361.616	80.19
361.843	72.19
362.07	74.19
362.296	83.19
362.523	76.19
362.749	70.19
362.976	75.19
363.203	83.19
363.429	77.19
363.656	80.19
363.882	78.19
364.109	99.19
364.335	91.19
364.562	93.19
364.788	85.19
365.015	79.19
365.241	94.19
365.468	78.19
365.694	66.19
365.92	86.19
366.147	92.19
366.373	84.19
366.599	87.19
366.826	79.19
367.052	72.19
367.278	89.19
367.505	78.19
367.731	73.19
367.957	73.19
368.184	75.19
368.41	80.19
368.636	103.19
368.862	93.19
369.089	92.19
369.315	85.19
369.541	91.19
369.767	89.19
369.993	86.19
370.219	101.19
370.445	90.19
370.672	78.19
370.898	89.19
371.124	89.19
371.35	79.19
371.576	89.19
371.802	89.19
372.028	80.19
372.254	104.19
372.48	82.19
372.706	93.19
372.932	88.19
373.158	84.19
373.384	89.19
373.61	98.19
373.835	96.19
374.061	83.19
374.287	94.19
374.513	82.19
374.739	76.19
374.965	92.19
375.191	90.19
375.416	87.19
375.642	82.19
375.868	73.19
376.094	92.19
376.319	93.19
376.545	74.19
376.771	87.19
376.997	94.19
377.222	83.19
377.448	86.19
377.674	93.19
377.899	91.19
378.125	83.19
378.35	93.19
378.576	89.19
378.802	99.19
379.027	87.19
379.253	87.19
379.478	93.19
379.704	109.19
379.929	101.19
380.155	93.19
380.38	83.19
380.606	99.19
380.831	103.19
381.057	99.19
381.282	92.19
381.507	105.19
381.733	94.19
381.958	101.19
382.184	82.19
382.409	101.19
382.634	106.19
382.86	108.19
383.085	95.19
383.31	86.19
383.535	96.19
383.761	93.19
383.986	87.19
384.211	86.19
384.436	96.19
384.662	106.19
384.887	93.19
385.112	95.19
385.337	87.19
385.562	105.19
385.787	76.19
386.013	110.19
386.238	92.19
386.463	90.19
386.688	84.19
386.913	97.19
387.138	87.19
387.363	105.19
387.588	96.19
387.813	101.19
388.038	111.19
388.263	105.19
388.488	97.19
388.713	109.19
388.938	89.19
389.163	92.19
389.387	103.19
389.612	94.19
389.837	89.19
390.062	95.19
390.287	107.19
390.512	99.19
390.736	103.19
390.961	115.19
391.186	102.19
391.411	104.19
391.636	93.19
391.86	96.19
392.085	109.19
392.31	94.19
392.534	115.19
392.759	115.19
392.984	98.19
393.208	107.19
393.433	105.19
393.658	112.19
393.882	108.19
394.107	106.19
394.331	104.19
394.556	103.19
394.78	104.19
395.005	104.19
395.229	104.19
395.454	104.19
395.678	111.19
395.903	102.19
396.127	100.19
396.352	114.19
396.576	99.19
396.801	90.19
397.025	99.19
397.249	95.19
397.474	115.19
397.698	110.19
397.922	111.19
398.147	99.19
398.371	118.19
398.595	105.19
398.82	104.19
399.044	100.19
399.268	113.19
399.492	97.19
399.717	112.19
399.941	121.19
400.165	121.19
400.389	91.19
400.613	109.19
400.837	108.19
401.062	117.19
401.286	108.19
401.51	108.19
401.734	117.19
401.958	102.19
402.182	103.19
402.406	107.19
402.63	106.19
402.854	106.19
403.078	128.19
403.302	109.19
403.526	108.19
403.75	123.19
403.974	102.19
404.198	118.19
404.422	106.19
404.645	111.19
404.869	107.19
405.093	101.19
405.317	119.19
405.541	107.19
405.765	113.19
405.988	116.19
406.212	109.19
406.436	116.19
406.66	139.19
406.883	117.19
407.107	125.19
407.331	130.19
407.555	120.19
407.778	111.19
408.002	119.19
408.226	122.19
408.449	117.19
408.673	102.19
408.896	124.19
409.12	103.19
409.344	135.19
409.567	114.19
409.791	123.19
410.014	113.19
410.238	129.19
410.461	128.19
410.685	117.19
410.908	121.19
411.132	119.19
411.355	110.19
411.578	118.19
411.802	119.19
412.025	120.19
412.249	110.19
412.472	112.19
412.695	122.19
412.919	124.19
413.142	124.19
413.365	113.19
413.589	115.19
413.812	138.19
414.035	115.19
414.258	130.19
414.482	119.19
414.705	106.19
414.928	126.19
415.151	122.19
415.374	129.19
415.597	126.19
415.821	128.19
416.044	133.19
416.267	135.19
416.49	136.19
416.713	127.19
416.936	129.19
417.159	129.19
417.382	120.19
417.605	120.19
417.828	129.19
418.051	128.19
418.274	133.19
418.497	133.19
418.72	124.19
418.943	141.19
419.166	132.19
419.389	140.19
419.611	127.19
419.834	126.19
420.057	137.19
420.28	129.19
420.503	117.19
420.726	135.19
420.948	120.19
421.171	123.19
421.394	119.19
421.617	130.19
421.839	149.19
422.062	134.19
422.285	134.19
422.507	121.19
422.73	112.19
422.953	124.19
423.175	116.19
423.398	123.19
423.621	122.19
423.843	133.19
424.066	139.19
424.288	137.19
424.511	142.19
424.733	148.19
424.956	127.19
425.178	136.19
425.401	133.19
425.623	120.19
425.846	129.19
426.068	143.19
426.291	122.19
426.513	134.19
426.735	126.19
426.958	125.19
427.18	137.19
427.402	133.19
427.625	131.19
427.847	124.19
428.069	125.19
428.292	138.19
428.514	117.19
428.736	129.19
428.958	129.19
429.181	134.19
429.403	132.19
429.625	142.19
429.847	122.19
430.069	133.19
430.292	126.19
430.514	130.19
430.736	136.19
430.958	121.19
431.18	141.19
431.402	114.19
431.624	112.19
431.846	119.19
432.068	109.19
432.29	86.19
432.512	112.19
432.734	132.19
432.956	130.19
433.178	118.19
433.4	138.19
433.622	134.19
433.844	125.19
434.066	112.19
434.287	124.19
434.509	100.19
434.731	102.19
434.953	104.19
435.175	128.19
435.397	131.19
435.618	116.19
435.84	93.19
436.062	101.19
436.284	110.19
436.505	122.19
436.727	137.19
436.949	121.19
437.17	135.19
437.392	142.19
437.614	120.19
437.835	120.19
438.057	114.19
438.278	121.19
438.5	134.19
438.721	121.19
438.943	132.19
439.165	128.19
439.386	148.19
439.608	135.19
439.829	131.19
440.05	133.19
440.272	134.19
440.493	125.19
440.715	135.19
440.936	148.19
441.158	139.19
441.379	121.19
441.6	132.19
441.822	145.19
442.043	136.19
442.264	151.19
442.486	144.19
442.707	132.19
442.928	144.19
443.149	140.19
443.371	123.19
443.592	134.19
443.813	147.19
444.034	134.19
444.255	131.19
444.476	136.19
444.698	142.19
444.919	142.19
445.14	266.19
445.361	195.19
445.582	162.19
445.803	162.19
446.024	168.19
446.245	159.19
446.466	155.19
446.687	149.19
446.908	151.19
447.129	153.19
447.35	152.19
447.571	144.19
447.792	145.19
448.013	138.19
448.234	152.19
448.455	129.19
448.675	137.19
448.896	140.19
449.117	132.19
449.338	157.19
449.559	132.19
449.779	133.19
450	122.19
450.221	138.19
450.442	143.19
450.662	137.19
450.883	131.19
451.104	129.19
451.324	141.19
451.545	120.19
451.766	125.19
451.986	122.19
452.207	119.19
452.428	124.19
452.648	108.19
452.869	124.19
453.089	113.19
453.31	111.19
453.53	105.19
453.751	114.19
453.971	99.19
454.192	99.19
454.412	98.19
454.633	106.19
454.853	112.19
455.073	119.19
455.294	116.19
455.514	113.19
455.734	132.19
455.955	111.19
456.175	111.19
456.395	121.19
456.616	104.19
456.836	99.19
457.056	99.19
457.276	109.19
457.497	104.19
457.717	109.19
457.937	96.19
458.157	114.19
458.377	94.19
458.598	102.19
458.818	98.19
459.038	82.19
459.258	86.19
459.478	101.19
459.698	106.19
459.918	82.19
460.138	104.19
460.358	112.19
460.578	114.19
460.798	104.19
461.018	124.19
461.238	114.19
461.458	123.19
461.678	97.19
461.898	94.19
462.118	104.19
462.338	110.19
462.558	119.19
462.777	124.19
462.997	99.19
463.217	101.19
463.437	116.19
463.657	108.19
463.876	106.19
464.096	120.19
464.316	113.19
464.536	97.19
464.755	127.19
464.975	102.19
465.195	99.19
465.414	109.19
465.634	106.19
465.854	124.19
466.073	134.19
466.293	110.19
466.512	121.19
466.732	111.19
466.951	130.19
467.171	134.19
467.391	122.19
467.61	140.19
467.829	126.19
468.049	136.19
468.268	141.19
468.488	137.19
468.707	128.19
468.927	137.19
469.146	149.19
469.365	134.19
469.585	138.19
469.804	134.19
470.023	134.19
470.243	136.19
470.462	128.19
470.681	141.19
470.901	145.19
471.12	122.19
471.339	140.19
471.558	136.19
471.777	146.19
471.997	132.19
472.216	126.19
472.435	129.19
472.654	113.19
472.873	113.19
473.092	107.19
473.311	116.19
473.53	133.19
473.749	126.19
473.968	133.19
474.187	124.19
474.406	135.19
474.625	136.19
474.844	131.19
475.063	125.19
475.282	133.19
475.501	121.19
475.72	128.19
475.939	122.19
476.158	125.19
476.377	134.19
476.596	121.19
476.814	108.19
477.033	105.19
477.252	116.19
477.471	132.19
477.69	131.19
477.908	134.19
478.127	128.19
478.346	125.19
478.564	122.19
478.783	139.19
479.002	124.19
479.22	136.19
479.439	130.19
479.658	130.19
479.876	111.19
480.095	108.19
480.313	127.19
480.532	113.19
480.751	102.19
480.969	100.19
481.188	84.19
481.406	94.19
481.624	86.19
481.843	92.19
482.061	94.19
482.28	102.19
482.498	105.19
482.717	109.19
482.935	120.19
483.153	123.19
483.372	138.19
483.59	157.19
483.808	144.19
484.027	134.19
484.245	132.19
484.463	146.19
484.681	138.19
484.9	134.19
485.118	125.19
485.336	120.19
485.554	114.19
485.772	96.19
485.99	105.19
486.209	104.19
486.427	101.19
486.645	124.19
486.863	136.19
487.081	136.19
487.299	138.19
487.517	120.19
487.735	152.19
487.953	194.19
488.171	197.19
488.389	183.19
488.607	188.19
488.825	127.19
489.043	134.19
489.261	124.19
489.479	140.19
489.696	135.19
489.914	132.19
490.132	128.19
490.35	155.19
490.568	153.19
490.786	168.19
491.003	163.19
491.221	182.19
491.439	216.19
491.657	180.19
491.874	214.19
492.092	210.19
492.31	227.19
492.527	240.19
492.745	209.19
492.963	182.19
493.18	178.19
493.398	184.19
493.615	158.19
493.833	182.19
494.05	165.19
494.268	169.19
494.485	168.19
494.703	176.19
494.92	160.19
495.138	169.19
495.355	150.19
495.573	173.19
495.79	172.19
496.008	185.19
496.225	185.19
496.442	174.19
496.66	149.19
496.877	160.19
497.094	173.19
497.312	169.19
497.529	156.19
497.746	146.19
497.963	135.19
498.181	134.19
498.398	125.19
498.615	127.19
498.832	119.19
499.049	109.19
499.267	125.19
499.484	132.19
499.701	145.19
499.918	138.19
500.135	141.19
500.352	139.19
500.569	132.19
500.786	141.19
501.003	144.19
501.22	133.19
501.437	140.19
501.654	122.19
501.871	140.19
502.088	118.19
502.305	140.19
502.522	141.19
502.739	122.19
502.956	124.19
503.172	125.19
503.389	116.19
503.606	122.19
503.823	114.19
504.04	122.19
504.256	126.19
504.473	123.19
504.69	129.19
504.907	128.19
505.123	111.19
505.34	128.19
505.557	116.19
505.773	125.19
505.99	116.19
506.207	123.19
506.423	117.19
506.64	124.19
506.856	111.19
507.073	120.19
507.289	121.19
507.506	129.19
507.722	120.19
507.939	112.19
508.155	105.19
508.372	113.19
508.588	109.19
508.805	121.19
509.021	118.19
509.238	118.19
509.454	97.19
509.67	110.19
509.887	100.19
510.103	99.19
510.319	81.19
510.536	90.19
510.752	84.19
510.968	82.19
511.184	85.19
511.401	78.19
511.617	95.19
511.833	77.19
