Data from Location2.07152019.Energy5.Lamp.07192019.3%Agarose_HRD10591_14-57-41-359.txt Node
Date: Fri Jul 19 14:57:41 EDT 2019
User: cochatt
Spectrometer: HR+D1059
Trigger mode: 1
Integration Time (sec): 1.000000E-1
Scans to average: 1
Electric dark correction enabled: true
Nonlinearity correction enabled: false
Boxcar width: 0
XAxis mode: Wavelengths
Number of Pixels in Spectrum: 2048
>>>>>Begin Spectral Data<<<<<
223.165	-13.25
223.4	-13.25
223.635	-13.25
223.869	-21.25
224.104	-19.25
224.338	-6.25
224.573	-1.25
224.808	-17.25
225.042	-17.25
225.277	-3.25
225.511	-15.25
225.746	-7.25
225.98	15.75
226.215	12.75
226.449	17.75
226.683	21.75
226.918	21.75
227.152	31.75
227.387	19.75
227.621	40.75
227.856	28.75
228.09	19.75
228.324	46.75
228.559	51.75
228.793	56.75
229.027	58.75
229.262	71.75
229.496	80.75
229.73	56.75
229.964	66.75
230.199	64.75
230.433	81.75
230.667	69.75
230.901	71.75
231.136	72.75
231.37	81.75
231.604	82.75
231.838	69.75
232.072	84.75
232.306	59.75
232.541	87.75
232.775	84.75
233.009	70.75
233.243	85.75
233.477	80.75
233.711	79.75
233.945	83.75
234.179	74.75
234.413	72.75
234.647	72.75
234.881	75.75
235.115	54.75
235.349	84.75
235.583	66.75
235.817	81.75
236.051	80.75
236.285	58.75
236.519	75.75
236.753	74.75
236.987	78.75
237.221	68.75
237.455	70.75
237.689	73.75
237.922	73.75
238.156	62.75
238.39	70.75
238.624	70.75
238.858	76.75
239.091	70.75
239.325	87.75
239.559	74.75
239.793	80.75
240.027	84.75
240.26	69.75
240.494	58.75
240.728	92.75
240.961	73.75
241.195	80.75
241.429	81.75
241.662	81.75
241.896	77.75
242.13	69.75
242.363	79.75
242.597	72.75
242.83	72.75
243.064	58.75
243.298	67.75
243.531	68.75
243.765	64.75
243.998	62.75
244.232	74.75
244.465	81.75
244.699	66.75
244.932	74.75
245.166	72.75
245.399	66.75
245.633	60.75
245.866	71.75
246.099	79.75
246.333	71.75
246.566	80.75
246.8	63.75
247.033	82.75
247.266	73.75
247.5	54.75
247.733	71.75
247.966	60.75
248.2	74.75
248.433	67.75
248.666	75.75
248.899	82.75
249.133	70.75
249.366	87.75
249.599	87.75
249.832	67.75
250.066	75.75
250.299	82.75
250.532	69.75
250.765	76.75
250.998	79.75
251.231	62.75
251.465	73.75
251.698	82.75
251.931	65.75
252.164	58.75
252.397	67.75
252.63	62.75
252.863	74.75
253.096	76.75
253.329	80.75
253.562	76.75
253.795	78.75
254.028	73.75
254.261	78.75
254.494	74.75
254.727	95.75
254.96	64.75
255.193	78.75
255.426	71.75
255.659	63.75
255.892	70.75
256.124	70.75
256.357	69.75
256.59	66.75
256.823	73.75
257.056	78.75
257.289	79.75
257.521	72.75
257.754	69.75
257.987	74.75
258.22	77.75
258.452	74.75
258.685	76.75
258.918	87.75
259.151	84.75
259.383	73.75
259.616	79.75
259.849	73.75
260.081	87.75
260.314	83.75
260.547	76.75
260.779	83.75
261.012	81.75
261.244	72.75
261.477	83.75
261.71	89.75
261.942	69.75
262.175	67.75
262.407	79.75
262.64	72.75
262.872	92.75
263.105	90.75
263.337	73.75
263.57	68.75
263.802	79.75
264.035	77.75
264.267	69.75
264.499	65.75
264.732	78.75
264.964	69.75
265.197	82.75
265.429	64.75
265.661	77.75
265.894	67.75
266.126	65.75
266.358	92.75
266.591	76.75
266.823	80.75
267.055	77.75
267.287	63.75
267.52	77.75
267.752	81.75
267.984	86.75
268.216	78.75
268.448	78.75
268.681	81.75
268.913	86.75
269.145	100.75
269.377	88.75
269.609	80.75
269.841	68.75
270.073	81.75
270.306	88.75
270.538	85.75
270.77	89.75
271.002	81.75
271.234	75.75
271.466	78.75
271.698	90.75
271.93	62.75
272.162	75.75
272.394	75.75
272.626	76.75
272.858	84.75
273.09	72.75
273.322	70.75
273.553	69.75
273.785	85.75
274.017	83.75
274.249	80.75
274.481	70.75
274.713	79.75
274.945	91.75
275.176	78.75
275.408	92.75
275.64	78.75
275.872	60.75
276.104	81.75
276.335	73.75
276.567	56.75
276.799	81.75
277.031	86.75
277.262	76.75
277.494	82.75
277.726	83.75
277.957	77.75
278.189	79.75
278.421	74.75
278.652	68.75
278.884	81.75
279.115	73.75
279.347	95.75
279.579	71.75
279.81	75.75
280.042	78.75
280.273	78.75
280.505	56.75
280.736	59.75
280.968	78.75
281.199	78.75
281.431	69.75
281.662	67.75
281.894	78.75
282.125	82.75
282.356	87.75
282.588	75.75
282.819	80.75
283.051	81.75
283.282	82.75
283.513	78.75
283.745	68.75
283.976	74.75
284.207	86.75
284.439	72.75
284.67	75.75
284.901	78.75
285.132	77.75
285.364	67.75
285.595	88.75
285.826	64.75
286.057	84.75
286.288	91.75
286.52	80.75
286.751	84.75
286.982	71.75
287.213	86.75
287.444	72.75
287.675	76.75
287.906	83.75
288.138	90.75
288.369	84.75
288.6	84.75
288.831	68.75
289.062	83.75
289.293	78.75
289.524	68.75
289.755	62.75
289.986	88.75
290.217	78.75
290.448	71.75
290.679	83.75
290.91	91.75
291.141	67.75
291.371	76.75
291.602	80.75
291.833	74.75
292.064	69.75
292.295	72.75
292.526	63.75
292.757	82.75
292.987	79.75
293.218	75.75
293.449	67.75
293.68	67.75
293.91	82.75
294.141	68.75
294.372	76.75
294.603	80.75
294.833	79.75
295.064	92.75
295.295	74.75
295.525	82.75
295.756	85.75
295.987	94.75
296.217	72.75
296.448	77.75
296.679	79.75
296.909	83.75
297.14	83.75
297.37	90.75
297.601	84.75
297.831	86.75
298.062	72.75
298.292	68.75
298.523	78.75
298.753	76.75
298.984	70.75
299.214	80.75
299.445	72.75
299.675	71.75
299.905	75.75
300.136	80.75
300.366	72.75
300.597	76.75
300.827	67.75
301.057	81.75
301.288	88.75
301.518	83.75
301.748	80.75
301.979	90.75
302.209	83.75
302.439	79.75
302.669	68.75
302.9	82.75
303.13	87.75
303.36	76.75
303.59	79.75
303.82	92.75
304.051	88.75
304.281	80.75
304.511	71.75
304.741	92.75
304.971	81.75
305.201	82.75
305.431	84.75
305.661	62.75
305.891	88.75
306.121	83.75
306.352	77.75
306.582	76.75
306.812	76.75
307.042	70.75
307.272	76.75
307.502	55.75
307.731	85.75
307.961	80.75
308.191	83.75
308.421	72.75
308.651	82.75
308.881	88.75
309.111	79.75
309.341	71.75
309.571	78.75
309.8	98.75
310.03	82.75
310.26	80.75
310.49	71.75
310.72	82.75
310.949	83.75
311.179	74.75
311.409	78.75
311.639	80.75
311.868	88.75
312.098	87.75
312.328	79.75
312.557	85.75
312.787	72.75
313.017	90.75
313.246	76.75
313.476	80.75
313.706	78.75
313.935	84.75
314.165	81.75
314.394	84.75
314.624	74.75
314.853	88.75
315.083	81.75
315.312	84.75
315.542	87.75
315.771	84.75
316.001	74.75
316.23	70.75
316.46	83.75
316.689	85.75
316.919	81.75
317.148	77.75
317.377	93.75
317.607	86.75
317.836	85.75
318.065	74.75
318.295	74.75
318.524	82.75
318.753	80.75
318.983	84.75
319.212	87.75
319.441	84.75
319.67	81.75
319.9	78.75
320.129	65.75
320.358	86.75
320.587	66.75
320.816	85.75
321.046	80.75
321.275	68.75
321.504	80.75
321.733	84.75
321.962	67.75
322.191	90.75
322.42	84.75
322.649	84.75
322.878	83.75
323.108	84.75
323.337	90.75
323.566	75.75
323.795	79.75
324.024	82.75
324.253	76.75
324.482	61.75
324.71	79.75
324.939	69.75
325.168	82.75
325.397	79.75
325.626	71.75
325.855	74.75
326.084	75.75
326.313	78.75
326.542	90.75
326.77	78.75
326.999	100.75
327.228	79.75
327.457	74.75
327.686	80.75
327.914	63.75
328.143	86.75
328.372	76.75
328.6	81.75
328.829	88.75
329.058	87.75
329.287	71.75
329.515	69.75
329.744	82.75
329.972	74.75
330.201	64.75
330.43	75.75
330.658	76.75
330.887	74.75
331.115	74.75
331.344	84.75
331.572	74.75
331.801	85.75
332.03	88.75
332.258	84.75
332.486	72.75
332.715	78.75
332.943	70.75
333.172	78.75
333.4	86.75
333.629	78.75
333.857	78.75
334.085	65.75
334.314	85.75
334.542	80.75
334.771	80.75
334.999	82.75
335.227	70.75
335.455	81.75
335.684	86.75
335.912	77.75
336.14	86.75
336.369	79.75
336.597	86.75
336.825	72.75
337.053	74.75
337.281	72.75
337.51	80.75
337.738	74.75
337.966	77.75
338.194	87.75
338.422	78.75
338.65	82.75
338.878	93.75
339.106	70.75
339.334	70.75
339.562	77.75
339.79	97.75
340.018	78.75
340.246	84.75
340.474	82.75
340.702	73.75
340.93	85.75
341.158	86.75
341.386	82.75
341.614	66.75
341.842	85.75
342.07	69.75
342.298	84.75
342.526	86.75
342.754	79.75
342.981	76.75
343.209	77.75
343.437	80.75
343.665	71.75
343.893	89.75
344.12	90.75
344.348	87.75
344.576	85.75
344.804	75.75
345.031	83.75
345.259	73.75
345.487	76.75
345.714	62.75
345.942	74.75
346.17	79.75
346.397	63.75
346.625	64.75
346.853	70.75
347.08	76.75
347.308	101.75
347.535	81.75
347.763	86.75
347.99	79.75
348.218	87.75
348.445	69.75
348.673	91.75
348.9	69.75
349.128	73.75
349.355	82.75
349.583	76.75
349.81	71.75
350.037	81.75
350.265	86.75
350.492	82.75
350.72	77.75
350.947	82.75
351.174	85.75
351.402	82.75
351.629	87.75
351.856	81.75
352.083	70.75
352.311	91.75
352.538	85.75
352.765	88.75
352.992	77.75
353.22	62.75
353.447	79.75
353.674	76.75
353.901	82.75
354.128	70.75
354.355	70.75
354.583	72.75
354.81	78.75
355.037	85.75
355.264	79.75
355.491	86.75
355.718	75.75
355.945	79.75
356.172	82.75
356.399	67.75
356.626	64.75
356.853	69.75
357.08	77.75
357.307	80.75
357.534	66.75
357.761	80.75
357.988	89.75
358.215	72.75
358.441	83.75
358.668	96.75
358.895	76.75
359.122	80.75
359.349	79.75
359.576	79.75
359.802	76.75
360.029	85.75
360.256	74.75
360.483	71.75
360.709	84.75
360.936	90.75
361.163	81.75
361.39	76.75
361.616	85.75
361.843	77.75
362.07	63.75
362.296	78.75
362.523	66.75
362.749	60.75
362.976	77.75
363.203	89.75
363.429	80.75
363.656	91.75
363.882	75.75
364.109	83.75
364.335	82.75
364.562	74.75
364.788	83.75
365.015	68.75
365.241	73.75
365.468	68.75
365.694	83.75
365.92	88.75
366.147	76.75
366.373	70.75
366.599	62.75
366.826	75.75
367.052	90.75
367.278	75.75
367.505	87.75
367.731	82.75
367.957	90.75
368.184	79.75
368.41	85.75
368.636	99.75
368.862	91.75
369.089	84.75
369.315	79.75
369.541	88.75
369.767	85.75
369.993	78.75
370.219	85.75
370.445	76.75
370.672	82.75
370.898	98.75
371.124	68.75
371.35	87.75
371.576	70.75
371.802	86.75
372.028	88.75
372.254	90.75
372.48	83.75
372.706	79.75
372.932	89.75
373.158	77.75
373.384	100.75
373.61	94.75
373.835	91.75
374.061	92.75
374.287	88.75
374.513	80.75
374.739	92.75
374.965	75.75
375.191	99.75
375.416	78.75
375.642	77.75
375.868	88.75
376.094	90.75
376.319	91.75
376.545	82.75
376.771	97.75
376.997	103.75
377.222	92.75
377.448	91.75
377.674	86.75
377.899	81.75
378.125	98.75
378.35	88.75
378.576	91.75
378.802	83.75
379.027	85.75
379.253	77.75
379.478	88.75
379.704	88.75
379.929	94.75
380.155	86.75
380.38	85.75
380.606	79.75
380.831	99.75
381.057	90.75
381.282	91.75
381.507	75.75
381.733	82.75
381.958	86.75
382.184	77.75
382.409	92.75
382.634	79.75
382.86	83.75
383.085	93.75
383.31	102.75
383.535	98.75
383.761	88.75
383.986	88.75
384.211	94.75
384.436	94.75
384.662	86.75
384.887	89.75
385.112	91.75
385.337	94.75
385.562	78.75
385.787	99.75
386.013	90.75
386.238	101.75
386.463	109.75
386.688	76.75
386.913	83.75
387.138	85.75
387.363	96.75
387.588	100.75
387.813	86.75
388.038	101.75
388.263	83.75
388.488	85.75
388.713	88.75
388.938	86.75
389.163	82.75
389.387	95.75
389.612	79.75
389.837	90.75
390.062	90.75
390.287	95.75
390.512	88.75
390.736	94.75
390.961	83.75
391.186	93.75
391.411	99.75
391.636	110.75
391.86	97.75
392.085	100.75
392.31	105.75
392.534	89.75
392.759	106.75
392.984	106.75
393.208	93.75
393.433	84.75
393.658	90.75
393.882	90.75
394.107	95.75
394.331	99.75
394.556	102.75
394.78	97.75
395.005	108.75
395.229	101.75
395.454	94.75
395.678	97.75
395.903	97.75
396.127	90.75
396.352	106.75
396.576	110.75
396.801	87.75
397.025	103.75
397.249	92.75
397.474	84.75
397.698	106.75
397.922	114.75
398.147	116.75
398.371	112.75
398.595	103.75
398.82	112.75
399.044	106.75
399.268	98.75
399.492	111.75
399.717	98.75
399.941	103.75
400.165	102.75
400.389	110.75
400.613	122.75
400.837	103.75
401.062	109.75
401.286	108.75
401.51	103.75
401.734	106.75
401.958	97.75
402.182	96.75
402.406	115.75
402.63	106.75
402.854	125.75
403.078	117.75
403.302	98.75
403.526	106.75
403.75	100.75
403.974	96.75
404.198	125.75
404.422	111.75
404.645	113.75
404.869	98.75
405.093	108.75
405.317	103.75
405.541	118.75
405.765	114.75
405.988	112.75
406.212	103.75
406.436	104.75
406.66	113.75
406.883	120.75
407.107	107.75
407.331	115.75
407.555	103.75
407.778	108.75
408.002	113.75
408.226	115.75
408.449	118.75
408.673	112.75
408.896	112.75
409.12	106.75
409.344	108.75
409.567	108.75
409.791	106.75
410.014	94.75
410.238	100.75
410.461	100.75
410.685	129.75
410.908	114.75
411.132	104.75
411.355	118.75
411.578	97.75
411.802	97.75
412.025	128.75
412.249	109.75
412.472	113.75
412.695	106.75
412.919	100.75
413.142	112.75
413.365	122.75
413.589	132.75
413.812	133.75
414.035	124.75
414.258	113.75
414.482	123.75
414.705	116.75
414.928	100.75
415.151	114.75
415.374	112.75
415.597	116.75
415.821	122.75
416.044	117.75
416.267	128.75
416.49	125.75
416.713	117.75
416.936	131.75
417.159	118.75
417.382	110.75
417.605	110.75
417.828	110.75
418.051	116.75
418.274	127.75
418.497	118.75
418.72	121.75
418.943	126.75
419.166	139.75
419.389	144.75
419.611	125.75
419.834	136.75
420.057	107.75
420.28	129.75
420.503	130.75
420.726	124.75
420.948	116.75
421.171	115.75
421.394	125.75
421.617	121.75
421.839	133.75
422.062	135.75
422.285	123.75
422.507	123.75
422.73	115.75
422.953	125.75
423.175	137.75
423.398	112.75
423.621	132.75
423.843	120.75
424.066	131.75
424.288	128.75
424.511	123.75
424.733	138.75
424.956	137.75
425.178	133.75
425.401	119.75
425.623	116.75
425.846	126.75
426.068	131.75
426.291	120.75
426.513	137.75
426.735	122.75
426.958	126.75
427.18	119.75
427.402	130.75
427.625	130.75
427.847	136.75
428.069	115.75
428.292	133.75
428.514	120.75
428.736	122.75
428.958	140.75
429.181	119.75
429.403	142.75
429.625	115.75
429.847	136.75
430.069	135.75
430.292	118.75
430.514	129.75
430.736	124.75
430.958	132.75
431.18	113.75
431.402	124.75
431.624	119.75
431.846	104.75
432.068	99.75
432.29	110.75
432.512	101.75
432.734	122.75
432.956	119.75
433.178	140.75
433.4	135.75
433.622	128.75
433.844	118.75
434.066	125.75
434.287	95.75
434.509	88.75
434.731	86.75
434.953	96.75
435.175	112.75
435.397	126.75
435.618	115.75
435.84	113.75
436.062	116.75
436.284	129.75
436.505	128.75
436.727	114.75
436.949	130.75
437.17	118.75
437.392	128.75
437.614	132.75
437.835	100.75
438.057	96.75
438.278	118.75
438.5	118.75
438.721	126.75
438.943	141.75
439.165	134.75
439.386	140.75
439.608	142.75
439.829	155.75
440.05	140.75
440.272	124.75
440.493	136.75
440.715	130.75
440.936	149.75
441.158	133.75
441.379	123.75
441.6	128.75
441.822	131.75
442.043	148.75
442.264	142.75
442.486	129.75
442.707	132.75
442.928	146.75
443.149	126.75
443.371	132.75
443.592	136.75
443.813	135.75
444.034	131.75
444.255	135.75
444.476	132.75
444.698	142.75
444.919	131.75
445.14	230.75
445.361	188.75
445.582	146.75
445.803	131.75
446.024	140.75
446.245	145.75
446.466	153.75
446.687	166.75
446.908	157.75
447.129	152.75
447.35	154.75
447.571	130.75
447.792	144.75
448.013	142.75
448.234	124.75
448.455	133.75
448.675	137.75
448.896	130.75
449.117	144.75
449.338	151.75
449.559	134.75
449.779	124.75
450	124.75
450.221	126.75
450.442	148.75
450.662	132.75
450.883	132.75
451.104	126.75
451.324	126.75
451.545	128.75
451.766	109.75
451.986	129.75
452.207	132.75
452.428	123.75
452.648	111.75
452.869	122.75
453.089	110.75
453.31	108.75
453.53	108.75
453.751	88.75
453.971	98.75
454.192	108.75
454.412	109.75
454.633	101.75
454.853	103.75
455.073	119.75
455.294	123.75
455.514	124.75
455.734	108.75
455.955	118.75
456.175	118.75
456.395	99.75
456.616	95.75
456.836	115.75
457.056	110.75
457.276	91.75
457.497	115.75
457.717	98.75
457.937	108.75
458.157	106.75
458.377	94.75
458.598	91.75
458.818	94.75
459.038	82.75
459.258	91.75
459.478	77.75
459.698	90.75
459.918	99.75
460.138	115.75
460.358	110.75
460.578	104.75
460.798	98.75
461.018	103.75
461.238	111.75
461.458	112.75
461.678	115.75
461.898	118.75
462.118	104.75
462.338	119.75
462.558	122.75
462.777	104.75
462.997	111.75
463.217	108.75
463.437	110.75
463.657	109.75
463.876	113.75
464.096	94.75
464.316	103.75
464.536	95.75
464.755	114.75
464.975	124.75
465.195	110.75
465.414	126.75
465.634	124.75
465.854	113.75
466.073	113.75
466.293	111.75
466.512	129.75
466.732	122.75
466.951	129.75
467.171	132.75
467.391	117.75
467.61	120.75
467.829	132.75
468.049	135.75
468.268	126.75
468.488	130.75
468.707	126.75
468.927	137.75
469.146	127.75
469.365	132.75
469.585	136.75
469.804	146.75
470.023	137.75
470.243	138.75
470.462	152.75
470.681	146.75
470.901	122.75
471.12	131.75
471.339	133.75
471.558	128.75
471.777	142.75
471.997	130.75
472.216	135.75
472.435	120.75
472.654	112.75
472.873	99.75
473.092	108.75
473.311	116.75
473.53	119.75
473.749	131.75
473.968	126.75
474.187	110.75
474.406	128.75
474.625	125.75
474.844	132.75
475.063	139.75
475.282	125.75
475.501	124.75
475.72	118.75
475.939	114.75
476.158	135.75
476.377	121.75
476.596	126.75
476.814	113.75
477.033	101.75
477.252	101.75
477.471	125.75
477.69	116.75
477.908	134.75
478.127	136.75
478.346	137.75
478.564	125.75
478.783	135.75
479.002	128.75
479.22	147.75
479.439	122.75
479.658	122.75
479.876	102.75
480.095	102.75
480.313	110.75
480.532	127.75
480.751	100.75
480.969	89.75
481.188	90.75
481.406	91.75
481.624	86.75
481.843	95.75
482.061	90.75
482.28	106.75
482.498	117.75
482.717	109.75
482.935	110.75
483.153	151.75
483.372	147.75
483.59	141.75
483.808	150.75
484.027	140.75
484.245	124.75
484.463	136.75
484.681	154.75
484.9	130.75
485.118	129.75
485.336	123.75
485.554	120.75
485.772	97.75
485.99	82.75
486.209	95.75
486.427	110.75
486.645	115.75
486.863	136.75
487.081	136.75
487.299	123.75
487.517	127.75
487.735	144.75
487.953	178.75
488.171	184.75
488.389	171.75
488.607	152.75
488.825	138.75
489.043	136.75
489.261	127.75
489.479	147.75
489.696	139.75
489.914	125.75
490.132	147.75
490.35	136.75
490.568	149.75
490.786	175.75
491.003	176.75
491.221	192.75
491.439	182.75
491.657	185.75
491.874	188.75
492.092	214.75
492.31	214.75
492.527	223.75
492.745	193.75
492.963	195.75
493.18	185.75
493.398	177.75
493.615	168.75
493.833	172.75
494.05	172.75
494.268	162.75
494.485	174.75
494.703	201.75
494.92	165.75
495.138	168.75
495.355	178.75
495.573	170.75
495.79	160.75
496.008	158.75
496.225	170.75
496.442	163.75
496.66	151.75
496.877	176.75
497.094	152.75
497.312	144.75
497.529	141.75
497.746	147.75
497.963	146.75
498.181	144.75
498.398	130.75
498.615	128.75
498.832	112.75
499.049	119.75
499.267	125.75
499.484	136.75
499.701	138.75
499.918	127.75
500.135	133.75
500.352	136.75
500.569	161.75
500.786	126.75
501.003	129.75
501.22	146.75
501.437	133.75
501.654	122.75
501.871	121.75
502.088	126.75
502.305	118.75
502.522	119.75
502.739	127.75
502.956	133.75
503.172	114.75
503.389	108.75
503.606	118.75
503.823	124.75
504.04	126.75
504.256	122.75
504.473	119.75
504.69	124.75
504.907	126.75
505.123	113.75
505.34	122.75
505.557	118.75
505.773	118.75
505.99	116.75
506.207	122.75
506.423	110.75
506.64	103.75
506.856	128.75
507.073	135.75
507.289	118.75
507.506	127.75
507.722	110.75
507.939	108.75
508.155	117.75
508.372	98.75
508.588	108.75
508.805	106.75
509.021	99.75
509.238	108.75
509.454	101.75
509.67	85.75
509.887	98.75
510.103	90.75
510.319	83.75
510.536	84.75
510.752	89.75
510.968	79.75
511.184	80.75
511.401	83.75
511.617	92.75
511.833	95.75
512.049	89.75
512.265	70.75
512.481	100.75
