Data from Location2.07152019.Energy5.Lamp.07192019.3%Agarose_HRD10591_14-57-13-359.txt Node
Date: Fri Jul 19 14:57:13 EDT 2019
User: cochatt
Spectrometer: HR+D1059
Trigger mode: 1
Integration Time (sec): 1.000000E-1
Scans to average: 1
Electric dark correction enabled: true
Nonlinearity correction enabled: false
Boxcar width: 0
XAxis mode: Wavelengths
Number of Pixels in Spectrum: 2048
>>>>>Begin Spectral Data<<<<<
223.165	-28.81
223.4	-28.81
223.635	-28.81
223.869	-26.81
224.104	-16.81
224.338	-32.81
224.573	-10.81
224.808	-19.81
225.042	-13.81
225.277	-2.81
225.511	11.19
225.746	13.19
225.98	21.19
226.215	20.19
226.449	17.19
226.683	17.19
226.918	25.19
227.152	27.19
227.387	33.19
227.621	51.19
227.856	48.19
228.09	45.19
228.324	64.19
228.559	52.19
228.793	61.19
229.027	78.19
229.262	74.19
229.496	57.19
229.73	74.19
229.964	84.19
230.199	80.19
230.433	72.19
230.667	87.19
230.901	81.19
231.136	77.19
231.37	79.19
231.604	75.19
231.838	83.19
232.072	71.19
232.306	86.19
232.541	84.19
232.775	93.19
233.009	80.19
233.243	76.19
233.477	86.19
233.711	80.19
233.945	91.19
234.179	85.19
234.413	101.19
234.647	98.19
234.881	105.19
235.115	91.19
235.349	95.19
235.583	86.19
235.817	82.19
236.051	80.19
236.285	80.19
236.519	79.19
236.753	85.19
236.987	83.19
237.221	86.19
237.455	86.19
237.689	78.19
237.922	78.19
238.156	85.19
238.39	68.19
238.624	72.19
238.858	85.19
239.091	81.19
239.325	62.19
239.559	83.19
239.793	69.19
240.027	84.19
240.26	82.19
240.494	70.19
240.728	63.19
240.961	80.19
241.195	74.19
241.429	90.19
241.662	72.19
241.896	103.19
242.13	94.19
242.363	70.19
242.597	73.19
242.83	78.19
243.064	87.19
243.298	90.19
243.531	76.19
243.765	81.19
243.998	74.19
244.232	75.19
244.465	70.19
244.699	82.19
244.932	80.19
245.166	83.19
245.399	80.19
245.633	84.19
245.866	85.19
246.099	84.19
246.333	79.19
246.566	75.19
246.8	91.19
247.033	91.19
247.266	91.19
247.5	83.19
247.733	75.19
247.966	86.19
248.2	73.19
248.433	76.19
248.666	75.19
248.899	79.19
249.133	74.19
249.366	85.19
249.599	79.19
249.832	80.19
250.066	88.19
250.299	79.19
250.532	85.19
250.765	89.19
250.998	81.19
251.231	85.19
251.465	96.19
251.698	68.19
251.931	86.19
252.164	82.19
252.397	78.19
252.63	82.19
252.863	78.19
253.096	69.19
253.329	88.19
253.562	82.19
253.795	91.19
254.028	90.19
254.261	85.19
254.494	98.19
254.727	86.19
254.96	85.19
255.193	102.19
255.426	86.19
255.659	80.19
255.892	103.19
256.124	87.19
256.357	93.19
256.59	91.19
256.823	79.19
257.056	94.19
257.289	86.19
257.521	91.19
257.754	83.19
257.987	88.19
258.22	85.19
258.452	81.19
258.685	64.19
258.918	81.19
259.151	87.19
259.383	79.19
259.616	91.19
259.849	91.19
260.081	92.19
260.314	80.19
260.547	89.19
260.779	87.19
261.012	87.19
261.244	84.19
261.477	96.19
261.71	85.19
261.942	93.19
262.175	89.19
262.407	83.19
262.64	71.19
262.872	93.19
263.105	90.19
263.337	86.19
263.57	88.19
263.802	80.19
264.035	84.19
264.267	89.19
264.499	79.19
264.732	84.19
264.964	88.19
265.197	96.19
265.429	80.19
265.661	86.19
265.894	90.19
266.126	95.19
266.358	90.19
266.591	97.19
266.823	90.19
267.055	95.19
267.287	93.19
267.52	83.19
267.752	81.19
267.984	92.19
268.216	94.19
268.448	83.19
268.681	80.19
268.913	87.19
269.145	79.19
269.377	88.19
269.609	85.19
269.841	96.19
270.073	84.19
270.306	92.19
270.538	83.19
270.77	77.19
271.002	89.19
271.234	93.19
271.466	104.19
271.698	93.19
271.93	87.19
272.162	86.19
272.394	99.19
272.626	83.19
272.858	92.19
273.09	84.19
273.322	84.19
273.553	73.19
273.785	82.19
274.017	91.19
274.249	88.19
274.481	93.19
274.713	67.19
274.945	87.19
275.176	77.19
275.408	71.19
275.64	88.19
275.872	95.19
276.104	95.19
276.335	96.19
276.567	84.19
276.799	90.19
277.031	82.19
277.262	85.19
277.494	89.19
277.726	85.19
277.957	93.19
278.189	90.19
278.421	90.19
278.652	88.19
278.884	82.19
279.115	81.19
279.347	82.19
279.579	88.19
279.81	86.19
280.042	88.19
280.273	69.19
280.505	80.19
280.736	83.19
280.968	88.19
281.199	101.19
281.431	91.19
281.662	83.19
281.894	97.19
282.125	87.19
282.356	90.19
282.588	89.19
282.819	103.19
283.051	104.19
283.282	91.19
283.513	100.19
283.745	84.19
283.976	77.19
284.207	94.19
284.439	81.19
284.67	88.19
284.901	94.19
285.132	82.19
285.364	88.19
285.595	83.19
285.826	91.19
286.057	85.19
286.288	96.19
286.52	90.19
286.751	104.19
286.982	83.19
287.213	92.19
287.444	104.19
287.675	91.19
287.906	85.19
288.138	94.19
288.369	93.19
288.6	97.19
288.831	90.19
289.062	106.19
289.293	104.19
289.524	79.19
289.755	75.19
289.986	102.19
290.217	94.19
290.448	101.19
290.679	99.19
290.91	85.19
291.141	91.19
291.371	95.19
291.602	105.19
291.833	81.19
292.064	72.19
292.295	95.19
292.526	86.19
292.757	96.19
292.987	89.19
293.218	79.19
293.449	87.19
293.68	81.19
293.91	90.19
294.141	81.19
294.372	87.19
294.603	78.19
294.833	93.19
295.064	77.19
295.295	89.19
295.525	97.19
295.756	79.19
295.987	87.19
296.217	101.19
296.448	100.19
296.679	83.19
296.909	79.19
297.14	82.19
297.37	88.19
297.601	105.19
297.831	78.19
298.062	76.19
298.292	88.19
298.523	104.19
298.753	92.19
298.984	96.19
299.214	93.19
299.445	100.19
299.675	87.19
299.905	89.19
300.136	89.19
300.366	89.19
300.597	89.19
300.827	86.19
301.057	78.19
301.288	103.19
301.518	93.19
301.748	99.19
301.979	100.19
302.209	78.19
302.439	75.19
302.669	91.19
302.9	83.19
303.13	81.19
303.36	99.19
303.59	84.19
303.82	93.19
304.051	68.19
304.281	95.19
304.511	84.19
304.741	81.19
304.971	89.19
305.201	96.19
305.431	100.19
305.661	93.19
305.891	89.19
306.121	101.19
306.352	86.19
306.582	96.19
306.812	85.19
307.042	87.19
307.272	94.19
307.502	94.19
307.731	84.19
307.961	95.19
308.191	101.19
308.421	102.19
308.651	103.19
308.881	95.19
309.111	84.19
309.341	97.19
309.571	94.19
309.8	71.19
310.03	87.19
310.26	86.19
310.49	83.19
310.72	77.19
310.949	82.19
311.179	103.19
311.409	90.19
311.639	77.19
311.868	91.19
312.098	94.19
312.328	88.19
312.557	87.19
312.787	79.19
313.017	97.19
313.246	91.19
313.476	91.19
313.706	88.19
313.935	87.19
314.165	95.19
314.394	90.19
314.624	101.19
314.853	77.19
315.083	89.19
315.312	101.19
315.542	79.19
315.771	98.19
316.001	85.19
316.23	88.19
316.46	93.19
316.689	102.19
316.919	87.19
317.148	88.19
317.377	75.19
317.607	78.19
317.836	88.19
318.065	84.19
318.295	77.19
318.524	77.19
318.753	90.19
318.983	104.19
319.212	104.19
319.441	99.19
319.67	96.19
319.9	86.19
320.129	102.19
320.358	95.19
320.587	81.19
320.816	76.19
321.046	103.19
321.275	102.19
321.504	83.19
321.733	101.19
321.962	95.19
322.191	87.19
322.42	89.19
322.649	99.19
322.878	84.19
323.108	91.19
323.337	100.19
323.566	104.19
323.795	93.19
324.024	79.19
324.253	88.19
324.482	85.19
324.71	78.19
324.939	91.19
325.168	96.19
325.397	97.19
325.626	78.19
325.855	87.19
326.084	91.19
326.313	84.19
326.542	84.19
326.77	88.19
326.999	96.19
327.228	88.19
327.457	83.19
327.686	82.19
327.914	70.19
328.143	92.19
328.372	78.19
328.6	91.19
328.829	89.19
329.058	96.19
329.287	100.19
329.515	82.19
329.744	81.19
329.972	90.19
330.201	99.19
330.43	94.19
330.658	91.19
330.887	93.19
331.115	96.19
331.344	78.19
331.572	82.19
331.801	94.19
332.03	95.19
332.258	94.19
332.486	86.19
332.715	87.19
332.943	81.19
333.172	76.19
333.4	93.19
333.629	101.19
333.857	86.19
334.085	84.19
334.314	87.19
334.542	95.19
334.771	80.19
334.999	78.19
335.227	75.19
335.455	65.19
335.684	81.19
335.912	92.19
336.14	97.19
336.369	85.19
336.597	77.19
336.825	89.19
337.053	93.19
337.281	92.19
337.51	81.19
337.738	99.19
337.966	77.19
338.194	92.19
338.422	89.19
338.65	84.19
338.878	104.19
339.106	92.19
339.334	91.19
339.562	108.19
339.79	105.19
340.018	88.19
340.246	90.19
340.474	82.19
340.702	88.19
340.93	91.19
341.158	93.19
341.386	96.19
341.614	94.19
341.842	86.19
342.07	78.19
342.298	93.19
342.526	89.19
342.754	92.19
342.981	95.19
343.209	79.19
343.437	85.19
343.665	95.19
343.893	79.19
344.12	101.19
344.348	85.19
344.576	76.19
344.804	85.19
345.031	102.19
345.259	80.19
345.487	101.19
345.714	93.19
345.942	102.19
346.17	91.19
346.397	91.19
346.625	98.19
346.853	91.19
347.08	83.19
347.308	84.19
347.535	85.19
347.763	96.19
347.99	103.19
348.218	92.19
348.445	101.19
348.673	68.19
348.9	87.19
349.128	86.19
349.355	92.19
349.583	84.19
349.81	87.19
350.037	92.19
350.265	96.19
350.492	80.19
350.72	85.19
350.947	97.19
351.174	96.19
351.402	95.19
351.629	85.19
351.856	79.19
352.083	87.19
352.311	99.19
352.538	95.19
352.765	104.19
352.992	86.19
353.22	83.19
353.447	83.19
353.674	79.19
353.901	80.19
354.128	90.19
354.355	81.19
354.583	80.19
354.81	82.19
355.037	82.19
355.264	93.19
355.491	100.19
355.718	83.19
355.945	99.19
356.172	78.19
356.399	86.19
356.626	89.19
356.853	78.19
357.08	86.19
357.307	92.19
357.534	92.19
357.761	98.19
357.988	88.19
358.215	90.19
358.441	93.19
358.668	80.19
358.895	95.19
359.122	84.19
359.349	86.19
359.576	91.19
359.802	84.19
360.029	102.19
360.256	100.19
360.483	81.19
360.709	101.19
360.936	99.19
361.163	87.19
361.39	75.19
361.616	85.19
361.843	81.19
362.07	79.19
362.296	107.19
362.523	92.19
362.749	100.19
362.976	89.19
363.203	103.19
363.429	78.19
363.656	79.19
363.882	100.19
364.109	86.19
364.335	96.19
364.562	79.19
364.788	101.19
365.015	82.19
365.241	79.19
365.468	94.19
365.694	89.19
365.92	81.19
366.147	93.19
366.373	82.19
366.599	95.19
366.826	86.19
367.052	104.19
367.278	99.19
367.505	96.19
367.731	103.19
367.957	99.19
368.184	92.19
368.41	79.19
368.636	98.19
368.862	103.19
369.089	85.19
369.315	87.19
369.541	105.19
369.767	96.19
369.993	100.19
370.219	94.19
370.445	87.19
370.672	90.19
370.898	105.19
371.124	86.19
371.35	99.19
371.576	92.19
371.802	92.19
372.028	93.19
372.254	87.19
372.48	90.19
372.706	95.19
372.932	100.19
373.158	93.19
373.384	100.19
373.61	93.19
373.835	100.19
374.061	91.19
374.287	94.19
374.513	97.19
374.739	92.19
374.965	82.19
375.191	94.19
375.416	90.19
375.642	90.19
375.868	111.19
376.094	96.19
376.319	96.19
376.545	89.19
376.771	93.19
376.997	95.19
377.222	93.19
377.448	95.19
377.674	120.19
377.899	108.19
378.125	99.19
378.35	96.19
378.576	102.19
378.802	96.19
379.027	94.19
379.253	103.19
379.478	99.19
379.704	91.19
379.929	109.19
380.155	104.19
380.38	105.19
380.606	106.19
380.831	95.19
381.057	103.19
381.282	109.19
381.507	100.19
381.733	92.19
381.958	109.19
382.184	90.19
382.409	77.19
382.634	111.19
382.86	111.19
383.085	94.19
383.31	102.19
383.535	110.19
383.761	94.19
383.986	105.19
384.211	96.19
384.436	90.19
384.662	107.19
384.887	92.19
385.112	103.19
385.337	108.19
385.562	95.19
385.787	92.19
386.013	94.19
386.238	101.19
386.463	104.19
386.688	99.19
386.913	101.19
387.138	97.19
387.363	102.19
387.588	108.19
387.813	108.19
388.038	107.19
388.263	108.19
388.488	101.19
388.713	100.19
388.938	96.19
389.163	101.19
389.387	92.19
389.612	92.19
389.837	110.19
390.062	102.19
390.287	105.19
390.512	101.19
390.736	109.19
390.961	106.19
391.186	118.19
391.411	89.19
391.636	105.19
391.86	115.19
392.085	111.19
392.31	98.19
392.534	124.19
392.759	116.19
392.984	123.19
393.208	97.19
393.433	117.19
393.658	111.19
393.882	97.19
394.107	101.19
394.331	102.19
394.556	95.19
394.78	109.19
395.005	118.19
395.229	110.19
395.454	101.19
395.678	127.19
395.903	104.19
396.127	125.19
396.352	103.19
396.576	93.19
396.801	123.19
397.025	109.19
397.249	130.19
397.474	121.19
397.698	112.19
397.922	106.19
398.147	107.19
398.371	110.19
398.595	112.19
398.82	111.19
399.044	106.19
399.268	116.19
399.492	123.19
399.717	111.19
399.941	121.19
400.165	102.19
400.389	119.19
400.613	115.19
400.837	118.19
401.062	116.19
401.286	129.19
401.51	112.19
401.734	97.19
401.958	123.19
402.182	113.19
402.406	116.19
402.63	127.19
402.854	113.19
403.078	107.19
403.302	124.19
403.526	118.19
403.75	104.19
403.974	123.19
404.198	111.19
404.422	117.19
404.645	127.19
404.869	124.19
405.093	124.19
405.317	126.19
405.541	120.19
405.765	120.19
405.988	118.19
406.212	129.19
406.436	128.19
406.66	123.19
406.883	115.19
407.107	123.19
407.331	127.19
407.555	115.19
407.778	121.19
408.002	115.19
408.226	126.19
408.449	119.19
408.673	118.19
408.896	119.19
409.12	120.19
409.344	120.19
409.567	124.19
409.791	127.19
410.014	128.19
410.238	113.19
410.461	126.19
410.685	125.19
410.908	133.19
411.132	128.19
411.355	121.19
411.578	119.19
411.802	123.19
412.025	108.19
412.249	131.19
412.472	125.19
412.695	118.19
412.919	120.19
413.142	127.19
413.365	122.19
413.589	126.19
413.812	125.19
414.035	120.19
414.258	125.19
414.482	111.19
414.705	117.19
414.928	129.19
415.151	126.19
415.374	127.19
415.597	126.19
415.821	127.19
416.044	123.19
416.267	128.19
416.49	121.19
416.713	138.19
416.936	135.19
417.159	120.19
417.382	135.19
417.605	120.19
417.828	141.19
418.051	125.19
418.274	133.19
418.497	139.19
418.72	147.19
418.943	134.19
419.166	143.19
419.389	129.19
419.611	127.19
419.834	128.19
420.057	123.19
420.28	141.19
420.503	140.19
420.726	134.19
420.948	137.19
421.171	131.19
421.394	124.19
421.617	138.19
421.839	149.19
422.062	147.19
422.285	123.19
422.507	137.19
422.73	135.19
422.953	131.19
423.175	135.19
423.398	131.19
423.621	134.19
423.843	140.19
424.066	125.19
424.288	144.19
424.511	123.19
424.733	148.19
424.956	132.19
425.178	132.19
425.401	127.19
425.623	140.19
425.846	135.19
426.068	139.19
426.291	139.19
426.513	141.19
426.735	128.19
426.958	141.19
427.18	131.19
427.402	132.19
427.625	133.19
427.847	117.19
428.069	126.19
428.292	112.19
428.514	122.19
428.736	121.19
428.958	130.19
429.181	136.19
429.403	141.19
429.625	133.19
429.847	135.19
430.069	133.19
430.292	139.19
430.514	127.19
430.736	132.19
430.958	144.19
431.18	125.19
431.402	128.19
431.624	103.19
431.846	111.19
432.068	108.19
432.29	94.19
432.512	107.19
432.734	140.19
432.956	142.19
433.178	148.19
433.4	137.19
433.622	139.19
433.844	136.19
434.066	128.19
434.287	116.19
434.509	101.19
434.731	106.19
434.953	121.19
435.175	126.19
435.397	129.19
435.618	123.19
435.84	117.19
436.062	119.19
436.284	127.19
436.505	138.19
436.727	136.19
436.949	140.19
437.17	112.19
437.392	137.19
437.614	128.19
437.835	110.19
438.057	115.19
438.278	121.19
438.5	117.19
438.721	133.19
438.943	126.19
439.165	120.19
439.386	136.19
439.608	131.19
439.829	145.19
440.05	151.19
440.272	154.19
440.493	131.19
440.715	141.19
440.936	136.19
441.158	157.19
441.379	145.19
441.6	155.19
441.822	155.19
442.043	154.19
442.264	137.19
442.486	128.19
442.707	151.19
442.928	128.19
443.149	145.19
443.371	153.19
443.592	145.19
443.813	149.19
444.034	155.19
444.255	152.19
444.476	150.19
444.698	144.19
444.919	137.19
445.14	269.19
445.361	195.19
445.582	146.19
445.803	139.19
446.024	155.19
446.245	148.19
446.466	153.19
446.687	164.19
446.908	156.19
447.129	154.19
447.35	145.19
447.571	159.19
447.792	148.19
448.013	149.19
448.234	142.19
448.455	153.19
448.675	139.19
448.896	143.19
449.117	140.19
449.338	149.19
449.559	144.19
449.779	144.19
450	147.19
450.221	147.19
450.442	137.19
450.662	150.19
450.883	137.19
451.104	137.19
451.324	124.19
451.545	127.19
451.766	132.19
451.986	127.19
452.207	115.19
452.428	131.19
452.648	131.19
452.869	140.19
453.089	112.19
453.31	103.19
453.53	107.19
453.751	110.19
453.971	103.19
454.192	107.19
454.412	106.19
454.633	116.19
454.853	126.19
455.073	128.19
455.294	123.19
455.514	147.19
455.734	129.19
455.955	128.19
456.175	116.19
456.395	102.19
456.616	119.19
456.836	122.19
457.056	101.19
457.276	99.19
457.497	123.19
457.717	124.19
457.937	107.19
458.157	127.19
458.377	100.19
458.598	114.19
458.818	98.19
459.038	83.19
459.258	105.19
459.478	106.19
459.698	99.19
459.918	99.19
460.138	121.19
460.358	128.19
460.578	136.19
460.798	120.19
461.018	102.19
461.238	131.19
461.458	123.19
461.678	115.19
461.898	110.19
462.118	108.19
462.338	115.19
462.558	121.19
462.777	120.19
462.997	112.19
463.217	117.19
463.437	117.19
463.657	122.19
463.876	108.19
464.096	117.19
464.316	103.19
464.536	129.19
464.755	109.19
464.975	117.19
465.195	126.19
465.414	134.19
465.634	111.19
465.854	123.19
466.073	130.19
466.293	113.19
466.512	125.19
466.732	106.19
466.951	141.19
467.171	137.19
467.391	154.19
467.61	140.19
467.829	136.19
468.049	138.19
468.268	137.19
468.488	139.19
468.707	145.19
468.927	143.19
469.146	143.19
469.365	139.19
469.585	143.19
469.804	133.19
470.023	143.19
470.243	131.19
470.462	131.19
470.681	145.19
470.901	139.19
471.12	153.19
471.339	151.19
471.558	140.19
471.777	172.19
471.997	150.19
472.216	144.19
472.435	126.19
472.654	110.19
472.873	111.19
473.092	111.19
473.311	115.19
473.53	123.19
473.749	124.19
473.968	137.19
474.187	120.19
474.406	121.19
474.625	131.19
474.844	145.19
475.063	135.19
475.282	135.19
475.501	101.19
475.72	128.19
475.939	117.19
476.158	131.19
476.377	136.19
476.596	126.19
476.814	122.19
477.033	112.19
477.252	119.19
477.471	119.19
477.69	127.19
477.908	135.19
478.127	135.19
478.346	130.19
478.564	136.19
478.783	123.19
479.002	133.19
479.22	131.19
479.439	130.19
479.658	124.19
479.876	116.19
480.095	108.19
480.313	123.19
480.532	134.19
480.751	119.19
480.969	109.19
481.188	101.19
481.406	89.19
481.624	87.19
481.843	99.19
482.061	112.19
482.28	113.19
482.498	109.19
482.717	119.19
482.935	133.19
483.153	144.19
483.372	163.19
483.59	146.19
483.808	142.19
484.027	148.19
484.245	133.19
484.463	141.19
484.681	156.19
484.9	153.19
485.118	146.19
485.336	119.19
485.554	106.19
485.772	104.19
485.99	96.19
486.209	128.19
486.427	110.19
486.645	127.19
486.863	128.19
487.081	140.19
487.299	140.19
487.517	150.19
487.735	174.19
487.953	184.19
488.171	188.19
488.389	180.19
488.607	150.19
488.825	149.19
489.043	140.19
489.261	133.19
489.479	144.19
489.696	149.19
489.914	151.19
490.132	139.19
490.35	145.19
490.568	165.19
490.786	170.19
491.003	185.19
491.221	195.19
491.439	183.19
491.657	167.19
491.874	196.19
492.092	217.19
492.31	243.19
492.527	245.19
492.745	230.19
492.963	192.19
493.18	181.19
493.398	191.19
493.615	176.19
493.833	191.19
494.05	182.19
494.268	176.19
494.485	164.19
494.703	154.19
494.92	175.19
495.138	183.19
495.355	194.19
495.573	177.19
495.79	179.19
496.008	175.19
496.225	173.19
496.442	170.19
496.66	189.19
496.877	162.19
497.094	168.19
497.312	165.19
497.529	153.19
497.746	162.19
497.963	145.19
498.181	134.19
498.398	128.19
498.615	126.19
498.832	113.19
499.049	135.19
499.267	137.19
499.484	135.19
499.701	141.19
499.918	149.19
500.135	149.19
500.352	134.19
500.569	136.19
500.786	137.19
501.003	160.19
501.22	154.19
501.437	150.19
501.654	129.19
501.871	147.19
502.088	133.19
502.305	137.19
502.522	131.19
502.739	143.19
502.956	141.19
503.172	124.19
503.389	131.19
503.606	127.19
503.823	119.19
504.04	120.19
504.256	125.19
504.473	123.19
504.69	132.19
504.907	135.19
505.123	142.19
505.34	124.19
505.557	109.19
505.773	130.19
505.99	114.19
506.207	120.19
506.423	142.19
506.64	115.19
506.856	127.19
507.073	115.19
507.289	133.19
507.506	113.19
507.722	125.19
507.939	95.19
508.155	113.19
508.372	111.19
508.588	109.19
508.805	124.19
509.021	117.19
509.238	107.19
509.454	100.19
509.67	101.19
509.887	112.19
510.103	104.19
510.319	100.19
