Data from Location2.07152019.Energy5.Lamp.07192019.3%Agarose_HRD10591_14-58-29-359.txt Node
Date: Fri Jul 19 14:58:29 EDT 2019
User: cochatt
Spectrometer: HR+D1059
Trigger mode: 1
Integration Time (sec): 1.000000E-1
Scans to average: 1
Electric dark correction enabled: true
Nonlinearity correction enabled: false
Boxcar width: 0
XAxis mode: Wavelengths
Number of Pixels in Spectrum: 2048
>>>>>Begin Spectral Data<<<<<
223.165	-10.5
223.4	-10.5
223.635	-10.5
223.869	-8.5
224.104	-28.5
224.338	-5.5
224.573	-15.5
224.808	-19.5
225.042	-20.5
225.277	-10.5
225.511	-0.5
225.746	0.5
225.98	2.5
226.215	18.5
226.449	24.5
226.683	15.5
226.918	23.5
227.152	34.5
227.387	36.5
227.621	52.5
227.856	30.5
228.09	49.5
228.324	59.5
228.559	54.5
228.793	60.5
229.027	62.5
229.262	55.5
229.496	78.5
229.73	66.5
229.964	56.5
230.199	70.5
230.433	76.5
230.667	83.5
230.901	81.5
231.136	80.5
231.37	76.5
231.604	88.5
231.838	72.5
232.072	88.5
232.306	99.5
232.541	91.5
232.775	82.5
233.009	98.5
233.243	87.5
233.477	76.5
233.711	87.5
233.945	94.5
234.179	66.5
234.413	90.5
234.647	88.5
234.881	75.5
235.115	75.5
235.349	70.5
235.583	76.5
235.817	83.5
236.051	73.5
236.285	79.5
236.519	83.5
236.753	70.5
236.987	67.5
237.221	76.5
237.455	76.5
237.689	87.5
237.922	78.5
238.156	73.5
238.39	84.5
238.624	65.5
238.858	76.5
239.091	72.5
239.325	59.5
239.559	69.5
239.793	89.5
240.027	84.5
240.26	85.5
240.494	75.5
240.728	90.5
240.961	77.5
241.195	73.5
241.429	87.5
241.662	72.5
241.896	80.5
242.13	80.5
242.363	80.5
242.597	84.5
242.83	80.5
243.064	80.5
243.298	69.5
243.531	91.5
243.765	87.5
243.998	86.5
244.232	66.5
244.465	69.5
244.699	78.5
244.932	81.5
245.166	83.5
245.399	90.5
245.633	82.5
245.866	74.5
246.099	74.5
246.333	77.5
246.566	86.5
246.8	77.5
247.033	71.5
247.266	74.5
247.5	83.5
247.733	88.5
247.966	80.5
248.2	78.5
248.433	87.5
248.666	83.5
248.899	87.5
249.133	79.5
249.366	80.5
249.599	77.5
249.832	95.5
250.066	98.5
250.299	81.5
250.532	81.5
250.765	73.5
250.998	74.5
251.231	76.5
251.465	75.5
251.698	76.5
251.931	101.5
252.164	70.5
252.397	83.5
252.63	78.5
252.863	79.5
253.096	89.5
253.329	77.5
253.562	80.5
253.795	82.5
254.028	91.5
254.261	67.5
254.494	72.5
254.727	87.5
254.96	85.5
255.193	80.5
255.426	72.5
255.659	87.5
255.892	70.5
256.124	81.5
256.357	87.5
256.59	76.5
256.823	83.5
257.056	83.5
257.289	86.5
257.521	79.5
257.754	84.5
257.987	73.5
258.22	84.5
258.452	83.5
258.685	88.5
258.918	79.5
259.151	72.5
259.383	82.5
259.616	90.5
259.849	67.5
260.081	85.5
260.314	80.5
260.547	68.5
260.779	80.5
261.012	82.5
261.244	82.5
261.477	78.5
261.71	84.5
261.942	85.5
262.175	78.5
262.407	85.5
262.64	77.5
262.872	72.5
263.105	82.5
263.337	81.5
263.57	87.5
263.802	84.5
264.035	95.5
264.267	87.5
264.499	71.5
264.732	74.5
264.964	77.5
265.197	81.5
265.429	77.5
265.661	98.5
265.894	77.5
266.126	80.5
266.358	86.5
266.591	96.5
266.823	83.5
267.055	87.5
267.287	76.5
267.52	67.5
267.752	84.5
267.984	76.5
268.216	82.5
268.448	95.5
268.681	69.5
268.913	83.5
269.145	90.5
269.377	78.5
269.609	76.5
269.841	74.5
270.073	79.5
270.306	68.5
270.538	82.5
270.77	77.5
271.002	74.5
271.234	76.5
271.466	80.5
271.698	83.5
271.93	66.5
272.162	85.5
272.394	90.5
272.626	76.5
272.858	91.5
273.09	84.5
273.322	90.5
273.553	85.5
273.785	76.5
274.017	79.5
274.249	74.5
274.481	86.5
274.713	72.5
274.945	90.5
275.176	87.5
275.408	79.5
275.64	84.5
275.872	78.5
276.104	89.5
276.335	85.5
276.567	80.5
276.799	75.5
277.031	81.5
277.262	81.5
277.494	91.5
277.726	90.5
277.957	73.5
278.189	91.5
278.421	83.5
278.652	87.5
278.884	80.5
279.115	81.5
279.347	91.5
279.579	84.5
279.81	87.5
280.042	72.5
280.273	77.5
280.505	86.5
280.736	96.5
280.968	76.5
281.199	93.5
281.431	67.5
281.662	85.5
281.894	82.5
282.125	90.5
282.356	87.5
282.588	77.5
282.819	100.5
283.051	83.5
283.282	69.5
283.513	81.5
283.745	78.5
283.976	84.5
284.207	102.5
284.439	95.5
284.67	69.5
284.901	92.5
285.132	95.5
285.364	90.5
285.595	92.5
285.826	73.5
286.057	85.5
286.288	82.5
286.52	79.5
286.751	86.5
286.982	91.5
287.213	80.5
287.444	78.5
287.675	96.5
287.906	91.5
288.138	83.5
288.369	83.5
288.6	81.5
288.831	82.5
289.062	96.5
289.293	88.5
289.524	98.5
289.755	90.5
289.986	84.5
290.217	80.5
290.448	74.5
290.679	90.5
290.91	90.5
291.141	78.5
291.371	68.5
291.602	71.5
291.833	68.5
292.064	86.5
292.295	80.5
292.526	82.5
292.757	84.5
292.987	91.5
293.218	80.5
293.449	82.5
293.68	65.5
293.91	78.5
294.141	79.5
294.372	77.5
294.603	77.5
294.833	100.5
295.064	94.5
295.295	85.5
295.525	85.5
295.756	90.5
295.987	90.5
296.217	81.5
296.448	81.5
296.679	91.5
296.909	91.5
297.14	75.5
297.37	83.5
297.601	83.5
297.831	85.5
298.062	95.5
298.292	94.5
298.523	84.5
298.753	88.5
298.984	84.5
299.214	83.5
299.445	82.5
299.675	81.5
299.905	89.5
300.136	77.5
300.366	83.5
300.597	76.5
300.827	101.5
301.057	74.5
301.288	84.5
301.518	89.5
301.748	73.5
301.979	83.5
302.209	88.5
302.439	85.5
302.669	92.5
302.9	93.5
303.13	93.5
303.36	88.5
303.59	72.5
303.82	76.5
304.051	85.5
304.281	88.5
304.511	87.5
304.741	81.5
304.971	84.5
305.201	74.5
305.431	95.5
305.661	81.5
305.891	85.5
306.121	95.5
306.352	88.5
306.582	83.5
306.812	81.5
307.042	83.5
307.272	93.5
307.502	83.5
307.731	95.5
307.961	85.5
308.191	83.5
308.421	91.5
308.651	77.5
308.881	77.5
309.111	85.5
309.341	74.5
309.571	92.5
309.8	73.5
310.03	87.5
310.26	78.5
310.49	65.5
310.72	84.5
310.949	81.5
311.179	74.5
311.409	93.5
311.639	96.5
311.868	88.5
312.098	73.5
312.328	87.5
312.557	87.5
312.787	83.5
313.017	81.5
313.246	82.5
313.476	94.5
313.706	77.5
313.935	85.5
314.165	74.5
314.394	77.5
314.624	82.5
314.853	78.5
315.083	83.5
315.312	85.5
315.542	76.5
315.771	83.5
316.001	75.5
316.23	81.5
316.46	88.5
316.689	77.5
316.919	85.5
317.148	82.5
317.377	72.5
317.607	81.5
317.836	99.5
318.065	79.5
318.295	76.5
318.524	91.5
318.753	94.5
318.983	86.5
319.212	88.5
319.441	77.5
319.67	84.5
319.9	84.5
320.129	85.5
320.358	98.5
320.587	77.5
320.816	76.5
321.046	79.5
321.275	88.5
321.504	95.5
321.733	85.5
321.962	98.5
322.191	90.5
322.42	80.5
322.649	84.5
322.878	89.5
323.108	83.5
323.337	86.5
323.566	93.5
323.795	77.5
324.024	85.5
324.253	78.5
324.482	92.5
324.71	84.5
324.939	81.5
325.168	78.5
325.397	86.5
325.626	82.5
325.855	99.5
326.084	93.5
326.313	96.5
326.542	65.5
326.77	75.5
326.999	86.5
327.228	86.5
327.457	94.5
327.686	93.5
327.914	88.5
328.143	84.5
328.372	77.5
328.6	103.5
328.829	87.5
329.058	92.5
329.287	80.5
329.515	83.5
329.744	90.5
329.972	87.5
330.201	63.5
330.43	90.5
330.658	93.5
330.887	73.5
331.115	81.5
331.344	87.5
331.572	83.5
331.801	89.5
332.03	89.5
332.258	89.5
332.486	92.5
332.715	87.5
332.943	77.5
333.172	92.5
333.4	79.5
333.629	68.5
333.857	76.5
334.085	84.5
334.314	92.5
334.542	77.5
334.771	76.5
334.999	89.5
335.227	101.5
335.455	82.5
335.684	91.5
335.912	74.5
336.14	78.5
336.369	81.5
336.597	93.5
336.825	91.5
337.053	77.5
337.281	84.5
337.51	81.5
337.738	86.5
337.966	92.5
338.194	77.5
338.422	87.5
338.65	74.5
338.878	85.5
339.106	101.5
339.334	88.5
339.562	80.5
339.79	96.5
340.018	72.5
340.246	86.5
340.474	95.5
340.702	81.5
340.93	81.5
341.158	71.5
341.386	98.5
341.614	90.5
341.842	78.5
342.07	74.5
342.298	88.5
342.526	92.5
342.754	85.5
342.981	76.5
343.209	87.5
343.437	83.5
343.665	71.5
343.893	91.5
344.12	102.5
344.348	84.5
344.576	82.5
344.804	85.5
345.031	74.5
345.259	71.5
345.487	82.5
345.714	87.5
345.942	85.5
346.17	97.5
346.397	88.5
346.625	80.5
346.853	82.5
347.08	81.5
347.308	81.5
347.535	74.5
347.763	73.5
347.99	82.5
348.218	92.5
348.445	75.5
348.673	84.5
348.9	88.5
349.128	73.5
349.355	88.5
349.583	94.5
349.81	86.5
350.037	84.5
350.265	66.5
350.492	87.5
350.72	73.5
350.947	72.5
351.174	77.5
351.402	78.5
351.629	73.5
351.856	76.5
352.083	86.5
352.311	91.5
352.538	80.5
352.765	77.5
352.992	95.5
353.22	90.5
353.447	90.5
353.674	73.5
353.901	108.5
354.128	79.5
354.355	81.5
354.583	70.5
354.81	87.5
355.037	80.5
355.264	74.5
355.491	64.5
355.718	87.5
355.945	92.5
356.172	80.5
356.399	89.5
356.626	83.5
356.853	88.5
357.08	85.5
357.307	95.5
357.534	85.5
357.761	89.5
357.988	83.5
358.215	92.5
358.441	57.5
358.668	82.5
358.895	80.5
359.122	90.5
359.349	83.5
359.576	67.5
359.802	74.5
360.029	81.5
360.256	75.5
360.483	73.5
360.709	89.5
360.936	90.5
361.163	102.5
361.39	91.5
361.616	80.5
361.843	85.5
362.07	73.5
362.296	88.5
362.523	73.5
362.749	89.5
362.976	76.5
363.203	80.5
363.429	92.5
363.656	85.5
363.882	75.5
364.109	71.5
364.335	92.5
364.562	87.5
364.788	85.5
365.015	95.5
365.241	84.5
365.468	75.5
365.694	77.5
365.92	88.5
366.147	85.5
366.373	82.5
366.599	98.5
366.826	88.5
367.052	97.5
367.278	77.5
367.505	83.5
367.731	70.5
367.957	95.5
368.184	94.5
368.41	87.5
368.636	72.5
368.862	95.5
369.089	89.5
369.315	74.5
369.541	93.5
369.767	79.5
369.993	89.5
370.219	84.5
370.445	87.5
370.672	85.5
370.898	84.5
371.124	90.5
371.35	103.5
371.576	88.5
371.802	81.5
372.028	88.5
372.254	99.5
372.48	95.5
372.706	91.5
372.932	93.5
373.158	90.5
373.384	94.5
373.61	91.5
373.835	93.5
374.061	93.5
374.287	89.5
374.513	83.5
374.739	81.5
374.965	91.5
375.191	95.5
375.416	88.5
375.642	103.5
375.868	108.5
376.094	104.5
376.319	93.5
376.545	96.5
376.771	84.5
376.997	97.5
377.222	103.5
377.448	104.5
377.674	86.5
377.899	81.5
378.125	86.5
378.35	86.5
378.576	84.5
378.802	79.5
379.027	95.5
379.253	104.5
379.478	91.5
379.704	90.5
379.929	77.5
380.155	76.5
380.38	103.5
380.606	90.5
380.831	96.5
381.057	106.5
381.282	96.5
381.507	102.5
381.733	89.5
381.958	97.5
382.184	87.5
382.409	96.5
382.634	93.5
382.86	79.5
383.085	99.5
383.31	85.5
383.535	85.5
383.761	85.5
383.986	104.5
384.211	86.5
384.436	96.5
384.662	105.5
384.887	95.5
385.112	100.5
385.337	98.5
385.562	92.5
385.787	95.5
386.013	101.5
386.238	104.5
386.463	99.5
386.688	103.5
386.913	87.5
387.138	96.5
387.363	95.5
387.588	94.5
387.813	96.5
388.038	97.5
388.263	100.5
388.488	105.5
388.713	97.5
388.938	114.5
389.163	100.5
389.387	95.5
389.612	93.5
389.837	98.5
390.062	103.5
390.287	103.5
390.512	95.5
390.736	94.5
390.961	106.5
391.186	90.5
391.411	106.5
391.636	98.5
391.86	111.5
392.085	111.5
392.31	99.5
392.534	106.5
392.759	97.5
392.984	105.5
393.208	102.5
393.433	100.5
393.658	106.5
393.882	92.5
394.107	98.5
394.331	88.5
394.556	98.5
394.78	94.5
395.005	90.5
395.229	101.5
395.454	111.5
395.678	101.5
395.903	107.5
396.127	118.5
396.352	113.5
396.576	105.5
396.801	103.5
397.025	107.5
397.249	115.5
397.474	105.5
397.698	104.5
397.922	102.5
398.147	96.5
398.371	104.5
398.595	97.5
398.82	97.5
399.044	114.5
399.268	111.5
399.492	113.5
399.717	105.5
399.941	100.5
400.165	102.5
400.389	96.5
400.613	103.5
400.837	115.5
401.062	108.5
401.286	116.5
401.51	101.5
401.734	107.5
401.958	105.5
402.182	99.5
402.406	115.5
402.63	92.5
402.854	104.5
403.078	91.5
403.302	112.5
403.526	115.5
403.75	118.5
403.974	103.5
404.198	129.5
404.422	138.5
404.645	117.5
404.869	123.5
405.093	111.5
405.317	111.5
405.541	106.5
405.765	123.5
405.988	113.5
406.212	106.5
406.436	122.5
406.66	100.5
406.883	110.5
407.107	124.5
407.331	104.5
407.555	122.5
407.778	100.5
408.002	119.5
408.226	121.5
408.449	125.5
408.673	119.5
408.896	109.5
409.12	101.5
409.344	118.5
409.567	125.5
409.791	131.5
410.014	109.5
410.238	124.5
410.461	112.5
410.685	127.5
410.908	121.5
411.132	119.5
411.355	114.5
411.578	137.5
411.802	108.5
412.025	117.5
412.249	129.5
412.472	121.5
412.695	124.5
412.919	116.5
413.142	129.5
413.365	114.5
413.589	107.5
413.812	116.5
414.035	118.5
414.258	105.5
414.482	117.5
414.705	135.5
414.928	126.5
415.151	114.5
415.374	104.5
415.597	108.5
415.821	108.5
416.044	122.5
416.267	109.5
416.49	119.5
416.713	107.5
416.936	130.5
417.159	127.5
417.382	124.5
417.605	127.5
417.828	121.5
418.051	131.5
418.274	143.5
418.497	118.5
418.72	123.5
418.943	133.5
419.166	132.5
419.389	120.5
419.611	108.5
419.834	133.5
420.057	141.5
420.28	130.5
420.503	127.5
420.726	123.5
420.948	124.5
421.171	130.5
421.394	141.5
421.617	137.5
421.839	127.5
422.062	127.5
422.285	136.5
422.507	136.5
422.73	120.5
422.953	116.5
423.175	132.5
423.398	119.5
423.621	120.5
423.843	138.5
424.066	132.5
424.288	130.5
424.511	159.5
424.733	137.5
424.956	137.5
425.178	127.5
425.401	157.5
425.623	127.5
425.846	131.5
426.068	140.5
426.291	131.5
426.513	135.5
426.735	141.5
426.958	128.5
427.18	127.5
427.402	113.5
427.625	136.5
427.847	132.5
428.069	117.5
428.292	122.5
428.514	120.5
428.736	131.5
428.958	130.5
429.181	136.5
429.403	131.5
429.625	133.5
429.847	122.5
430.069	128.5
430.292	135.5
430.514	135.5
430.736	139.5
430.958	136.5
431.18	117.5
431.402	125.5
431.624	112.5
431.846	115.5
432.068	92.5
432.29	100.5
432.512	115.5
432.734	113.5
432.956	127.5
433.178	127.5
433.4	131.5
433.622	127.5
433.844	131.5
434.066	116.5
434.287	117.5
434.509	94.5
434.731	101.5
434.953	107.5
435.175	112.5
435.397	124.5
435.618	134.5
435.84	110.5
436.062	93.5
436.284	130.5
436.505	145.5
436.727	127.5
436.949	130.5
437.17	125.5
437.392	123.5
437.614	116.5
437.835	115.5
438.057	105.5
438.278	117.5
438.5	122.5
438.721	142.5
438.943	133.5
439.165	153.5
439.386	134.5
439.608	136.5
439.829	155.5
440.05	129.5
440.272	142.5
440.493	129.5
440.715	139.5
440.936	141.5
441.158	134.5
441.379	132.5
441.6	152.5
441.822	146.5
442.043	153.5
442.264	134.5
442.486	132.5
442.707	131.5
442.928	139.5
443.149	133.5
443.371	148.5
443.592	125.5
443.813	145.5
444.034	143.5
444.255	148.5
444.476	145.5
444.698	143.5
444.919	130.5
445.14	244.5
445.361	177.5
445.582	149.5
445.803	141.5
446.024	142.5
446.245	149.5
446.466	144.5
446.687	148.5
446.908	146.5
447.129	157.5
447.35	139.5
447.571	141.5
447.792	151.5
448.013	155.5
448.234	140.5
448.455	149.5
448.675	148.5
448.896	130.5
449.117	138.5
449.338	134.5
449.559	127.5
449.779	133.5
450	139.5
450.221	146.5
450.442	127.5
450.662	128.5
450.883	146.5
451.104	121.5
451.324	130.5
451.545	123.5
451.766	123.5
451.986	129.5
452.207	123.5
452.428	126.5
452.648	126.5
452.869	124.5
453.089	132.5
453.31	118.5
453.53	112.5
453.751	98.5
453.971	106.5
454.192	104.5
454.412	112.5
454.633	120.5
454.853	121.5
455.073	134.5
455.294	118.5
455.514	122.5
455.734	108.5
455.955	113.5
456.175	107.5
456.395	101.5
456.616	114.5
456.836	112.5
457.056	104.5
457.276	109.5
457.497	102.5
457.717	107.5
457.937	113.5
458.157	109.5
458.377	111.5
458.598	88.5
458.818	92.5
459.038	83.5
459.258	90.5
459.478	101.5
459.698	96.5
459.918	112.5
460.138	110.5
460.358	117.5
460.578	111.5
460.798	118.5
461.018	98.5
461.238	117.5
461.458	116.5
461.678	115.5
461.898	115.5
462.118	96.5
462.338	111.5
462.558	119.5
462.777	103.5
462.997	104.5
463.217	107.5
463.437	91.5
463.657	96.5
463.876	104.5
464.096	103.5
464.316	99.5
464.536	100.5
464.755	113.5
464.975	113.5
465.195	122.5
465.414	120.5
465.634	119.5
465.854	130.5
466.073	114.5
466.293	117.5
466.512	106.5
466.732	132.5
466.951	122.5
467.171	140.5
467.391	130.5
467.61	145.5
467.829	139.5
468.049	132.5
468.268	132.5
468.488	135.5
468.707	137.5
468.927	119.5
469.146	119.5
469.365	146.5
469.585	133.5
469.804	135.5
470.023	124.5
470.243	141.5
470.462	133.5
470.681	156.5
470.901	131.5
471.12	130.5
471.339	142.5
471.558	137.5
471.777	136.5
471.997	133.5
472.216	115.5
472.435	119.5
472.654	115.5
472.873	119.5
473.092	117.5
473.311	125.5
473.53	114.5
473.749	123.5
473.968	136.5
474.187	131.5
474.406	114.5
474.625	120.5
474.844	137.5
475.063	140.5
475.282	121.5
475.501	125.5
475.72	119.5
475.939	128.5
476.158	120.5
476.377	134.5
476.596	121.5
476.814	127.5
477.033	109.5
477.252	107.5
477.471	108.5
477.69	140.5
477.908	128.5
478.127	131.5
478.346	137.5
478.564	126.5
478.783	131.5
479.002	145.5
479.22	141.5
479.439	138.5
479.658	112.5
479.876	102.5
480.095	106.5
480.313	117.5
480.532	115.5
480.751	112.5
480.969	96.5
481.188	91.5
481.406	82.5
481.624	76.5
481.843	83.5
482.061	92.5
482.28	113.5
482.498	117.5
482.717	112.5
482.935	115.5
483.153	117.5
483.372	148.5
483.59	144.5
483.808	149.5
484.027	117.5
484.245	137.5
484.463	147.5
484.681	147.5
484.9	131.5
485.118	129.5
485.336	123.5
485.554	120.5
485.772	92.5
485.99	98.5
486.209	111.5
486.427	99.5
486.645	115.5
486.863	132.5
487.081	149.5
487.299	142.5
487.517	140.5
487.735	171.5
487.953	191.5
488.171	183.5
488.389	180.5
488.607	154.5
488.825	130.5
489.043	136.5
489.261	127.5
489.479	125.5
489.696	127.5
489.914	151.5
490.132	151.5
490.35	148.5
490.568	157.5
490.786	183.5
491.003	179.5
491.221	181.5
491.439	205.5
491.657	205.5
491.874	196.5
492.092	223.5
492.31	235.5
492.527	226.5
492.745	206.5
492.963	189.5
493.18	181.5
493.398	184.5
493.615	186.5
493.833	180.5
494.05	163.5
494.268	177.5
494.485	181.5
494.703	164.5
494.92	190.5
495.138	188.5
495.355	158.5
495.573	170.5
495.79	180.5
496.008	163.5
496.225	162.5
496.442	163.5
496.66	167.5
496.877	165.5
497.094	147.5
497.312	155.5
497.529	152.5
497.746	145.5
497.963	128.5
498.181	147.5
498.398	118.5
498.615	124.5
498.832	101.5
499.049	113.5
499.267	131.5
499.484	121.5
499.701	128.5
499.918	138.5
500.135	147.5
500.352	150.5
500.569	143.5
500.786	131.5
501.003	157.5
501.22	159.5
501.437	137.5
501.654	132.5
501.871	128.5
502.088	119.5
502.305	137.5
502.522	136.5
502.739	125.5
502.956	125.5
503.172	119.5
503.389	114.5
503.606	124.5
503.823	126.5
504.04	120.5
504.256	142.5
504.473	119.5
504.69	106.5
504.907	125.5
505.123	125.5
505.34	128.5
505.557	119.5
505.773	124.5
505.99	120.5
506.207	116.5
506.423	118.5
506.64	105.5
506.856	115.5
507.073	115.5
507.289	126.5
507.506	113.5
507.722	112.5
507.939	137.5
508.155	123.5
508.372	107.5
508.588	116.5
508.805	114.5
509.021	96.5
509.238	103.5
509.454	95.5
509.67	85.5
509.887	91.5
510.103	92.5
510.319	94.5
510.536	88.5
510.752	91.5
510.968	77.5
511.184	85.5
511.401	86.5
511.617	87.5
511.833	87.5
512.049	84.5
512.265	82.5
512.481	95.5
512.698	96.5
512.914	99.5
513.13	100.5
513.346	106.5
513.562	86.5
513.778	95.5
513.994	96.5
514.21	84.5
514.426	74.5
514.642	89.5
514.858	95.5
515.074	105.5
515.29	96.5
515.506	94.5
515.721	83.5
515.937	95.5
516.153	88.5
516.369	90.5
516.585	79.5
516.801	78.5
517.016	107.5
517.232	83.5
517.448	103.5
517.664	105.5
517.879	93.5
518.095	92.5
518.311	77.5
518.527	88.5
518.742	88.5
518.958	108.5
519.173	100.5
519.389	114.5
519.605	109.5
519.82	120.5
520.036	107.5
520.251	117.5
520.467	103.5
520.682	95.5
520.898	99.5
521.113	100.5
521.329	77.5
521.544	86.5
521.76	85.5
521.975	101.5
522.19	90.5
522.406	96.5
522.621	89.5
522.836	108.5
523.052	107.5
523.267	113.5
523.482	103.5
523.698	105.5
523.913	107.5
524.128	114.5
524.343	120.5
524.559	102.5
524.774	113.5
524.989	125.5
525.204	128.5
525.419	106.5
525.634	115.5
525.849	109.5
526.064	101.5
526.28	106.5
526.495	99.5
526.71	94.5
526.925	83.5
527.14	87.5
527.355	83.5
527.57	89.5
527.785	87.5
527.999	91.5
528.214	100.5
528.429	104.5
528.644	95.5
528.859	135.5
529.074	139.5
529.289	165.5
529.503	153.5
529.718	136.5
529.933	117.5
530.148	108.5
530.363	96.5
530.577	85.5
530.792	100.5
531.007	85.5
