Data from Location2.07152019.Energy5.Lamp.07192019.3%Agarose_HRD10591_14-56-12-360.txt Node
Date: Fri Jul 19 14:56:12 EDT 2019
User: cochatt
Spectrometer: HR+D1059
Trigger mode: 1
Integration Time (sec): 1.000000E-1
Scans to average: 1
Electric dark correction enabled: true
Nonlinearity correction enabled: false
Boxcar width: 0
XAxis mode: Wavelengths
Number of Pixels in Spectrum: 2048
>>>>>Begin Spectral Data<<<<<
223.165	-25.19
223.4	-25.19
223.635	-25.19
223.869	-24.19
224.104	-31.19
224.338	-6.19
224.573	-14.19
224.808	-6.19
225.042	-9.19
225.277	2.81
225.511	1.81
225.746	8.81
225.98	1.81
226.215	11.81
226.449	25.81
226.683	16.81
226.918	27.81
227.152	18.81
227.387	22.81
227.621	40.81
227.856	55.81
228.09	44.81
228.324	50.81
228.559	48.81
228.793	64.81
229.027	56.81
229.262	54.81
229.496	57.81
229.73	60.81
229.964	67.81
230.199	73.81
230.433	66.81
230.667	83.81
230.901	68.81
231.136	73.81
231.37	66.81
231.604	94.81
231.838	80.81
232.072	76.81
232.306	81.81
232.541	86.81
232.775	86.81
233.009	68.81
233.243	87.81
233.477	71.81
233.711	74.81
233.945	74.81
234.179	72.81
234.413	84.81
234.647	88.81
234.881	75.81
235.115	79.81
235.349	87.81
235.583	72.81
235.817	68.81
236.051	70.81
236.285	76.81
236.519	85.81
236.753	80.81
236.987	75.81
237.221	83.81
237.455	80.81
237.689	82.81
237.922	82.81
238.156	71.81
238.39	82.81
238.624	74.81
238.858	80.81
239.091	80.81
239.325	75.81
239.559	83.81
239.793	90.81
240.027	66.81
240.26	82.81
240.494	73.81
240.728	76.81
240.961	79.81
241.195	79.81
241.429	68.81
241.662	62.81
241.896	90.81
242.13	78.81
242.363	69.81
242.597	68.81
242.83	61.81
243.064	67.81
243.298	85.81
243.531	72.81
243.765	67.81
243.998	66.81
244.232	84.81
244.465	83.81
244.699	85.81
244.932	79.81
245.166	78.81
245.399	79.81
245.633	85.81
245.866	81.81
246.099	84.81
246.333	95.81
246.566	80.81
246.8	83.81
247.033	75.81
247.266	85.81
247.5	94.81
247.733	82.81
247.966	82.81
248.2	76.81
248.433	76.81
248.666	69.81
248.899	67.81
249.133	81.81
249.366	73.81
249.599	66.81
249.832	72.81
250.066	91.81
250.299	84.81
250.532	78.81
250.765	76.81
250.998	92.81
251.231	100.81
251.465	83.81
251.698	74.81
251.931	75.81
252.164	72.81
252.397	74.81
252.63	75.81
252.863	75.81
253.096	65.81
253.329	84.81
253.562	86.81
253.795	75.81
254.028	98.81
254.261	94.81
254.494	71.81
254.727	78.81
254.96	86.81
255.193	84.81
255.426	81.81
255.659	91.81
255.892	71.81
256.124	86.81
256.357	84.81
256.59	90.81
256.823	79.81
257.056	83.81
257.289	86.81
257.521	85.81
257.754	72.81
257.987	81.81
258.22	86.81
258.452	77.81
258.685	76.81
258.918	63.81
259.151	74.81
259.383	77.81
259.616	84.81
259.849	76.81
260.081	85.81
260.314	81.81
260.547	76.81
260.779	84.81
261.012	78.81
261.244	92.81
261.477	75.81
261.71	75.81
261.942	74.81
262.175	75.81
262.407	79.81
262.64	76.81
262.872	74.81
263.105	74.81
263.337	88.81
263.57	74.81
263.802	100.81
264.035	81.81
264.267	86.81
264.499	77.81
264.732	84.81
264.964	89.81
265.197	91.81
265.429	82.81
265.661	74.81
265.894	82.81
266.126	81.81
266.358	83.81
266.591	85.81
266.823	94.81
267.055	82.81
267.287	87.81
267.52	89.81
267.752	74.81
267.984	68.81
268.216	79.81
268.448	83.81
268.681	98.81
268.913	84.81
269.145	85.81
269.377	87.81
269.609	79.81
269.841	91.81
270.073	92.81
270.306	77.81
270.538	81.81
270.77	76.81
271.002	80.81
271.234	86.81
271.466	91.81
271.698	80.81
271.93	88.81
272.162	86.81
272.394	73.81
272.626	78.81
272.858	81.81
273.09	85.81
273.322	85.81
273.553	82.81
273.785	84.81
274.017	83.81
274.249	75.81
274.481	85.81
274.713	94.81
274.945	67.81
275.176	95.81
275.408	88.81
275.64	82.81
275.872	90.81
276.104	72.81
276.335	66.81
276.567	87.81
276.799	76.81
277.031	73.81
277.262	90.81
277.494	84.81
277.726	83.81
277.957	99.81
278.189	86.81
278.421	86.81
278.652	79.81
278.884	74.81
279.115	85.81
279.347	75.81
279.579	83.81
279.81	86.81
280.042	88.81
280.273	97.81
280.505	92.81
280.736	89.81
280.968	93.81
281.199	91.81
281.431	71.81
281.662	76.81
281.894	90.81
282.125	82.81
282.356	81.81
282.588	82.81
282.819	87.81
283.051	94.81
283.282	78.81
283.513	83.81
283.745	84.81
283.976	88.81
284.207	82.81
284.439	84.81
284.67	77.81
284.901	71.81
285.132	94.81
285.364	91.81
285.595	86.81
285.826	87.81
286.057	82.81
286.288	85.81
286.52	90.81
286.751	88.81
286.982	80.81
287.213	82.81
287.444	94.81
287.675	80.81
287.906	92.81
288.138	75.81
288.369	97.81
288.6	95.81
288.831	85.81
289.062	84.81
289.293	79.81
289.524	72.81
289.755	80.81
289.986	72.81
290.217	81.81
290.448	75.81
290.679	78.81
290.91	79.81
291.141	75.81
291.371	90.81
291.602	72.81
291.833	99.81
292.064	82.81
292.295	83.81
292.526	73.81
292.757	89.81
292.987	86.81
293.218	77.81
293.449	60.81
293.68	84.81
293.91	86.81
294.141	74.81
294.372	96.81
294.603	88.81
294.833	76.81
295.064	88.81
295.295	82.81
295.525	73.81
295.756	89.81
295.987	87.81
296.217	94.81
296.448	85.81
296.679	92.81
296.909	88.81
297.14	82.81
297.37	91.81
297.601	82.81
297.831	91.81
298.062	88.81
298.292	79.81
298.523	74.81
298.753	84.81
298.984	78.81
299.214	95.81
299.445	74.81
299.675	80.81
299.905	80.81
300.136	79.81
300.366	76.81
300.597	92.81
300.827	88.81
301.057	84.81
301.288	85.81
301.518	66.81
301.748	86.81
301.979	73.81
302.209	75.81
302.439	81.81
302.669	79.81
302.9	81.81
303.13	85.81
303.36	85.81
303.59	100.81
303.82	100.81
304.051	93.81
304.281	79.81
304.511	76.81
304.741	95.81
304.971	90.81
305.201	97.81
305.431	78.81
305.661	91.81
305.891	86.81
306.121	96.81
306.352	87.81
306.582	80.81
306.812	90.81
307.042	86.81
307.272	83.81
307.502	71.81
307.731	88.81
307.961	79.81
308.191	72.81
308.421	85.81
308.651	83.81
308.881	90.81
309.111	87.81
309.341	84.81
309.571	87.81
309.8	82.81
310.03	90.81
310.26	79.81
310.49	80.81
310.72	91.81
310.949	94.81
311.179	90.81
311.409	75.81
311.639	85.81
311.868	94.81
312.098	79.81
312.328	80.81
312.557	87.81
312.787	83.81
313.017	83.81
313.246	73.81
313.476	86.81
313.706	83.81
313.935	81.81
314.165	90.81
314.394	82.81
314.624	94.81
314.853	76.81
315.083	80.81
315.312	87.81
315.542	77.81
315.771	79.81
316.001	79.81
316.23	78.81
316.46	82.81
316.689	84.81
316.919	87.81
317.148	80.81
317.377	87.81
317.607	88.81
317.836	79.81
318.065	76.81
318.295	86.81
318.524	89.81
318.753	86.81
318.983	82.81
319.212	79.81
319.441	90.81
319.67	82.81
319.9	77.81
320.129	91.81
320.358	90.81
320.587	85.81
320.816	79.81
321.046	80.81
321.275	79.81
321.504	75.81
321.733	75.81
321.962	90.81
322.191	75.81
322.42	98.81
322.649	70.81
322.878	79.81
323.108	82.81
323.337	72.81
323.566	93.81
323.795	94.81
324.024	89.81
324.253	91.81
324.482	89.81
324.71	70.81
324.939	82.81
325.168	80.81
325.397	76.81
325.626	86.81
325.855	79.81
326.084	89.81
326.313	87.81
326.542	80.81
326.77	80.81
326.999	89.81
327.228	80.81
327.457	86.81
327.686	80.81
327.914	80.81
328.143	74.81
328.372	76.81
328.6	91.81
328.829	87.81
329.058	81.81
329.287	85.81
329.515	90.81
329.744	81.81
329.972	81.81
330.201	85.81
330.43	79.81
330.658	79.81
330.887	91.81
331.115	78.81
331.344	85.81
331.572	86.81
331.801	80.81
332.03	81.81
332.258	79.81
332.486	82.81
332.715	77.81
332.943	78.81
333.172	91.81
333.4	79.81
333.629	81.81
333.857	75.81
334.085	80.81
334.314	94.81
334.542	86.81
334.771	81.81
334.999	80.81
335.227	92.81
335.455	77.81
335.684	85.81
335.912	89.81
336.14	81.81
336.369	83.81
336.597	81.81
336.825	76.81
337.053	75.81
337.281	77.81
337.51	83.81
337.738	79.81
337.966	103.81
338.194	95.81
338.422	83.81
338.65	76.81
338.878	81.81
339.106	72.81
339.334	89.81
339.562	77.81
339.79	85.81
340.018	87.81
340.246	107.81
340.474	86.81
340.702	93.81
340.93	87.81
341.158	86.81
341.386	86.81
341.614	85.81
341.842	72.81
342.07	91.81
342.298	69.81
342.526	99.81
342.754	84.81
342.981	97.81
343.209	79.81
343.437	78.81
343.665	87.81
343.893	95.81
344.12	86.81
344.348	107.81
344.576	89.81
344.804	71.81
345.031	76.81
345.259	84.81
345.487	96.81
345.714	81.81
345.942	88.81
346.17	96.81
346.397	87.81
346.625	79.81
346.853	84.81
347.08	79.81
347.308	102.81
347.535	70.81
347.763	87.81
347.99	88.81
348.218	82.81
348.445	90.81
348.673	84.81
348.9	91.81
349.128	88.81
349.355	84.81
349.583	82.81
349.81	83.81
350.037	72.81
350.265	100.81
350.492	81.81
350.72	92.81
350.947	90.81
351.174	77.81
351.402	75.81
351.629	71.81
351.856	82.81
352.083	78.81
352.311	89.81
352.538	88.81
352.765	80.81
352.992	76.81
353.22	77.81
353.447	94.81
353.674	83.81
353.901	86.81
354.128	94.81
354.355	68.81
354.583	90.81
354.81	98.81
355.037	74.81
355.264	87.81
355.491	89.81
355.718	92.81
355.945	100.81
356.172	78.81
356.399	84.81
356.626	88.81
356.853	73.81
357.08	89.81
357.307	75.81
357.534	80.81
357.761	73.81
357.988	79.81
358.215	75.81
358.441	69.81
358.668	79.81
358.895	93.81
359.122	101.81
359.349	86.81
359.576	97.81
359.802	87.81
360.029	85.81
360.256	84.81
360.483	76.81
360.709	88.81
360.936	87.81
361.163	81.81
361.39	87.81
361.616	84.81
361.843	83.81
362.07	81.81
362.296	81.81
362.523	77.81
362.749	79.81
362.976	84.81
363.203	81.81
363.429	85.81
363.656	82.81
363.882	84.81
364.109	94.81
364.335	97.81
364.562	79.81
364.788	80.81
365.015	70.81
365.241	89.81
365.468	81.81
365.694	80.81
365.92	82.81
366.147	78.81
366.373	91.81
366.599	99.81
366.826	108.81
367.052	88.81
367.278	87.81
367.505	94.81
367.731	84.81
367.957	94.81
368.184	95.81
368.41	84.81
368.636	95.81
368.862	88.81
369.089	102.81
369.315	91.81
369.541	91.81
369.767	89.81
369.993	91.81
370.219	85.81
370.445	103.81
370.672	77.81
370.898	86.81
371.124	82.81
371.35	83.81
371.576	89.81
371.802	74.81
372.028	93.81
372.254	98.81
372.48	83.81
372.706	90.81
372.932	99.81
373.158	98.81
373.384	103.81
373.61	96.81
373.835	84.81
374.061	92.81
374.287	90.81
374.513	92.81
374.739	87.81
374.965	85.81
375.191	89.81
375.416	95.81
375.642	91.81
375.868	103.81
376.094	86.81
376.319	98.81
376.545	75.81
376.771	83.81
376.997	76.81
377.222	88.81
377.448	84.81
377.674	96.81
377.899	99.81
378.125	87.81
378.35	97.81
378.576	83.81
378.802	84.81
379.027	110.81
379.253	92.81
379.478	90.81
379.704	97.81
379.929	98.81
380.155	107.81
380.38	88.81
380.606	85.81
380.831	100.81
381.057	95.81
381.282	106.81
381.507	91.81
381.733	97.81
381.958	93.81
382.184	100.81
382.409	75.81
382.634	81.81
382.86	92.81
383.085	106.81
383.31	95.81
383.535	100.81
383.761	96.81
383.986	119.81
384.211	96.81
384.436	95.81
384.662	111.81
384.887	96.81
385.112	106.81
385.337	85.81
385.562	98.81
385.787	98.81
386.013	92.81
386.238	96.81
386.463	115.81
386.688	100.81
386.913	102.81
387.138	91.81
387.363	101.81
387.588	95.81
387.813	106.81
388.038	94.81
388.263	106.81
388.488	95.81
388.713	105.81
388.938	98.81
389.163	86.81
389.387	93.81
389.612	91.81
389.837	88.81
390.062	106.81
390.287	110.81
390.512	99.81
390.736	85.81
390.961	96.81
391.186	104.81
391.411	117.81
391.636	98.81
391.86	115.81
392.085	85.81
392.31	92.81
392.534	120.81
392.759	106.81
392.984	104.81
393.208	93.81
393.433	105.81
393.658	105.81
393.882	93.81
394.107	119.81
394.331	88.81
394.556	93.81
394.78	101.81
395.005	108.81
395.229	100.81
395.454	101.81
395.678	97.81
395.903	115.81
396.127	115.81
396.352	101.81
396.576	111.81
396.801	111.81
397.025	99.81
397.249	105.81
397.474	113.81
397.698	106.81
397.922	118.81
398.147	112.81
398.371	123.81
398.595	100.81
398.82	98.81
399.044	117.81
399.268	119.81
399.492	111.81
399.717	115.81
399.941	113.81
400.165	114.81
400.389	113.81
400.613	108.81
400.837	105.81
401.062	109.81
401.286	107.81
401.51	117.81
401.734	119.81
401.958	102.81
402.182	113.81
402.406	119.81
402.63	116.81
402.854	103.81
403.078	126.81
403.302	115.81
403.526	125.81
403.75	114.81
403.974	122.81
404.198	119.81
404.422	126.81
404.645	100.81
404.869	114.81
405.093	116.81
405.317	118.81
405.541	102.81
405.765	128.81
405.988	117.81
406.212	103.81
406.436	122.81
406.66	130.81
406.883	114.81
407.107	114.81
407.331	106.81
407.555	121.81
407.778	118.81
408.002	113.81
408.226	119.81
408.449	122.81
408.673	110.81
408.896	112.81
409.12	124.81
409.344	122.81
409.567	124.81
409.791	103.81
410.014	118.81
410.238	118.81
410.461	126.81
410.685	128.81
410.908	124.81
411.132	112.81
411.355	104.81
411.578	118.81
411.802	116.81
412.025	128.81
412.249	122.81
412.472	112.81
412.695	122.81
412.919	114.81
413.142	121.81
413.365	127.81
413.589	121.81
413.812	132.81
414.035	124.81
414.258	120.81
414.482	125.81
414.705	127.81
414.928	119.81
415.151	134.81
415.374	120.81
415.597	134.81
415.821	119.81
416.044	128.81
416.267	128.81
416.49	123.81
416.713	122.81
416.936	118.81
417.159	123.81
417.382	118.81
417.605	114.81
417.828	130.81
418.051	128.81
418.274	122.81
418.497	114.81
418.72	125.81
418.943	138.81
419.166	140.81
419.389	132.81
419.611	126.81
419.834	128.81
420.057	140.81
420.28	139.81
420.503	122.81
420.726	136.81
420.948	132.81
421.171	138.81
421.394	126.81
421.617	140.81
421.839	145.81
422.062	127.81
422.285	146.81
422.507	135.81
422.73	122.81
422.953	122.81
423.175	123.81
423.398	117.81
423.621	128.81
423.843	152.81
424.066	140.81
424.288	131.81
424.511	144.81
424.733	150.81
424.956	139.81
425.178	124.81
425.401	129.81
425.623	153.81
425.846	136.81
426.068	130.81
426.291	134.81
426.513	128.81
426.735	131.81
426.958	120.81
427.18	135.81
427.402	124.81
427.625	127.81
427.847	121.81
428.069	127.81
428.292	129.81
428.514	132.81
428.736	119.81
428.958	120.81
429.181	131.81
429.403	133.81
429.625	119.81
429.847	135.81
430.069	127.81
430.292	137.81
430.514	115.81
430.736	146.81
430.958	135.81
431.18	119.81
431.402	126.81
431.624	108.81
431.846	110.81
432.068	98.81
432.29	96.81
432.512	101.81
432.734	128.81
432.956	114.81
433.178	140.81
433.4	124.81
433.622	129.81
433.844	132.81
434.066	109.81
434.287	120.81
434.509	96.81
434.731	111.81
434.953	107.81
435.175	121.81
435.397	120.81
435.618	124.81
435.84	115.81
436.062	118.81
436.284	120.81
436.505	127.81
436.727	134.81
436.949	132.81
437.17	150.81
437.392	112.81
437.614	122.81
437.835	103.81
438.057	109.81
438.278	106.81
438.5	120.81
438.721	126.81
438.943	141.81
439.165	127.81
439.386	150.81
439.608	156.81
439.829	123.81
440.05	163.81
440.272	136.81
440.493	125.81
440.715	135.81
440.936	130.81
441.158	127.81
441.379	144.81
441.6	147.81
441.822	149.81
442.043	147.81
442.264	132.81
442.486	138.81
442.707	137.81
442.928	128.81
443.149	142.81
443.371	143.81
443.592	129.81
443.813	146.81
444.034	145.81
444.255	137.81
444.476	148.81
444.698	140.81
444.919	146.81
445.14	275.81
445.361	211.81
445.582	152.81
445.803	151.81
446.024	136.81
446.245	160.81
446.466	141.81
446.687	136.81
446.908	145.81
447.129	148.81
447.35	160.81
447.571	144.81
447.792	137.81
448.013	140.81
448.234	146.81
448.455	153.81
448.675	141.81
448.896	138.81
449.117	139.81
449.338	135.81
449.559	127.81
449.779	133.81
450	123.81
450.221	151.81
450.442	125.81
450.662	129.81
450.883	133.81
451.104	132.81
451.324	127.81
451.545	136.81
451.766	135.81
451.986	124.81
452.207	137.81
452.428	132.81
452.648	131.81
452.869	131.81
453.089	120.81
453.31	117.81
453.53	106.81
453.751	115.81
453.971	106.81
454.192	110.81
454.412	105.81
454.633	104.81
454.853	115.81
455.073	127.81
455.294	129.81
455.514	115.81
455.734	105.81
455.955	125.81
456.175	118.81
456.395	105.81
456.616	115.81
456.836	96.81
457.056	104.81
457.276	106.81
457.497	84.81
457.717	123.81
457.937	124.81
458.157	118.81
458.377	120.81
458.598	96.81
458.818	95.81
459.038	96.81
459.258	85.81
459.478	78.81
459.698	89.81
459.918	82.81
460.138	91.81
460.358	125.81
460.578	123.81
460.798	120.81
461.018	120.81
461.238	119.81
461.458	114.81
461.678	118.81
461.898	119.81
462.118	110.81
462.338	110.81
462.558	117.81
462.777	125.81
462.997	117.81
463.217	98.81
463.437	107.81
463.657	118.81
463.876	112.81
464.096	108.81
464.316	107.81
464.536	99.81
464.755	122.81
464.975	110.81
465.195	115.81
465.414	130.81
465.634	108.81
465.854	96.81
466.073	118.81
466.293	120.81
466.512	119.81
466.732	129.81
466.951	128.81
467.171	133.81
467.391	126.81
467.61	140.81
467.829	130.81
468.049	136.81
468.268	132.81
468.488	137.81
468.707	124.81
468.927	136.81
469.146	137.81
469.365	158.81
469.585	143.81
469.804	144.81
470.023	143.81
470.243	156.81
470.462	156.81
470.681	129.81
470.901	131.81
471.12	136.81
471.339	140.81
471.558	129.81
471.777	146.81
471.997	129.81
472.216	132.81
472.435	116.81
472.654	112.81
472.873	105.81
473.092	121.81
473.311	113.81
473.53	130.81
473.749	126.81
473.968	128.81
474.187	114.81
474.406	130.81
474.625	129.81
474.844	140.81
475.063	130.81
475.282	127.81
475.501	133.81
475.72	129.81
475.939	122.81
476.158	116.81
476.377	115.81
476.596	122.81
476.814	105.81
477.033	111.81
477.252	104.81
477.471	134.81
477.69	143.81
477.908	146.81
478.127	135.81
478.346	139.81
478.564	126.81
478.783	128.81
479.002	143.81
479.22	120.81
479.439	150.81
479.658	113.81
479.876	106.81
480.095	107.81
480.313	122.81
480.532	131.81
480.751	116.81
480.969	102.81
481.188	95.81
481.406	89.81
481.624	103.81
481.843	90.81
482.061	96.81
482.28	108.81
482.498	124.81
482.717	122.81
482.935	113.81
483.153	134.81
483.372	147.81
483.59	140.81
483.808	131.81
484.027	123.81
484.245	134.81
484.463	150.81
484.681	153.81
484.9	141.81
485.118	138.81
485.336	117.81
485.554	99.81
485.772	120.81
485.99	102.81
486.209	118.81
486.427	116.81
486.645	122.81
486.863	144.81
487.081	126.81
487.299	128.81
487.517	143.81
487.735	156.81
487.953	191.81
488.171	178.81
488.389	165.81
488.607	154.81
488.825	119.81
489.043	133.81
489.261	117.81
489.479	130.81
489.696	156.81
489.914	139.81
490.132	150.81
490.35	142.81
490.568	144.81
490.786	167.81
491.003	168.81
491.221	187.81
491.439	182.81
491.657	188.81
491.874	204.81
492.092	228.81
492.31	219.81
492.527	231.81
492.745	193.81
492.963	188.81
493.18	193.81
493.398	174.81
493.615	175.81
493.833	179.81
494.05	177.81
494.268	158.81
494.485	172.81
494.703	172.81
494.92	164.81
495.138	163.81
495.355	174.81
495.573	176.81
495.79	165.81
496.008	158.81
496.225	175.81
496.442	158.81
496.66	166.81
496.877	163.81
497.094	166.81
497.312	153.81
497.529	166.81
497.746	162.81
497.963	145.81
498.181	141.81
498.398	120.81
498.615	134.81
498.832	117.81
499.049	138.81
499.267	143.81
499.484	138.81
499.701	126.81
499.918	140.81
500.135	138.81
500.352	130.81
500.569	144.81
500.786	140.81
501.003	147.81
501.22	148.81
501.437	137.81
501.654	140.81
501.871	130.81
502.088	130.81
502.305	129.81
502.522	137.81
502.739	137.81
502.956	131.81
503.172	120.81
503.389	128.81
503.606	111.81
503.823	126.81
504.04	120.81
504.256	136.81
504.473	119.81
504.69	126.81
504.907	119.81
505.123	134.81
505.34	115.81
505.557	129.81
505.773	123.81
505.99	122.81
506.207	112.81
506.423	116.81
506.64	114.81
506.856	132.81
507.073	112.81
507.289	127.81
507.506	122.81
507.722	128.81
507.939	125.81
508.155	125.81
508.372	101.81
508.588	112.81
508.805	103.81
509.021	113.81
509.238	110.81
509.454	92.81
509.67	90.81
509.887	77.81
510.103	97.81
510.319	90.81
510.536	83.81
510.752	89.81
510.968	86.81
511.184	87.81
511.401	74.81
511.617	92.81
511.833	91.81
