Data from Location2.07152019.Energy5.Lamp.07192019.3%Agarose_HRD10591_14-57-08-358.txt Node
Date: Fri Jul 19 14:57:08 EDT 2019
User: cochatt
Spectrometer: HR+D1059
Trigger mode: 1
Integration Time (sec): 1.000000E-1
Scans to average: 1
Electric dark correction enabled: true
Nonlinearity correction enabled: false
Boxcar width: 0
XAxis mode: Wavelengths
Number of Pixels in Spectrum: 2048
>>>>>Begin Spectral Data<<<<<
223.165	-2.56
223.4	-2.56
223.635	-2.56
223.869	-27.56
224.104	-8.56
224.338	-15.56
224.573	-7.56
224.808	-17.56
225.042	9.44
225.277	-20.56
225.511	-7.56
225.746	-10.56
225.98	12.44
226.215	1.44
226.449	16.44
226.683	17.44
226.918	28.44
227.152	32.44
227.387	27.44
227.621	33.44
227.856	35.44
228.09	52.44
228.324	40.44
228.559	63.44
228.793	51.44
229.027	56.44
229.262	64.44
229.496	68.44
229.73	83.44
229.964	77.44
230.199	69.44
230.433	80.44
230.667	67.44
230.901	73.44
231.136	90.44
231.37	87.44
231.604	84.44
231.838	84.44
232.072	80.44
232.306	75.44
232.541	77.44
232.775	70.44
233.009	90.44
233.243	83.44
233.477	88.44
233.711	66.44
233.945	81.44
234.179	76.44
234.413	87.44
234.647	80.44
234.881	69.44
235.115	80.44
235.349	84.44
235.583	76.44
235.817	77.44
236.051	89.44
236.285	73.44
236.519	76.44
236.753	83.44
236.987	74.44
237.221	79.44
237.455	64.44
237.689	63.44
237.922	75.44
238.156	84.44
238.39	65.44
238.624	84.44
238.858	77.44
239.091	83.44
239.325	81.44
239.559	63.44
239.793	89.44
240.027	85.44
240.26	89.44
240.494	80.44
240.728	77.44
240.961	83.44
241.195	81.44
241.429	71.44
241.662	84.44
241.896	73.44
242.13	62.44
242.363	84.44
242.597	73.44
242.83	83.44
243.064	84.44
243.298	75.44
243.531	69.44
243.765	92.44
243.998	92.44
244.232	84.44
244.465	83.44
244.699	84.44
244.932	66.44
245.166	77.44
245.399	83.44
245.633	89.44
245.866	76.44
246.099	87.44
246.333	94.44
246.566	75.44
246.8	72.44
247.033	98.44
247.266	71.44
247.5	72.44
247.733	71.44
247.966	84.44
248.2	94.44
248.433	76.44
248.666	76.44
248.899	79.44
249.133	83.44
249.366	77.44
249.599	71.44
249.832	84.44
250.066	82.44
250.299	82.44
250.532	87.44
250.765	83.44
250.998	77.44
251.231	66.44
251.465	80.44
251.698	80.44
251.931	80.44
252.164	76.44
252.397	78.44
252.63	79.44
252.863	78.44
253.096	74.44
253.329	96.44
253.562	75.44
253.795	81.44
254.028	77.44
254.261	78.44
254.494	71.44
254.727	81.44
254.96	81.44
255.193	82.44
255.426	73.44
255.659	66.44
255.892	82.44
256.124	83.44
256.357	84.44
256.59	70.44
256.823	71.44
257.056	81.44
257.289	75.44
257.521	83.44
257.754	83.44
257.987	72.44
258.22	71.44
258.452	82.44
258.685	89.44
258.918	77.44
259.151	70.44
259.383	83.44
259.616	64.44
259.849	87.44
260.081	80.44
260.314	76.44
260.547	92.44
260.779	91.44
261.012	74.44
261.244	91.44
261.477	83.44
261.71	83.44
261.942	91.44
262.175	84.44
262.407	86.44
262.64	82.44
262.872	70.44
263.105	85.44
263.337	88.44
263.57	88.44
263.802	84.44
264.035	81.44
264.267	89.44
264.499	79.44
264.732	80.44
264.964	67.44
265.197	67.44
265.429	61.44
265.661	87.44
265.894	90.44
266.126	88.44
266.358	84.44
266.591	80.44
266.823	90.44
267.055	79.44
267.287	84.44
267.52	93.44
267.752	71.44
267.984	72.44
268.216	81.44
268.448	88.44
268.681	80.44
268.913	89.44
269.145	88.44
269.377	76.44
269.609	77.44
269.841	86.44
270.073	92.44
270.306	85.44
270.538	74.44
270.77	72.44
271.002	85.44
271.234	84.44
271.466	75.44
271.698	72.44
271.93	85.44
272.162	95.44
272.394	77.44
272.626	82.44
272.858	76.44
273.09	89.44
273.322	89.44
273.553	81.44
273.785	75.44
274.017	98.44
274.249	82.44
274.481	81.44
274.713	80.44
274.945	74.44
275.176	84.44
275.408	81.44
275.64	83.44
275.872	98.44
276.104	87.44
276.335	80.44
276.567	93.44
276.799	90.44
277.031	68.44
277.262	97.44
277.494	91.44
277.726	85.44
277.957	86.44
278.189	83.44
278.421	85.44
278.652	72.44
278.884	83.44
279.115	85.44
279.347	79.44
279.579	102.44
279.81	83.44
280.042	82.44
280.273	72.44
280.505	84.44
280.736	86.44
280.968	85.44
281.199	87.44
281.431	80.44
281.662	100.44
281.894	86.44
282.125	97.44
282.356	89.44
282.588	78.44
282.819	72.44
283.051	73.44
283.282	80.44
283.513	96.44
283.745	87.44
283.976	67.44
284.207	99.44
284.439	74.44
284.67	92.44
284.901	81.44
285.132	98.44
285.364	73.44
285.595	97.44
285.826	91.44
286.057	74.44
286.288	81.44
286.52	93.44
286.751	93.44
286.982	74.44
287.213	86.44
287.444	95.44
287.675	79.44
287.906	86.44
288.138	80.44
288.369	72.44
288.6	84.44
288.831	85.44
289.062	79.44
289.293	68.44
289.524	84.44
289.755	83.44
289.986	71.44
290.217	69.44
290.448	95.44
290.679	87.44
290.91	78.44
291.141	84.44
291.371	82.44
291.602	82.44
291.833	93.44
292.064	87.44
292.295	70.44
292.526	88.44
292.757	83.44
292.987	79.44
293.218	100.44
293.449	90.44
293.68	86.44
293.91	90.44
294.141	81.44
294.372	69.44
294.603	86.44
294.833	101.44
295.064	82.44
295.295	89.44
295.525	98.44
295.756	90.44
295.987	70.44
296.217	86.44
296.448	88.44
296.679	89.44
296.909	80.44
297.14	77.44
297.37	98.44
297.601	89.44
297.831	98.44
298.062	88.44
298.292	81.44
298.523	95.44
298.753	95.44
298.984	70.44
299.214	85.44
299.445	83.44
299.675	90.44
299.905	78.44
300.136	88.44
300.366	92.44
300.597	88.44
300.827	80.44
301.057	71.44
301.288	98.44
301.518	78.44
301.748	88.44
301.979	83.44
302.209	87.44
302.439	88.44
302.669	83.44
302.9	90.44
303.13	89.44
303.36	88.44
303.59	71.44
303.82	84.44
304.051	73.44
304.281	81.44
304.511	89.44
304.741	89.44
304.971	69.44
305.201	89.44
305.431	87.44
305.661	100.44
305.891	99.44
306.121	83.44
306.352	77.44
306.582	88.44
306.812	75.44
307.042	93.44
307.272	80.44
307.502	84.44
307.731	81.44
307.961	84.44
308.191	79.44
308.421	93.44
308.651	89.44
308.881	88.44
309.111	77.44
309.341	84.44
309.571	87.44
309.8	81.44
310.03	74.44
310.26	82.44
310.49	77.44
310.72	87.44
310.949	79.44
311.179	91.44
311.409	74.44
311.639	85.44
311.868	91.44
312.098	87.44
312.328	86.44
312.557	95.44
312.787	75.44
313.017	89.44
313.246	71.44
313.476	77.44
313.706	83.44
313.935	88.44
314.165	68.44
314.394	86.44
314.624	83.44
314.853	85.44
315.083	90.44
315.312	83.44
315.542	90.44
315.771	88.44
316.001	97.44
316.23	87.44
316.46	89.44
316.689	82.44
316.919	79.44
317.148	91.44
317.377	94.44
317.607	76.44
317.836	99.44
318.065	82.44
318.295	89.44
318.524	92.44
318.753	91.44
318.983	87.44
319.212	72.44
319.441	80.44
319.67	87.44
319.9	91.44
320.129	83.44
320.358	86.44
320.587	83.44
320.816	77.44
321.046	75.44
321.275	82.44
321.504	98.44
321.733	81.44
321.962	89.44
322.191	81.44
322.42	84.44
322.649	77.44
322.878	88.44
323.108	83.44
323.337	85.44
323.566	91.44
323.795	96.44
324.024	95.44
324.253	102.44
324.482	98.44
324.71	92.44
324.939	95.44
325.168	99.44
325.397	96.44
325.626	78.44
325.855	89.44
326.084	91.44
326.313	85.44
326.542	92.44
326.77	90.44
326.999	83.44
327.228	95.44
327.457	87.44
327.686	90.44
327.914	79.44
328.143	89.44
328.372	92.44
328.6	75.44
328.829	77.44
329.058	86.44
329.287	83.44
329.515	91.44
329.744	88.44
329.972	81.44
330.201	96.44
330.43	89.44
330.658	83.44
330.887	97.44
331.115	77.44
331.344	73.44
331.572	96.44
331.801	85.44
332.03	80.44
332.258	82.44
332.486	99.44
332.715	78.44
332.943	79.44
333.172	80.44
333.4	84.44
333.629	78.44
333.857	97.44
334.085	81.44
334.314	90.44
334.542	85.44
334.771	93.44
334.999	88.44
335.227	89.44
335.455	89.44
335.684	93.44
335.912	88.44
336.14	81.44
336.369	86.44
336.597	85.44
336.825	83.44
337.053	81.44
337.281	92.44
337.51	83.44
337.738	78.44
337.966	78.44
338.194	75.44
338.422	81.44
338.65	84.44
338.878	90.44
339.106	88.44
339.334	77.44
339.562	74.44
339.79	80.44
340.018	71.44
340.246	96.44
340.474	84.44
340.702	98.44
340.93	72.44
341.158	72.44
341.386	77.44
341.614	80.44
341.842	88.44
342.07	75.44
342.298	75.44
342.526	84.44
342.754	96.44
342.981	89.44
343.209	89.44
343.437	78.44
343.665	91.44
343.893	99.44
344.12	92.44
344.348	84.44
344.576	72.44
344.804	84.44
345.031	82.44
345.259	83.44
345.487	88.44
345.714	79.44
345.942	85.44
346.17	79.44
346.397	101.44
346.625	77.44
346.853	85.44
347.08	80.44
347.308	82.44
347.535	76.44
347.763	96.44
347.99	83.44
348.218	98.44
348.445	97.44
348.673	96.44
348.9	84.44
349.128	90.44
349.355	67.44
349.583	97.44
349.81	84.44
350.037	84.44
350.265	89.44
350.492	85.44
350.72	80.44
350.947	84.44
351.174	91.44
351.402	90.44
351.629	89.44
351.856	83.44
352.083	83.44
352.311	90.44
352.538	84.44
352.765	77.44
352.992	89.44
353.22	89.44
353.447	79.44
353.674	88.44
353.901	80.44
354.128	96.44
354.355	91.44
354.583	86.44
354.81	80.44
355.037	84.44
355.264	84.44
355.491	73.44
355.718	97.44
355.945	78.44
356.172	88.44
356.399	74.44
356.626	83.44
356.853	92.44
357.08	88.44
357.307	83.44
357.534	87.44
357.761	95.44
357.988	88.44
358.215	89.44
358.441	90.44
358.668	94.44
358.895	78.44
359.122	96.44
359.349	91.44
359.576	72.44
359.802	68.44
360.029	83.44
360.256	97.44
360.483	97.44
360.709	80.44
360.936	91.44
361.163	89.44
361.39	85.44
361.616	83.44
361.843	84.44
362.07	99.44
362.296	88.44
362.523	80.44
362.749	84.44
362.976	85.44
363.203	77.44
363.429	83.44
363.656	78.44
363.882	74.44
364.109	89.44
364.335	96.44
364.562	79.44
364.788	82.44
365.015	87.44
365.241	77.44
365.468	84.44
365.694	91.44
365.92	81.44
366.147	106.44
366.373	82.44
366.599	91.44
366.826	95.44
367.052	103.44
367.278	85.44
367.505	94.44
367.731	84.44
367.957	107.44
368.184	80.44
368.41	90.44
368.636	95.44
368.862	113.44
369.089	85.44
369.315	92.44
369.541	97.44
369.767	85.44
369.993	92.44
370.219	91.44
370.445	101.44
370.672	90.44
370.898	80.44
371.124	85.44
371.35	96.44
371.576	80.44
371.802	97.44
372.028	93.44
372.254	85.44
372.48	82.44
372.706	92.44
372.932	88.44
373.158	97.44
373.384	97.44
373.61	95.44
373.835	113.44
374.061	102.44
374.287	105.44
374.513	105.44
374.739	105.44
374.965	91.44
375.191	80.44
375.416	89.44
375.642	89.44
375.868	107.44
376.094	106.44
376.319	87.44
376.545	98.44
376.771	92.44
376.997	98.44
377.222	105.44
377.448	97.44
377.674	108.44
377.899	111.44
378.125	90.44
378.35	89.44
378.576	96.44
378.802	88.44
379.027	105.44
379.253	98.44
379.478	80.44
379.704	95.44
379.929	99.44
380.155	92.44
380.38	88.44
380.606	96.44
380.831	99.44
381.057	98.44
381.282	111.44
381.507	113.44
381.733	111.44
381.958	92.44
382.184	81.44
382.409	107.44
382.634	105.44
382.86	104.44
383.085	88.44
383.31	104.44
383.535	100.44
383.761	92.44
383.986	98.44
384.211	99.44
384.436	101.44
384.662	116.44
384.887	98.44
385.112	87.44
385.337	96.44
385.562	100.44
385.787	86.44
386.013	99.44
386.238	108.44
386.463	99.44
386.688	100.44
386.913	105.44
387.138	93.44
387.363	87.44
387.588	99.44
387.813	99.44
388.038	107.44
388.263	106.44
388.488	104.44
388.713	100.44
388.938	105.44
389.163	103.44
389.387	98.44
389.612	112.44
389.837	111.44
390.062	107.44
390.287	95.44
390.512	99.44
390.736	116.44
390.961	124.44
391.186	114.44
391.411	101.44
391.636	104.44
391.86	123.44
392.085	121.44
392.31	115.44
392.534	111.44
392.759	98.44
392.984	112.44
393.208	99.44
393.433	111.44
393.658	106.44
393.882	116.44
394.107	110.44
394.331	87.44
394.556	110.44
394.78	103.44
395.005	109.44
395.229	106.44
395.454	117.44
395.678	97.44
395.903	119.44
396.127	100.44
396.352	117.44
396.576	108.44
396.801	98.44
397.025	108.44
397.249	113.44
397.474	111.44
397.698	115.44
397.922	119.44
398.147	103.44
398.371	121.44
398.595	105.44
398.82	102.44
399.044	112.44
399.268	117.44
399.492	99.44
399.717	105.44
399.941	103.44
400.165	108.44
400.389	101.44
400.613	98.44
400.837	104.44
401.062	120.44
401.286	116.44
401.51	113.44
401.734	119.44
401.958	112.44
402.182	104.44
402.406	118.44
402.63	104.44
402.854	114.44
403.078	121.44
403.302	111.44
403.526	105.44
403.75	119.44
403.974	105.44
404.198	104.44
404.422	120.44
404.645	111.44
404.869	106.44
405.093	101.44
405.317	115.44
405.541	116.44
405.765	121.44
405.988	114.44
406.212	118.44
406.436	114.44
406.66	128.44
406.883	122.44
407.107	105.44
407.331	112.44
407.555	116.44
407.778	97.44
408.002	133.44
408.226	124.44
408.449	104.44
408.673	126.44
408.896	123.44
409.12	123.44
409.344	130.44
409.567	111.44
409.791	127.44
410.014	137.44
410.238	123.44
410.461	135.44
410.685	135.44
410.908	119.44
411.132	135.44
411.355	124.44
411.578	113.44
411.802	116.44
412.025	124.44
412.249	99.44
412.472	117.44
412.695	127.44
412.919	134.44
413.142	129.44
413.365	122.44
413.589	114.44
413.812	127.44
414.035	131.44
414.258	129.44
414.482	117.44
414.705	135.44
414.928	121.44
415.151	127.44
415.374	121.44
415.597	117.44
415.821	138.44
416.044	136.44
416.267	128.44
416.49	128.44
416.713	133.44
416.936	127.44
417.159	127.44
417.382	128.44
417.605	125.44
417.828	137.44
418.051	124.44
418.274	121.44
418.497	131.44
418.72	125.44
418.943	137.44
419.166	136.44
419.389	136.44
419.611	132.44
419.834	130.44
420.057	124.44
420.28	135.44
420.503	123.44
420.726	125.44
420.948	139.44
421.171	148.44
421.394	137.44
421.617	155.44
421.839	156.44
422.062	140.44
422.285	151.44
422.507	144.44
422.73	138.44
422.953	128.44
423.175	125.44
423.398	129.44
423.621	142.44
423.843	136.44
424.066	142.44
424.288	155.44
424.511	139.44
424.733	140.44
424.956	141.44
425.178	132.44
425.401	148.44
425.623	143.44
425.846	131.44
426.068	132.44
426.291	108.44
426.513	144.44
426.735	129.44
426.958	118.44
427.18	124.44
427.402	121.44
427.625	117.44
427.847	129.44
428.069	135.44
428.292	138.44
428.514	119.44
428.736	137.44
428.958	126.44
429.181	116.44
429.403	124.44
429.625	124.44
429.847	131.44
430.069	137.44
430.292	120.44
430.514	137.44
430.736	123.44
430.958	141.44
431.18	126.44
431.402	119.44
431.624	130.44
431.846	118.44
432.068	87.44
432.29	99.44
432.512	105.44
432.734	134.44
432.956	143.44
433.178	129.44
433.4	116.44
433.622	135.44
433.844	133.44
434.066	121.44
434.287	106.44
434.509	104.44
434.731	113.44
434.953	114.44
435.175	118.44
435.397	127.44
435.618	127.44
435.84	114.44
436.062	120.44
436.284	115.44
436.505	120.44
436.727	132.44
436.949	142.44
437.17	139.44
437.392	135.44
437.614	142.44
437.835	120.44
438.057	113.44
438.278	108.44
438.5	116.44
438.721	138.44
438.943	145.44
439.165	147.44
439.386	155.44
439.608	146.44
439.829	132.44
440.05	131.44
440.272	149.44
440.493	137.44
440.715	146.44
440.936	139.44
441.158	146.44
441.379	149.44
441.6	158.44
441.822	143.44
442.043	127.44
442.264	161.44
442.486	137.44
442.707	142.44
442.928	151.44
443.149	147.44
443.371	148.44
443.592	140.44
443.813	141.44
444.034	147.44
444.255	143.44
444.476	151.44
444.698	137.44
444.919	157.44
445.14	272.44
445.361	213.44
445.582	138.44
445.803	145.44
446.024	146.44
446.245	130.44
446.466	154.44
446.687	157.44
446.908	158.44
447.129	166.44
447.35	162.44
447.571	168.44
447.792	160.44
448.013	142.44
448.234	139.44
448.455	148.44
448.675	124.44
448.896	138.44
449.117	146.44
449.338	144.44
449.559	145.44
449.779	150.44
450	137.44
450.221	133.44
450.442	134.44
450.662	127.44
450.883	128.44
451.104	115.44
451.324	119.44
451.545	120.44
451.766	136.44
451.986	138.44
452.207	135.44
452.428	119.44
452.648	131.44
452.869	124.44
453.089	141.44
453.31	120.44
453.53	95.44
453.751	109.44
453.971	101.44
454.192	110.44
454.412	115.44
454.633	126.44
454.853	128.44
455.073	134.44
455.294	121.44
455.514	119.44
455.734	118.44
455.955	130.44
456.175	130.44
456.395	108.44
456.616	113.44
456.836	103.44
457.056	101.44
457.276	103.44
457.497	123.44
457.717	105.44
457.937	100.44
458.157	112.44
458.377	122.44
458.598	90.44
458.818	84.44
459.038	85.44
459.258	96.44
459.478	102.44
459.698	96.44
459.918	101.44
460.138	107.44
460.358	123.44
460.578	117.44
460.798	101.44
461.018	117.44
461.238	124.44
461.458	112.44
461.678	116.44
461.898	106.44
462.118	125.44
462.338	132.44
462.558	133.44
462.777	127.44
462.997	123.44
463.217	121.44
463.437	107.44
463.657	115.44
463.876	123.44
464.096	107.44
464.316	113.44
464.536	122.44
464.755	127.44
464.975	102.44
465.195	116.44
465.414	123.44
465.634	129.44
465.854	115.44
466.073	104.44
466.293	113.44
466.512	122.44
466.732	136.44
466.951	134.44
467.171	129.44
467.391	133.44
467.61	136.44
467.829	123.44
468.049	133.44
468.268	133.44
468.488	129.44
468.707	136.44
468.927	146.44
469.146	139.44
469.365	134.44
469.585	140.44
469.804	147.44
470.023	136.44
470.243	161.44
470.462	139.44
470.681	145.44
470.901	131.44
471.12	152.44
471.339	152.44
471.558	144.44
471.777	135.44
471.997	137.44
472.216	134.44
472.435	122.44
472.654	103.44
472.873	105.44
473.092	123.44
473.311	131.44
473.53	119.44
473.749	127.44
473.968	138.44
474.187	117.44
474.406	124.44
474.625	114.44
474.844	145.44
475.063	137.44
475.282	137.44
475.501	114.44
475.72	117.44
475.939	119.44
476.158	121.44
476.377	130.44
476.596	124.44
476.814	128.44
477.033	113.44
477.252	117.44
477.471	109.44
477.69	133.44
477.908	145.44
478.127	143.44
478.346	146.44
478.564	126.44
478.783	136.44
479.002	125.44
479.22	139.44
479.439	136.44
479.658	130.44
479.876	118.44
480.095	114.44
480.313	118.44
480.532	121.44
480.751	120.44
480.969	90.44
481.188	112.44
481.406	95.44
481.624	85.44
481.843	88.44
482.061	89.44
482.28	107.44
482.498	117.44
482.717	106.44
482.935	123.44
483.153	150.44
483.372	148.44
483.59	155.44
483.808	131.44
484.027	129.44
484.245	112.44
484.463	142.44
484.681	147.44
484.9	129.44
485.118	122.44
485.336	123.44
485.554	103.44
485.772	105.44
485.99	111.44
486.209	119.44
486.427	119.44
486.645	122.44
486.863	127.44
487.081	143.44
487.299	132.44
487.517	141.44
487.735	161.44
487.953	171.44
488.171	187.44
488.389	162.44
488.607	153.44
488.825	135.44
489.043	123.44
489.261	138.44
489.479	139.44
489.696	139.44
489.914	124.44
490.132	139.44
490.35	161.44
490.568	167.44
490.786	164.44
491.003	166.44
491.221	167.44
491.439	186.44
491.657	184.44
491.874	198.44
492.092	221.44
492.31	233.44
492.527	221.44
492.745	211.44
492.963	192.44
493.18	175.44
493.398	191.44
493.615	171.44
493.833	160.44
494.05	169.44
494.268	162.44
494.485	187.44
494.703	188.44
494.92	163.44
495.138	169.44
495.355	152.44
495.573	159.44
495.79	163.44
496.008	159.44
496.225	159.44
496.442	161.44
496.66	175.44
496.877	158.44
497.094	165.44
497.312	154.44
497.529	152.44
497.746	157.44
497.963	146.44
498.181	139.44
498.398	131.44
498.615	131.44
498.832	133.44
499.049	120.44
499.267	107.44
499.484	117.44
499.701	135.44
499.918	132.44
500.135	130.44
500.352	140.44
500.569	142.44
500.786	137.44
501.003	141.44
501.22	134.44
501.437	152.44
501.654	136.44
501.871	141.44
502.088	116.44
502.305	140.44
502.522	131.44
502.739	130.44
502.956	139.44
503.172	137.44
503.389	117.44
503.606	128.44
503.823	119.44
504.04	124.44
504.256	127.44
504.473	109.44
504.69	121.44
504.907	127.44
505.123	96.44
505.34	123.44
505.557	135.44
505.773	115.44
505.99	125.44
506.207	126.44
506.423	140.44
506.64	100.44
506.856	119.44
507.073	109.44
507.289	124.44
507.506	123.44
507.722	125.44
507.939	105.44
508.155	124.44
508.372	118.44
508.588	106.44
508.805	121.44
509.021	104.44
509.238	105.44
509.454	104.44
509.67	96.44
509.887	107.44
510.103	104.44
510.319	94.44
510.536	96.44
510.752	92.44
510.968	76.44
511.184	81.44
511.401	77.44
