Data from Location2.07152019.Energy5.Lamp.07192019.3%Agarose_HRD10591_14-57-42-359.txt Node
Date: Fri Jul 19 14:57:42 EDT 2019
User: cochatt
Spectrometer: HR+D1059
Trigger mode: 1
Integration Time (sec): 1.000000E-1
Scans to average: 1
Electric dark correction enabled: true
Nonlinearity correction enabled: false
Boxcar width: 0
XAxis mode: Wavelengths
Number of Pixels in Spectrum: 2048
>>>>>Begin Spectral Data<<<<<
223.165	-19.81
223.4	-19.81
223.635	-19.81
223.869	-13.81
224.104	-22.81
224.338	-25.81
224.573	-17.81
224.808	-8.81
225.042	-1.81
225.277	4.19
225.511	-5.81
225.746	5.19
225.98	6.19
226.215	13.19
226.449	19.19
226.683	15.19
226.918	31.19
227.152	22.19
227.387	28.19
227.621	22.19
227.856	58.19
228.09	51.19
228.324	43.19
228.559	55.19
228.793	68.19
229.027	69.19
229.262	64.19
229.496	46.19
229.73	68.19
229.964	50.19
230.199	69.19
230.433	69.19
230.667	73.19
230.901	69.19
231.136	69.19
231.37	73.19
231.604	67.19
231.838	80.19
232.072	94.19
232.306	83.19
232.541	84.19
232.775	91.19
233.009	74.19
233.243	77.19
233.477	66.19
233.711	86.19
233.945	78.19
234.179	81.19
234.413	81.19
234.647	83.19
234.881	77.19
235.115	75.19
235.349	77.19
235.583	71.19
235.817	74.19
236.051	83.19
236.285	70.19
236.519	84.19
236.753	72.19
236.987	78.19
237.221	77.19
237.455	75.19
237.689	88.19
237.922	89.19
238.156	72.19
238.39	77.19
238.624	73.19
238.858	72.19
239.091	58.19
239.325	83.19
239.559	84.19
239.793	82.19
240.027	90.19
240.26	76.19
240.494	87.19
240.728	76.19
240.961	69.19
241.195	87.19
241.429	86.19
241.662	75.19
241.896	79.19
242.13	77.19
242.363	78.19
242.597	86.19
242.83	80.19
243.064	59.19
243.298	88.19
243.531	95.19
243.765	84.19
243.998	86.19
244.232	95.19
244.465	69.19
244.699	91.19
244.932	78.19
245.166	77.19
245.399	82.19
245.633	80.19
245.866	82.19
246.099	71.19
246.333	72.19
246.566	79.19
246.8	74.19
247.033	71.19
247.266	86.19
247.5	75.19
247.733	73.19
247.966	82.19
248.2	80.19
248.433	89.19
248.666	84.19
248.899	69.19
249.133	82.19
249.366	86.19
249.599	71.19
249.832	82.19
250.066	93.19
250.299	87.19
250.532	78.19
250.765	72.19
250.998	81.19
251.231	85.19
251.465	79.19
251.698	82.19
251.931	71.19
252.164	78.19
252.397	82.19
252.63	89.19
252.863	67.19
253.096	74.19
253.329	81.19
253.562	68.19
253.795	88.19
254.028	77.19
254.261	84.19
254.494	77.19
254.727	69.19
254.96	67.19
255.193	76.19
255.426	91.19
255.659	75.19
255.892	87.19
256.124	86.19
256.357	70.19
256.59	88.19
256.823	76.19
257.056	77.19
257.289	86.19
257.521	70.19
257.754	83.19
257.987	84.19
258.22	91.19
258.452	77.19
258.685	70.19
258.918	67.19
259.151	85.19
259.383	72.19
259.616	80.19
259.849	85.19
260.081	82.19
260.314	73.19
260.547	79.19
260.779	78.19
261.012	69.19
261.244	81.19
261.477	87.19
261.71	81.19
261.942	73.19
262.175	89.19
262.407	84.19
262.64	89.19
262.872	85.19
263.105	72.19
263.337	89.19
263.57	85.19
263.802	85.19
264.035	94.19
264.267	81.19
264.499	90.19
264.732	95.19
264.964	84.19
265.197	83.19
265.429	81.19
265.661	81.19
265.894	90.19
266.126	80.19
266.358	81.19
266.591	83.19
266.823	84.19
267.055	76.19
267.287	78.19
267.52	85.19
267.752	86.19
267.984	88.19
268.216	78.19
268.448	76.19
268.681	87.19
268.913	65.19
269.145	71.19
269.377	65.19
269.609	91.19
269.841	77.19
270.073	81.19
270.306	66.19
270.538	89.19
270.77	91.19
271.002	89.19
271.234	89.19
271.466	84.19
271.698	84.19
271.93	91.19
272.162	71.19
272.394	90.19
272.626	91.19
272.858	81.19
273.09	69.19
273.322	65.19
273.553	80.19
273.785	87.19
274.017	85.19
274.249	90.19
274.481	86.19
274.713	97.19
274.945	79.19
275.176	80.19
275.408	81.19
275.64	90.19
275.872	85.19
276.104	98.19
276.335	92.19
276.567	85.19
276.799	89.19
277.031	83.19
277.262	94.19
277.494	98.19
277.726	92.19
277.957	83.19
278.189	87.19
278.421	97.19
278.652	82.19
278.884	85.19
279.115	88.19
279.347	90.19
279.579	93.19
279.81	80.19
280.042	69.19
280.273	90.19
280.505	82.19
280.736	93.19
280.968	85.19
281.199	101.19
281.431	87.19
281.662	69.19
281.894	81.19
282.125	87.19
282.356	99.19
282.588	76.19
282.819	82.19
283.051	94.19
283.282	70.19
283.513	91.19
283.745	87.19
283.976	83.19
284.207	73.19
284.439	82.19
284.67	90.19
284.901	76.19
285.132	84.19
285.364	88.19
285.595	83.19
285.826	82.19
286.057	101.19
286.288	77.19
286.52	70.19
286.751	79.19
286.982	84.19
287.213	87.19
287.444	89.19
287.675	90.19
287.906	82.19
288.138	86.19
288.369	76.19
288.6	88.19
288.831	96.19
289.062	85.19
289.293	92.19
289.524	90.19
289.755	97.19
289.986	94.19
290.217	94.19
290.448	94.19
290.679	91.19
290.91	86.19
291.141	91.19
291.371	95.19
291.602	79.19
291.833	92.19
292.064	78.19
292.295	83.19
292.526	85.19
292.757	87.19
292.987	84.19
293.218	88.19
293.449	85.19
293.68	59.19
293.91	96.19
294.141	84.19
294.372	94.19
294.603	74.19
294.833	77.19
295.064	76.19
295.295	81.19
295.525	78.19
295.756	88.19
295.987	89.19
296.217	96.19
296.448	86.19
296.679	91.19
296.909	87.19
297.14	92.19
297.37	102.19
297.601	91.19
297.831	102.19
298.062	82.19
298.292	87.19
298.523	86.19
298.753	92.19
298.984	91.19
299.214	88.19
299.445	92.19
299.675	86.19
299.905	86.19
300.136	81.19
300.366	93.19
300.597	75.19
300.827	95.19
301.057	87.19
301.288	87.19
301.518	92.19
301.748	69.19
301.979	88.19
302.209	87.19
302.439	77.19
302.669	75.19
302.9	84.19
303.13	79.19
303.36	98.19
303.59	77.19
303.82	86.19
304.051	82.19
304.281	86.19
304.511	81.19
304.741	84.19
304.971	91.19
305.201	87.19
305.431	97.19
305.661	72.19
305.891	100.19
306.121	97.19
306.352	90.19
306.582	87.19
306.812	85.19
307.042	66.19
307.272	93.19
307.502	92.19
307.731	78.19
307.961	90.19
308.191	94.19
308.421	92.19
308.651	91.19
308.881	71.19
309.111	92.19
309.341	80.19
309.571	81.19
309.8	88.19
310.03	76.19
310.26	84.19
310.49	80.19
310.72	81.19
310.949	77.19
311.179	89.19
311.409	85.19
311.639	84.19
311.868	89.19
312.098	86.19
312.328	87.19
312.557	82.19
312.787	74.19
313.017	91.19
313.246	97.19
313.476	80.19
313.706	91.19
313.935	88.19
314.165	86.19
314.394	88.19
314.624	86.19
314.853	70.19
315.083	86.19
315.312	96.19
315.542	99.19
315.771	75.19
316.001	92.19
316.23	81.19
316.46	72.19
316.689	80.19
316.919	86.19
317.148	84.19
317.377	96.19
317.607	85.19
317.836	92.19
318.065	98.19
318.295	69.19
318.524	86.19
318.753	92.19
318.983	86.19
319.212	93.19
319.441	91.19
319.67	93.19
319.9	89.19
320.129	94.19
320.358	80.19
320.587	94.19
320.816	73.19
321.046	96.19
321.275	97.19
321.504	82.19
321.733	100.19
321.962	90.19
322.191	84.19
322.42	81.19
322.649	97.19
322.878	79.19
323.108	97.19
323.337	93.19
323.566	94.19
323.795	87.19
324.024	82.19
324.253	79.19
324.482	80.19
324.71	86.19
324.939	94.19
325.168	85.19
325.397	93.19
325.626	85.19
325.855	88.19
326.084	92.19
326.313	91.19
326.542	83.19
326.77	78.19
326.999	84.19
327.228	84.19
327.457	80.19
327.686	89.19
327.914	80.19
328.143	85.19
328.372	83.19
328.6	91.19
328.829	95.19
329.058	78.19
329.287	79.19
329.515	89.19
329.744	90.19
329.972	87.19
330.201	83.19
330.43	94.19
330.658	76.19
330.887	82.19
331.115	92.19
331.344	81.19
331.572	91.19
331.801	88.19
332.03	89.19
332.258	85.19
332.486	93.19
332.715	90.19
332.943	93.19
333.172	82.19
333.4	84.19
333.629	92.19
333.857	86.19
334.085	99.19
334.314	93.19
334.542	91.19
334.771	90.19
334.999	80.19
335.227	88.19
335.455	86.19
335.684	98.19
335.912	96.19
336.14	94.19
336.369	80.19
336.597	84.19
336.825	84.19
337.053	73.19
337.281	80.19
337.51	95.19
337.738	98.19
337.966	74.19
338.194	94.19
338.422	85.19
338.65	83.19
338.878	97.19
339.106	78.19
339.334	90.19
339.562	86.19
339.79	84.19
340.018	98.19
340.246	90.19
340.474	82.19
340.702	83.19
340.93	83.19
341.158	78.19
341.386	80.19
341.614	75.19
341.842	93.19
342.07	92.19
342.298	83.19
342.526	84.19
342.754	80.19
342.981	91.19
343.209	90.19
343.437	102.19
343.665	87.19
343.893	78.19
344.12	78.19
344.348	99.19
344.576	89.19
344.804	86.19
345.031	87.19
345.259	73.19
345.487	96.19
345.714	82.19
345.942	87.19
346.17	94.19
346.397	78.19
346.625	79.19
346.853	98.19
347.08	90.19
347.308	90.19
347.535	82.19
347.763	79.19
347.99	86.19
348.218	100.19
348.445	85.19
348.673	81.19
348.9	95.19
349.128	102.19
349.355	90.19
349.583	81.19
349.81	75.19
350.037	86.19
350.265	90.19
350.492	88.19
350.72	87.19
350.947	86.19
351.174	103.19
351.402	86.19
351.629	101.19
351.856	82.19
352.083	86.19
352.311	96.19
352.538	72.19
352.765	83.19
352.992	74.19
353.22	89.19
353.447	88.19
353.674	92.19
353.901	91.19
354.128	89.19
354.355	80.19
354.583	77.19
354.81	75.19
355.037	73.19
355.264	82.19
355.491	93.19
355.718	87.19
355.945	94.19
356.172	92.19
356.399	91.19
356.626	83.19
356.853	82.19
357.08	80.19
357.307	83.19
357.534	95.19
357.761	81.19
357.988	74.19
358.215	76.19
358.441	90.19
358.668	78.19
358.895	85.19
359.122	96.19
359.349	77.19
359.576	88.19
359.802	76.19
360.029	96.19
360.256	85.19
360.483	66.19
360.709	73.19
360.936	80.19
361.163	93.19
361.39	88.19
361.616	94.19
361.843	73.19
362.07	76.19
362.296	85.19
362.523	103.19
362.749	100.19
362.976	99.19
363.203	83.19
363.429	84.19
363.656	88.19
363.882	85.19
364.109	86.19
364.335	95.19
364.562	78.19
364.788	95.19
365.015	88.19
365.241	87.19
365.468	89.19
365.694	90.19
365.92	73.19
366.147	66.19
366.373	95.19
366.599	81.19
366.826	78.19
367.052	84.19
367.278	73.19
367.505	82.19
367.731	86.19
367.957	87.19
368.184	102.19
368.41	105.19
368.636	77.19
368.862	113.19
369.089	92.19
369.315	92.19
369.541	96.19
369.767	91.19
369.993	91.19
370.219	94.19
370.445	88.19
370.672	98.19
370.898	78.19
371.124	88.19
371.35	99.19
371.576	107.19
371.802	98.19
372.028	85.19
372.254	92.19
372.48	83.19
372.706	101.19
372.932	89.19
373.158	98.19
373.384	89.19
373.61	96.19
373.835	91.19
374.061	90.19
374.287	96.19
374.513	105.19
374.739	92.19
374.965	97.19
375.191	101.19
375.416	93.19
375.642	106.19
375.868	103.19
376.094	91.19
376.319	81.19
376.545	101.19
376.771	100.19
376.997	106.19
377.222	108.19
377.448	97.19
377.674	85.19
377.899	117.19
378.125	96.19
378.35	104.19
378.576	98.19
378.802	95.19
379.027	101.19
379.253	94.19
379.478	99.19
379.704	114.19
379.929	88.19
380.155	96.19
380.38	101.19
380.606	104.19
380.831	116.19
381.057	114.19
381.282	88.19
381.507	86.19
381.733	110.19
381.958	100.19
382.184	98.19
382.409	94.19
382.634	88.19
382.86	101.19
383.085	104.19
383.31	104.19
383.535	101.19
383.761	109.19
383.986	110.19
384.211	92.19
384.436	89.19
384.662	96.19
384.887	100.19
385.112	102.19
385.337	92.19
385.562	102.19
385.787	98.19
386.013	94.19
386.238	109.19
386.463	85.19
386.688	103.19
386.913	94.19
387.138	92.19
387.363	94.19
387.588	99.19
387.813	104.19
388.038	90.19
388.263	99.19
388.488	103.19
388.713	93.19
388.938	88.19
389.163	94.19
389.387	101.19
389.612	93.19
389.837	123.19
390.062	106.19
390.287	107.19
390.512	112.19
390.736	111.19
390.961	114.19
391.186	106.19
391.411	121.19
391.636	102.19
391.86	114.19
392.085	109.19
392.31	106.19
392.534	115.19
392.759	107.19
392.984	100.19
393.208	110.19
393.433	118.19
393.658	106.19
393.882	88.19
394.107	97.19
394.331	108.19
394.556	99.19
394.78	103.19
395.005	112.19
395.229	110.19
395.454	112.19
395.678	98.19
395.903	106.19
396.127	114.19
396.352	103.19
396.576	111.19
396.801	112.19
397.025	116.19
397.249	110.19
397.474	107.19
397.698	105.19
397.922	119.19
398.147	111.19
398.371	107.19
398.595	120.19
398.82	110.19
399.044	104.19
399.268	101.19
399.492	105.19
399.717	127.19
399.941	112.19
400.165	108.19
400.389	108.19
400.613	106.19
400.837	116.19
401.062	105.19
401.286	103.19
401.51	115.19
401.734	116.19
401.958	121.19
402.182	101.19
402.406	127.19
402.63	119.19
402.854	104.19
403.078	121.19
403.302	114.19
403.526	123.19
403.75	109.19
403.974	109.19
404.198	128.19
404.422	113.19
404.645	99.19
404.869	122.19
405.093	120.19
405.317	116.19
405.541	126.19
405.765	121.19
405.988	108.19
406.212	122.19
406.436	125.19
406.66	125.19
406.883	111.19
407.107	122.19
407.331	121.19
407.555	124.19
407.778	134.19
408.002	126.19
408.226	117.19
408.449	130.19
408.673	123.19
408.896	122.19
409.12	105.19
409.344	124.19
409.567	128.19
409.791	118.19
410.014	115.19
410.238	121.19
410.461	125.19
410.685	123.19
410.908	132.19
411.132	124.19
411.355	136.19
411.578	133.19
411.802	132.19
412.025	124.19
412.249	123.19
412.472	112.19
412.695	120.19
412.919	119.19
413.142	100.19
413.365	117.19
413.589	111.19
413.812	133.19
414.035	116.19
414.258	110.19
414.482	132.19
414.705	133.19
414.928	122.19
415.151	134.19
415.374	132.19
415.597	122.19
415.821	128.19
416.044	134.19
416.267	124.19
416.49	135.19
416.713	122.19
416.936	117.19
417.159	124.19
417.382	132.19
417.605	114.19
417.828	129.19
418.051	131.19
418.274	122.19
418.497	136.19
418.72	116.19
418.943	122.19
419.166	142.19
419.389	136.19
419.611	131.19
419.834	131.19
420.057	121.19
420.28	124.19
420.503	153.19
420.726	125.19
420.948	135.19
421.171	143.19
421.394	142.19
421.617	136.19
421.839	143.19
422.062	130.19
422.285	136.19
422.507	129.19
422.73	132.19
422.953	130.19
423.175	131.19
423.398	130.19
423.621	135.19
423.843	135.19
424.066	122.19
424.288	142.19
424.511	133.19
424.733	133.19
424.956	137.19
425.178	140.19
425.401	154.19
425.623	142.19
425.846	132.19
426.068	123.19
426.291	128.19
426.513	135.19
426.735	136.19
426.958	130.19
427.18	128.19
427.402	133.19
427.625	134.19
427.847	129.19
428.069	121.19
428.292	130.19
428.514	127.19
428.736	129.19
428.958	126.19
429.181	128.19
429.403	121.19
429.625	129.19
429.847	132.19
430.069	136.19
430.292	140.19
430.514	129.19
430.736	117.19
430.958	125.19
431.18	145.19
431.402	125.19
431.624	117.19
431.846	104.19
432.068	100.19
432.29	107.19
432.512	119.19
432.734	123.19
432.956	126.19
433.178	142.19
433.4	126.19
433.622	146.19
433.844	142.19
434.066	106.19
434.287	95.19
434.509	91.19
434.731	107.19
434.953	123.19
435.175	129.19
435.397	110.19
435.618	105.19
435.84	112.19
436.062	118.19
436.284	124.19
436.505	130.19
436.727	123.19
436.949	132.19
437.17	138.19
437.392	129.19
437.614	132.19
437.835	120.19
438.057	113.19
438.278	119.19
438.5	118.19
438.721	134.19
438.943	141.19
439.165	129.19
439.386	130.19
439.608	155.19
439.829	148.19
440.05	145.19
440.272	153.19
440.493	129.19
440.715	133.19
440.936	148.19
441.158	132.19
441.379	155.19
441.6	147.19
441.822	162.19
442.043	148.19
442.264	137.19
442.486	150.19
442.707	160.19
442.928	138.19
443.149	131.19
443.371	133.19
443.592	143.19
443.813	154.19
444.034	156.19
444.255	152.19
444.476	129.19
444.698	135.19
444.919	146.19
445.14	235.19
445.361	182.19
445.582	150.19
445.803	133.19
446.024	135.19
446.245	143.19
446.466	151.19
446.687	148.19
446.908	154.19
447.129	149.19
447.35	133.19
447.571	145.19
447.792	148.19
448.013	129.19
448.234	143.19
448.455	153.19
448.675	133.19
448.896	142.19
449.117	153.19
449.338	149.19
449.559	136.19
449.779	142.19
450	135.19
450.221	140.19
450.442	145.19
450.662	142.19
450.883	133.19
451.104	132.19
451.324	134.19
451.545	134.19
451.766	147.19
451.986	128.19
452.207	130.19
452.428	124.19
452.648	126.19
452.869	136.19
453.089	124.19
453.31	109.19
453.53	123.19
453.751	96.19
453.971	104.19
454.192	112.19
454.412	114.19
454.633	106.19
454.853	119.19
455.073	109.19
455.294	124.19
455.514	112.19
455.734	109.19
455.955	119.19
456.175	114.19
456.395	101.19
456.616	100.19
456.836	107.19
457.056	121.19
457.276	105.19
457.497	124.19
457.717	109.19
457.937	116.19
458.157	104.19
458.377	113.19
458.598	101.19
458.818	85.19
459.038	85.19
459.258	93.19
459.478	94.19
459.698	92.19
459.918	94.19
460.138	110.19
460.358	101.19
460.578	113.19
460.798	106.19
461.018	106.19
461.238	117.19
461.458	126.19
461.678	115.19
461.898	118.19
462.118	126.19
462.338	112.19
462.558	118.19
462.777	118.19
462.997	93.19
463.217	117.19
463.437	113.19
463.657	100.19
463.876	107.19
464.096	101.19
464.316	107.19
464.536	100.19
464.755	105.19
464.975	122.19
465.195	120.19
465.414	101.19
465.634	116.19
465.854	122.19
466.073	121.19
466.293	127.19
466.512	129.19
466.732	140.19
466.951	138.19
467.171	125.19
467.391	124.19
467.61	137.19
467.829	139.19
468.049	140.19
468.268	129.19
468.488	138.19
468.707	134.19
468.927	126.19
469.146	124.19
469.365	141.19
469.585	128.19
469.804	143.19
470.023	130.19
470.243	146.19
470.462	139.19
470.681	138.19
470.901	152.19
471.12	131.19
471.339	132.19
471.558	132.19
471.777	154.19
471.997	149.19
472.216	147.19
472.435	113.19
472.654	110.19
472.873	119.19
473.092	121.19
473.311	134.19
473.53	128.19
473.749	119.19
473.968	126.19
474.187	129.19
474.406	106.19
474.625	150.19
474.844	132.19
475.063	141.19
475.282	135.19
475.501	125.19
475.72	129.19
475.939	121.19
476.158	142.19
476.377	131.19
476.596	112.19
476.814	129.19
477.033	112.19
477.252	111.19
477.471	138.19
477.69	115.19
477.908	132.19
478.127	132.19
478.346	136.19
478.564	126.19
478.783	151.19
479.002	146.19
479.22	134.19
479.439	157.19
479.658	134.19
479.876	124.19
480.095	126.19
480.313	131.19
480.532	124.19
480.751	114.19
480.969	104.19
481.188	92.19
481.406	90.19
481.624	91.19
481.843	96.19
482.061	109.19
482.28	112.19
482.498	96.19
482.717	118.19
482.935	120.19
483.153	142.19
483.372	157.19
483.59	137.19
483.808	147.19
484.027	118.19
484.245	121.19
484.463	140.19
484.681	163.19
484.9	146.19
485.118	146.19
485.336	127.19
485.554	113.19
485.772	124.19
485.99	89.19
486.209	116.19
486.427	91.19
486.645	109.19
486.863	125.19
487.081	140.19
487.299	140.19
487.517	137.19
487.735	154.19
487.953	196.19
488.171	189.19
488.389	162.19
488.607	141.19
488.825	145.19
489.043	130.19
489.261	133.19
489.479	142.19
489.696	141.19
489.914	140.19
490.132	145.19
490.35	151.19
490.568	161.19
490.786	186.19
491.003	171.19
491.221	173.19
491.439	196.19
491.657	186.19
491.874	188.19
492.092	218.19
492.31	246.19
492.527	222.19
492.745	190.19
492.963	197.19
493.18	212.19
493.398	193.19
493.615	172.19
493.833	186.19
494.05	174.19
494.268	179.19
494.485	184.19
494.703	190.19
494.92	161.19
495.138	174.19
495.355	160.19
495.573	181.19
495.79	188.19
496.008	167.19
496.225	167.19
496.442	173.19
496.66	163.19
496.877	167.19
497.094	166.19
497.312	168.19
497.529	150.19
497.746	166.19
497.963	148.19
498.181	150.19
498.398	128.19
498.615	117.19
498.832	120.19
499.049	122.19
499.267	134.19
499.484	108.19
499.701	130.19
499.918	142.19
500.135	137.19
500.352	134.19
500.569	160.19
500.786	142.19
501.003	149.19
501.22	169.19
501.437	141.19
501.654	142.19
501.871	145.19
502.088	120.19
502.305	132.19
502.522	145.19
502.739	147.19
502.956	126.19
503.172	121.19
503.389	124.19
503.606	108.19
503.823	117.19
504.04	118.19
504.256	127.19
504.473	118.19
504.69	124.19
504.907	120.19
505.123	125.19
505.34	109.19
505.557	136.19
505.773	124.19
505.99	124.19
506.207	119.19
506.423	122.19
506.64	125.19
506.856	109.19
507.073	116.19
507.289	118.19
507.506	116.19
507.722	126.19
507.939	115.19
508.155	114.19
508.372	116.19
508.588	108.19
508.805	110.19
509.021	108.19
509.238	105.19
509.454	101.19
509.67	109.19
509.887	97.19
510.103	92.19
510.319	116.19
510.536	100.19
510.752	93.19
510.968	82.19
511.184	91.19
