Data from Location2.07152019.Energy5.Lamp.07192019.3%Agarose_HRD10591_14-57-34-359.txt Node
Date: Fri Jul 19 14:57:34 EDT 2019
User: cochatt
Spectrometer: HR+D1059
Trigger mode: 1
Integration Time (sec): 1.000000E-1
Scans to average: 1
Electric dark correction enabled: true
Nonlinearity correction enabled: false
Boxcar width: 0
XAxis mode: Wavelengths
Number of Pixels in Spectrum: 2048
>>>>>Begin Spectral Data<<<<<
223.165	-11.81
223.4	-11.81
223.635	-11.81
223.869	-7.81
224.104	-12.81
224.338	-11.81
224.573	-4.81
224.808	-18.81
225.042	-22.81
225.277	-5.81
225.511	-6.81
225.746	0.19
225.98	20.19
226.215	11.19
226.449	7.19
226.683	18.19
226.918	18.19
227.152	28.19
227.387	36.19
227.621	36.19
227.856	42.19
228.09	54.19
228.324	57.19
228.559	69.19
228.793	62.19
229.027	62.19
229.262	68.19
229.496	59.19
229.73	55.19
229.964	65.19
230.199	78.19
230.433	75.19
230.667	89.19
230.901	83.19
231.136	76.19
231.37	72.19
231.604	76.19
231.838	79.19
232.072	72.19
232.306	78.19
232.541	87.19
232.775	83.19
233.009	72.19
233.243	83.19
233.477	92.19
233.711	93.19
233.945	85.19
234.179	74.19
234.413	80.19
234.647	82.19
234.881	70.19
235.115	77.19
235.349	92.19
235.583	56.19
235.817	74.19
236.051	71.19
236.285	72.19
236.519	81.19
236.753	72.19
236.987	82.19
237.221	89.19
237.455	93.19
237.689	77.19
237.922	90.19
238.156	66.19
238.39	64.19
238.624	72.19
238.858	79.19
239.091	78.19
239.325	71.19
239.559	69.19
239.793	70.19
240.027	75.19
240.26	80.19
240.494	99.19
240.728	70.19
240.961	81.19
241.195	80.19
241.429	77.19
241.662	73.19
241.896	86.19
242.13	76.19
242.363	76.19
242.597	66.19
242.83	77.19
243.064	74.19
243.298	76.19
243.531	68.19
243.765	77.19
243.998	80.19
244.232	75.19
244.465	79.19
244.699	85.19
244.932	80.19
245.166	81.19
245.399	64.19
245.633	82.19
245.866	74.19
246.099	83.19
246.333	78.19
246.566	76.19
246.8	90.19
247.033	61.19
247.266	81.19
247.5	68.19
247.733	77.19
247.966	82.19
248.2	82.19
248.433	77.19
248.666	72.19
248.899	76.19
249.133	78.19
249.366	73.19
249.599	78.19
249.832	77.19
250.066	82.19
250.299	82.19
250.532	85.19
250.765	82.19
250.998	71.19
251.231	82.19
251.465	90.19
251.698	73.19
251.931	87.19
252.164	84.19
252.397	88.19
252.63	85.19
252.863	92.19
253.096	76.19
253.329	79.19
253.562	81.19
253.795	84.19
254.028	88.19
254.261	72.19
254.494	81.19
254.727	81.19
254.96	88.19
255.193	98.19
255.426	82.19
255.659	86.19
255.892	73.19
256.124	72.19
256.357	80.19
256.59	91.19
256.823	75.19
257.056	81.19
257.289	86.19
257.521	78.19
257.754	83.19
257.987	78.19
258.22	88.19
258.452	78.19
258.685	78.19
258.918	92.19
259.151	98.19
259.383	89.19
259.616	90.19
259.849	77.19
260.081	90.19
260.314	85.19
260.547	91.19
260.779	75.19
261.012	90.19
261.244	89.19
261.477	85.19
261.71	83.19
261.942	97.19
262.175	93.19
262.407	83.19
262.64	80.19
262.872	78.19
263.105	71.19
263.337	102.19
263.57	77.19
263.802	75.19
264.035	84.19
264.267	76.19
264.499	83.19
264.732	70.19
264.964	75.19
265.197	85.19
265.429	96.19
265.661	90.19
265.894	74.19
266.126	78.19
266.358	78.19
266.591	87.19
266.823	83.19
267.055	84.19
267.287	94.19
267.52	89.19
267.752	88.19
267.984	78.19
268.216	87.19
268.448	94.19
268.681	82.19
268.913	69.19
269.145	81.19
269.377	70.19
269.609	81.19
269.841	80.19
270.073	87.19
270.306	74.19
270.538	85.19
270.77	75.19
271.002	97.19
271.234	102.19
271.466	86.19
271.698	76.19
271.93	96.19
272.162	84.19
272.394	92.19
272.626	83.19
272.858	70.19
273.09	76.19
273.322	80.19
273.553	94.19
273.785	75.19
274.017	80.19
274.249	78.19
274.481	77.19
274.713	77.19
274.945	93.19
275.176	85.19
275.408	85.19
275.64	76.19
275.872	77.19
276.104	90.19
276.335	72.19
276.567	88.19
276.799	88.19
277.031	88.19
277.262	84.19
277.494	81.19
277.726	83.19
277.957	84.19
278.189	89.19
278.421	84.19
278.652	85.19
278.884	90.19
279.115	81.19
279.347	85.19
279.579	77.19
279.81	75.19
280.042	91.19
280.273	93.19
280.505	80.19
280.736	85.19
280.968	88.19
281.199	83.19
281.431	92.19
281.662	80.19
281.894	87.19
282.125	93.19
282.356	86.19
282.588	67.19
282.819	74.19
283.051	76.19
283.282	83.19
283.513	87.19
283.745	79.19
283.976	84.19
284.207	85.19
284.439	80.19
284.67	81.19
284.901	79.19
285.132	88.19
285.364	83.19
285.595	95.19
285.826	81.19
286.057	96.19
286.288	84.19
286.52	83.19
286.751	74.19
286.982	80.19
287.213	89.19
287.444	77.19
287.675	87.19
287.906	101.19
288.138	79.19
288.369	83.19
288.6	92.19
288.831	87.19
289.062	80.19
289.293	72.19
289.524	76.19
289.755	103.19
289.986	93.19
290.217	79.19
290.448	87.19
290.679	77.19
290.91	72.19
291.141	70.19
291.371	88.19
291.602	88.19
291.833	77.19
292.064	82.19
292.295	74.19
292.526	86.19
292.757	68.19
292.987	86.19
293.218	82.19
293.449	69.19
293.68	82.19
293.91	93.19
294.141	90.19
294.372	73.19
294.603	68.19
294.833	84.19
295.064	87.19
295.295	67.19
295.525	71.19
295.756	86.19
295.987	82.19
296.217	97.19
296.448	100.19
296.679	87.19
296.909	83.19
297.14	87.19
297.37	73.19
297.601	90.19
297.831	87.19
298.062	76.19
298.292	76.19
298.523	86.19
298.753	92.19
298.984	97.19
299.214	103.19
299.445	81.19
299.675	69.19
299.905	83.19
300.136	88.19
300.366	73.19
300.597	89.19
300.827	102.19
301.057	87.19
301.288	78.19
301.518	84.19
301.748	86.19
301.979	88.19
302.209	84.19
302.439	84.19
302.669	97.19
302.9	83.19
303.13	83.19
303.36	79.19
303.59	74.19
303.82	72.19
304.051	74.19
304.281	101.19
304.511	88.19
304.741	71.19
304.971	89.19
305.201	99.19
305.431	80.19
305.661	68.19
305.891	88.19
306.121	78.19
306.352	87.19
306.582	84.19
306.812	70.19
307.042	83.19
307.272	97.19
307.502	73.19
307.731	90.19
307.961	85.19
308.191	73.19
308.421	63.19
308.651	70.19
308.881	85.19
309.111	81.19
309.341	82.19
309.571	81.19
309.8	82.19
310.03	82.19
310.26	81.19
310.49	100.19
310.72	90.19
310.949	89.19
311.179	99.19
311.409	96.19
311.639	88.19
311.868	83.19
312.098	86.19
312.328	88.19
312.557	70.19
312.787	79.19
313.017	94.19
313.246	86.19
313.476	91.19
313.706	82.19
313.935	82.19
314.165	86.19
314.394	86.19
314.624	83.19
314.853	86.19
315.083	84.19
315.312	72.19
315.542	83.19
315.771	77.19
316.001	85.19
316.23	80.19
316.46	78.19
316.689	98.19
316.919	96.19
317.148	96.19
317.377	83.19
317.607	92.19
317.836	82.19
318.065	77.19
318.295	79.19
318.524	88.19
318.753	83.19
318.983	83.19
319.212	90.19
319.441	83.19
319.67	96.19
319.9	78.19
320.129	87.19
320.358	88.19
320.587	75.19
320.816	76.19
321.046	85.19
321.275	98.19
321.504	76.19
321.733	85.19
321.962	82.19
322.191	87.19
322.42	68.19
322.649	78.19
322.878	83.19
323.108	80.19
323.337	92.19
323.566	90.19
323.795	79.19
324.024	90.19
324.253	91.19
324.482	78.19
324.71	85.19
324.939	88.19
325.168	91.19
325.397	78.19
325.626	83.19
325.855	83.19
326.084	69.19
326.313	78.19
326.542	83.19
326.77	77.19
326.999	82.19
327.228	91.19
327.457	85.19
327.686	84.19
327.914	83.19
328.143	88.19
328.372	82.19
328.6	86.19
328.829	86.19
329.058	82.19
329.287	83.19
329.515	70.19
329.744	78.19
329.972	80.19
330.201	84.19
330.43	71.19
330.658	84.19
330.887	91.19
331.115	89.19
331.344	75.19
331.572	92.19
331.801	86.19
332.03	89.19
332.258	69.19
332.486	70.19
332.715	95.19
332.943	84.19
333.172	94.19
333.4	81.19
333.629	93.19
333.857	76.19
334.085	88.19
334.314	71.19
334.542	79.19
334.771	92.19
334.999	90.19
335.227	86.19
335.455	100.19
335.684	84.19
335.912	88.19
336.14	87.19
336.369	75.19
336.597	97.19
336.825	80.19
337.053	82.19
337.281	91.19
337.51	86.19
337.738	90.19
337.966	91.19
338.194	79.19
338.422	84.19
338.65	93.19
338.878	83.19
339.106	88.19
339.334	93.19
339.562	69.19
339.79	91.19
340.018	85.19
340.246	85.19
340.474	86.19
340.702	82.19
340.93	87.19
341.158	85.19
341.386	72.19
341.614	84.19
341.842	86.19
342.07	75.19
342.298	94.19
342.526	91.19
342.754	91.19
342.981	78.19
343.209	75.19
343.437	84.19
343.665	76.19
343.893	82.19
344.12	84.19
344.348	90.19
344.576	93.19
344.804	90.19
345.031	83.19
345.259	88.19
345.487	93.19
345.714	97.19
345.942	75.19
346.17	78.19
346.397	92.19
346.625	98.19
346.853	80.19
347.08	89.19
347.308	91.19
347.535	94.19
347.763	86.19
347.99	88.19
348.218	85.19
348.445	82.19
348.673	85.19
348.9	76.19
349.128	86.19
349.355	73.19
349.583	67.19
349.81	84.19
350.037	83.19
350.265	83.19
350.492	73.19
350.72	87.19
350.947	76.19
351.174	89.19
351.402	94.19
351.629	72.19
351.856	83.19
352.083	85.19
352.311	92.19
352.538	93.19
352.765	92.19
352.992	95.19
353.22	74.19
353.447	67.19
353.674	85.19
353.901	82.19
354.128	87.19
354.355	82.19
354.583	80.19
354.81	73.19
355.037	92.19
355.264	89.19
355.491	89.19
355.718	92.19
355.945	83.19
356.172	76.19
356.399	89.19
356.626	77.19
356.853	84.19
357.08	96.19
357.307	95.19
357.534	77.19
357.761	92.19
357.988	91.19
358.215	79.19
358.441	82.19
358.668	75.19
358.895	70.19
359.122	87.19
359.349	90.19
359.576	77.19
359.802	70.19
360.029	97.19
360.256	86.19
360.483	96.19
360.709	93.19
360.936	90.19
361.163	78.19
361.39	90.19
361.616	79.19
361.843	70.19
362.07	91.19
362.296	92.19
362.523	82.19
362.749	96.19
362.976	79.19
363.203	83.19
363.429	81.19
363.656	93.19
363.882	84.19
364.109	93.19
364.335	97.19
364.562	87.19
364.788	96.19
365.015	91.19
365.241	89.19
365.468	97.19
365.694	87.19
365.92	82.19
366.147	71.19
366.373	91.19
366.599	74.19
366.826	88.19
367.052	74.19
367.278	92.19
367.505	81.19
367.731	83.19
367.957	83.19
368.184	97.19
368.41	86.19
368.636	92.19
368.862	90.19
369.089	86.19
369.315	88.19
369.541	87.19
369.767	96.19
369.993	91.19
370.219	80.19
370.445	76.19
370.672	89.19
370.898	83.19
371.124	99.19
371.35	85.19
371.576	78.19
371.802	85.19
372.028	89.19
372.254	85.19
372.48	106.19
372.706	78.19
372.932	90.19
373.158	86.19
373.384	91.19
373.61	95.19
373.835	89.19
374.061	85.19
374.287	97.19
374.513	104.19
374.739	94.19
374.965	81.19
375.191	96.19
375.416	84.19
375.642	92.19
375.868	90.19
376.094	97.19
376.319	96.19
376.545	89.19
376.771	85.19
376.997	96.19
377.222	98.19
377.448	93.19
377.674	95.19
377.899	104.19
378.125	85.19
378.35	99.19
378.576	89.19
378.802	106.19
379.027	82.19
379.253	106.19
379.478	102.19
379.704	93.19
379.929	99.19
380.155	102.19
380.38	94.19
380.606	98.19
380.831	87.19
381.057	101.19
381.282	81.19
381.507	101.19
381.733	98.19
381.958	103.19
382.184	99.19
382.409	98.19
382.634	99.19
382.86	99.19
383.085	100.19
383.31	81.19
383.535	96.19
383.761	92.19
383.986	91.19
384.211	101.19
384.436	104.19
384.662	82.19
384.887	87.19
385.112	90.19
385.337	96.19
385.562	94.19
385.787	98.19
386.013	115.19
386.238	106.19
386.463	84.19
386.688	98.19
386.913	96.19
387.138	88.19
387.363	98.19
387.588	104.19
387.813	97.19
388.038	90.19
388.263	100.19
388.488	96.19
388.713	82.19
388.938	100.19
389.163	109.19
389.387	102.19
389.612	100.19
389.837	104.19
390.062	84.19
390.287	97.19
390.512	117.19
390.736	97.19
390.961	98.19
391.186	120.19
391.411	113.19
391.636	102.19
391.86	108.19
392.085	113.19
392.31	87.19
392.534	113.19
392.759	85.19
392.984	108.19
393.208	110.19
393.433	107.19
393.658	108.19
393.882	109.19
394.107	105.19
394.331	112.19
394.556	118.19
394.78	107.19
395.005	110.19
395.229	99.19
395.454	108.19
395.678	94.19
395.903	116.19
396.127	109.19
396.352	118.19
396.576	101.19
396.801	106.19
397.025	116.19
397.249	111.19
397.474	110.19
397.698	101.19
397.922	114.19
398.147	96.19
398.371	101.19
398.595	105.19
398.82	107.19
399.044	108.19
399.268	116.19
399.492	112.19
399.717	124.19
399.941	113.19
400.165	112.19
400.389	119.19
400.613	106.19
400.837	105.19
401.062	111.19
401.286	96.19
401.51	121.19
401.734	119.19
401.958	117.19
402.182	115.19
402.406	108.19
402.63	123.19
402.854	100.19
403.078	113.19
403.302	128.19
403.526	114.19
403.75	105.19
403.974	103.19
404.198	128.19
404.422	121.19
404.645	126.19
404.869	116.19
405.093	116.19
405.317	111.19
405.541	118.19
405.765	121.19
405.988	133.19
406.212	129.19
406.436	125.19
406.66	120.19
406.883	116.19
407.107	121.19
407.331	130.19
407.555	119.19
407.778	114.19
408.002	108.19
408.226	120.19
408.449	129.19
408.673	122.19
408.896	126.19
409.12	118.19
409.344	123.19
409.567	109.19
409.791	110.19
410.014	119.19
410.238	130.19
410.461	141.19
410.685	125.19
410.908	110.19
411.132	128.19
411.355	120.19
411.578	124.19
411.802	127.19
412.025	134.19
412.249	108.19
412.472	110.19
412.695	110.19
412.919	116.19
413.142	146.19
413.365	120.19
413.589	126.19
413.812	128.19
414.035	129.19
414.258	117.19
414.482	127.19
414.705	116.19
414.928	128.19
415.151	118.19
415.374	128.19
415.597	115.19
415.821	117.19
416.044	128.19
416.267	116.19
416.49	128.19
416.713	125.19
416.936	124.19
417.159	120.19
417.382	121.19
417.605	119.19
417.828	133.19
418.051	129.19
418.274	140.19
418.497	136.19
418.72	134.19
418.943	116.19
419.166	128.19
419.389	122.19
419.611	136.19
419.834	128.19
420.057	125.19
420.28	147.19
420.503	142.19
420.726	130.19
420.948	124.19
421.171	133.19
421.394	134.19
421.617	139.19
421.839	154.19
422.062	132.19
422.285	138.19
422.507	138.19
422.73	119.19
422.953	129.19
423.175	114.19
423.398	125.19
423.621	124.19
423.843	140.19
424.066	137.19
424.288	136.19
424.511	145.19
424.733	154.19
424.956	127.19
425.178	150.19
425.401	138.19
425.623	140.19
425.846	115.19
426.068	127.19
426.291	120.19
426.513	126.19
426.735	125.19
426.958	127.19
427.18	124.19
427.402	127.19
427.625	138.19
427.847	136.19
428.069	122.19
428.292	132.19
428.514	131.19
428.736	118.19
428.958	141.19
429.181	134.19
429.403	147.19
429.625	132.19
429.847	124.19
430.069	128.19
430.292	129.19
430.514	122.19
430.736	136.19
430.958	128.19
431.18	133.19
431.402	128.19
431.624	130.19
431.846	119.19
432.068	90.19
432.29	99.19
432.512	115.19
432.734	109.19
432.956	132.19
433.178	134.19
433.4	146.19
433.622	154.19
433.844	132.19
434.066	137.19
434.287	116.19
434.509	100.19
434.731	99.19
434.953	110.19
435.175	143.19
435.397	128.19
435.618	123.19
435.84	106.19
436.062	105.19
436.284	110.19
436.505	115.19
436.727	136.19
436.949	133.19
437.17	130.19
437.392	120.19
437.614	130.19
437.835	121.19
438.057	91.19
438.278	119.19
438.5	112.19
438.721	130.19
438.943	134.19
439.165	143.19
439.386	140.19
439.608	143.19
439.829	153.19
440.05	135.19
440.272	153.19
440.493	142.19
440.715	136.19
440.936	142.19
441.158	141.19
441.379	149.19
441.6	152.19
441.822	148.19
442.043	153.19
442.264	151.19
442.486	148.19
442.707	144.19
442.928	148.19
443.149	129.19
443.371	138.19
443.592	141.19
443.813	136.19
444.034	145.19
444.255	148.19
444.476	149.19
444.698	147.19
444.919	139.19
445.14	242.19
445.361	188.19
445.582	144.19
445.803	153.19
446.024	145.19
446.245	140.19
446.466	153.19
446.687	158.19
446.908	151.19
447.129	161.19
447.35	137.19
447.571	150.19
447.792	148.19
448.013	150.19
448.234	141.19
448.455	157.19
448.675	119.19
448.896	135.19
449.117	139.19
449.338	145.19
449.559	137.19
449.779	137.19
450	132.19
450.221	134.19
450.442	145.19
450.662	127.19
450.883	119.19
451.104	117.19
451.324	129.19
451.545	124.19
451.766	132.19
451.986	126.19
452.207	140.19
452.428	126.19
452.648	121.19
452.869	123.19
453.089	121.19
453.31	120.19
453.53	108.19
453.751	107.19
453.971	108.19
454.192	93.19
454.412	120.19
454.633	128.19
454.853	122.19
455.073	124.19
455.294	125.19
455.514	126.19
455.734	113.19
455.955	120.19
456.175	113.19
456.395	114.19
456.616	97.19
456.836	112.19
457.056	110.19
457.276	124.19
457.497	120.19
457.717	114.19
457.937	92.19
458.157	109.19
458.377	108.19
458.598	99.19
458.818	98.19
459.038	91.19
459.258	87.19
459.478	107.19
459.698	91.19
459.918	109.19
460.138	112.19
460.358	112.19
460.578	112.19
460.798	109.19
461.018	116.19
461.238	112.19
461.458	139.19
461.678	122.19
461.898	112.19
462.118	117.19
462.338	117.19
462.558	111.19
462.777	113.19
462.997	118.19
463.217	123.19
463.437	122.19
463.657	115.19
463.876	113.19
464.096	119.19
464.316	126.19
464.536	121.19
464.755	123.19
464.975	126.19
465.195	109.19
465.414	110.19
465.634	124.19
465.854	126.19
466.073	119.19
466.293	128.19
466.512	117.19
466.732	134.19
466.951	123.19
467.171	128.19
467.391	140.19
467.61	138.19
467.829	132.19
468.049	125.19
468.268	158.19
468.488	139.19
468.707	126.19
468.927	137.19
469.146	132.19
469.365	138.19
469.585	138.19
469.804	138.19
470.023	150.19
470.243	161.19
470.462	134.19
470.681	132.19
470.901	149.19
471.12	150.19
471.339	133.19
471.558	144.19
471.777	138.19
471.997	155.19
472.216	128.19
472.435	127.19
472.654	102.19
472.873	114.19
473.092	115.19
473.311	109.19
473.53	122.19
473.749	138.19
473.968	120.19
474.187	130.19
474.406	128.19
474.625	109.19
474.844	145.19
475.063	126.19
475.282	118.19
475.501	125.19
475.72	120.19
475.939	121.19
476.158	133.19
476.377	132.19
476.596	119.19
476.814	113.19
477.033	115.19
477.252	135.19
477.471	146.19
477.69	136.19
477.908	151.19
478.127	137.19
478.346	133.19
478.564	147.19
478.783	137.19
479.002	138.19
479.22	144.19
479.439	129.19
479.658	130.19
479.876	114.19
480.095	119.19
480.313	128.19
480.532	122.19
480.751	118.19
480.969	90.19
481.188	97.19
481.406	94.19
481.624	106.19
481.843	93.19
482.061	96.19
482.28	105.19
482.498	111.19
482.717	120.19
482.935	125.19
483.153	146.19
483.372	138.19
483.59	159.19
483.808	133.19
484.027	139.19
484.245	134.19
484.463	158.19
484.681	162.19
484.9	158.19
485.118	148.19
485.336	136.19
485.554	120.19
485.772	100.19
485.99	99.19
486.209	108.19
486.427	95.19
486.645	122.19
486.863	146.19
487.081	126.19
487.299	132.19
487.517	148.19
487.735	160.19
487.953	185.19
488.171	194.19
488.389	160.19
488.607	171.19
488.825	165.19
489.043	139.19
489.261	142.19
489.479	141.19
489.696	133.19
489.914	143.19
490.132	139.19
490.35	170.19
490.568	178.19
490.786	178.19
491.003	164.19
491.221	180.19
491.439	180.19
491.657	195.19
491.874	200.19
492.092	208.19
492.31	226.19
492.527	220.19
492.745	193.19
492.963	192.19
493.18	180.19
493.398	204.19
493.615	178.19
493.833	182.19
494.05	174.19
494.268	177.19
494.485	176.19
494.703	167.19
494.92	170.19
495.138	181.19
495.355	163.19
495.573	186.19
495.79	171.19
496.008	159.19
496.225	173.19
496.442	171.19
496.66	163.19
496.877	174.19
497.094	156.19
497.312	157.19
497.529	161.19
497.746	144.19
497.963	154.19
498.181	139.19
498.398	131.19
498.615	132.19
498.832	121.19
499.049	116.19
499.267	130.19
499.484	118.19
499.701	124.19
499.918	145.19
500.135	140.19
500.352	142.19
500.569	129.19
500.786	147.19
501.003	160.19
501.22	134.19
501.437	111.19
501.654	120.19
501.871	131.19
502.088	136.19
502.305	131.19
502.522	134.19
502.739	142.19
502.956	127.19
503.172	124.19
503.389	124.19
503.606	129.19
503.823	125.19
504.04	134.19
504.256	120.19
504.473	112.19
504.69	121.19
504.907	123.19
505.123	105.19
505.34	127.19
505.557	132.19
505.773	142.19
505.99	121.19
506.207	132.19
506.423	126.19
506.64	103.19
506.856	126.19
507.073	132.19
507.289	130.19
507.506	104.19
507.722	121.19
507.939	109.19
508.155	104.19
508.372	120.19
508.588	111.19
508.805	104.19
509.021	118.19
509.238	112.19
509.454	91.19
509.67	108.19
509.887	93.19
510.103	104.19
510.319	92.19
510.536	94.19
510.752	103.19
510.968	90.19
511.184	88.19
511.401	77.19
511.617	103.19
