Data from Location2.07152019.Energy5.Lamp.07192019.3%Agarose_HRD10591_14-56-08-358.txt Node
Date: Fri Jul 19 14:56:08 EDT 2019
User: cochatt
Spectrometer: HR+D1059
Trigger mode: 1
Integration Time (sec): 1.000000E-1
Scans to average: 1
Electric dark correction enabled: true
Nonlinearity correction enabled: false
Boxcar width: 0
XAxis mode: Wavelengths
Number of Pixels in Spectrum: 2048
>>>>>Begin Spectral Data<<<<<
223.165	-8.56
223.4	-8.56
223.635	-8.56
223.869	-12.56
224.104	-13.56
224.338	-9.56
224.573	-8.56
224.808	-12.56
225.042	-15.56
225.277	-16.56
225.511	-4.56
225.746	7.44
225.98	8.44
226.215	5.44
226.449	23.44
226.683	20.44
226.918	13.44
227.152	23.44
227.387	26.44
227.621	28.44
227.856	36.44
228.09	56.44
228.324	46.44
228.559	60.44
228.793	54.44
229.027	59.44
229.262	59.44
229.496	49.44
229.73	54.44
229.964	78.44
230.199	76.44
230.433	71.44
230.667	81.44
230.901	87.44
231.136	68.44
231.37	74.44
231.604	81.44
231.838	72.44
232.072	80.44
232.306	62.44
232.541	75.44
232.775	89.44
233.009	81.44
233.243	81.44
233.477	83.44
233.711	85.44
233.945	82.44
234.179	77.44
234.413	78.44
234.647	77.44
234.881	87.44
235.115	76.44
235.349	77.44
235.583	83.44
235.817	91.44
236.051	79.44
236.285	86.44
236.519	82.44
236.753	79.44
236.987	62.44
237.221	73.44
237.455	79.44
237.689	84.44
237.922	75.44
238.156	85.44
238.39	79.44
238.624	76.44
238.858	77.44
239.091	66.44
239.325	80.44
239.559	62.44
239.793	72.44
240.027	59.44
240.26	64.44
240.494	83.44
240.728	58.44
240.961	78.44
241.195	84.44
241.429	76.44
241.662	88.44
241.896	80.44
242.13	81.44
242.363	80.44
242.597	77.44
242.83	76.44
243.064	66.44
243.298	61.44
243.531	77.44
243.765	72.44
243.998	83.44
244.232	79.44
244.465	77.44
244.699	75.44
244.932	77.44
245.166	80.44
245.399	90.44
245.633	69.44
245.866	76.44
246.099	71.44
246.333	71.44
246.566	57.44
246.8	82.44
247.033	75.44
247.266	88.44
247.5	77.44
247.733	72.44
247.966	95.44
248.2	72.44
248.433	64.44
248.666	76.44
248.899	73.44
249.133	81.44
249.366	77.44
249.599	77.44
249.832	77.44
250.066	81.44
250.299	82.44
250.532	81.44
250.765	82.44
250.998	72.44
251.231	70.44
251.465	84.44
251.698	84.44
251.931	77.44
252.164	96.44
252.397	82.44
252.63	70.44
252.863	67.44
253.096	79.44
253.329	81.44
253.562	87.44
253.795	84.44
254.028	90.44
254.261	86.44
254.494	87.44
254.727	82.44
254.96	90.44
255.193	68.44
255.426	80.44
255.659	77.44
255.892	88.44
256.124	79.44
256.357	70.44
256.59	86.44
256.823	80.44
257.056	81.44
257.289	83.44
257.521	69.44
257.754	73.44
257.987	77.44
258.22	76.44
258.452	64.44
258.685	81.44
258.918	100.44
259.151	75.44
259.383	76.44
259.616	82.44
259.849	80.44
260.081	100.44
260.314	78.44
260.547	73.44
260.779	83.44
261.012	83.44
261.244	80.44
261.477	79.44
261.71	81.44
261.942	86.44
262.175	70.44
262.407	79.44
262.64	88.44
262.872	79.44
263.105	79.44
263.337	85.44
263.57	82.44
263.802	80.44
264.035	84.44
264.267	71.44
264.499	72.44
264.732	79.44
264.964	71.44
265.197	71.44
265.429	70.44
265.661	68.44
265.894	72.44
266.126	71.44
266.358	84.44
266.591	75.44
266.823	77.44
267.055	79.44
267.287	71.44
267.52	87.44
267.752	88.44
267.984	77.44
268.216	87.44
268.448	97.44
268.681	77.44
268.913	77.44
269.145	77.44
269.377	77.44
269.609	74.44
269.841	63.44
270.073	84.44
270.306	83.44
270.538	89.44
270.77	83.44
271.002	76.44
271.234	69.44
271.466	84.44
271.698	76.44
271.93	92.44
272.162	83.44
272.394	85.44
272.626	84.44
272.858	74.44
273.09	80.44
273.322	102.44
273.553	84.44
273.785	60.44
274.017	75.44
274.249	75.44
274.481	84.44
274.713	75.44
274.945	68.44
275.176	80.44
275.408	79.44
275.64	73.44
275.872	78.44
276.104	94.44
276.335	86.44
276.567	91.44
276.799	88.44
277.031	81.44
277.262	71.44
277.494	93.44
277.726	79.44
277.957	78.44
278.189	85.44
278.421	83.44
278.652	77.44
278.884	83.44
279.115	84.44
279.347	87.44
279.579	86.44
279.81	82.44
280.042	90.44
280.273	85.44
280.505	71.44
280.736	72.44
280.968	88.44
281.199	83.44
281.431	75.44
281.662	66.44
281.894	75.44
282.125	79.44
282.356	76.44
282.588	77.44
282.819	88.44
283.051	76.44
283.282	90.44
283.513	83.44
283.745	86.44
283.976	86.44
284.207	93.44
284.439	84.44
284.67	79.44
284.901	94.44
285.132	81.44
285.364	84.44
285.595	76.44
285.826	60.44
286.057	88.44
286.288	81.44
286.52	86.44
286.751	85.44
286.982	77.44
287.213	92.44
287.444	95.44
287.675	74.44
287.906	82.44
288.138	81.44
288.369	76.44
288.6	85.44
288.831	81.44
289.062	81.44
289.293	83.44
289.524	80.44
289.755	84.44
289.986	86.44
290.217	94.44
290.448	88.44
290.679	84.44
290.91	84.44
291.141	94.44
291.371	87.44
291.602	83.44
291.833	77.44
292.064	88.44
292.295	79.44
292.526	68.44
292.757	73.44
292.987	81.44
293.218	92.44
293.449	97.44
293.68	81.44
293.91	95.44
294.141	92.44
294.372	83.44
294.603	83.44
294.833	86.44
295.064	82.44
295.295	80.44
295.525	76.44
295.756	76.44
295.987	84.44
296.217	87.44
296.448	91.44
296.679	80.44
296.909	72.44
297.14	99.44
297.37	81.44
297.601	84.44
297.831	77.44
298.062	86.44
298.292	87.44
298.523	87.44
298.753	80.44
298.984	73.44
299.214	83.44
299.445	83.44
299.675	89.44
299.905	95.44
300.136	91.44
300.366	79.44
300.597	84.44
300.827	89.44
301.057	78.44
301.288	99.44
301.518	90.44
301.748	82.44
301.979	90.44
302.209	98.44
302.439	76.44
302.669	79.44
302.9	88.44
303.13	83.44
303.36	76.44
303.59	92.44
303.82	92.44
304.051	85.44
304.281	83.44
304.511	90.44
304.741	90.44
304.971	90.44
305.201	90.44
305.431	83.44
305.661	76.44
305.891	89.44
306.121	74.44
306.352	77.44
306.582	69.44
306.812	75.44
307.042	89.44
307.272	82.44
307.502	79.44
307.731	82.44
307.961	91.44
308.191	78.44
308.421	77.44
308.651	87.44
308.881	86.44
309.111	72.44
309.341	77.44
309.571	93.44
309.8	84.44
310.03	76.44
310.26	69.44
310.49	73.44
310.72	89.44
310.949	91.44
311.179	81.44
311.409	79.44
311.639	88.44
311.868	93.44
312.098	86.44
312.328	78.44
312.557	76.44
312.787	86.44
313.017	88.44
313.246	101.44
313.476	91.44
313.706	74.44
313.935	81.44
314.165	84.44
314.394	85.44
314.624	96.44
314.853	74.44
315.083	76.44
315.312	81.44
315.542	85.44
315.771	72.44
316.001	77.44
316.23	77.44
316.46	92.44
316.689	77.44
316.919	82.44
317.148	95.44
317.377	92.44
317.607	79.44
317.836	83.44
318.065	90.44
318.295	93.44
318.524	85.44
318.753	78.44
318.983	89.44
319.212	85.44
319.441	81.44
319.67	84.44
319.9	92.44
320.129	74.44
320.358	79.44
320.587	79.44
320.816	95.44
321.046	85.44
321.275	85.44
321.504	75.44
321.733	90.44
321.962	105.44
322.191	91.44
322.42	94.44
322.649	89.44
322.878	87.44
323.108	94.44
323.337	85.44
323.566	81.44
323.795	68.44
324.024	82.44
324.253	74.44
324.482	96.44
324.71	72.44
324.939	86.44
325.168	76.44
325.397	74.44
325.626	77.44
325.855	71.44
326.084	76.44
326.313	81.44
326.542	93.44
326.77	84.44
326.999	92.44
327.228	80.44
327.457	71.44
327.686	93.44
327.914	78.44
328.143	83.44
328.372	100.44
328.6	96.44
328.829	80.44
329.058	80.44
329.287	91.44
329.515	80.44
329.744	82.44
329.972	75.44
330.201	81.44
330.43	88.44
330.658	82.44
330.887	82.44
331.115	77.44
331.344	92.44
331.572	93.44
331.801	84.44
332.03	72.44
332.258	93.44
332.486	81.44
332.715	81.44
332.943	74.44
333.172	87.44
333.4	87.44
333.629	87.44
333.857	93.44
334.085	83.44
334.314	85.44
334.542	86.44
334.771	89.44
334.999	90.44
335.227	72.44
335.455	87.44
335.684	74.44
335.912	83.44
336.14	72.44
336.369	71.44
336.597	100.44
336.825	86.44
337.053	89.44
337.281	76.44
337.51	96.44
337.738	85.44
337.966	81.44
338.194	93.44
338.422	88.44
338.65	95.44
338.878	97.44
339.106	88.44
339.334	82.44
339.562	84.44
339.79	93.44
340.018	93.44
340.246	93.44
340.474	100.44
340.702	95.44
340.93	83.44
341.158	73.44
341.386	87.44
341.614	81.44
341.842	83.44
342.07	81.44
342.298	92.44
342.526	90.44
342.754	83.44
342.981	70.44
343.209	70.44
343.437	80.44
343.665	77.44
343.893	85.44
344.12	96.44
344.348	72.44
344.576	74.44
344.804	91.44
345.031	69.44
345.259	83.44
345.487	87.44
345.714	97.44
345.942	79.44
346.17	72.44
346.397	81.44
346.625	92.44
346.853	78.44
347.08	75.44
347.308	82.44
347.535	76.44
347.763	81.44
347.99	90.44
348.218	99.44
348.445	69.44
348.673	77.44
348.9	88.44
349.128	74.44
349.355	82.44
349.583	88.44
349.81	71.44
350.037	102.44
350.265	68.44
350.492	77.44
350.72	78.44
350.947	75.44
351.174	81.44
351.402	95.44
351.629	87.44
351.856	86.44
352.083	75.44
352.311	76.44
352.538	78.44
352.765	91.44
352.992	90.44
353.22	76.44
353.447	85.44
353.674	71.44
353.901	84.44
354.128	90.44
354.355	70.44
354.583	85.44
354.81	87.44
355.037	89.44
355.264	83.44
355.491	85.44
355.718	75.44
355.945	72.44
356.172	87.44
356.399	83.44
356.626	85.44
356.853	87.44
357.08	82.44
357.307	86.44
357.534	74.44
357.761	87.44
357.988	86.44
358.215	75.44
358.441	90.44
358.668	89.44
358.895	63.44
359.122	83.44
359.349	88.44
359.576	84.44
359.802	77.44
360.029	68.44
360.256	76.44
360.483	87.44
360.709	85.44
360.936	95.44
361.163	91.44
361.39	80.44
361.616	101.44
361.843	96.44
362.07	90.44
362.296	93.44
362.523	77.44
362.749	91.44
362.976	84.44
363.203	79.44
363.429	88.44
363.656	75.44
363.882	89.44
364.109	94.44
364.335	91.44
364.562	76.44
364.788	76.44
365.015	77.44
365.241	100.44
365.468	91.44
365.694	84.44
365.92	97.44
366.147	92.44
366.373	85.44
366.599	83.44
366.826	72.44
367.052	79.44
367.278	82.44
367.505	88.44
367.731	91.44
367.957	91.44
368.184	90.44
368.41	88.44
368.636	67.44
368.862	99.44
369.089	87.44
369.315	94.44
369.541	100.44
369.767	81.44
369.993	81.44
370.219	87.44
370.445	82.44
370.672	91.44
370.898	103.44
371.124	79.44
371.35	88.44
371.576	85.44
371.802	83.44
372.028	79.44
372.254	90.44
372.48	84.44
372.706	102.44
372.932	92.44
373.158	102.44
373.384	94.44
373.61	102.44
373.835	76.44
374.061	87.44
374.287	91.44
374.513	84.44
374.739	91.44
374.965	89.44
375.191	85.44
375.416	85.44
375.642	105.44
375.868	97.44
376.094	100.44
376.319	86.44
376.545	83.44
376.771	94.44
376.997	92.44
377.222	100.44
377.448	87.44
377.674	96.44
377.899	80.44
378.125	90.44
378.35	90.44
378.576	88.44
378.802	88.44
379.027	86.44
379.253	106.44
379.478	85.44
379.704	97.44
379.929	93.44
380.155	103.44
380.38	97.44
380.606	93.44
380.831	88.44
381.057	100.44
381.282	103.44
381.507	99.44
381.733	93.44
381.958	93.44
382.184	85.44
382.409	98.44
382.634	100.44
382.86	88.44
383.085	97.44
383.31	92.44
383.535	103.44
383.761	97.44
383.986	80.44
384.211	103.44
384.436	106.44
384.662	99.44
384.887	93.44
385.112	106.44
385.337	101.44
385.562	96.44
385.787	93.44
386.013	104.44
386.238	90.44
386.463	89.44
386.688	100.44
386.913	100.44
387.138	92.44
387.363	101.44
387.588	99.44
387.813	94.44
388.038	104.44
388.263	99.44
388.488	91.44
388.713	94.44
388.938	105.44
389.163	91.44
389.387	117.44
389.612	97.44
389.837	112.44
390.062	103.44
390.287	108.44
390.512	106.44
390.736	103.44
390.961	105.44
391.186	95.44
391.411	95.44
391.636	90.44
391.86	104.44
392.085	107.44
392.31	107.44
392.534	96.44
392.759	117.44
392.984	111.44
393.208	95.44
393.433	84.44
393.658	100.44
393.882	111.44
394.107	108.44
394.331	100.44
394.556	118.44
394.78	114.44
395.005	105.44
395.229	101.44
395.454	96.44
395.678	104.44
395.903	112.44
396.127	111.44
396.352	104.44
396.576	111.44
396.801	111.44
397.025	97.44
397.249	106.44
397.474	103.44
397.698	112.44
397.922	125.44
398.147	107.44
398.371	112.44
398.595	111.44
398.82	106.44
399.044	100.44
399.268	104.44
399.492	96.44
399.717	106.44
399.941	105.44
400.165	99.44
400.389	118.44
400.613	117.44
400.837	110.44
401.062	114.44
401.286	102.44
401.51	129.44
401.734	108.44
401.958	108.44
402.182	119.44
402.406	104.44
402.63	115.44
402.854	95.44
403.078	115.44
403.302	127.44
403.526	121.44
403.75	123.44
403.974	104.44
404.198	121.44
404.422	108.44
404.645	111.44
404.869	123.44
405.093	122.44
405.317	109.44
405.541	114.44
405.765	122.44
405.988	107.44
406.212	115.44
406.436	127.44
406.66	137.44
406.883	129.44
407.107	129.44
407.331	129.44
407.555	125.44
407.778	114.44
408.002	130.44
408.226	109.44
408.449	113.44
408.673	116.44
408.896	124.44
409.12	106.44
409.344	104.44
409.567	117.44
409.791	127.44
410.014	127.44
410.238	123.44
410.461	118.44
410.685	118.44
410.908	121.44
411.132	136.44
411.355	121.44
411.578	121.44
411.802	125.44
412.025	117.44
412.249	127.44
412.472	135.44
412.695	124.44
412.919	116.44
413.142	136.44
413.365	124.44
413.589	131.44
413.812	117.44
414.035	107.44
414.258	133.44
414.482	117.44
414.705	121.44
414.928	138.44
415.151	112.44
415.374	116.44
415.597	123.44
415.821	123.44
416.044	116.44
416.267	133.44
416.49	139.44
416.713	141.44
416.936	136.44
417.159	124.44
417.382	114.44
417.605	120.44
417.828	122.44
418.051	132.44
418.274	135.44
418.497	125.44
418.72	125.44
418.943	134.44
419.166	134.44
419.389	147.44
419.611	135.44
419.834	125.44
420.057	143.44
420.28	134.44
420.503	133.44
420.726	134.44
420.948	140.44
421.171	137.44
421.394	136.44
421.617	137.44
421.839	134.44
422.062	111.44
422.285	149.44
422.507	123.44
422.73	119.44
422.953	118.44
423.175	131.44
423.398	135.44
423.621	131.44
423.843	128.44
424.066	114.44
424.288	123.44
424.511	130.44
424.733	152.44
424.956	140.44
425.178	127.44
425.401	149.44
425.623	137.44
425.846	137.44
426.068	138.44
426.291	131.44
426.513	120.44
426.735	133.44
426.958	132.44
427.18	120.44
427.402	139.44
427.625	125.44
427.847	130.44
428.069	131.44
428.292	123.44
428.514	121.44
428.736	141.44
428.958	140.44
429.181	130.44
429.403	129.44
429.625	132.44
429.847	133.44
430.069	132.44
430.292	133.44
430.514	123.44
430.736	141.44
430.958	126.44
431.18	117.44
431.402	136.44
431.624	124.44
431.846	103.44
432.068	97.44
432.29	112.44
432.512	111.44
432.734	120.44
432.956	123.44
433.178	132.44
433.4	127.44
433.622	130.44
433.844	147.44
434.066	128.44
434.287	93.44
434.509	102.44
434.731	90.44
434.953	123.44
435.175	121.44
435.397	115.44
435.618	107.44
435.84	120.44
436.062	112.44
436.284	113.44
436.505	128.44
436.727	126.44
436.949	125.44
437.17	135.44
437.392	133.44
437.614	125.44
437.835	97.44
438.057	119.44
438.278	106.44
438.5	124.44
438.721	151.44
438.943	141.44
439.165	143.44
439.386	125.44
439.608	140.44
439.829	147.44
440.05	127.44
440.272	148.44
440.493	139.44
440.715	137.44
440.936	139.44
441.158	134.44
441.379	140.44
441.6	140.44
441.822	141.44
442.043	147.44
442.264	132.44
442.486	135.44
442.707	151.44
442.928	152.44
443.149	141.44
443.371	139.44
443.592	139.44
443.813	131.44
444.034	154.44
444.255	141.44
444.476	149.44
444.698	144.44
444.919	144.44
445.14	267.44
445.361	188.44
445.582	148.44
445.803	159.44
446.024	149.44
446.245	155.44
446.466	145.44
446.687	159.44
446.908	168.44
447.129	143.44
447.35	142.44
447.571	146.44
447.792	144.44
448.013	147.44
448.234	132.44
448.455	144.44
448.675	162.44
448.896	139.44
449.117	135.44
449.338	132.44
449.559	130.44
449.779	143.44
450	146.44
450.221	128.44
450.442	143.44
450.662	133.44
450.883	131.44
451.104	137.44
451.324	124.44
451.545	124.44
451.766	126.44
451.986	131.44
452.207	137.44
452.428	131.44
452.648	122.44
452.869	119.44
453.089	118.44
453.31	107.44
453.53	106.44
453.751	103.44
453.971	83.44
454.192	100.44
454.412	121.44
454.633	104.44
454.853	130.44
455.073	111.44
455.294	127.44
455.514	129.44
455.734	116.44
455.955	107.44
456.175	115.44
456.395	117.44
456.616	119.44
456.836	101.44
457.056	113.44
457.276	102.44
457.497	111.44
457.717	106.44
457.937	119.44
458.157	119.44
458.377	96.44
458.598	88.44
458.818	96.44
459.038	84.44
459.258	92.44
459.478	96.44
459.698	99.44
459.918	88.44
460.138	108.44
460.358	107.44
460.578	116.44
460.798	115.44
461.018	115.44
461.238	111.44
461.458	128.44
461.678	119.44
461.898	124.44
462.118	122.44
462.338	122.44
462.558	120.44
462.777	103.44
462.997	95.44
463.217	118.44
463.437	99.44
463.657	103.44
463.876	104.44
464.096	103.44
464.316	106.44
464.536	118.44
464.755	106.44
464.975	121.44
465.195	129.44
465.414	105.44
465.634	124.44
465.854	123.44
466.073	123.44
466.293	128.44
466.512	119.44
466.732	125.44
466.951	125.44
467.171	133.44
467.391	135.44
467.61	132.44
467.829	131.44
468.049	136.44
468.268	127.44
468.488	132.44
468.707	135.44
468.927	140.44
469.146	129.44
469.365	139.44
469.585	135.44
469.804	132.44
470.023	130.44
470.243	129.44
470.462	124.44
470.681	127.44
470.901	133.44
471.12	138.44
471.339	139.44
471.558	128.44
471.777	137.44
471.997	159.44
472.216	129.44
472.435	115.44
472.654	108.44
472.873	120.44
473.092	116.44
473.311	123.44
473.53	118.44
473.749	124.44
473.968	116.44
474.187	113.44
474.406	119.44
474.625	139.44
474.844	133.44
475.063	123.44
475.282	121.44
475.501	134.44
475.72	119.44
475.939	121.44
476.158	119.44
476.377	135.44
476.596	121.44
476.814	111.44
477.033	112.44
477.252	107.44
477.471	119.44
477.69	137.44
477.908	142.44
478.127	152.44
478.346	142.44
478.564	138.44
478.783	120.44
479.002	121.44
479.22	138.44
479.439	145.44
479.658	123.44
479.876	132.44
480.095	103.44
480.313	127.44
480.532	116.44
480.751	122.44
480.969	95.44
481.188	87.44
481.406	79.44
481.624	100.44
481.843	97.44
482.061	95.44
482.28	116.44
482.498	119.44
482.717	108.44
482.935	125.44
483.153	144.44
483.372	157.44
483.59	139.44
483.808	166.44
484.027	135.44
484.245	128.44
484.463	139.44
484.681	151.44
484.9	139.44
485.118	129.44
485.336	136.44
485.554	122.44
485.772	105.44
485.99	102.44
486.209	93.44
486.427	123.44
486.645	113.44
486.863	138.44
487.081	143.44
487.299	125.44
487.517	145.44
487.735	173.44
487.953	183.44
488.171	178.44
488.389	166.44
488.607	156.44
488.825	153.44
489.043	125.44
489.261	133.44
489.479	145.44
489.696	125.44
489.914	139.44
490.132	152.44
490.35	157.44
490.568	159.44
490.786	180.44
491.003	175.44
491.221	173.44
491.439	183.44
491.657	187.44
491.874	209.44
492.092	218.44
492.31	214.44
492.527	234.44
492.745	218.44
492.963	189.44
493.18	184.44
493.398	179.44
493.615	177.44
493.833	190.44
494.05	159.44
494.268	163.44
494.485	171.44
494.703	179.44
494.92	170.44
495.138	175.44
495.355	175.44
495.573	177.44
495.79	164.44
496.008	181.44
496.225	175.44
496.442	162.44
496.66	173.44
496.877	165.44
497.094	176.44
497.312	165.44
497.529	154.44
497.746	155.44
497.963	131.44
498.181	126.44
498.398	139.44
498.615	119.44
498.832	106.44
499.049	122.44
499.267	133.44
499.484	117.44
499.701	113.44
499.918	143.44
500.135	149.44
500.352	148.44
500.569	121.44
500.786	148.44
501.003	137.44
501.22	134.44
501.437	156.44
501.654	138.44
501.871	132.44
502.088	131.44
502.305	128.44
502.522	128.44
502.739	131.44
502.956	120.44
503.172	129.44
503.389	140.44
503.606	108.44
503.823	103.44
504.04	123.44
504.256	127.44
504.473	123.44
504.69	122.44
504.907	126.44
505.123	138.44
505.34	133.44
505.557	132.44
505.773	136.44
505.99	119.44
506.207	111.44
506.423	135.44
506.64	120.44
506.856	117.44
507.073	123.44
507.289	121.44
507.506	106.44
507.722	119.44
507.939	106.44
508.155	127.44
508.372	129.44
508.588	105.44
508.805	123.44
509.021	115.44
509.238	104.44
509.454	104.44
509.67	102.44
509.887	105.44
510.103	93.44
510.319	101.44
510.536	94.44
510.752	72.44
510.968	89.44
511.184	89.44
511.401	85.44
511.617	95.44
