Data from Location2.07152019.Energy5.Lamp.07192019.3%Agarose_HRD10591_14-56-35-358.txt Node
Date: Fri Jul 19 14:56:35 EDT 2019
User: cochatt
Spectrometer: HR+D1059
Trigger mode: 1
Integration Time (sec): 1.000000E-1
Scans to average: 1
Electric dark correction enabled: true
Nonlinearity correction enabled: false
Boxcar width: 0
XAxis mode: Wavelengths
Number of Pixels in Spectrum: 2048
>>>>>Begin Spectral Data<<<<<
223.165	-19.81
223.4	-19.81
223.635	-19.81
223.869	-11.81
224.104	-16.81
224.338	-13.81
224.573	-13.81
224.808	-25.81
225.042	-2.81
225.277	4.19
225.511	-9.81
225.746	2.19
225.98	4.19
226.215	14.19
226.449	18.19
226.683	18.19
226.918	23.19
227.152	30.19
227.387	45.19
227.621	43.19
227.856	35.19
228.09	48.19
228.324	51.19
228.559	61.19
228.793	52.19
229.027	68.19
229.262	73.19
229.496	64.19
229.73	61.19
229.964	69.19
230.199	59.19
230.433	77.19
230.667	88.19
230.901	87.19
231.136	88.19
231.37	72.19
231.604	84.19
231.838	85.19
232.072	91.19
232.306	86.19
232.541	79.19
232.775	96.19
233.009	76.19
233.243	73.19
233.477	93.19
233.711	80.19
233.945	91.19
234.179	84.19
234.413	74.19
234.647	83.19
234.881	83.19
235.115	88.19
235.349	88.19
235.583	72.19
235.817	92.19
236.051	88.19
236.285	83.19
236.519	84.19
236.753	85.19
236.987	65.19
237.221	77.19
237.455	81.19
237.689	74.19
237.922	87.19
238.156	81.19
238.39	87.19
238.624	74.19
238.858	90.19
239.091	82.19
239.325	80.19
239.559	88.19
239.793	75.19
240.027	76.19
240.26	67.19
240.494	83.19
240.728	83.19
240.961	65.19
241.195	75.19
241.429	94.19
241.662	84.19
241.896	79.19
242.13	81.19
242.363	72.19
242.597	79.19
242.83	84.19
243.064	82.19
243.298	77.19
243.531	89.19
243.765	74.19
243.998	79.19
244.232	75.19
244.465	79.19
244.699	69.19
244.932	70.19
245.166	75.19
245.399	78.19
245.633	85.19
245.866	71.19
246.099	82.19
246.333	64.19
246.566	67.19
246.8	79.19
247.033	81.19
247.266	75.19
247.5	82.19
247.733	75.19
247.966	66.19
248.2	67.19
248.433	66.19
248.666	69.19
248.899	76.19
249.133	93.19
249.366	84.19
249.599	66.19
249.832	82.19
250.066	80.19
250.299	79.19
250.532	70.19
250.765	97.19
250.998	81.19
251.231	80.19
251.465	76.19
251.698	85.19
251.931	84.19
252.164	83.19
252.397	75.19
252.63	83.19
252.863	95.19
253.096	70.19
253.329	74.19
253.562	83.19
253.795	83.19
254.028	95.19
254.261	80.19
254.494	75.19
254.727	89.19
254.96	85.19
255.193	91.19
255.426	77.19
255.659	75.19
255.892	72.19
256.124	69.19
256.357	71.19
256.59	65.19
256.823	83.19
257.056	77.19
257.289	92.19
257.521	95.19
257.754	79.19
257.987	73.19
258.22	92.19
258.452	87.19
258.685	91.19
258.918	87.19
259.151	93.19
259.383	81.19
259.616	79.19
259.849	78.19
260.081	80.19
260.314	73.19
260.547	85.19
260.779	74.19
261.012	85.19
261.244	73.19
261.477	93.19
261.71	86.19
261.942	98.19
262.175	92.19
262.407	61.19
262.64	71.19
262.872	79.19
263.105	89.19
263.337	79.19
263.57	87.19
263.802	93.19
264.035	89.19
264.267	91.19
264.499	88.19
264.732	82.19
264.964	93.19
265.197	77.19
265.429	88.19
265.661	87.19
265.894	88.19
266.126	97.19
266.358	71.19
266.591	91.19
266.823	80.19
267.055	85.19
267.287	93.19
267.52	74.19
267.752	72.19
267.984	83.19
268.216	83.19
268.448	77.19
268.681	80.19
268.913	76.19
269.145	87.19
269.377	70.19
269.609	85.19
269.841	91.19
270.073	83.19
270.306	70.19
270.538	76.19
270.77	77.19
271.002	104.19
271.234	85.19
271.466	94.19
271.698	74.19
271.93	86.19
272.162	89.19
272.394	87.19
272.626	79.19
272.858	86.19
273.09	74.19
273.322	83.19
273.553	81.19
273.785	73.19
274.017	93.19
274.249	78.19
274.481	87.19
274.713	91.19
274.945	95.19
275.176	84.19
275.408	89.19
275.64	77.19
275.872	96.19
276.104	79.19
276.335	77.19
276.567	85.19
276.799	87.19
277.031	82.19
277.262	72.19
277.494	79.19
277.726	100.19
277.957	79.19
278.189	77.19
278.421	90.19
278.652	88.19
278.884	85.19
279.115	76.19
279.347	87.19
279.579	73.19
279.81	85.19
280.042	84.19
280.273	82.19
280.505	81.19
280.736	80.19
280.968	96.19
281.199	79.19
281.431	83.19
281.662	88.19
281.894	71.19
282.125	85.19
282.356	100.19
282.588	73.19
282.819	80.19
283.051	80.19
283.282	95.19
283.513	89.19
283.745	82.19
283.976	89.19
284.207	92.19
284.439	86.19
284.67	98.19
284.901	96.19
285.132	81.19
285.364	82.19
285.595	77.19
285.826	84.19
286.057	90.19
286.288	91.19
286.52	90.19
286.751	92.19
286.982	81.19
287.213	84.19
287.444	73.19
287.675	81.19
287.906	100.19
288.138	95.19
288.369	78.19
288.6	81.19
288.831	68.19
289.062	81.19
289.293	85.19
289.524	84.19
289.755	73.19
289.986	92.19
290.217	83.19
290.448	82.19
290.679	75.19
290.91	84.19
291.141	83.19
291.371	89.19
291.602	88.19
291.833	83.19
292.064	89.19
292.295	77.19
292.526	80.19
292.757	90.19
292.987	82.19
293.218	93.19
293.449	89.19
293.68	89.19
293.91	84.19
294.141	79.19
294.372	78.19
294.603	82.19
294.833	77.19
295.064	92.19
295.295	88.19
295.525	78.19
295.756	89.19
295.987	83.19
296.217	82.19
296.448	91.19
296.679	96.19
296.909	84.19
297.14	87.19
297.37	80.19
297.601	84.19
297.831	77.19
298.062	76.19
298.292	91.19
298.523	93.19
298.753	86.19
298.984	89.19
299.214	78.19
299.445	93.19
299.675	84.19
299.905	96.19
300.136	95.19
300.366	80.19
300.597	83.19
300.827	85.19
301.057	89.19
301.288	91.19
301.518	91.19
301.748	82.19
301.979	78.19
302.209	86.19
302.439	82.19
302.669	80.19
302.9	75.19
303.13	82.19
303.36	78.19
303.59	81.19
303.82	80.19
304.051	95.19
304.281	86.19
304.511	84.19
304.741	103.19
304.971	83.19
305.201	83.19
305.431	78.19
305.661	107.19
305.891	99.19
306.121	93.19
306.352	74.19
306.582	82.19
306.812	81.19
307.042	77.19
307.272	84.19
307.502	84.19
307.731	88.19
307.961	93.19
308.191	87.19
308.421	85.19
308.651	74.19
308.881	83.19
309.111	89.19
309.341	89.19
309.571	80.19
309.8	84.19
310.03	84.19
310.26	92.19
310.49	76.19
310.72	80.19
310.949	96.19
311.179	103.19
311.409	78.19
311.639	86.19
311.868	82.19
312.098	80.19
312.328	75.19
312.557	93.19
312.787	90.19
313.017	82.19
313.246	84.19
313.476	81.19
313.706	83.19
313.935	89.19
314.165	93.19
314.394	84.19
314.624	98.19
314.853	92.19
315.083	83.19
315.312	76.19
315.542	105.19
315.771	81.19
316.001	95.19
316.23	89.19
316.46	83.19
316.689	80.19
316.919	77.19
317.148	97.19
317.377	88.19
317.607	71.19
317.836	95.19
318.065	96.19
318.295	81.19
318.524	84.19
318.753	84.19
318.983	96.19
319.212	90.19
319.441	80.19
319.67	92.19
319.9	86.19
320.129	87.19
320.358	94.19
320.587	93.19
320.816	96.19
321.046	91.19
321.275	95.19
321.504	81.19
321.733	92.19
321.962	85.19
322.191	96.19
322.42	84.19
322.649	85.19
322.878	103.19
323.108	90.19
323.337	83.19
323.566	84.19
323.795	84.19
324.024	84.19
324.253	86.19
324.482	79.19
324.71	83.19
324.939	69.19
325.168	86.19
325.397	98.19
325.626	96.19
325.855	90.19
326.084	73.19
326.313	82.19
326.542	75.19
326.77	88.19
326.999	102.19
327.228	81.19
327.457	81.19
327.686	92.19
327.914	88.19
328.143	88.19
328.372	100.19
328.6	98.19
328.829	98.19
329.058	89.19
329.287	89.19
329.515	87.19
329.744	73.19
329.972	82.19
330.201	89.19
330.43	92.19
330.658	89.19
330.887	84.19
331.115	86.19
331.344	78.19
331.572	90.19
331.801	86.19
332.03	102.19
332.258	90.19
332.486	71.19
332.715	79.19
332.943	87.19
333.172	89.19
333.4	104.19
333.629	82.19
333.857	90.19
334.085	92.19
334.314	103.19
334.542	85.19
334.771	96.19
334.999	74.19
335.227	77.19
335.455	88.19
335.684	87.19
335.912	88.19
336.14	94.19
336.369	85.19
336.597	79.19
336.825	97.19
337.053	89.19
337.281	100.19
337.51	85.19
337.738	86.19
337.966	85.19
338.194	83.19
338.422	90.19
338.65	96.19
338.878	103.19
339.106	91.19
339.334	88.19
339.562	90.19
339.79	82.19
340.018	99.19
340.246	99.19
340.474	91.19
340.702	80.19
340.93	90.19
341.158	97.19
341.386	79.19
341.614	101.19
341.842	70.19
342.07	89.19
342.298	90.19
342.526	77.19
342.754	86.19
342.981	95.19
343.209	81.19
343.437	84.19
343.665	92.19
343.893	98.19
344.12	93.19
344.348	84.19
344.576	73.19
344.804	103.19
345.031	103.19
345.259	82.19
345.487	85.19
345.714	87.19
345.942	90.19
346.17	88.19
346.397	93.19
346.625	61.19
346.853	74.19
347.08	71.19
347.308	88.19
347.535	90.19
347.763	96.19
347.99	89.19
348.218	78.19
348.445	77.19
348.673	81.19
348.9	77.19
349.128	86.19
349.355	94.19
349.583	85.19
349.81	79.19
350.037	87.19
350.265	69.19
350.492	84.19
350.72	85.19
350.947	68.19
351.174	77.19
351.402	80.19
351.629	88.19
351.856	77.19
352.083	87.19
352.311	85.19
352.538	87.19
352.765	82.19
352.992	87.19
353.22	85.19
353.447	86.19
353.674	80.19
353.901	68.19
354.128	74.19
354.355	86.19
354.583	88.19
354.81	85.19
355.037	94.19
355.264	94.19
355.491	87.19
355.718	90.19
355.945	69.19
356.172	75.19
356.399	78.19
356.626	87.19
356.853	81.19
357.08	95.19
357.307	83.19
357.534	78.19
357.761	89.19
357.988	80.19
358.215	81.19
358.441	96.19
358.668	83.19
358.895	87.19
359.122	99.19
359.349	85.19
359.576	92.19
359.802	84.19
360.029	76.19
360.256	75.19
360.483	91.19
360.709	83.19
360.936	107.19
361.163	93.19
361.39	94.19
361.616	84.19
361.843	91.19
362.07	80.19
362.296	82.19
362.523	74.19
362.749	80.19
362.976	68.19
363.203	91.19
363.429	86.19
363.656	118.19
363.882	80.19
364.109	77.19
364.335	84.19
364.562	88.19
364.788	84.19
365.015	80.19
365.241	87.19
365.468	81.19
365.694	92.19
365.92	102.19
366.147	88.19
366.373	91.19
366.599	75.19
366.826	96.19
367.052	93.19
367.278	64.19
367.505	92.19
367.731	92.19
367.957	76.19
368.184	89.19
368.41	90.19
368.636	91.19
368.862	96.19
369.089	93.19
369.315	83.19
369.541	92.19
369.767	81.19
369.993	91.19
370.219	82.19
370.445	92.19
370.672	86.19
370.898	88.19
371.124	93.19
371.35	100.19
371.576	90.19
371.802	87.19
372.028	96.19
372.254	91.19
372.48	95.19
372.706	101.19
372.932	88.19
373.158	82.19
373.384	80.19
373.61	103.19
373.835	82.19
374.061	100.19
374.287	94.19
374.513	94.19
374.739	83.19
374.965	87.19
375.191	105.19
375.416	87.19
375.642	78.19
375.868	112.19
376.094	103.19
376.319	90.19
376.545	84.19
376.771	95.19
376.997	87.19
377.222	95.19
377.448	83.19
377.674	95.19
377.899	99.19
378.125	80.19
378.35	91.19
378.576	77.19
378.802	88.19
379.027	96.19
379.253	102.19
379.478	100.19
379.704	86.19
379.929	99.19
380.155	100.19
380.38	91.19
380.606	107.19
380.831	94.19
381.057	88.19
381.282	90.19
381.507	92.19
381.733	89.19
381.958	84.19
382.184	93.19
382.409	90.19
382.634	99.19
382.86	97.19
383.085	103.19
383.31	102.19
383.535	114.19
383.761	94.19
383.986	98.19
384.211	96.19
384.436	92.19
384.662	82.19
384.887	92.19
385.112	91.19
385.337	103.19
385.562	74.19
385.787	96.19
386.013	112.19
386.238	92.19
386.463	88.19
386.688	100.19
386.913	108.19
387.138	104.19
387.363	108.19
387.588	107.19
387.813	99.19
388.038	111.19
388.263	103.19
388.488	90.19
388.713	100.19
388.938	92.19
389.163	97.19
389.387	99.19
389.612	95.19
389.837	96.19
390.062	95.19
390.287	97.19
390.512	117.19
390.736	96.19
390.961	101.19
391.186	92.19
391.411	88.19
391.636	103.19
391.86	103.19
392.085	106.19
392.31	99.19
392.534	104.19
392.759	88.19
392.984	111.19
393.208	102.19
393.433	98.19
393.658	107.19
393.882	99.19
394.107	107.19
394.331	106.19
394.556	100.19
394.78	121.19
395.005	105.19
395.229	107.19
395.454	102.19
395.678	101.19
395.903	99.19
396.127	118.19
396.352	97.19
396.576	107.19
396.801	108.19
397.025	112.19
397.249	106.19
397.474	106.19
397.698	101.19
397.922	107.19
398.147	100.19
398.371	104.19
398.595	107.19
398.82	112.19
399.044	117.19
399.268	103.19
399.492	117.19
399.717	120.19
399.941	107.19
400.165	113.19
400.389	109.19
400.613	112.19
400.837	119.19
401.062	118.19
401.286	121.19
401.51	115.19
401.734	124.19
401.958	108.19
402.182	101.19
402.406	115.19
402.63	116.19
402.854	107.19
403.078	107.19
403.302	105.19
403.526	117.19
403.75	131.19
403.974	120.19
404.198	116.19
404.422	112.19
404.645	107.19
404.869	119.19
405.093	113.19
405.317	111.19
405.541	118.19
405.765	125.19
405.988	100.19
406.212	105.19
406.436	122.19
406.66	119.19
406.883	116.19
407.107	129.19
407.331	123.19
407.555	105.19
407.778	116.19
408.002	107.19
408.226	116.19
408.449	118.19
408.673	114.19
408.896	117.19
409.12	119.19
409.344	123.19
409.567	113.19
409.791	113.19
410.014	125.19
410.238	127.19
410.461	117.19
410.685	125.19
410.908	122.19
411.132	120.19
411.355	118.19
411.578	126.19
411.802	117.19
412.025	115.19
412.249	120.19
412.472	124.19
412.695	127.19
412.919	114.19
413.142	127.19
413.365	131.19
413.589	129.19
413.812	120.19
414.035	126.19
414.258	113.19
414.482	114.19
414.705	117.19
414.928	113.19
415.151	133.19
415.374	135.19
415.597	106.19
415.821	112.19
416.044	129.19
416.267	132.19
416.49	137.19
416.713	122.19
416.936	113.19
417.159	120.19
417.382	128.19
417.605	125.19
417.828	138.19
418.051	143.19
418.274	127.19
418.497	128.19
418.72	132.19
418.943	119.19
419.166	136.19
419.389	142.19
419.611	140.19
419.834	120.19
420.057	135.19
420.28	148.19
420.503	131.19
420.726	134.19
420.948	117.19
421.171	144.19
421.394	124.19
421.617	134.19
421.839	127.19
422.062	120.19
422.285	125.19
422.507	138.19
422.73	124.19
422.953	116.19
423.175	118.19
423.398	129.19
423.621	122.19
423.843	120.19
424.066	118.19
424.288	146.19
424.511	142.19
424.733	154.19
424.956	138.19
425.178	132.19
425.401	138.19
425.623	141.19
425.846	138.19
426.068	138.19
426.291	120.19
426.513	129.19
426.735	124.19
426.958	137.19
427.18	124.19
427.402	142.19
427.625	135.19
427.847	127.19
428.069	131.19
428.292	129.19
428.514	129.19
428.736	120.19
428.958	141.19
429.181	137.19
429.403	120.19
429.625	128.19
429.847	114.19
430.069	121.19
430.292	145.19
430.514	127.19
430.736	130.19
430.958	123.19
431.18	113.19
431.402	120.19
431.624	111.19
431.846	116.19
432.068	111.19
432.29	99.19
432.512	118.19
432.734	116.19
432.956	127.19
433.178	129.19
433.4	134.19
433.622	122.19
433.844	136.19
434.066	116.19
434.287	111.19
434.509	105.19
434.731	89.19
434.953	102.19
435.175	116.19
435.397	111.19
435.618	120.19
435.84	108.19
436.062	117.19
436.284	125.19
436.505	137.19
436.727	130.19
436.949	137.19
437.17	125.19
437.392	129.19
437.614	131.19
437.835	95.19
438.057	116.19
438.278	113.19
438.5	121.19
438.721	118.19
438.943	126.19
439.165	135.19
439.386	131.19
439.608	141.19
439.829	146.19
440.05	147.19
440.272	141.19
440.493	157.19
440.715	138.19
440.936	143.19
441.158	149.19
441.379	142.19
441.6	140.19
441.822	162.19
442.043	142.19
442.264	142.19
442.486	126.19
442.707	137.19
442.928	133.19
443.149	154.19
443.371	138.19
443.592	141.19
443.813	132.19
444.034	134.19
444.255	141.19
444.476	145.19
444.698	140.19
444.919	155.19
445.14	289.19
445.361	213.19
445.582	139.19
445.803	135.19
446.024	154.19
446.245	145.19
446.466	133.19
446.687	146.19
446.908	158.19
447.129	150.19
447.35	148.19
447.571	159.19
447.792	149.19
448.013	133.19
448.234	141.19
448.455	139.19
448.675	156.19
448.896	144.19
449.117	137.19
449.338	135.19
449.559	131.19
449.779	132.19
450	127.19
450.221	141.19
450.442	131.19
450.662	131.19
450.883	124.19
451.104	137.19
451.324	131.19
451.545	120.19
451.766	128.19
451.986	131.19
452.207	138.19
452.428	130.19
452.648	127.19
452.869	132.19
453.089	121.19
453.31	107.19
453.53	112.19
453.751	103.19
453.971	106.19
454.192	107.19
454.412	115.19
454.633	113.19
454.853	126.19
455.073	101.19
455.294	132.19
455.514	121.19
455.734	121.19
455.955	122.19
456.175	125.19
456.395	118.19
456.616	126.19
456.836	117.19
457.056	102.19
457.276	103.19
457.497	100.19
457.717	104.19
457.937	104.19
458.157	111.19
458.377	96.19
458.598	85.19
458.818	89.19
459.038	98.19
459.258	76.19
459.478	93.19
459.698	94.19
459.918	106.19
460.138	112.19
460.358	115.19
460.578	104.19
460.798	115.19
461.018	123.19
461.238	115.19
461.458	118.19
461.678	111.19
461.898	108.19
462.118	104.19
462.338	119.19
462.558	121.19
462.777	99.19
462.997	107.19
463.217	114.19
463.437	109.19
463.657	105.19
463.876	103.19
464.096	101.19
464.316	116.19
464.536	111.19
464.755	120.19
464.975	121.19
465.195	129.19
465.414	121.19
465.634	115.19
465.854	100.19
466.073	115.19
466.293	119.19
466.512	146.19
466.732	135.19
466.951	127.19
467.171	127.19
467.391	136.19
467.61	115.19
467.829	133.19
468.049	134.19
468.268	135.19
468.488	127.19
468.707	131.19
468.927	129.19
469.146	129.19
469.365	134.19
469.585	139.19
469.804	143.19
470.023	140.19
470.243	120.19
470.462	140.19
470.681	132.19
470.901	140.19
471.12	132.19
471.339	132.19
471.558	141.19
471.777	131.19
471.997	123.19
472.216	122.19
472.435	114.19
472.654	104.19
472.873	99.19
473.092	116.19
473.311	112.19
473.53	113.19
473.749	132.19
473.968	138.19
474.187	129.19
474.406	110.19
474.625	127.19
474.844	147.19
475.063	123.19
475.282	127.19
475.501	122.19
475.72	114.19
475.939	125.19
476.158	146.19
476.377	126.19
476.596	113.19
476.814	118.19
477.033	105.19
477.252	108.19
477.471	139.19
477.69	121.19
477.908	148.19
478.127	139.19
478.346	122.19
478.564	150.19
478.783	135.19
479.002	145.19
479.22	138.19
479.439	144.19
479.658	117.19
479.876	123.19
480.095	116.19
480.313	127.19
480.532	124.19
480.751	101.19
480.969	99.19
481.188	100.19
481.406	85.19
481.624	89.19
481.843	88.19
482.061	104.19
482.28	100.19
482.498	103.19
482.717	115.19
482.935	117.19
483.153	148.19
483.372	154.19
483.59	134.19
483.808	138.19
484.027	130.19
484.245	130.19
484.463	127.19
484.681	135.19
484.9	129.19
485.118	153.19
485.336	129.19
485.554	104.19
485.772	96.19
485.99	91.19
486.209	105.19
486.427	122.19
486.645	119.19
486.863	139.19
487.081	134.19
487.299	122.19
487.517	134.19
487.735	180.19
487.953	180.19
488.171	180.19
488.389	167.19
488.607	155.19
488.825	149.19
489.043	132.19
489.261	129.19
489.479	127.19
489.696	133.19
489.914	141.19
490.132	136.19
490.35	141.19
490.568	159.19
490.786	163.19
491.003	169.19
491.221	185.19
491.439	183.19
491.657	169.19
491.874	204.19
492.092	203.19
492.31	228.19
492.527	219.19
492.745	194.19
492.963	194.19
493.18	177.19
493.398	177.19
493.615	171.19
493.833	165.19
494.05	176.19
494.268	172.19
494.485	161.19
494.703	164.19
494.92	181.19
495.138	172.19
495.355	161.19
495.573	155.19
495.79	172.19
496.008	181.19
496.225	169.19
496.442	169.19
496.66	160.19
496.877	166.19
497.094	163.19
497.312	175.19
497.529	155.19
497.746	152.19
497.963	153.19
498.181	137.19
498.398	128.19
498.615	126.19
498.832	124.19
499.049	127.19
499.267	127.19
499.484	128.19
499.701	131.19
499.918	144.19
500.135	133.19
500.352	127.19
500.569	144.19
500.786	148.19
501.003	149.19
501.22	139.19
501.437	146.19
501.654	146.19
501.871	150.19
502.088	131.19
502.305	127.19
502.522	147.19
502.739	129.19
502.956	131.19
503.172	117.19
503.389	122.19
503.606	119.19
503.823	132.19
504.04	130.19
504.256	105.19
504.473	119.19
504.69	127.19
504.907	129.19
505.123	117.19
505.34	129.19
505.557	126.19
505.773	123.19
505.99	117.19
506.207	119.19
506.423	116.19
506.64	108.19
506.856	118.19
507.073	125.19
507.289	117.19
507.506	122.19
507.722	123.19
507.939	107.19
508.155	119.19
508.372	116.19
508.588	98.19
508.805	122.19
509.021	97.19
509.238	99.19
509.454	100.19
509.67	99.19
509.887	92.19
510.103	100.19
510.319	103.19
510.536	101.19
510.752	85.19
510.968	74.19
511.184	80.19
511.401	83.19
