Data from Location2.07152019.Energy5.Lamp.07192019.3%Agarose_HRD10591_14-55-39-359.txt Node
Date: Fri Jul 19 14:55:39 EDT 2019
User: cochatt
Spectrometer: HR+D1059
Trigger mode: 1
Integration Time (sec): 1.000000E-1
Scans to average: 1
Electric dark correction enabled: true
Nonlinearity correction enabled: false
Boxcar width: 0
XAxis mode: Wavelengths
Number of Pixels in Spectrum: 2048
>>>>>Begin Spectral Data<<<<<
223.165	-4.75
223.4	-4.75
223.635	-4.75
223.869	-23.75
224.104	-14.75
224.338	-15.75
224.573	-20.75
224.808	-12.75
225.042	-7.75
225.277	-8.75
225.511	-9.75
225.746	-0.75
225.98	7.25
226.215	14.25
226.449	17.25
226.683	17.25
226.918	30.25
227.152	33.25
227.387	28.25
227.621	40.25
227.856	40.25
228.09	42.25
228.324	48.25
228.559	51.25
228.793	56.25
229.027	64.25
229.262	68.25
229.496	63.25
229.73	72.25
229.964	63.25
230.199	67.25
230.433	76.25
230.667	77.25
230.901	89.25
231.136	83.25
231.37	83.25
231.604	90.25
231.838	78.25
232.072	81.25
232.306	104.25
232.541	82.25
232.775	82.25
233.009	78.25
233.243	90.25
233.477	77.25
233.711	85.25
233.945	89.25
234.179	90.25
234.413	77.25
234.647	86.25
234.881	72.25
235.115	72.25
235.349	68.25
235.583	77.25
235.817	73.25
236.051	86.25
236.285	81.25
236.519	73.25
236.753	72.25
236.987	68.25
237.221	65.25
237.455	82.25
237.689	85.25
237.922	80.25
238.156	77.25
238.39	81.25
238.624	71.25
238.858	83.25
239.091	67.25
239.325	71.25
239.559	63.25
239.793	71.25
240.027	81.25
240.26	79.25
240.494	84.25
240.728	58.25
240.961	80.25
241.195	74.25
241.429	77.25
241.662	74.25
241.896	85.25
242.13	64.25
242.363	59.25
242.597	87.25
242.83	71.25
243.064	74.25
243.298	79.25
243.531	87.25
243.765	75.25
243.998	76.25
244.232	85.25
244.465	66.25
244.699	84.25
244.932	61.25
245.166	84.25
245.399	80.25
245.633	70.25
245.866	81.25
246.099	61.25
246.333	78.25
246.566	76.25
246.8	74.25
247.033	82.25
247.266	82.25
247.5	83.25
247.733	79.25
247.966	85.25
248.2	76.25
248.433	78.25
248.666	81.25
248.899	81.25
249.133	95.25
249.366	77.25
249.599	76.25
249.832	86.25
250.066	76.25
250.299	71.25
250.532	79.25
250.765	72.25
250.998	66.25
251.231	72.25
251.465	68.25
251.698	83.25
251.931	86.25
252.164	87.25
252.397	85.25
252.63	67.25
252.863	76.25
253.096	89.25
253.329	84.25
253.562	84.25
253.795	74.25
254.028	88.25
254.261	88.25
254.494	77.25
254.727	93.25
254.96	95.25
255.193	85.25
255.426	78.25
255.659	74.25
255.892	90.25
256.124	72.25
256.357	93.25
256.59	84.25
256.823	81.25
257.056	75.25
257.289	82.25
257.521	86.25
257.754	74.25
257.987	89.25
258.22	76.25
258.452	80.25
258.685	81.25
258.918	65.25
259.151	76.25
259.383	87.25
259.616	68.25
259.849	69.25
260.081	79.25
260.314	86.25
260.547	87.25
260.779	87.25
261.012	64.25
261.244	73.25
261.477	88.25
261.71	87.25
261.942	84.25
262.175	72.25
262.407	87.25
262.64	68.25
262.872	75.25
263.105	85.25
263.337	91.25
263.57	81.25
263.802	93.25
264.035	83.25
264.267	88.25
264.499	67.25
264.732	71.25
264.964	99.25
265.197	83.25
265.429	75.25
265.661	78.25
265.894	80.25
266.126	88.25
266.358	87.25
266.591	82.25
266.823	72.25
267.055	73.25
267.287	90.25
267.52	79.25
267.752	87.25
267.984	83.25
268.216	88.25
268.448	87.25
268.681	83.25
268.913	77.25
269.145	78.25
269.377	83.25
269.609	83.25
269.841	99.25
270.073	104.25
270.306	74.25
270.538	71.25
270.77	77.25
271.002	87.25
271.234	69.25
271.466	75.25
271.698	81.25
271.93	82.25
272.162	82.25
272.394	79.25
272.626	82.25
272.858	81.25
273.09	76.25
273.322	87.25
273.553	81.25
273.785	81.25
274.017	78.25
274.249	89.25
274.481	87.25
274.713	81.25
274.945	100.25
275.176	78.25
275.408	87.25
275.64	89.25
275.872	84.25
276.104	86.25
276.335	77.25
276.567	90.25
276.799	87.25
277.031	77.25
277.262	84.25
277.494	88.25
277.726	87.25
277.957	74.25
278.189	83.25
278.421	94.25
278.652	84.25
278.884	89.25
279.115	78.25
279.347	98.25
279.579	83.25
279.81	84.25
280.042	88.25
280.273	70.25
280.505	74.25
280.736	75.25
280.968	77.25
281.199	73.25
281.431	78.25
281.662	79.25
281.894	89.25
282.125	84.25
282.356	85.25
282.588	90.25
282.819	92.25
283.051	86.25
283.282	85.25
283.513	78.25
283.745	90.25
283.976	94.25
284.207	86.25
284.439	83.25
284.67	75.25
284.901	83.25
285.132	87.25
285.364	89.25
285.595	83.25
285.826	92.25
286.057	84.25
286.288	87.25
286.52	89.25
286.751	84.25
286.982	81.25
287.213	88.25
287.444	77.25
287.675	90.25
287.906	86.25
288.138	76.25
288.369	97.25
288.6	91.25
288.831	85.25
289.062	89.25
289.293	96.25
289.524	96.25
289.755	96.25
289.986	86.25
290.217	74.25
290.448	85.25
290.679	89.25
290.91	87.25
291.141	90.25
291.371	86.25
291.602	77.25
291.833	89.25
292.064	98.25
292.295	71.25
292.526	97.25
292.757	83.25
292.987	78.25
293.218	83.25
293.449	87.25
293.68	73.25
293.91	84.25
294.141	75.25
294.372	83.25
294.603	97.25
294.833	96.25
295.064	75.25
295.295	90.25
295.525	82.25
295.756	89.25
295.987	95.25
296.217	70.25
296.448	76.25
296.679	92.25
296.909	82.25
297.14	80.25
297.37	83.25
297.601	88.25
297.831	89.25
298.062	85.25
298.292	78.25
298.523	93.25
298.753	83.25
298.984	86.25
299.214	77.25
299.445	73.25
299.675	73.25
299.905	81.25
300.136	87.25
300.366	82.25
300.597	93.25
300.827	82.25
301.057	83.25
301.288	75.25
301.518	85.25
301.748	80.25
301.979	78.25
302.209	90.25
302.439	96.25
302.669	93.25
302.9	85.25
303.13	96.25
303.36	88.25
303.59	92.25
303.82	91.25
304.051	86.25
304.281	88.25
304.511	97.25
304.741	93.25
304.971	72.25
305.201	72.25
305.431	80.25
305.661	89.25
305.891	91.25
306.121	87.25
306.352	87.25
306.582	98.25
306.812	88.25
307.042	87.25
307.272	81.25
307.502	80.25
307.731	78.25
307.961	93.25
308.191	97.25
308.421	79.25
308.651	85.25
308.881	75.25
309.111	85.25
309.341	88.25
309.571	92.25
309.8	91.25
310.03	77.25
310.26	83.25
310.49	93.25
310.72	96.25
310.949	92.25
311.179	96.25
311.409	84.25
311.639	88.25
311.868	77.25
312.098	88.25
312.328	83.25
312.557	89.25
312.787	85.25
313.017	80.25
313.246	88.25
313.476	89.25
313.706	92.25
313.935	96.25
314.165	74.25
314.394	111.25
314.624	79.25
314.853	92.25
315.083	94.25
315.312	90.25
315.542	92.25
315.771	74.25
316.001	77.25
316.23	73.25
316.46	84.25
316.689	88.25
316.919	74.25
317.148	83.25
317.377	101.25
317.607	91.25
317.836	74.25
318.065	76.25
318.295	87.25
318.524	84.25
318.753	100.25
318.983	68.25
319.212	89.25
319.441	85.25
319.67	94.25
319.9	83.25
320.129	78.25
320.358	79.25
320.587	83.25
320.816	88.25
321.046	92.25
321.275	98.25
321.504	79.25
321.733	74.25
321.962	78.25
322.191	79.25
322.42	88.25
322.649	82.25
322.878	87.25
323.108	81.25
323.337	79.25
323.566	92.25
323.795	86.25
324.024	91.25
324.253	89.25
324.482	76.25
324.71	97.25
324.939	95.25
325.168	80.25
325.397	83.25
325.626	84.25
325.855	77.25
326.084	95.25
326.313	97.25
326.542	83.25
326.77	86.25
326.999	99.25
327.228	80.25
327.457	88.25
327.686	94.25
327.914	91.25
328.143	83.25
328.372	88.25
328.6	73.25
328.829	74.25
329.058	87.25
329.287	89.25
329.515	83.25
329.744	91.25
329.972	75.25
330.201	81.25
330.43	77.25
330.658	86.25
330.887	81.25
331.115	82.25
331.344	81.25
331.572	95.25
331.801	96.25
332.03	87.25
332.258	80.25
332.486	82.25
332.715	91.25
332.943	83.25
333.172	83.25
333.4	99.25
333.629	94.25
333.857	85.25
334.085	85.25
334.314	69.25
334.542	85.25
334.771	88.25
334.999	77.25
335.227	98.25
335.455	75.25
335.684	89.25
335.912	77.25
336.14	105.25
336.369	77.25
336.597	70.25
336.825	71.25
337.053	84.25
337.281	81.25
337.51	71.25
337.738	80.25
337.966	75.25
338.194	81.25
338.422	80.25
338.65	92.25
338.878	86.25
339.106	96.25
339.334	86.25
339.562	79.25
339.79	86.25
340.018	68.25
340.246	92.25
340.474	72.25
340.702	78.25
340.93	85.25
341.158	82.25
341.386	81.25
341.614	69.25
341.842	91.25
342.07	85.25
342.298	101.25
342.526	76.25
342.754	85.25
342.981	87.25
343.209	89.25
343.437	85.25
343.665	87.25
343.893	88.25
344.12	79.25
344.348	80.25
344.576	84.25
344.804	90.25
345.031	92.25
345.259	93.25
345.487	87.25
345.714	76.25
345.942	72.25
346.17	79.25
346.397	87.25
346.625	85.25
346.853	86.25
347.08	86.25
347.308	87.25
347.535	82.25
347.763	86.25
347.99	99.25
348.218	68.25
348.445	74.25
348.673	84.25
348.9	69.25
349.128	87.25
349.355	85.25
349.583	88.25
349.81	96.25
350.037	79.25
350.265	91.25
350.492	80.25
350.72	77.25
350.947	78.25
351.174	85.25
351.402	99.25
351.629	78.25
351.856	97.25
352.083	82.25
352.311	93.25
352.538	90.25
352.765	85.25
352.992	84.25
353.22	77.25
353.447	84.25
353.674	76.25
353.901	81.25
354.128	93.25
354.355	86.25
354.583	71.25
354.81	66.25
355.037	87.25
355.264	83.25
355.491	84.25
355.718	87.25
355.945	85.25
356.172	93.25
356.399	72.25
356.626	72.25
356.853	77.25
357.08	93.25
357.307	75.25
357.534	74.25
357.761	93.25
357.988	84.25
358.215	73.25
358.441	74.25
358.668	77.25
358.895	90.25
359.122	83.25
359.349	88.25
359.576	95.25
359.802	86.25
360.029	76.25
360.256	90.25
360.483	74.25
360.709	95.25
360.936	93.25
361.163	77.25
361.39	80.25
361.616	88.25
361.843	89.25
362.07	96.25
362.296	88.25
362.523	63.25
362.749	86.25
362.976	89.25
363.203	91.25
363.429	89.25
363.656	101.25
363.882	95.25
364.109	73.25
364.335	86.25
364.562	76.25
364.788	91.25
365.015	88.25
365.241	84.25
365.468	72.25
365.694	90.25
365.92	88.25
366.147	93.25
366.373	99.25
366.599	90.25
366.826	83.25
367.052	97.25
367.278	95.25
367.505	75.25
367.731	83.25
367.957	94.25
368.184	100.25
368.41	108.25
368.636	88.25
368.862	87.25
369.089	99.25
369.315	91.25
369.541	74.25
369.767	78.25
369.993	77.25
370.219	83.25
370.445	78.25
370.672	88.25
370.898	89.25
371.124	93.25
371.35	78.25
371.576	86.25
371.802	100.25
372.028	83.25
372.254	94.25
372.48	79.25
372.706	77.25
372.932	95.25
373.158	84.25
373.384	100.25
373.61	106.25
373.835	100.25
374.061	98.25
374.287	98.25
374.513	100.25
374.739	97.25
374.965	91.25
375.191	107.25
375.416	100.25
375.642	89.25
375.868	88.25
376.094	80.25
376.319	98.25
376.545	79.25
376.771	95.25
376.997	91.25
377.222	82.25
377.448	89.25
377.674	94.25
377.899	95.25
378.125	93.25
378.35	115.25
378.576	77.25
378.802	91.25
379.027	105.25
379.253	101.25
379.478	90.25
379.704	84.25
379.929	90.25
380.155	91.25
380.38	104.25
380.606	90.25
380.831	98.25
381.057	93.25
381.282	100.25
381.507	97.25
381.733	118.25
381.958	85.25
382.184	86.25
382.409	98.25
382.634	95.25
382.86	83.25
383.085	95.25
383.31	88.25
383.535	99.25
383.761	103.25
383.986	95.25
384.211	103.25
384.436	92.25
384.662	91.25
384.887	100.25
385.112	102.25
385.337	96.25
385.562	84.25
385.787	97.25
386.013	101.25
386.238	101.25
386.463	101.25
386.688	97.25
386.913	104.25
387.138	103.25
387.363	99.25
387.588	97.25
387.813	89.25
388.038	104.25
388.263	100.25
388.488	86.25
388.713	103.25
388.938	99.25
389.163	98.25
389.387	115.25
389.612	100.25
389.837	89.25
390.062	97.25
390.287	100.25
390.512	97.25
390.736	114.25
390.961	100.25
391.186	101.25
391.411	99.25
391.636	99.25
391.86	112.25
392.085	116.25
392.31	104.25
392.534	110.25
392.759	100.25
392.984	100.25
393.208	110.25
393.433	104.25
393.658	96.25
393.882	99.25
394.107	99.25
394.331	96.25
394.556	100.25
394.78	98.25
395.005	99.25
395.229	108.25
395.454	108.25
395.678	108.25
395.903	88.25
396.127	92.25
396.352	96.25
396.576	108.25
396.801	103.25
397.025	119.25
397.249	96.25
397.474	118.25
397.698	97.25
397.922	102.25
398.147	105.25
398.371	107.25
398.595	99.25
398.82	111.25
399.044	107.25
399.268	121.25
399.492	101.25
399.717	115.25
399.941	104.25
400.165	107.25
400.389	106.25
400.613	101.25
400.837	123.25
401.062	107.25
401.286	93.25
401.51	103.25
401.734	115.25
401.958	116.25
402.182	115.25
402.406	114.25
402.63	105.25
402.854	116.25
403.078	120.25
403.302	105.25
403.526	103.25
403.75	128.25
403.974	113.25
404.198	121.25
404.422	119.25
404.645	117.25
404.869	113.25
405.093	105.25
405.317	108.25
405.541	124.25
405.765	119.25
405.988	117.25
406.212	115.25
406.436	121.25
406.66	124.25
406.883	111.25
407.107	119.25
407.331	128.25
407.555	124.25
407.778	130.25
408.002	123.25
408.226	121.25
408.449	129.25
408.673	113.25
408.896	122.25
409.12	120.25
409.344	107.25
409.567	113.25
409.791	119.25
410.014	129.25
410.238	123.25
410.461	125.25
410.685	125.25
410.908	122.25
411.132	131.25
411.355	125.25
411.578	123.25
411.802	124.25
412.025	119.25
412.249	113.25
412.472	117.25
412.695	114.25
412.919	118.25
413.142	125.25
413.365	114.25
413.589	123.25
413.812	114.25
414.035	124.25
414.258	125.25
414.482	131.25
414.705	131.25
414.928	131.25
415.151	130.25
415.374	131.25
415.597	116.25
415.821	113.25
416.044	128.25
416.267	127.25
416.49	101.25
416.713	113.25
416.936	112.25
417.159	119.25
417.382	131.25
417.605	121.25
417.828	108.25
418.051	126.25
418.274	121.25
418.497	137.25
418.72	154.25
418.943	131.25
419.166	127.25
419.389	128.25
419.611	143.25
419.834	135.25
420.057	127.25
420.28	130.25
420.503	139.25
420.726	123.25
420.948	121.25
421.171	137.25
421.394	122.25
421.617	135.25
421.839	139.25
422.062	120.25
422.285	141.25
422.507	124.25
422.73	117.25
422.953	129.25
423.175	111.25
423.398	139.25
423.621	129.25
423.843	126.25
424.066	139.25
424.288	136.25
424.511	123.25
424.733	145.25
424.956	138.25
425.178	142.25
425.401	147.25
425.623	135.25
425.846	138.25
426.068	141.25
426.291	124.25
426.513	123.25
426.735	123.25
426.958	136.25
427.18	123.25
427.402	140.25
427.625	131.25
427.847	137.25
428.069	130.25
428.292	127.25
428.514	124.25
428.736	123.25
428.958	126.25
429.181	129.25
429.403	114.25
429.625	127.25
429.847	128.25
430.069	139.25
430.292	130.25
430.514	135.25
430.736	124.25
430.958	133.25
431.18	120.25
431.402	127.25
431.624	119.25
431.846	115.25
432.068	102.25
432.29	96.25
432.512	106.25
432.734	132.25
432.956	127.25
433.178	139.25
433.4	148.25
433.622	128.25
433.844	133.25
434.066	119.25
434.287	107.25
434.509	105.25
434.731	102.25
434.953	109.25
435.175	117.25
435.397	118.25
435.618	108.25
435.84	117.25
436.062	119.25
436.284	125.25
436.505	123.25
436.727	140.25
436.949	134.25
437.17	121.25
437.392	125.25
437.614	122.25
437.835	108.25
438.057	101.25
438.278	108.25
438.5	121.25
438.721	135.25
438.943	135.25
439.165	138.25
439.386	130.25
439.608	142.25
439.829	149.25
440.05	155.25
440.272	136.25
440.493	143.25
440.715	140.25
440.936	161.25
441.158	141.25
441.379	143.25
441.6	137.25
441.822	150.25
442.043	141.25
442.264	139.25
442.486	152.25
442.707	129.25
442.928	135.25
443.149	146.25
443.371	158.25
443.592	145.25
443.813	151.25
444.034	141.25
444.255	137.25
444.476	145.25
444.698	137.25
444.919	146.25
445.14	277.25
445.361	209.25
445.582	147.25
445.803	151.25
446.024	149.25
446.245	154.25
446.466	157.25
446.687	148.25
446.908	156.25
447.129	159.25
447.35	151.25
447.571	145.25
447.792	135.25
448.013	139.25
448.234	130.25
448.455	147.25
448.675	125.25
448.896	137.25
449.117	134.25
449.338	137.25
449.559	142.25
449.779	135.25
450	151.25
450.221	131.25
450.442	139.25
450.662	141.25
450.883	129.25
451.104	125.25
451.324	129.25
451.545	124.25
451.766	138.25
451.986	133.25
452.207	127.25
452.428	133.25
452.648	115.25
452.869	126.25
453.089	118.25
453.31	113.25
453.53	116.25
453.751	114.25
453.971	100.25
454.192	100.25
454.412	114.25
454.633	108.25
454.853	127.25
455.073	139.25
455.294	125.25
455.514	131.25
455.734	124.25
455.955	128.25
456.175	126.25
456.395	101.25
456.616	119.25
456.836	103.25
457.056	99.25
457.276	102.25
457.497	101.25
457.717	108.25
457.937	94.25
458.157	111.25
458.377	112.25
458.598	93.25
458.818	95.25
459.038	102.25
459.258	82.25
459.478	80.25
459.698	86.25
459.918	98.25
460.138	103.25
460.358	125.25
460.578	118.25
460.798	104.25
461.018	115.25
461.238	121.25
461.458	116.25
461.678	126.25
461.898	116.25
462.118	126.25
462.338	105.25
462.558	121.25
462.777	109.25
462.997	124.25
463.217	103.25
463.437	115.25
463.657	111.25
463.876	107.25
464.096	116.25
464.316	104.25
464.536	111.25
464.755	115.25
464.975	111.25
465.195	107.25
465.414	123.25
465.634	117.25
465.854	116.25
466.073	142.25
466.293	111.25
466.512	139.25
466.732	150.25
466.951	107.25
467.171	125.25
467.391	127.25
467.61	123.25
467.829	133.25
468.049	147.25
468.268	148.25
468.488	142.25
468.707	145.25
468.927	148.25
469.146	135.25
469.365	122.25
469.585	140.25
469.804	139.25
470.023	140.25
470.243	128.25
470.462	151.25
470.681	138.25
470.901	141.25
471.12	141.25
471.339	133.25
471.558	142.25
471.777	146.25
471.997	125.25
472.216	124.25
472.435	111.25
472.654	106.25
472.873	93.25
473.092	109.25
473.311	109.25
473.53	141.25
473.749	129.25
473.968	131.25
474.187	134.25
474.406	116.25
474.625	132.25
474.844	140.25
475.063	148.25
475.282	131.25
475.501	125.25
475.72	125.25
475.939	124.25
476.158	142.25
476.377	139.25
476.596	126.25
476.814	111.25
477.033	118.25
477.252	111.25
477.471	119.25
477.69	121.25
477.908	132.25
478.127	135.25
478.346	133.25
478.564	131.25
478.783	136.25
479.002	126.25
479.22	132.25
479.439	139.25
479.658	134.25
479.876	126.25
480.095	112.25
480.313	123.25
480.532	127.25
480.751	106.25
480.969	99.25
481.188	82.25
481.406	83.25
481.624	80.25
481.843	96.25
482.061	95.25
482.28	123.25
482.498	107.25
482.717	116.25
482.935	116.25
483.153	136.25
483.372	160.25
483.59	146.25
483.808	140.25
484.027	144.25
484.245	132.25
484.463	134.25
484.681	149.25
484.9	136.25
485.118	132.25
485.336	114.25
485.554	100.25
485.772	105.25
485.99	98.25
486.209	116.25
486.427	100.25
486.645	124.25
486.863	136.25
487.081	133.25
487.299	124.25
487.517	127.25
487.735	169.25
487.953	185.25
488.171	182.25
488.389	166.25
488.607	163.25
488.825	147.25
489.043	150.25
489.261	137.25
489.479	135.25
489.696	141.25
489.914	136.25
490.132	125.25
490.35	137.25
490.568	152.25
490.786	173.25
491.003	185.25
491.221	177.25
491.439	181.25
491.657	200.25
491.874	203.25
492.092	213.25
492.31	239.25
492.527	211.25
492.745	203.25
492.963	179.25
493.18	181.25
493.398	185.25
493.615	177.25
493.833	197.25
494.05	170.25
494.268	184.25
494.485	187.25
494.703	184.25
494.92	175.25
495.138	175.25
495.355	160.25
495.573	172.25
495.79	158.25
496.008	170.25
496.225	167.25
496.442	184.25
496.66	173.25
496.877	169.25
497.094	163.25
497.312	163.25
497.529	167.25
497.746	155.25
497.963	150.25
498.181	140.25
498.398	127.25
498.615	116.25
498.832	134.25
499.049	122.25
499.267	121.25
499.484	127.25
499.701	151.25
499.918	131.25
500.135	134.25
500.352	141.25
500.569	147.25
500.786	158.25
501.003	129.25
501.22	147.25
501.437	132.25
501.654	136.25
501.871	138.25
502.088	141.25
502.305	129.25
502.522	137.25
502.739	123.25
502.956	126.25
503.172	135.25
503.389	126.25
503.606	134.25
503.823	126.25
504.04	129.25
504.256	129.25
504.473	130.25
504.69	121.25
504.907	122.25
505.123	127.25
505.34	129.25
505.557	117.25
505.773	120.25
505.99	117.25
506.207	128.25
506.423	123.25
506.64	129.25
506.856	125.25
507.073	118.25
507.289	125.25
507.506	116.25
507.722	116.25
507.939	113.25
508.155	121.25
508.372	121.25
508.588	117.25
508.805	113.25
509.021	97.25
509.238	100.25
509.454	101.25
509.67	90.25
509.887	103.25
510.103	103.25
510.319	75.25
510.536	118.25
510.752	81.25
510.968	87.25
511.184	88.25
511.401	75.25
511.617	92.25
