Data from Location2.07152019.Energy5.Lamp.07192019.3%Agarose_HRD10591_14-57-06-359.txt Node
Date: Fri Jul 19 14:57:06 EDT 2019
User: cochatt
Spectrometer: HR+D1059
Trigger mode: 1
Integration Time (sec): 1.000000E-1
Scans to average: 1
Electric dark correction enabled: true
Nonlinearity correction enabled: false
Boxcar width: 0
XAxis mode: Wavelengths
Number of Pixels in Spectrum: 2048
>>>>>Begin Spectral Data<<<<<
223.165	-7.5
223.4	-7.5
223.635	-7.5
223.869	1.5
224.104	-28.5
224.338	-12.5
224.573	-15.5
224.808	-15.5
225.042	-7.5
225.277	-15.5
225.511	-1.5
225.746	9.5
225.98	-0.5
226.215	14.5
226.449	9.5
226.683	14.5
226.918	26.5
227.152	28.5
227.387	35.5
227.621	44.5
227.856	43.5
228.09	42.5
228.324	41.5
228.559	58.5
228.793	53.5
229.027	57.5
229.262	48.5
229.496	61.5
229.73	71.5
229.964	58.5
230.199	58.5
230.433	69.5
230.667	74.5
230.901	81.5
231.136	83.5
231.37	84.5
231.604	81.5
231.838	71.5
232.072	71.5
232.306	73.5
232.541	82.5
232.775	75.5
233.009	73.5
233.243	83.5
233.477	75.5
233.711	82.5
233.945	73.5
234.179	80.5
234.413	76.5
234.647	86.5
234.881	78.5
235.115	70.5
235.349	73.5
235.583	76.5
235.817	84.5
236.051	80.5
236.285	79.5
236.519	77.5
236.753	63.5
236.987	79.5
237.221	74.5
237.455	79.5
237.689	76.5
237.922	86.5
238.156	68.5
238.39	65.5
238.624	80.5
238.858	64.5
239.091	72.5
239.325	65.5
239.559	67.5
239.793	67.5
240.027	68.5
240.26	73.5
240.494	78.5
240.728	78.5
240.961	70.5
241.195	71.5
241.429	77.5
241.662	73.5
241.896	67.5
242.13	64.5
242.363	81.5
242.597	72.5
242.83	63.5
243.064	78.5
243.298	64.5
243.531	71.5
243.765	71.5
243.998	69.5
244.232	68.5
244.465	79.5
244.699	59.5
244.932	69.5
245.166	84.5
245.399	73.5
245.633	80.5
245.866	76.5
246.099	74.5
246.333	81.5
246.566	64.5
246.8	77.5
247.033	70.5
247.266	73.5
247.5	78.5
247.733	75.5
247.966	74.5
248.2	89.5
248.433	72.5
248.666	71.5
248.899	85.5
249.133	76.5
249.366	72.5
249.599	76.5
249.832	95.5
250.066	71.5
250.299	84.5
250.532	72.5
250.765	75.5
250.998	79.5
251.231	72.5
251.465	78.5
251.698	92.5
251.931	72.5
252.164	94.5
252.397	73.5
252.63	74.5
252.863	66.5
253.096	84.5
253.329	83.5
253.562	79.5
253.795	80.5
254.028	76.5
254.261	81.5
254.494	76.5
254.727	79.5
254.96	87.5
255.193	78.5
255.426	74.5
255.659	84.5
255.892	74.5
256.124	79.5
256.357	89.5
256.59	73.5
256.823	62.5
257.056	77.5
257.289	88.5
257.521	85.5
257.754	79.5
257.987	81.5
258.22	74.5
258.452	91.5
258.685	84.5
258.918	81.5
259.151	83.5
259.383	85.5
259.616	89.5
259.849	71.5
260.081	74.5
260.314	79.5
260.547	88.5
260.779	81.5
261.012	76.5
261.244	77.5
261.477	83.5
261.71	76.5
261.942	77.5
262.175	78.5
262.407	82.5
262.64	58.5
262.872	72.5
263.105	76.5
263.337	86.5
263.57	69.5
263.802	88.5
264.035	77.5
264.267	85.5
264.499	80.5
264.732	89.5
264.964	65.5
265.197	80.5
265.429	92.5
265.661	73.5
265.894	76.5
266.126	88.5
266.358	84.5
266.591	78.5
266.823	71.5
267.055	76.5
267.287	76.5
267.52	66.5
267.752	86.5
267.984	75.5
268.216	78.5
268.448	79.5
268.681	77.5
268.913	77.5
269.145	100.5
269.377	78.5
269.609	72.5
269.841	82.5
270.073	71.5
270.306	68.5
270.538	77.5
270.77	72.5
271.002	74.5
271.234	80.5
271.466	65.5
271.698	73.5
271.93	82.5
272.162	82.5
272.394	82.5
272.626	71.5
272.858	80.5
273.09	74.5
273.322	76.5
273.553	80.5
273.785	70.5
274.017	73.5
274.249	82.5
274.481	84.5
274.713	86.5
274.945	75.5
275.176	79.5
275.408	65.5
275.64	72.5
275.872	78.5
276.104	73.5
276.335	69.5
276.567	81.5
276.799	70.5
277.031	73.5
277.262	74.5
277.494	85.5
277.726	89.5
277.957	78.5
278.189	89.5
278.421	78.5
278.652	82.5
278.884	67.5
279.115	80.5
279.347	80.5
279.579	93.5
279.81	89.5
280.042	78.5
280.273	66.5
280.505	87.5
280.736	73.5
280.968	78.5
281.199	79.5
281.431	82.5
281.662	75.5
281.894	89.5
282.125	88.5
282.356	83.5
282.588	77.5
282.819	71.5
283.051	80.5
283.282	71.5
283.513	78.5
283.745	83.5
283.976	65.5
284.207	73.5
284.439	78.5
284.67	76.5
284.901	72.5
285.132	73.5
285.364	78.5
285.595	84.5
285.826	84.5
286.057	92.5
286.288	80.5
286.52	75.5
286.751	84.5
286.982	71.5
287.213	84.5
287.444	83.5
287.675	93.5
287.906	89.5
288.138	85.5
288.369	87.5
288.6	88.5
288.831	85.5
289.062	88.5
289.293	78.5
289.524	78.5
289.755	87.5
289.986	79.5
290.217	79.5
290.448	80.5
290.679	76.5
290.91	77.5
291.141	70.5
291.371	81.5
291.602	82.5
291.833	72.5
292.064	84.5
292.295	84.5
292.526	68.5
292.757	83.5
292.987	80.5
293.218	85.5
293.449	76.5
293.68	79.5
293.91	81.5
294.141	73.5
294.372	75.5
294.603	75.5
294.833	88.5
295.064	82.5
295.295	70.5
295.525	74.5
295.756	87.5
295.987	86.5
296.217	79.5
296.448	85.5
296.679	72.5
296.909	86.5
297.14	81.5
297.37	89.5
297.601	80.5
297.831	80.5
298.062	84.5
298.292	84.5
298.523	85.5
298.753	89.5
298.984	70.5
299.214	78.5
299.445	91.5
299.675	75.5
299.905	86.5
300.136	88.5
300.366	77.5
300.597	69.5
300.827	87.5
301.057	83.5
301.288	77.5
301.518	74.5
301.748	84.5
301.979	68.5
302.209	85.5
302.439	74.5
302.669	81.5
302.9	82.5
303.13	88.5
303.36	82.5
303.59	91.5
303.82	66.5
304.051	80.5
304.281	87.5
304.511	81.5
304.741	80.5
304.971	89.5
305.201	103.5
305.431	75.5
305.661	90.5
305.891	92.5
306.121	84.5
306.352	76.5
306.582	79.5
306.812	80.5
307.042	94.5
307.272	70.5
307.502	84.5
307.731	87.5
307.961	95.5
308.191	83.5
308.421	80.5
308.651	80.5
308.881	95.5
309.111	94.5
309.341	76.5
309.571	85.5
309.8	79.5
310.03	73.5
310.26	93.5
310.49	78.5
310.72	84.5
310.949	83.5
311.179	88.5
311.409	90.5
311.639	94.5
311.868	85.5
312.098	63.5
312.328	84.5
312.557	76.5
312.787	78.5
313.017	76.5
313.246	84.5
313.476	80.5
313.706	74.5
313.935	82.5
314.165	87.5
314.394	94.5
314.624	70.5
314.853	93.5
315.083	89.5
315.312	85.5
315.542	77.5
315.771	84.5
316.001	85.5
316.23	91.5
316.46	76.5
316.689	91.5
316.919	89.5
317.148	82.5
317.377	82.5
317.607	92.5
317.836	77.5
318.065	79.5
318.295	96.5
318.524	90.5
318.753	92.5
318.983	74.5
319.212	70.5
319.441	82.5
319.67	84.5
319.9	90.5
320.129	85.5
320.358	77.5
320.587	67.5
320.816	97.5
321.046	77.5
321.275	82.5
321.504	69.5
321.733	67.5
321.962	88.5
322.191	82.5
322.42	86.5
322.649	84.5
322.878	78.5
323.108	95.5
323.337	89.5
323.566	76.5
323.795	86.5
324.024	83.5
324.253	86.5
324.482	88.5
324.71	86.5
324.939	88.5
325.168	73.5
325.397	78.5
325.626	71.5
325.855	71.5
326.084	73.5
326.313	83.5
326.542	78.5
326.77	93.5
326.999	73.5
327.228	75.5
327.457	86.5
327.686	84.5
327.914	84.5
328.143	70.5
328.372	77.5
328.6	75.5
328.829	76.5
329.058	77.5
329.287	81.5
329.515	77.5
329.744	64.5
329.972	85.5
330.201	74.5
330.43	77.5
330.658	84.5
330.887	73.5
331.115	83.5
331.344	79.5
331.572	73.5
331.801	79.5
332.03	82.5
332.258	95.5
332.486	76.5
332.715	81.5
332.943	64.5
333.172	85.5
333.4	84.5
333.629	74.5
333.857	82.5
334.085	79.5
334.314	87.5
334.542	83.5
334.771	69.5
334.999	70.5
335.227	79.5
335.455	82.5
335.684	91.5
335.912	82.5
336.14	80.5
336.369	75.5
336.597	84.5
336.825	77.5
337.053	80.5
337.281	87.5
337.51	61.5
337.738	69.5
337.966	87.5
338.194	94.5
338.422	74.5
338.65	86.5
338.878	83.5
339.106	69.5
339.334	90.5
339.562	97.5
339.79	93.5
340.018	85.5
340.246	66.5
340.474	77.5
340.702	98.5
340.93	82.5
341.158	89.5
341.386	79.5
341.614	76.5
341.842	90.5
342.07	83.5
342.298	71.5
342.526	83.5
342.754	64.5
342.981	68.5
343.209	80.5
343.437	88.5
343.665	88.5
343.893	77.5
344.12	88.5
344.348	80.5
344.576	77.5
344.804	74.5
345.031	70.5
345.259	85.5
345.487	89.5
345.714	96.5
345.942	73.5
346.17	76.5
346.397	84.5
346.625	83.5
346.853	82.5
347.08	83.5
347.308	87.5
347.535	74.5
347.763	78.5
347.99	68.5
348.218	77.5
348.445	90.5
348.673	84.5
348.9	93.5
349.128	86.5
349.355	90.5
349.583	74.5
349.81	80.5
350.037	91.5
350.265	81.5
350.492	93.5
350.72	78.5
350.947	77.5
351.174	89.5
351.402	79.5
351.629	78.5
351.856	85.5
352.083	82.5
352.311	83.5
352.538	83.5
352.765	67.5
352.992	71.5
353.22	70.5
353.447	85.5
353.674	77.5
353.901	90.5
354.128	84.5
354.355	83.5
354.583	86.5
354.81	75.5
355.037	75.5
355.264	64.5
355.491	84.5
355.718	93.5
355.945	74.5
356.172	80.5
356.399	84.5
356.626	75.5
356.853	85.5
357.08	70.5
357.307	93.5
357.534	63.5
357.761	64.5
357.988	89.5
358.215	77.5
358.441	88.5
358.668	85.5
358.895	78.5
359.122	83.5
359.349	88.5
359.576	77.5
359.802	80.5
360.029	75.5
360.256	71.5
360.483	77.5
360.709	71.5
360.936	84.5
361.163	86.5
361.39	80.5
361.616	95.5
361.843	76.5
362.07	78.5
362.296	82.5
362.523	81.5
362.749	96.5
362.976	79.5
363.203	93.5
363.429	78.5
363.656	70.5
363.882	88.5
364.109	84.5
364.335	86.5
364.562	79.5
364.788	71.5
365.015	100.5
365.241	94.5
365.468	93.5
365.694	83.5
365.92	77.5
366.147	85.5
366.373	74.5
366.599	84.5
366.826	72.5
367.052	87.5
367.278	79.5
367.505	86.5
367.731	85.5
367.957	76.5
368.184	88.5
368.41	72.5
368.636	93.5
368.862	73.5
369.089	93.5
369.315	75.5
369.541	84.5
369.767	95.5
369.993	96.5
370.219	75.5
370.445	79.5
370.672	89.5
370.898	90.5
371.124	80.5
371.35	92.5
371.576	88.5
371.802	100.5
372.028	70.5
372.254	87.5
372.48	97.5
372.706	86.5
372.932	97.5
373.158	80.5
373.384	89.5
373.61	85.5
373.835	94.5
374.061	90.5
374.287	86.5
374.513	94.5
374.739	89.5
374.965	88.5
375.191	96.5
375.416	97.5
375.642	94.5
375.868	90.5
376.094	75.5
376.319	84.5
376.545	92.5
376.771	98.5
376.997	80.5
377.222	78.5
377.448	88.5
377.674	80.5
377.899	91.5
378.125	94.5
378.35	89.5
378.576	88.5
378.802	98.5
379.027	91.5
379.253	99.5
379.478	82.5
379.704	92.5
379.929	98.5
380.155	85.5
380.38	99.5
380.606	93.5
380.831	95.5
381.057	108.5
381.282	94.5
381.507	82.5
381.733	95.5
381.958	87.5
382.184	91.5
382.409	89.5
382.634	96.5
382.86	94.5
383.085	90.5
383.31	76.5
383.535	76.5
383.761	90.5
383.986	98.5
384.211	105.5
384.436	94.5
384.662	104.5
384.887	99.5
385.112	119.5
385.337	103.5
385.562	90.5
385.787	78.5
386.013	98.5
386.238	95.5
386.463	111.5
386.688	92.5
386.913	97.5
387.138	83.5
387.363	94.5
387.588	97.5
387.813	103.5
388.038	99.5
388.263	96.5
388.488	89.5
388.713	90.5
388.938	92.5
389.163	93.5
389.387	92.5
389.612	95.5
389.837	104.5
390.062	94.5
390.287	93.5
390.512	100.5
390.736	80.5
390.961	102.5
391.186	104.5
391.411	108.5
391.636	106.5
391.86	102.5
392.085	100.5
392.31	92.5
392.534	104.5
392.759	102.5
392.984	90.5
393.208	89.5
393.433	102.5
393.658	83.5
393.882	104.5
394.107	109.5
394.331	102.5
394.556	93.5
394.78	96.5
395.005	114.5
395.229	90.5
395.454	98.5
395.678	116.5
395.903	101.5
396.127	108.5
396.352	100.5
396.576	114.5
396.801	104.5
397.025	96.5
397.249	95.5
397.474	104.5
397.698	88.5
397.922	103.5
398.147	105.5
398.371	112.5
398.595	99.5
398.82	103.5
399.044	104.5
399.268	106.5
399.492	113.5
399.717	104.5
399.941	116.5
400.165	113.5
400.389	115.5
400.613	104.5
400.837	98.5
401.062	94.5
401.286	97.5
401.51	110.5
401.734	116.5
401.958	103.5
402.182	120.5
402.406	118.5
402.63	113.5
402.854	104.5
403.078	112.5
403.302	113.5
403.526	121.5
403.75	110.5
403.974	119.5
404.198	120.5
404.422	128.5
404.645	98.5
404.869	121.5
405.093	121.5
405.317	102.5
405.541	112.5
405.765	113.5
405.988	114.5
406.212	114.5
406.436	118.5
406.66	130.5
406.883	124.5
407.107	106.5
407.331	126.5
407.555	120.5
407.778	110.5
408.002	124.5
408.226	128.5
408.449	108.5
408.673	113.5
408.896	113.5
409.12	119.5
409.344	117.5
409.567	110.5
409.791	114.5
410.014	118.5
410.238	121.5
410.461	113.5
410.685	126.5
410.908	120.5
411.132	118.5
411.355	113.5
411.578	122.5
411.802	115.5
412.025	113.5
412.249	117.5
412.472	115.5
412.695	129.5
412.919	110.5
413.142	122.5
413.365	124.5
413.589	117.5
413.812	109.5
414.035	116.5
414.258	132.5
414.482	126.5
414.705	124.5
414.928	115.5
415.151	118.5
415.374	123.5
415.597	116.5
415.821	120.5
416.044	111.5
416.267	122.5
416.49	122.5
416.713	126.5
416.936	118.5
417.159	136.5
417.382	125.5
417.605	110.5
417.828	103.5
418.051	130.5
418.274	121.5
418.497	137.5
418.72	121.5
418.943	132.5
419.166	142.5
419.389	131.5
419.611	124.5
419.834	132.5
420.057	129.5
420.28	109.5
420.503	132.5
420.726	134.5
420.948	128.5
421.171	131.5
421.394	140.5
421.617	132.5
421.839	131.5
422.062	121.5
422.285	118.5
422.507	136.5
422.73	126.5
422.953	121.5
423.175	115.5
423.398	124.5
423.621	123.5
423.843	122.5
424.066	131.5
424.288	142.5
424.511	138.5
424.733	141.5
424.956	129.5
425.178	125.5
425.401	152.5
425.623	134.5
425.846	140.5
426.068	128.5
426.291	125.5
426.513	99.5
426.735	133.5
426.958	132.5
427.18	136.5
427.402	129.5
427.625	139.5
427.847	124.5
428.069	121.5
428.292	128.5
428.514	126.5
428.736	130.5
428.958	125.5
429.181	130.5
429.403	116.5
429.625	119.5
429.847	133.5
430.069	128.5
430.292	118.5
430.514	136.5
430.736	111.5
430.958	130.5
431.18	120.5
431.402	136.5
431.624	115.5
431.846	105.5
432.068	90.5
432.29	91.5
432.512	99.5
432.734	109.5
432.956	118.5
433.178	137.5
433.4	138.5
433.622	131.5
433.844	121.5
434.066	114.5
434.287	112.5
434.509	80.5
434.731	97.5
434.953	106.5
435.175	112.5
435.397	123.5
435.618	118.5
435.84	115.5
436.062	106.5
436.284	121.5
436.505	130.5
436.727	134.5
436.949	124.5
437.17	119.5
437.392	108.5
437.614	99.5
437.835	80.5
438.057	94.5
438.278	126.5
438.5	128.5
438.721	136.5
438.943	141.5
439.165	132.5
439.386	132.5
439.608	139.5
439.829	140.5
440.05	137.5
440.272	150.5
440.493	130.5
440.715	126.5
440.936	135.5
441.158	152.5
441.379	134.5
441.6	144.5
441.822	146.5
442.043	143.5
442.264	137.5
442.486	142.5
442.707	143.5
442.928	144.5
443.149	137.5
443.371	136.5
443.592	132.5
443.813	129.5
444.034	125.5
444.255	142.5
444.476	137.5
444.698	138.5
444.919	144.5
445.14	260.5
445.361	191.5
445.582	142.5
445.803	127.5
446.024	142.5
446.245	144.5
446.466	145.5
446.687	160.5
446.908	152.5
447.129	163.5
447.35	153.5
447.571	150.5
447.792	153.5
448.013	139.5
448.234	141.5
448.455	137.5
448.675	142.5
448.896	125.5
449.117	136.5
449.338	136.5
449.559	128.5
449.779	130.5
450	129.5
450.221	126.5
450.442	128.5
450.662	129.5
450.883	132.5
451.104	124.5
451.324	121.5
451.545	135.5
451.766	122.5
451.986	121.5
452.207	138.5
452.428	124.5
452.648	117.5
452.869	114.5
453.089	114.5
453.31	129.5
453.53	105.5
453.751	88.5
453.971	104.5
454.192	105.5
454.412	96.5
454.633	130.5
454.853	124.5
455.073	113.5
455.294	122.5
455.514	115.5
455.734	122.5
455.955	109.5
456.175	112.5
456.395	117.5
456.616	102.5
456.836	116.5
457.056	111.5
457.276	104.5
457.497	105.5
457.717	110.5
457.937	118.5
458.157	102.5
458.377	102.5
458.598	99.5
458.818	88.5
459.038	98.5
459.258	84.5
459.478	86.5
459.698	99.5
459.918	90.5
460.138	93.5
460.358	108.5
460.578	113.5
460.798	104.5
461.018	112.5
461.238	104.5
461.458	115.5
461.678	112.5
461.898	98.5
462.118	107.5
462.338	107.5
462.558	110.5
462.777	99.5
462.997	104.5
463.217	115.5
463.437	116.5
463.657	94.5
463.876	106.5
464.096	109.5
464.316	120.5
464.536	121.5
464.755	125.5
464.975	120.5
465.195	114.5
465.414	124.5
465.634	117.5
465.854	114.5
466.073	108.5
466.293	105.5
466.512	125.5
466.732	134.5
466.951	114.5
467.171	123.5
467.391	124.5
467.61	126.5
467.829	121.5
468.049	132.5
468.268	114.5
468.488	137.5
468.707	122.5
468.927	131.5
469.146	138.5
469.365	129.5
469.585	140.5
469.804	131.5
470.023	140.5
470.243	127.5
470.462	136.5
470.681	142.5
470.901	138.5
471.12	120.5
471.339	138.5
471.558	136.5
471.777	134.5
471.997	138.5
472.216	134.5
472.435	120.5
472.654	105.5
472.873	107.5
473.092	104.5
473.311	109.5
473.53	130.5
473.749	128.5
473.968	127.5
474.187	119.5
474.406	103.5
474.625	124.5
474.844	118.5
475.063	128.5
475.282	124.5
475.501	114.5
475.72	110.5
475.939	132.5
476.158	128.5
476.377	131.5
476.596	112.5
476.814	103.5
477.033	94.5
477.252	114.5
477.471	141.5
477.69	136.5
477.908	125.5
478.127	140.5
478.346	138.5
478.564	140.5
478.783	116.5
479.002	122.5
479.22	137.5
479.439	141.5
479.658	127.5
479.876	112.5
480.095	94.5
480.313	115.5
480.532	120.5
480.751	118.5
480.969	87.5
481.188	88.5
481.406	69.5
481.624	81.5
481.843	88.5
482.061	100.5
482.28	113.5
482.498	106.5
482.717	108.5
482.935	116.5
483.153	134.5
483.372	150.5
483.59	149.5
483.808	148.5
484.027	127.5
484.245	123.5
484.463	141.5
484.681	158.5
484.9	154.5
485.118	126.5
485.336	125.5
485.554	102.5
485.772	112.5
485.99	104.5
486.209	106.5
486.427	101.5
486.645	127.5
486.863	138.5
487.081	135.5
487.299	125.5
487.517	131.5
487.735	145.5
487.953	164.5
488.171	179.5
488.389	158.5
488.607	150.5
488.825	130.5
489.043	152.5
489.261	130.5
489.479	124.5
489.696	140.5
489.914	152.5
490.132	133.5
490.35	144.5
490.568	154.5
490.786	161.5
491.003	175.5
491.221	172.5
491.439	174.5
491.657	185.5
491.874	202.5
492.092	213.5
492.31	259.5
492.527	206.5
492.745	188.5
492.963	187.5
493.18	185.5
493.398	178.5
493.615	183.5
493.833	178.5
494.05	166.5
494.268	170.5
494.485	174.5
494.703	158.5
494.92	158.5
495.138	174.5
495.355	165.5
495.573	172.5
495.79	160.5
496.008	174.5
496.225	156.5
496.442	161.5
496.66	160.5
496.877	169.5
497.094	164.5
497.312	157.5
497.529	157.5
497.746	153.5
497.963	143.5
498.181	132.5
498.398	120.5
498.615	116.5
498.832	120.5
499.049	116.5
499.267	114.5
499.484	117.5
499.701	117.5
499.918	128.5
500.135	130.5
500.352	144.5
500.569	140.5
500.786	154.5
501.003	151.5
501.22	132.5
501.437	142.5
501.654	138.5
501.871	135.5
502.088	125.5
502.305	139.5
502.522	112.5
502.739	128.5
502.956	119.5
503.172	129.5
503.389	129.5
503.606	101.5
503.823	118.5
504.04	124.5
504.256	124.5
504.473	118.5
504.69	123.5
504.907	114.5
505.123	110.5
505.34	125.5
505.557	136.5
505.773	118.5
505.99	120.5
506.207	126.5
506.423	114.5
506.64	121.5
506.856	118.5
507.073	125.5
507.289	113.5
507.506	106.5
507.722	109.5
507.939	102.5
508.155	120.5
508.372	110.5
508.588	109.5
508.805	90.5
509.021	106.5
509.238	110.5
509.454	100.5
509.67	98.5
509.887	92.5
510.103	94.5
510.319	98.5
510.536	90.5
510.752	96.5
510.968	87.5
511.184	67.5
511.401	85.5
511.617	95.5
511.833	99.5
512.049	98.5
512.265	83.5
512.481	100.5
512.698	85.5
512.914	84.5
513.13	84.5
513.346	80.5
513.562	95.5
513.778	77.5
513.994	90.5
514.21	80.5
514.426	93.5
514.642	86.5
514.858	105.5
515.074	80.5
515.29	99.5
515.506	73.5
515.721	84.5
515.937	95.5
516.153	74.5
516.369	100.5
516.585	84.5
516.801	85.5
517.016	86.5
517.232	85.5
517.448	85.5
517.664	83.5
517.879	85.5
518.095	91.5
518.311	100.5
518.527	91.5
518.742	95.5
518.958	108.5
519.173	109.5
519.389	101.5
519.605	117.5
519.82	115.5
520.036	97.5
520.251	111.5
520.467	97.5
520.682	118.5
520.898	85.5
521.113	83.5
521.329	94.5
521.544	75.5
521.76	97.5
521.975	93.5
522.19	104.5
522.406	98.5
522.621	117.5
522.836	91.5
523.052	104.5
523.267	110.5
523.482	96.5
523.698	114.5
523.913	114.5
524.128	115.5
524.343	104.5
524.559	112.5
524.774	113.5
524.989	117.5
525.204	105.5
525.419	110.5
525.634	99.5
525.849	115.5
526.064	97.5
526.28	118.5
526.495	88.5
526.71	76.5
526.925	75.5
527.14	67.5
527.355	69.5
527.57	91.5
527.785	77.5
527.999	74.5
528.214	97.5
528.429	113.5
528.644	113.5
528.859	134.5
529.074	134.5
529.289	146.5
529.503	154.5
529.718	145.5
529.933	112.5
530.148	113.5
530.363	96.5
530.577	90.5
530.792	86.5
531.007	78.5
531.221	93.5
531.436	85.5
531.651	74.5
