Data from Location2.07152019.Energy5.Lamp.07192019.3%Agarose_HRD10591_14-56-07-360.txt Node
Date: Fri Jul 19 14:56:07 EDT 2019
User: cochatt
Spectrometer: HR+D1059
Trigger mode: 1
Integration Time (sec): 1.000000E-1
Scans to average: 1
Electric dark correction enabled: true
Nonlinearity correction enabled: false
Boxcar width: 0
XAxis mode: Wavelengths
Number of Pixels in Spectrum: 2048
>>>>>Begin Spectral Data<<<<<
223.165	-10.5
223.4	-10.5
223.635	-10.5
223.869	-15.5
224.104	-20.5
224.338	-19.5
224.573	-27.5
224.808	-22.5
225.042	-10.5
225.277	-1.5
225.511	6.5
225.746	13.5
225.98	7.5
226.215	9.5
226.449	28.5
226.683	19.5
226.918	20.5
227.152	22.5
227.387	21.5
227.621	42.5
227.856	38.5
228.09	39.5
228.324	69.5
228.559	73.5
228.793	57.5
229.027	67.5
229.262	70.5
229.496	69.5
229.73	81.5
229.964	80.5
230.199	80.5
230.433	70.5
230.667	84.5
230.901	62.5
231.136	94.5
231.37	85.5
231.604	95.5
231.838	79.5
232.072	77.5
232.306	87.5
232.541	74.5
232.775	69.5
233.009	74.5
233.243	78.5
233.477	82.5
233.711	75.5
233.945	69.5
234.179	72.5
234.413	96.5
234.647	79.5
234.881	76.5
235.115	72.5
235.349	81.5
235.583	70.5
235.817	84.5
236.051	79.5
236.285	75.5
236.519	71.5
236.753	74.5
236.987	83.5
237.221	75.5
237.455	71.5
237.689	66.5
237.922	77.5
238.156	77.5
238.39	75.5
238.624	71.5
238.858	66.5
239.091	73.5
239.325	95.5
239.559	70.5
239.793	67.5
240.027	72.5
240.26	93.5
240.494	75.5
240.728	69.5
240.961	75.5
241.195	73.5
241.429	79.5
241.662	68.5
241.896	75.5
242.13	91.5
242.363	73.5
242.597	73.5
242.83	87.5
243.064	62.5
243.298	75.5
243.531	87.5
243.765	68.5
243.998	75.5
244.232	83.5
244.465	73.5
244.699	83.5
244.932	73.5
245.166	67.5
245.399	71.5
245.633	73.5
245.866	80.5
246.099	77.5
246.333	70.5
246.566	83.5
246.8	71.5
247.033	69.5
247.266	80.5
247.5	78.5
247.733	78.5
247.966	91.5
248.2	72.5
248.433	83.5
248.666	76.5
248.899	82.5
249.133	81.5
249.366	79.5
249.599	85.5
249.832	79.5
250.066	81.5
250.299	89.5
250.532	79.5
250.765	74.5
250.998	75.5
251.231	101.5
251.465	97.5
251.698	69.5
251.931	72.5
252.164	80.5
252.397	77.5
252.63	90.5
252.863	89.5
253.096	61.5
253.329	76.5
253.562	74.5
253.795	73.5
254.028	79.5
254.261	87.5
254.494	77.5
254.727	84.5
254.96	74.5
255.193	81.5
255.426	81.5
255.659	73.5
255.892	74.5
256.124	76.5
256.357	76.5
256.59	86.5
256.823	82.5
257.056	74.5
257.289	71.5
257.521	75.5
257.754	79.5
257.987	80.5
258.22	82.5
258.452	74.5
258.685	84.5
258.918	85.5
259.151	74.5
259.383	81.5
259.616	85.5
259.849	70.5
260.081	78.5
260.314	91.5
260.547	88.5
260.779	73.5
261.012	83.5
261.244	86.5
261.477	89.5
261.71	80.5
261.942	78.5
262.175	82.5
262.407	84.5
262.64	94.5
262.872	72.5
263.105	77.5
263.337	77.5
263.57	75.5
263.802	102.5
264.035	73.5
264.267	85.5
264.499	98.5
264.732	93.5
264.964	77.5
265.197	90.5
265.429	86.5
265.661	82.5
265.894	76.5
266.126	82.5
266.358	69.5
266.591	82.5
266.823	89.5
267.055	90.5
267.287	71.5
267.52	78.5
267.752	74.5
267.984	71.5
268.216	76.5
268.448	85.5
268.681	80.5
268.913	81.5
269.145	85.5
269.377	90.5
269.609	94.5
269.841	87.5
270.073	87.5
270.306	91.5
270.538	65.5
270.77	83.5
271.002	84.5
271.234	89.5
271.466	83.5
271.698	88.5
271.93	80.5
272.162	85.5
272.394	77.5
272.626	88.5
272.858	76.5
273.09	77.5
273.322	84.5
273.553	73.5
273.785	85.5
274.017	81.5
274.249	83.5
274.481	93.5
274.713	98.5
274.945	78.5
275.176	84.5
275.408	79.5
275.64	85.5
275.872	81.5
276.104	96.5
276.335	86.5
276.567	83.5
276.799	74.5
277.031	84.5
277.262	81.5
277.494	102.5
277.726	99.5
277.957	80.5
278.189	96.5
278.421	74.5
278.652	82.5
278.884	79.5
279.115	76.5
279.347	82.5
279.579	79.5
279.81	92.5
280.042	78.5
280.273	86.5
280.505	96.5
280.736	78.5
280.968	93.5
281.199	74.5
281.431	79.5
281.662	84.5
281.894	75.5
282.125	99.5
282.356	89.5
282.588	84.5
282.819	76.5
283.051	94.5
283.282	78.5
283.513	83.5
283.745	84.5
283.976	75.5
284.207	86.5
284.439	85.5
284.67	90.5
284.901	79.5
285.132	85.5
285.364	80.5
285.595	78.5
285.826	86.5
286.057	83.5
286.288	76.5
286.52	94.5
286.751	82.5
286.982	86.5
287.213	98.5
287.444	88.5
287.675	94.5
287.906	95.5
288.138	81.5
288.369	84.5
288.6	81.5
288.831	95.5
289.062	87.5
289.293	73.5
289.524	89.5
289.755	87.5
289.986	91.5
290.217	79.5
290.448	95.5
290.679	73.5
290.91	81.5
291.141	92.5
291.371	92.5
291.602	74.5
291.833	91.5
292.064	80.5
292.295	73.5
292.526	91.5
292.757	86.5
292.987	76.5
293.218	78.5
293.449	77.5
293.68	89.5
293.91	80.5
294.141	83.5
294.372	81.5
294.603	92.5
294.833	86.5
295.064	79.5
295.295	86.5
295.525	86.5
295.756	73.5
295.987	87.5
296.217	95.5
296.448	77.5
296.679	83.5
296.909	70.5
297.14	85.5
297.37	87.5
297.601	81.5
297.831	87.5
298.062	90.5
298.292	73.5
298.523	88.5
298.753	77.5
298.984	96.5
299.214	86.5
299.445	83.5
299.675	91.5
299.905	80.5
300.136	78.5
300.366	81.5
300.597	82.5
300.827	87.5
301.057	72.5
301.288	89.5
301.518	88.5
301.748	87.5
301.979	87.5
302.209	85.5
302.439	93.5
302.669	84.5
302.9	87.5
303.13	100.5
303.36	103.5
303.59	70.5
303.82	95.5
304.051	86.5
304.281	80.5
304.511	91.5
304.741	95.5
304.971	79.5
305.201	84.5
305.431	89.5
305.661	77.5
305.891	84.5
306.121	86.5
306.352	75.5
306.582	89.5
306.812	79.5
307.042	81.5
307.272	98.5
307.502	86.5
307.731	70.5
307.961	69.5
308.191	96.5
308.421	78.5
308.651	80.5
308.881	90.5
309.111	86.5
309.341	74.5
309.571	93.5
309.8	96.5
310.03	96.5
310.26	83.5
310.49	93.5
310.72	89.5
310.949	83.5
311.179	86.5
311.409	87.5
311.639	82.5
311.868	86.5
312.098	90.5
312.328	82.5
312.557	87.5
312.787	99.5
313.017	86.5
313.246	71.5
313.476	91.5
313.706	78.5
313.935	82.5
314.165	86.5
314.394	71.5
314.624	76.5
314.853	84.5
315.083	80.5
315.312	95.5
315.542	83.5
315.771	88.5
316.001	82.5
316.23	79.5
316.46	82.5
316.689	81.5
316.919	90.5
317.148	103.5
317.377	83.5
317.607	76.5
317.836	84.5
318.065	90.5
318.295	79.5
318.524	93.5
318.753	73.5
318.983	81.5
319.212	86.5
319.441	84.5
319.67	86.5
319.9	89.5
320.129	75.5
320.358	92.5
320.587	83.5
320.816	87.5
321.046	97.5
321.275	91.5
321.504	87.5
321.733	89.5
321.962	81.5
322.191	87.5
322.42	82.5
322.649	65.5
322.878	80.5
323.108	80.5
323.337	86.5
323.566	77.5
323.795	90.5
324.024	89.5
324.253	91.5
324.482	91.5
324.71	95.5
324.939	88.5
325.168	87.5
325.397	96.5
325.626	76.5
325.855	92.5
326.084	93.5
326.313	91.5
326.542	82.5
326.77	90.5
326.999	95.5
327.228	84.5
327.457	78.5
327.686	76.5
327.914	74.5
328.143	89.5
328.372	82.5
328.6	84.5
328.829	83.5
329.058	89.5
329.287	87.5
329.515	99.5
329.744	90.5
329.972	101.5
330.201	88.5
330.43	87.5
330.658	71.5
330.887	73.5
331.115	94.5
331.344	76.5
331.572	88.5
331.801	73.5
332.03	85.5
332.258	88.5
332.486	97.5
332.715	83.5
332.943	86.5
333.172	89.5
333.4	92.5
333.629	83.5
333.857	93.5
334.085	86.5
334.314	83.5
334.542	90.5
334.771	88.5
334.999	75.5
335.227	73.5
335.455	91.5
335.684	97.5
335.912	75.5
336.14	83.5
336.369	85.5
336.597	82.5
336.825	91.5
337.053	89.5
337.281	97.5
337.51	104.5
337.738	76.5
337.966	86.5
338.194	82.5
338.422	77.5
338.65	77.5
338.878	87.5
339.106	73.5
339.334	81.5
339.562	72.5
339.79	72.5
340.018	83.5
340.246	80.5
340.474	79.5
340.702	94.5
340.93	87.5
341.158	84.5
341.386	84.5
341.614	92.5
341.842	76.5
342.07	80.5
342.298	95.5
342.526	89.5
342.754	96.5
342.981	93.5
343.209	75.5
343.437	91.5
343.665	91.5
343.893	91.5
344.12	95.5
344.348	82.5
344.576	88.5
344.804	87.5
345.031	85.5
345.259	80.5
345.487	77.5
345.714	76.5
345.942	86.5
346.17	91.5
346.397	73.5
346.625	79.5
346.853	82.5
347.08	80.5
347.308	91.5
347.535	82.5
347.763	84.5
347.99	84.5
348.218	89.5
348.445	78.5
348.673	86.5
348.9	91.5
349.128	91.5
349.355	95.5
349.583	94.5
349.81	82.5
350.037	79.5
350.265	81.5
350.492	89.5
350.72	88.5
350.947	87.5
351.174	75.5
351.402	74.5
351.629	94.5
351.856	94.5
352.083	75.5
352.311	88.5
352.538	95.5
352.765	84.5
352.992	91.5
353.22	92.5
353.447	87.5
353.674	75.5
353.901	83.5
354.128	86.5
354.355	94.5
354.583	85.5
354.81	82.5
355.037	86.5
355.264	75.5
355.491	80.5
355.718	72.5
355.945	73.5
356.172	90.5
356.399	89.5
356.626	93.5
356.853	86.5
357.08	80.5
357.307	85.5
357.534	107.5
357.761	99.5
357.988	82.5
358.215	95.5
358.441	84.5
358.668	92.5
358.895	75.5
359.122	69.5
359.349	80.5
359.576	87.5
359.802	87.5
360.029	71.5
360.256	82.5
360.483	79.5
360.709	85.5
360.936	97.5
361.163	74.5
361.39	82.5
361.616	88.5
361.843	90.5
362.07	91.5
362.296	81.5
362.523	76.5
362.749	82.5
362.976	84.5
363.203	86.5
363.429	78.5
363.656	94.5
363.882	90.5
364.109	87.5
364.335	90.5
364.562	85.5
364.788	76.5
365.015	83.5
365.241	83.5
365.468	76.5
365.694	60.5
365.92	91.5
366.147	74.5
366.373	84.5
366.599	91.5
366.826	89.5
367.052	75.5
367.278	81.5
367.505	97.5
367.731	87.5
367.957	72.5
368.184	88.5
368.41	86.5
368.636	95.5
368.862	100.5
369.089	101.5
369.315	96.5
369.541	83.5
369.767	85.5
369.993	80.5
370.219	85.5
370.445	86.5
370.672	98.5
370.898	90.5
371.124	95.5
371.35	96.5
371.576	86.5
371.802	80.5
372.028	114.5
372.254	94.5
372.48	83.5
372.706	84.5
372.932	99.5
373.158	110.5
373.384	98.5
373.61	97.5
373.835	82.5
374.061	93.5
374.287	89.5
374.513	92.5
374.739	102.5
374.965	80.5
375.191	87.5
375.416	94.5
375.642	93.5
375.868	99.5
376.094	92.5
376.319	89.5
376.545	95.5
376.771	99.5
376.997	101.5
377.222	112.5
377.448	86.5
377.674	91.5
377.899	95.5
378.125	87.5
378.35	94.5
378.576	95.5
378.802	65.5
379.027	83.5
379.253	94.5
379.478	92.5
379.704	97.5
379.929	110.5
380.155	83.5
380.38	86.5
380.606	96.5
380.831	89.5
381.057	106.5
381.282	94.5
381.507	108.5
381.733	90.5
381.958	89.5
382.184	88.5
382.409	100.5
382.634	106.5
382.86	102.5
383.085	83.5
383.31	95.5
383.535	93.5
383.761	91.5
383.986	90.5
384.211	96.5
384.436	100.5
384.662	103.5
384.887	98.5
385.112	94.5
385.337	84.5
385.562	95.5
385.787	76.5
386.013	102.5
386.238	98.5
386.463	113.5
386.688	100.5
386.913	95.5
387.138	92.5
387.363	100.5
387.588	94.5
387.813	92.5
388.038	94.5
388.263	93.5
388.488	96.5
388.713	96.5
388.938	104.5
389.163	101.5
389.387	99.5
389.612	103.5
389.837	108.5
390.062	96.5
390.287	92.5
390.512	92.5
390.736	102.5
390.961	103.5
391.186	93.5
391.411	83.5
391.636	89.5
391.86	101.5
392.085	113.5
392.31	114.5
392.534	123.5
392.759	98.5
392.984	95.5
393.208	100.5
393.433	125.5
393.658	102.5
393.882	110.5
394.107	118.5
394.331	104.5
394.556	117.5
394.78	89.5
395.005	103.5
395.229	89.5
395.454	122.5
395.678	105.5
395.903	115.5
396.127	102.5
396.352	108.5
396.576	102.5
396.801	107.5
397.025	106.5
397.249	105.5
397.474	119.5
397.698	96.5
397.922	98.5
398.147	91.5
398.371	94.5
398.595	111.5
398.82	105.5
399.044	114.5
399.268	110.5
399.492	104.5
399.717	126.5
399.941	124.5
400.165	123.5
400.389	106.5
400.613	113.5
400.837	107.5
401.062	114.5
401.286	110.5
401.51	109.5
401.734	119.5
401.958	101.5
402.182	103.5
402.406	112.5
402.63	119.5
402.854	87.5
403.078	94.5
403.302	116.5
403.526	126.5
403.75	111.5
403.974	115.5
404.198	127.5
404.422	112.5
404.645	109.5
404.869	107.5
405.093	104.5
405.317	113.5
405.541	122.5
405.765	104.5
405.988	112.5
406.212	122.5
406.436	116.5
406.66	108.5
406.883	115.5
407.107	122.5
407.331	114.5
407.555	111.5
407.778	118.5
408.002	114.5
408.226	110.5
408.449	127.5
408.673	114.5
408.896	119.5
409.12	117.5
409.344	127.5
409.567	117.5
409.791	118.5
410.014	121.5
410.238	115.5
410.461	131.5
410.685	129.5
410.908	115.5
411.132	127.5
411.355	131.5
411.578	120.5
411.802	105.5
412.025	118.5
412.249	123.5
412.472	123.5
412.695	128.5
412.919	124.5
413.142	126.5
413.365	113.5
413.589	126.5
413.812	124.5
414.035	117.5
414.258	123.5
414.482	138.5
414.705	130.5
414.928	132.5
415.151	119.5
415.374	123.5
415.597	124.5
415.821	121.5
416.044	129.5
416.267	127.5
416.49	125.5
416.713	103.5
416.936	136.5
417.159	111.5
417.382	115.5
417.605	118.5
417.828	128.5
418.051	126.5
418.274	123.5
418.497	137.5
418.72	126.5
418.943	119.5
419.166	139.5
419.389	123.5
419.611	121.5
419.834	142.5
420.057	137.5
420.28	134.5
420.503	121.5
420.726	132.5
420.948	122.5
421.171	135.5
421.394	133.5
421.617	143.5
421.839	126.5
422.062	144.5
422.285	126.5
422.507	131.5
422.73	130.5
422.953	133.5
423.175	137.5
423.398	123.5
423.621	132.5
423.843	135.5
424.066	135.5
424.288	155.5
424.511	164.5
424.733	130.5
424.956	133.5
425.178	143.5
425.401	138.5
425.623	135.5
425.846	138.5
426.068	125.5
426.291	117.5
426.513	132.5
426.735	133.5
426.958	127.5
427.18	131.5
427.402	119.5
427.625	128.5
427.847	118.5
428.069	124.5
428.292	133.5
428.514	124.5
428.736	143.5
428.958	131.5
429.181	128.5
429.403	109.5
429.625	123.5
429.847	125.5
430.069	138.5
430.292	140.5
430.514	117.5
430.736	137.5
430.958	115.5
431.18	120.5
431.402	120.5
431.624	115.5
431.846	104.5
432.068	100.5
432.29	107.5
432.512	106.5
432.734	106.5
432.956	112.5
433.178	130.5
433.4	144.5
433.622	122.5
433.844	134.5
434.066	124.5
434.287	117.5
434.509	96.5
434.731	87.5
434.953	107.5
435.175	118.5
435.397	118.5
435.618	96.5
435.84	124.5
436.062	110.5
436.284	123.5
436.505	119.5
436.727	142.5
436.949	128.5
437.17	129.5
437.392	126.5
437.614	122.5
437.835	114.5
438.057	113.5
438.278	124.5
438.5	114.5
438.721	117.5
438.943	128.5
439.165	121.5
439.386	122.5
439.608	139.5
439.829	151.5
440.05	135.5
440.272	152.5
440.493	135.5
440.715	144.5
440.936	150.5
441.158	139.5
441.379	154.5
441.6	146.5
441.822	159.5
442.043	143.5
442.264	123.5
442.486	123.5
442.707	142.5
442.928	126.5
443.149	148.5
443.371	136.5
443.592	129.5
443.813	135.5
444.034	145.5
444.255	128.5
444.476	130.5
444.698	147.5
444.919	112.5
445.14	247.5
445.361	200.5
445.582	156.5
445.803	158.5
446.024	152.5
446.245	156.5
446.466	147.5
446.687	141.5
446.908	163.5
447.129	140.5
447.35	148.5
447.571	154.5
447.792	137.5
448.013	137.5
448.234	145.5
448.455	142.5
448.675	147.5
448.896	147.5
449.117	128.5
449.338	133.5
449.559	147.5
449.779	127.5
450	140.5
450.221	133.5
450.442	136.5
450.662	130.5
450.883	143.5
451.104	130.5
451.324	130.5
451.545	131.5
451.766	125.5
451.986	134.5
452.207	134.5
452.428	118.5
452.648	135.5
452.869	126.5
453.089	110.5
453.31	112.5
453.53	104.5
453.751	87.5
453.971	98.5
454.192	100.5
454.412	108.5
454.633	113.5
454.853	124.5
455.073	123.5
455.294	118.5
455.514	133.5
455.734	117.5
455.955	112.5
456.175	120.5
456.395	115.5
456.616	118.5
456.836	113.5
457.056	123.5
457.276	104.5
457.497	104.5
457.717	113.5
457.937	103.5
458.157	115.5
458.377	107.5
458.598	88.5
458.818	94.5
459.038	77.5
459.258	75.5
459.478	84.5
459.698	98.5
459.918	104.5
460.138	102.5
460.358	104.5
460.578	128.5
460.798	116.5
461.018	112.5
461.238	118.5
461.458	116.5
461.678	119.5
461.898	108.5
462.118	103.5
462.338	121.5
462.558	116.5
462.777	124.5
462.997	119.5
463.217	108.5
463.437	106.5
463.657	111.5
463.876	101.5
464.096	112.5
464.316	114.5
464.536	102.5
464.755	107.5
464.975	99.5
465.195	119.5
465.414	118.5
465.634	116.5
465.854	119.5
466.073	123.5
466.293	127.5
466.512	132.5
466.732	126.5
466.951	140.5
467.171	119.5
467.391	126.5
467.61	132.5
467.829	121.5
468.049	139.5
468.268	134.5
468.488	131.5
468.707	136.5
468.927	130.5
469.146	123.5
469.365	144.5
469.585	130.5
469.804	133.5
470.023	136.5
470.243	131.5
470.462	130.5
470.681	124.5
470.901	147.5
471.12	140.5
471.339	134.5
471.558	152.5
471.777	136.5
471.997	137.5
472.216	140.5
472.435	129.5
472.654	106.5
472.873	108.5
473.092	115.5
473.311	118.5
473.53	114.5
473.749	128.5
473.968	134.5
474.187	114.5
474.406	116.5
474.625	132.5
474.844	124.5
475.063	130.5
475.282	121.5
475.501	112.5
475.72	142.5
475.939	121.5
476.158	137.5
476.377	122.5
476.596	132.5
476.814	130.5
477.033	112.5
477.252	132.5
477.471	127.5
477.69	130.5
477.908	127.5
478.127	143.5
478.346	139.5
478.564	128.5
478.783	137.5
479.002	151.5
479.22	139.5
479.439	134.5
479.658	117.5
479.876	116.5
480.095	108.5
480.313	119.5
480.532	134.5
480.751	117.5
480.969	94.5
481.188	95.5
481.406	83.5
481.624	97.5
481.843	84.5
482.061	92.5
482.28	108.5
482.498	105.5
482.717	102.5
482.935	110.5
483.153	146.5
483.372	157.5
483.59	150.5
483.808	128.5
484.027	117.5
484.245	130.5
484.463	139.5
484.681	163.5
484.9	162.5
485.118	140.5
485.336	123.5
485.554	111.5
485.772	106.5
485.99	113.5
486.209	94.5
486.427	99.5
486.645	107.5
486.863	137.5
487.081	146.5
487.299	137.5
487.517	139.5
487.735	172.5
487.953	180.5
488.171	165.5
488.389	157.5
488.607	163.5
488.825	140.5
489.043	140.5
489.261	121.5
489.479	137.5
489.696	124.5
489.914	135.5
490.132	122.5
490.35	139.5
490.568	159.5
490.786	174.5
491.003	190.5
491.221	175.5
491.439	179.5
491.657	190.5
491.874	196.5
492.092	207.5
492.31	243.5
492.527	226.5
492.745	195.5
492.963	190.5
493.18	178.5
493.398	183.5
493.615	166.5
493.833	182.5
494.05	175.5
494.268	179.5
494.485	178.5
494.703	171.5
494.92	169.5
495.138	152.5
495.355	155.5
495.573	171.5
495.79	175.5
496.008	168.5
496.225	165.5
496.442	171.5
496.66	186.5
496.877	163.5
497.094	154.5
497.312	167.5
497.529	158.5
497.746	141.5
497.963	140.5
498.181	130.5
498.398	136.5
498.615	121.5
498.832	105.5
499.049	112.5
499.267	121.5
499.484	113.5
499.701	127.5
499.918	134.5
500.135	135.5
500.352	145.5
500.569	152.5
500.786	136.5
501.003	153.5
501.22	158.5
501.437	128.5
501.654	137.5
501.871	135.5
502.088	150.5
502.305	129.5
502.522	146.5
502.739	130.5
502.956	117.5
503.172	117.5
503.389	124.5
503.606	131.5
503.823	122.5
504.04	137.5
504.256	119.5
504.473	128.5
504.69	124.5
504.907	129.5
505.123	111.5
505.34	131.5
505.557	117.5
505.773	119.5
505.99	125.5
506.207	123.5
506.423	123.5
506.64	130.5
506.856	116.5
507.073	129.5
507.289	118.5
507.506	110.5
507.722	115.5
507.939	115.5
508.155	122.5
508.372	124.5
508.588	105.5
508.805	99.5
509.021	124.5
509.238	119.5
509.454	105.5
509.67	99.5
509.887	121.5
510.103	111.5
510.319	102.5
510.536	102.5
510.752	95.5
510.968	89.5
511.184	91.5
511.401	100.5
511.617	80.5
511.833	95.5
512.049	94.5
512.265	80.5
512.481	110.5
512.698	98.5
512.914	106.5
513.13	91.5
513.346	88.5
513.562	84.5
513.778	79.5
513.994	96.5
514.21	81.5
514.426	98.5
514.642	98.5
514.858	78.5
515.074	85.5
515.29	86.5
515.506	98.5
515.721	102.5
515.937	91.5
516.153	83.5
516.369	83.5
516.585	89.5
516.801	89.5
517.016	91.5
517.232	102.5
517.448	82.5
517.664	79.5
517.879	86.5
518.095	97.5
518.311	98.5
518.527	98.5
518.742	104.5
518.958	91.5
519.173	103.5
519.389	108.5
519.605	105.5
519.82	112.5
520.036	108.5
520.251	95.5
520.467	104.5
520.682	105.5
520.898	96.5
521.113	86.5
521.329	100.5
521.544	93.5
521.76	95.5
521.975	83.5
522.19	98.5
522.406	87.5
522.621	80.5
522.836	92.5
523.052	100.5
523.267	102.5
523.482	114.5
523.698	99.5
523.913	110.5
524.128	121.5
524.343	111.5
524.559	115.5
524.774	105.5
524.989	124.5
525.204	120.5
525.419	119.5
525.634	100.5
525.849	116.5
526.064	124.5
526.28	89.5
526.495	87.5
526.71	89.5
526.925	79.5
527.14	87.5
527.355	87.5
527.57	93.5
527.785	93.5
527.999	94.5
528.214	106.5
528.429	102.5
528.644	123.5
528.859	134.5
529.074	156.5
529.289	158.5
529.503	158.5
529.718	145.5
529.933	119.5
530.148	102.5
530.363	87.5
530.577	77.5
530.792	89.5
531.007	85.5
