Data from Location2.07152019.Energy5.Lamp.07192019.3%Agarose_HRD10591_14-56-55-358.txt Node
Date: Fri Jul 19 14:56:55 EDT 2019
User: cochatt
Spectrometer: HR+D1059
Trigger mode: 1
Integration Time (sec): 1.000000E-1
Scans to average: 1
Electric dark correction enabled: true
Nonlinearity correction enabled: false
Boxcar width: 0
XAxis mode: Wavelengths
Number of Pixels in Spectrum: 2048
>>>>>Begin Spectral Data<<<<<
223.165	-3.12
223.4	-3.12
223.635	-3.12
223.869	-11.12
224.104	-11.12
224.338	2.88
224.573	-42.12
224.808	-12.12
225.042	-20.12
225.277	-9.12
225.511	-8.12
225.746	-3.12
225.98	10.88
226.215	9.88
226.449	21.88
226.683	22.88
226.918	8.88
227.152	42.88
227.387	30.88
227.621	36.88
227.856	35.88
228.09	33.88
228.324	44.88
228.559	56.88
228.793	49.88
229.027	53.88
229.262	72.88
229.496	73.88
229.73	74.88
229.964	69.88
230.199	54.88
230.433	66.88
230.667	69.88
230.901	71.88
231.136	72.88
231.37	82.88
231.604	76.88
231.838	80.88
232.072	77.88
232.306	79.88
232.541	69.88
232.775	68.88
233.009	61.88
233.243	64.88
233.477	66.88
233.711	81.88
233.945	76.88
234.179	85.88
234.413	66.88
234.647	82.88
234.881	73.88
235.115	82.88
235.349	78.88
235.583	72.88
235.817	73.88
236.051	71.88
236.285	62.88
236.519	76.88
236.753	78.88
236.987	62.88
237.221	77.88
237.455	54.88
237.689	64.88
237.922	59.88
238.156	80.88
238.39	67.88
238.624	76.88
238.858	56.88
239.091	63.88
239.325	67.88
239.559	67.88
239.793	74.88
240.027	69.88
240.26	75.88
240.494	68.88
240.728	58.88
240.961	67.88
241.195	79.88
241.429	66.88
241.662	63.88
241.896	63.88
242.13	67.88
242.363	77.88
242.597	89.88
242.83	57.88
243.064	44.88
243.298	65.88
243.531	65.88
243.765	90.88
243.998	79.88
244.232	76.88
244.465	66.88
244.699	70.88
244.932	83.88
245.166	80.88
245.399	72.88
245.633	72.88
245.866	59.88
246.099	78.88
246.333	76.88
246.566	85.88
246.8	82.88
247.033	67.88
247.266	69.88
247.5	72.88
247.733	79.88
247.966	75.88
248.2	75.88
248.433	78.88
248.666	73.88
248.899	74.88
249.133	68.88
249.366	76.88
249.599	53.88
249.832	71.88
250.066	74.88
250.299	78.88
250.532	72.88
250.765	76.88
250.998	69.88
251.231	79.88
251.465	71.88
251.698	84.88
251.931	83.88
252.164	63.88
252.397	84.88
252.63	99.88
252.863	83.88
253.096	62.88
253.329	67.88
253.562	74.88
253.795	79.88
254.028	78.88
254.261	86.88
254.494	70.88
254.727	82.88
254.96	69.88
255.193	67.88
255.426	68.88
255.659	78.88
255.892	71.88
256.124	74.88
256.357	83.88
256.59	77.88
256.823	73.88
257.056	71.88
257.289	74.88
257.521	80.88
257.754	64.88
257.987	63.88
258.22	77.88
258.452	75.88
258.685	64.88
258.918	63.88
259.151	65.88
259.383	75.88
259.616	93.88
259.849	70.88
260.081	80.88
260.314	75.88
260.547	72.88
260.779	66.88
261.012	84.88
261.244	80.88
261.477	71.88
261.71	79.88
261.942	89.88
262.175	93.88
262.407	73.88
262.64	78.88
262.872	82.88
263.105	89.88
263.337	80.88
263.57	71.88
263.802	81.88
264.035	67.88
264.267	72.88
264.499	80.88
264.732	81.88
264.964	70.88
265.197	85.88
265.429	77.88
265.661	75.88
265.894	58.88
266.126	74.88
266.358	82.88
266.591	60.88
266.823	70.88
267.055	68.88
267.287	79.88
267.52	77.88
267.752	77.88
267.984	85.88
268.216	81.88
268.448	69.88
268.681	75.88
268.913	86.88
269.145	71.88
269.377	82.88
269.609	62.88
269.841	71.88
270.073	69.88
270.306	72.88
270.538	78.88
270.77	81.88
271.002	72.88
271.234	73.88
271.466	76.88
271.698	71.88
271.93	76.88
272.162	91.88
272.394	69.88
272.626	70.88
272.858	75.88
273.09	77.88
273.322	96.88
273.553	86.88
273.785	79.88
274.017	85.88
274.249	82.88
274.481	77.88
274.713	79.88
274.945	77.88
275.176	70.88
275.408	75.88
275.64	70.88
275.872	79.88
276.104	81.88
276.335	84.88
276.567	72.88
276.799	75.88
277.031	72.88
277.262	88.88
277.494	71.88
277.726	68.88
277.957	77.88
278.189	88.88
278.421	85.88
278.652	99.88
278.884	82.88
279.115	78.88
279.347	78.88
279.579	80.88
279.81	79.88
280.042	72.88
280.273	84.88
280.505	70.88
280.736	85.88
280.968	61.88
281.199	74.88
281.431	90.88
281.662	78.88
281.894	72.88
282.125	79.88
282.356	82.88
282.588	82.88
282.819	82.88
283.051	85.88
283.282	67.88
283.513	66.88
283.745	84.88
283.976	87.88
284.207	84.88
284.439	79.88
284.67	79.88
284.901	84.88
285.132	88.88
285.364	91.88
285.595	72.88
285.826	62.88
286.057	90.88
286.288	80.88
286.52	70.88
286.751	90.88
286.982	69.88
287.213	77.88
287.444	85.88
287.675	81.88
287.906	82.88
288.138	67.88
288.369	79.88
288.6	64.88
288.831	68.88
289.062	74.88
289.293	70.88
289.524	79.88
289.755	69.88
289.986	82.88
290.217	80.88
290.448	73.88
290.679	82.88
290.91	82.88
291.141	79.88
291.371	95.88
291.602	77.88
291.833	78.88
292.064	85.88
292.295	80.88
292.526	88.88
292.757	87.88
292.987	97.88
293.218	84.88
293.449	88.88
293.68	79.88
293.91	72.88
294.141	73.88
294.372	86.88
294.603	81.88
294.833	76.88
295.064	82.88
295.295	83.88
295.525	70.88
295.756	77.88
295.987	69.88
296.217	71.88
296.448	68.88
296.679	80.88
296.909	83.88
297.14	90.88
297.37	96.88
297.601	94.88
297.831	100.88
298.062	84.88
298.292	77.88
298.523	79.88
298.753	82.88
298.984	82.88
299.214	86.88
299.445	78.88
299.675	79.88
299.905	74.88
300.136	81.88
300.366	77.88
300.597	83.88
300.827	78.88
301.057	76.88
301.288	77.88
301.518	83.88
301.748	79.88
301.979	80.88
302.209	63.88
302.439	80.88
302.669	71.88
302.9	74.88
303.13	81.88
303.36	77.88
303.59	67.88
303.82	71.88
304.051	75.88
304.281	81.88
304.511	79.88
304.741	85.88
304.971	69.88
305.201	72.88
305.431	69.88
305.661	80.88
305.891	86.88
306.121	72.88
306.352	89.88
306.582	69.88
306.812	81.88
307.042	70.88
307.272	88.88
307.502	82.88
307.731	95.88
307.961	84.88
308.191	84.88
308.421	80.88
308.651	79.88
308.881	70.88
309.111	66.88
309.341	73.88
309.571	76.88
309.8	80.88
310.03	75.88
310.26	71.88
310.49	73.88
310.72	62.88
310.949	82.88
311.179	79.88
311.409	69.88
311.639	87.88
311.868	84.88
312.098	72.88
312.328	81.88
312.557	70.88
312.787	79.88
313.017	85.88
313.246	67.88
313.476	73.88
313.706	71.88
313.935	80.88
314.165	84.88
314.394	93.88
314.624	83.88
314.853	72.88
315.083	85.88
315.312	77.88
315.542	75.88
315.771	81.88
316.001	82.88
316.23	79.88
316.46	78.88
316.689	82.88
316.919	68.88
317.148	83.88
317.377	80.88
317.607	87.88
317.836	80.88
318.065	71.88
318.295	70.88
318.524	71.88
318.753	84.88
318.983	78.88
319.212	84.88
319.441	82.88
319.67	84.88
319.9	78.88
320.129	71.88
320.358	74.88
320.587	96.88
320.816	76.88
321.046	71.88
321.275	77.88
321.504	85.88
321.733	86.88
321.962	79.88
322.191	74.88
322.42	78.88
322.649	94.88
322.878	83.88
323.108	80.88
323.337	76.88
323.566	77.88
323.795	80.88
324.024	76.88
324.253	97.88
324.482	78.88
324.71	82.88
324.939	85.88
325.168	80.88
325.397	77.88
325.626	88.88
325.855	86.88
326.084	65.88
326.313	76.88
326.542	74.88
326.77	70.88
326.999	86.88
327.228	76.88
327.457	80.88
327.686	75.88
327.914	77.88
328.143	76.88
328.372	87.88
328.6	81.88
328.829	79.88
329.058	82.88
329.287	76.88
329.515	86.88
329.744	79.88
329.972	73.88
330.201	75.88
330.43	68.88
330.658	72.88
330.887	81.88
331.115	72.88
331.344	82.88
331.572	85.88
331.801	70.88
332.03	74.88
332.258	78.88
332.486	79.88
332.715	76.88
332.943	73.88
333.172	72.88
333.4	90.88
333.629	67.88
333.857	67.88
334.085	71.88
334.314	76.88
334.542	64.88
334.771	81.88
334.999	67.88
335.227	77.88
335.455	84.88
335.684	86.88
335.912	67.88
336.14	74.88
336.369	82.88
336.597	77.88
336.825	86.88
337.053	79.88
337.281	71.88
337.51	77.88
337.738	80.88
337.966	77.88
338.194	73.88
338.422	85.88
338.65	74.88
338.878	90.88
339.106	74.88
339.334	103.88
339.562	79.88
339.79	76.88
340.018	81.88
340.246	78.88
340.474	80.88
340.702	77.88
340.93	66.88
341.158	72.88
341.386	73.88
341.614	75.88
341.842	71.88
342.07	79.88
342.298	80.88
342.526	70.88
342.754	81.88
342.981	70.88
343.209	89.88
343.437	80.88
343.665	64.88
343.893	70.88
344.12	79.88
344.348	88.88
344.576	73.88
344.804	69.88
345.031	75.88
345.259	88.88
345.487	90.88
345.714	73.88
345.942	84.88
346.17	80.88
346.397	82.88
346.625	75.88
346.853	68.88
347.08	80.88
347.308	84.88
347.535	72.88
347.763	79.88
347.99	88.88
348.218	93.88
348.445	90.88
348.673	88.88
348.9	84.88
349.128	78.88
349.355	92.88
349.583	91.88
349.81	74.88
350.037	84.88
350.265	85.88
350.492	95.88
350.72	80.88
350.947	79.88
351.174	100.88
351.402	77.88
351.629	72.88
351.856	78.88
352.083	71.88
352.311	68.88
352.538	64.88
352.765	80.88
352.992	71.88
353.22	73.88
353.447	90.88
353.674	76.88
353.901	88.88
354.128	81.88
354.355	86.88
354.583	67.88
354.81	76.88
355.037	76.88
355.264	80.88
355.491	88.88
355.718	86.88
355.945	90.88
356.172	92.88
356.399	83.88
356.626	66.88
356.853	75.88
357.08	82.88
357.307	87.88
357.534	81.88
357.761	69.88
357.988	69.88
358.215	83.88
358.441	81.88
358.668	61.88
358.895	69.88
359.122	75.88
359.349	78.88
359.576	89.88
359.802	77.88
360.029	89.88
360.256	84.88
360.483	83.88
360.709	85.88
360.936	78.88
361.163	84.88
361.39	79.88
361.616	73.88
361.843	74.88
362.07	75.88
362.296	73.88
362.523	80.88
362.749	91.88
362.976	74.88
363.203	80.88
363.429	76.88
363.656	73.88
363.882	78.88
364.109	82.88
364.335	99.88
364.562	77.88
364.788	92.88
365.015	85.88
365.241	78.88
365.468	83.88
365.694	76.88
365.92	86.88
366.147	78.88
366.373	89.88
366.599	91.88
366.826	90.88
367.052	72.88
367.278	76.88
367.505	76.88
367.731	84.88
367.957	82.88
368.184	67.88
368.41	90.88
368.636	66.88
368.862	78.88
369.089	81.88
369.315	82.88
369.541	91.88
369.767	83.88
369.993	99.88
370.219	79.88
370.445	91.88
370.672	94.88
370.898	81.88
371.124	72.88
371.35	86.88
371.576	88.88
371.802	100.88
372.028	80.88
372.254	81.88
372.48	82.88
372.706	76.88
372.932	88.88
373.158	92.88
373.384	87.88
373.61	84.88
373.835	95.88
374.061	100.88
374.287	73.88
374.513	84.88
374.739	82.88
374.965	91.88
375.191	80.88
375.416	75.88
375.642	86.88
375.868	86.88
376.094	89.88
376.319	91.88
376.545	82.88
376.771	95.88
376.997	81.88
377.222	82.88
377.448	93.88
377.674	92.88
377.899	90.88
378.125	87.88
378.35	82.88
378.576	89.88
378.802	92.88
379.027	94.88
379.253	88.88
379.478	87.88
379.704	94.88
379.929	86.88
380.155	83.88
380.38	100.88
380.606	92.88
380.831	90.88
381.057	98.88
381.282	84.88
381.507	84.88
381.733	89.88
381.958	90.88
382.184	100.88
382.409	87.88
382.634	85.88
382.86	83.88
383.085	86.88
383.31	91.88
383.535	80.88
383.761	93.88
383.986	93.88
384.211	79.88
384.436	85.88
384.662	115.88
384.887	97.88
385.112	98.88
385.337	85.88
385.562	93.88
385.787	95.88
386.013	93.88
386.238	94.88
386.463	97.88
386.688	106.88
386.913	82.88
387.138	92.88
387.363	98.88
387.588	96.88
387.813	105.88
388.038	84.88
388.263	88.88
388.488	108.88
388.713	99.88
388.938	106.88
389.163	98.88
389.387	104.88
389.612	106.88
389.837	83.88
390.062	107.88
390.287	102.88
390.512	117.88
390.736	95.88
390.961	94.88
391.186	99.88
391.411	95.88
391.636	86.88
391.86	91.88
392.085	93.88
392.31	100.88
392.534	99.88
392.759	93.88
392.984	97.88
393.208	96.88
393.433	92.88
393.658	96.88
393.882	111.88
394.107	109.88
394.331	92.88
394.556	102.88
394.78	99.88
395.005	98.88
395.229	93.88
395.454	107.88
395.678	98.88
395.903	92.88
396.127	98.88
396.352	113.88
396.576	103.88
396.801	112.88
397.025	87.88
397.249	94.88
397.474	96.88
397.698	98.88
397.922	94.88
398.147	96.88
398.371	109.88
398.595	102.88
398.82	106.88
399.044	103.88
399.268	110.88
399.492	122.88
399.717	101.88
399.941	103.88
400.165	109.88
400.389	113.88
400.613	102.88
400.837	109.88
401.062	110.88
401.286	95.88
401.51	110.88
401.734	116.88
401.958	120.88
402.182	111.88
402.406	104.88
402.63	100.88
402.854	109.88
403.078	103.88
403.302	106.88
403.526	101.88
403.75	109.88
403.974	93.88
404.198	118.88
404.422	120.88
404.645	109.88
404.869	104.88
405.093	109.88
405.317	92.88
405.541	115.88
405.765	97.88
405.988	106.88
406.212	110.88
406.436	125.88
406.66	112.88
406.883	132.88
407.107	118.88
407.331	128.88
407.555	108.88
407.778	106.88
408.002	118.88
408.226	126.88
408.449	106.88
408.673	116.88
408.896	94.88
409.12	122.88
409.344	118.88
409.567	133.88
409.791	115.88
410.014	106.88
410.238	118.88
410.461	107.88
410.685	118.88
410.908	126.88
411.132	96.88
411.355	121.88
411.578	117.88
411.802	124.88
412.025	110.88
412.249	120.88
412.472	127.88
412.695	125.88
412.919	117.88
413.142	109.88
413.365	111.88
413.589	112.88
413.812	123.88
414.035	112.88
414.258	111.88
414.482	121.88
414.705	122.88
414.928	118.88
415.151	121.88
415.374	126.88
415.597	109.88
415.821	120.88
416.044	110.88
416.267	124.88
416.49	125.88
416.713	127.88
416.936	120.88
417.159	120.88
417.382	113.88
417.605	124.88
417.828	117.88
418.051	123.88
418.274	109.88
418.497	122.88
418.72	139.88
418.943	117.88
419.166	127.88
419.389	123.88
419.611	128.88
419.834	120.88
420.057	116.88
420.28	118.88
420.503	124.88
420.726	133.88
420.948	124.88
421.171	127.88
421.394	128.88
421.617	143.88
421.839	141.88
422.062	135.88
422.285	131.88
422.507	118.88
422.73	114.88
422.953	117.88
423.175	109.88
423.398	134.88
423.621	122.88
423.843	126.88
424.066	129.88
424.288	126.88
424.511	153.88
424.733	117.88
424.956	144.88
425.178	134.88
425.401	124.88
425.623	120.88
425.846	112.88
426.068	123.88
426.291	122.88
426.513	119.88
426.735	120.88
426.958	111.88
427.18	128.88
427.402	143.88
427.625	134.88
427.847	134.88
428.069	124.88
428.292	125.88
428.514	114.88
428.736	118.88
428.958	116.88
429.181	119.88
429.403	131.88
429.625	126.88
429.847	133.88
430.069	134.88
430.292	129.88
430.514	135.88
430.736	114.88
430.958	119.88
431.18	116.88
431.402	123.88
431.624	115.88
431.846	115.88
432.068	97.88
432.29	90.88
432.512	102.88
432.734	118.88
432.956	132.88
433.178	132.88
433.4	133.88
433.622	138.88
433.844	114.88
434.066	113.88
434.287	103.88
434.509	94.88
434.731	88.88
434.953	117.88
435.175	121.88
435.397	100.88
435.618	108.88
435.84	116.88
436.062	118.88
436.284	113.88
436.505	130.88
436.727	132.88
436.949	117.88
437.17	117.88
437.392	130.88
437.614	119.88
437.835	100.88
438.057	105.88
438.278	97.88
438.5	117.88
438.721	121.88
438.943	122.88
439.165	131.88
439.386	134.88
439.608	142.88
439.829	145.88
440.05	140.88
440.272	141.88
440.493	117.88
440.715	133.88
440.936	143.88
441.158	144.88
441.379	135.88
441.6	133.88
441.822	140.88
442.043	144.88
442.264	137.88
442.486	135.88
442.707	134.88
442.928	127.88
443.149	136.88
443.371	134.88
443.592	134.88
443.813	126.88
444.034	129.88
444.255	124.88
444.476	134.88
444.698	122.88
444.919	130.88
445.14	251.88
445.361	196.88
445.582	130.88
445.803	129.88
446.024	136.88
446.245	146.88
446.466	143.88
446.687	139.88
446.908	142.88
447.129	154.88
447.35	152.88
447.571	151.88
447.792	142.88
448.013	120.88
448.234	141.88
448.455	118.88
448.675	137.88
448.896	128.88
449.117	142.88
449.338	119.88
449.559	125.88
449.779	126.88
450	109.88
450.221	120.88
450.442	128.88
450.662	110.88
450.883	125.88
451.104	141.88
451.324	130.88
451.545	142.88
451.766	132.88
451.986	119.88
452.207	121.88
452.428	126.88
452.648	124.88
452.869	93.88
453.089	100.88
453.31	97.88
453.53	97.88
453.751	88.88
453.971	86.88
454.192	108.88
454.412	107.88
454.633	95.88
454.853	109.88
455.073	116.88
455.294	108.88
455.514	116.88
455.734	127.88
455.955	111.88
456.175	126.88
456.395	100.88
456.616	101.88
456.836	103.88
457.056	108.88
457.276	110.88
457.497	110.88
457.717	98.88
457.937	88.88
458.157	94.88
458.377	97.88
458.598	93.88
458.818	95.88
459.038	88.88
459.258	86.88
459.478	82.88
459.698	81.88
459.918	95.88
460.138	91.88
460.358	103.88
460.578	110.88
460.798	108.88
461.018	97.88
461.238	114.88
461.458	111.88
461.678	103.88
461.898	112.88
462.118	106.88
462.338	111.88
462.558	114.88
462.777	111.88
462.997	103.88
463.217	103.88
463.437	114.88
463.657	103.88
463.876	114.88
464.096	93.88
464.316	105.88
464.536	99.88
464.755	106.88
464.975	99.88
465.195	94.88
465.414	103.88
465.634	116.88
465.854	98.88
466.073	113.88
466.293	122.88
466.512	132.88
466.732	125.88
466.951	110.88
467.171	118.88
467.391	117.88
467.61	124.88
467.829	140.88
468.049	140.88
468.268	116.88
468.488	134.88
468.707	111.88
468.927	131.88
469.146	144.88
469.365	146.88
469.585	136.88
469.804	132.88
470.023	148.88
470.243	146.88
470.462	147.88
470.681	136.88
470.901	130.88
471.12	126.88
471.339	126.88
471.558	141.88
471.777	135.88
471.997	120.88
472.216	124.88
472.435	112.88
472.654	85.88
472.873	92.88
473.092	114.88
473.311	129.88
473.53	120.88
473.749	120.88
473.968	124.88
474.187	118.88
474.406	117.88
474.625	123.88
474.844	115.88
475.063	141.88
475.282	114.88
475.501	103.88
475.72	120.88
475.939	122.88
476.158	116.88
476.377	120.88
476.596	122.88
476.814	111.88
477.033	113.88
477.252	98.88
477.471	124.88
477.69	125.88
477.908	116.88
478.127	138.88
478.346	135.88
478.564	124.88
478.783	136.88
479.002	137.88
479.22	118.88
479.439	133.88
479.658	124.88
479.876	109.88
480.095	93.88
480.313	113.88
480.532	106.88
480.751	102.88
480.969	83.88
481.188	81.88
481.406	78.88
481.624	82.88
481.843	83.88
482.061	98.88
482.28	112.88
482.498	110.88
482.717	98.88
482.935	110.88
483.153	116.88
483.372	134.88
483.59	152.88
483.808	131.88
484.027	128.88
484.245	130.88
484.463	134.88
484.681	156.88
484.9	138.88
485.118	127.88
485.336	123.88
485.554	119.88
485.772	95.88
485.99	96.88
486.209	112.88
486.427	99.88
486.645	114.88
486.863	140.88
487.081	133.88
487.299	112.88
487.517	123.88
487.735	149.88
487.953	190.88
488.171	182.88
488.389	164.88
488.607	156.88
488.825	146.88
489.043	121.88
489.261	116.88
489.479	126.88
489.696	116.88
489.914	122.88
490.132	114.88
490.35	136.88
490.568	144.88
490.786	151.88
491.003	167.88
491.221	175.88
491.439	165.88
491.657	190.88
491.874	199.88
492.092	209.88
492.31	234.88
492.527	218.88
492.745	197.88
492.963	184.88
493.18	191.88
493.398	170.88
493.615	168.88
493.833	180.88
494.05	158.88
494.268	174.88
494.485	178.88
494.703	182.88
494.92	160.88
495.138	164.88
495.355	176.88
495.573	165.88
495.79	178.88
496.008	146.88
496.225	159.88
496.442	153.88
496.66	154.88
496.877	170.88
497.094	175.88
497.312	170.88
497.529	150.88
497.746	152.88
497.963	122.88
498.181	132.88
498.398	115.88
498.615	109.88
498.832	108.88
499.049	116.88
499.267	124.88
499.484	141.88
499.701	126.88
499.918	131.88
500.135	126.88
500.352	148.88
500.569	131.88
500.786	148.88
501.003	141.88
501.22	132.88
501.437	148.88
501.654	123.88
501.871	128.88
502.088	130.88
502.305	124.88
502.522	121.88
502.739	120.88
502.956	135.88
503.172	116.88
503.389	115.88
503.606	128.88
503.823	114.88
504.04	124.88
504.256	119.88
504.473	115.88
504.69	119.88
504.907	119.88
505.123	120.88
505.34	124.88
505.557	122.88
505.773	120.88
505.99	118.88
506.207	115.88
506.423	122.88
506.64	118.88
506.856	115.88
507.073	112.88
507.289	119.88
507.506	112.88
507.722	108.88
507.939	102.88
508.155	104.88
508.372	102.88
508.588	87.88
508.805	109.88
509.021	100.88
509.238	114.88
509.454	99.88
509.67	93.88
509.887	87.88
510.103	86.88
510.319	85.88
510.536	92.88
510.752	73.88
510.968	79.88
511.184	75.88
511.401	81.88
511.617	81.88
511.833	83.88
512.049	92.88
512.265	94.88
512.481	94.88
512.698	96.88
