Data from Location2.07152019.Energy5.Lamp.07192019.3%Agarose_HRD10591_14-58-19-359.txt Node
Date: Fri Jul 19 14:58:19 EDT 2019
User: cochatt
Spectrometer: HR+D1059
Trigger mode: 1
Integration Time (sec): 1.000000E-1
Scans to average: 1
Electric dark correction enabled: true
Nonlinearity correction enabled: false
Boxcar width: 0
XAxis mode: Wavelengths
Number of Pixels in Spectrum: 2048
>>>>>Begin Spectral Data<<<<<
223.165	-6.5
223.4	-6.5
223.635	-6.5
223.869	-21.5
224.104	-14.5
224.338	-17.5
224.573	-7.5
224.808	-4.5
225.042	-6.5
225.277	2.5
225.511	-10.5
225.746	4.5
225.98	19.5
226.215	9.5
226.449	5.5
226.683	18.5
226.918	21.5
227.152	7.5
227.387	35.5
227.621	36.5
227.856	53.5
228.09	44.5
228.324	61.5
228.559	40.5
228.793	51.5
229.027	61.5
229.262	59.5
229.496	60.5
229.73	60.5
229.964	77.5
230.199	78.5
230.433	73.5
230.667	74.5
230.901	79.5
231.136	84.5
231.37	80.5
231.604	86.5
231.838	69.5
232.072	78.5
232.306	86.5
232.541	76.5
232.775	74.5
233.009	89.5
233.243	81.5
233.477	84.5
233.711	90.5
233.945	86.5
234.179	71.5
234.413	79.5
234.647	88.5
234.881	83.5
235.115	90.5
235.349	84.5
235.583	69.5
235.817	79.5
236.051	86.5
236.285	65.5
236.519	73.5
236.753	82.5
236.987	79.5
237.221	57.5
237.455	72.5
237.689	82.5
237.922	78.5
238.156	85.5
238.39	76.5
238.624	81.5
238.858	83.5
239.091	88.5
239.325	79.5
239.559	72.5
239.793	75.5
240.027	82.5
240.26	82.5
240.494	76.5
240.728	72.5
240.961	91.5
241.195	79.5
241.429	64.5
241.662	82.5
241.896	84.5
242.13	79.5
242.363	81.5
242.597	73.5
242.83	75.5
243.064	83.5
243.298	83.5
243.531	83.5
243.765	86.5
243.998	84.5
244.232	69.5
244.465	83.5
244.699	88.5
244.932	80.5
245.166	71.5
245.399	77.5
245.633	82.5
245.866	73.5
246.099	85.5
246.333	77.5
246.566	80.5
246.8	74.5
247.033	72.5
247.266	77.5
247.5	82.5
247.733	83.5
247.966	74.5
248.2	87.5
248.433	74.5
248.666	70.5
248.899	78.5
249.133	79.5
249.366	83.5
249.599	85.5
249.832	74.5
250.066	83.5
250.299	91.5
250.532	79.5
250.765	87.5
250.998	88.5
251.231	78.5
251.465	94.5
251.698	92.5
251.931	82.5
252.164	86.5
252.397	92.5
252.63	82.5
252.863	79.5
253.096	88.5
253.329	86.5
253.562	85.5
253.795	78.5
254.028	90.5
254.261	79.5
254.494	82.5
254.727	70.5
254.96	81.5
255.193	72.5
255.426	68.5
255.659	86.5
255.892	88.5
256.124	79.5
256.357	82.5
256.59	98.5
256.823	67.5
257.056	94.5
257.289	89.5
257.521	78.5
257.754	83.5
257.987	100.5
258.22	74.5
258.452	94.5
258.685	77.5
258.918	76.5
259.151	83.5
259.383	81.5
259.616	79.5
259.849	78.5
260.081	77.5
260.314	83.5
260.547	82.5
260.779	70.5
261.012	88.5
261.244	83.5
261.477	78.5
261.71	81.5
261.942	84.5
262.175	92.5
262.407	82.5
262.64	84.5
262.872	90.5
263.105	83.5
263.337	84.5
263.57	86.5
263.802	87.5
264.035	78.5
264.267	70.5
264.499	84.5
264.732	94.5
264.964	81.5
265.197	79.5
265.429	87.5
265.661	92.5
265.894	85.5
266.126	85.5
266.358	78.5
266.591	89.5
266.823	83.5
267.055	83.5
267.287	92.5
267.52	78.5
267.752	79.5
267.984	85.5
268.216	80.5
268.448	88.5
268.681	89.5
268.913	85.5
269.145	86.5
269.377	78.5
269.609	90.5
269.841	83.5
270.073	84.5
270.306	74.5
270.538	85.5
270.77	67.5
271.002	79.5
271.234	79.5
271.466	93.5
271.698	75.5
271.93	81.5
272.162	78.5
272.394	93.5
272.626	93.5
272.858	89.5
273.09	86.5
273.322	81.5
273.553	78.5
273.785	85.5
274.017	77.5
274.249	96.5
274.481	96.5
274.713	88.5
274.945	83.5
275.176	78.5
275.408	85.5
275.64	89.5
275.872	82.5
276.104	80.5
276.335	79.5
276.567	80.5
276.799	94.5
277.031	86.5
277.262	82.5
277.494	93.5
277.726	87.5
277.957	79.5
278.189	77.5
278.421	83.5
278.652	87.5
278.884	81.5
279.115	86.5
279.347	86.5
279.579	77.5
279.81	82.5
280.042	85.5
280.273	86.5
280.505	79.5
280.736	96.5
280.968	91.5
281.199	83.5
281.431	86.5
281.662	84.5
281.894	76.5
282.125	86.5
282.356	90.5
282.588	83.5
282.819	83.5
283.051	95.5
283.282	90.5
283.513	91.5
283.745	93.5
283.976	99.5
284.207	69.5
284.439	82.5
284.67	69.5
284.901	91.5
285.132	78.5
285.364	85.5
285.595	89.5
285.826	79.5
286.057	80.5
286.288	75.5
286.52	98.5
286.751	71.5
286.982	84.5
287.213	81.5
287.444	67.5
287.675	71.5
287.906	91.5
288.138	89.5
288.369	86.5
288.6	85.5
288.831	83.5
289.062	91.5
289.293	82.5
289.524	66.5
289.755	85.5
289.986	91.5
290.217	87.5
290.448	91.5
290.679	97.5
290.91	98.5
291.141	87.5
291.371	101.5
291.602	86.5
291.833	90.5
292.064	77.5
292.295	85.5
292.526	80.5
292.757	92.5
292.987	82.5
293.218	80.5
293.449	74.5
293.68	89.5
293.91	80.5
294.141	85.5
294.372	85.5
294.603	93.5
294.833	81.5
295.064	73.5
295.295	85.5
295.525	85.5
295.756	84.5
295.987	79.5
296.217	89.5
296.448	86.5
296.679	85.5
296.909	81.5
297.14	79.5
297.37	86.5
297.601	94.5
297.831	86.5
298.062	88.5
298.292	77.5
298.523	80.5
298.753	95.5
298.984	76.5
299.214	101.5
299.445	85.5
299.675	93.5
299.905	61.5
300.136	83.5
300.366	80.5
300.597	91.5
300.827	78.5
301.057	83.5
301.288	82.5
301.518	84.5
301.748	82.5
301.979	73.5
302.209	88.5
302.439	73.5
302.669	72.5
302.9	92.5
303.13	90.5
303.36	84.5
303.59	80.5
303.82	87.5
304.051	96.5
304.281	92.5
304.511	90.5
304.741	89.5
304.971	83.5
305.201	88.5
305.431	84.5
305.661	89.5
305.891	97.5
306.121	98.5
306.352	79.5
306.582	80.5
306.812	99.5
307.042	99.5
307.272	89.5
307.502	91.5
307.731	99.5
307.961	77.5
308.191	83.5
308.421	75.5
308.651	88.5
308.881	88.5
309.111	78.5
309.341	81.5
309.571	90.5
309.8	74.5
310.03	93.5
310.26	81.5
310.49	96.5
310.72	78.5
310.949	95.5
311.179	85.5
311.409	97.5
311.639	74.5
311.868	87.5
312.098	83.5
312.328	82.5
312.557	91.5
312.787	86.5
313.017	94.5
313.246	75.5
313.476	89.5
313.706	94.5
313.935	90.5
314.165	70.5
314.394	85.5
314.624	91.5
314.853	73.5
315.083	101.5
315.312	106.5
315.542	84.5
315.771	88.5
316.001	77.5
316.23	96.5
316.46	83.5
316.689	100.5
316.919	100.5
317.148	92.5
317.377	98.5
317.607	86.5
317.836	103.5
318.065	88.5
318.295	80.5
318.524	78.5
318.753	76.5
318.983	82.5
319.212	87.5
319.441	82.5
319.67	98.5
319.9	89.5
320.129	91.5
320.358	99.5
320.587	89.5
320.816	75.5
321.046	61.5
321.275	74.5
321.504	80.5
321.733	81.5
321.962	86.5
322.191	87.5
322.42	88.5
322.649	84.5
322.878	79.5
323.108	85.5
323.337	90.5
323.566	87.5
323.795	91.5
324.024	95.5
324.253	89.5
324.482	82.5
324.71	71.5
324.939	100.5
325.168	87.5
325.397	103.5
325.626	80.5
325.855	85.5
326.084	71.5
326.313	94.5
326.542	79.5
326.77	81.5
326.999	97.5
327.228	83.5
327.457	91.5
327.686	86.5
327.914	92.5
328.143	76.5
328.372	86.5
328.6	88.5
328.829	85.5
329.058	87.5
329.287	93.5
329.515	97.5
329.744	102.5
329.972	78.5
330.201	89.5
330.43	80.5
330.658	85.5
330.887	85.5
331.115	82.5
331.344	97.5
331.572	88.5
331.801	93.5
332.03	90.5
332.258	88.5
332.486	88.5
332.715	77.5
332.943	81.5
333.172	83.5
333.4	74.5
333.629	101.5
333.857	99.5
334.085	78.5
334.314	84.5
334.542	89.5
334.771	85.5
334.999	86.5
335.227	87.5
335.455	102.5
335.684	102.5
335.912	92.5
336.14	85.5
336.369	88.5
336.597	81.5
336.825	97.5
337.053	99.5
337.281	96.5
337.51	101.5
337.738	84.5
337.966	88.5
338.194	89.5
338.422	105.5
338.65	92.5
338.878	89.5
339.106	100.5
339.334	100.5
339.562	87.5
339.79	95.5
340.018	89.5
340.246	74.5
340.474	80.5
340.702	94.5
340.93	95.5
341.158	87.5
341.386	84.5
341.614	94.5
341.842	94.5
342.07	85.5
342.298	83.5
342.526	86.5
342.754	89.5
342.981	100.5
343.209	90.5
343.437	101.5
343.665	78.5
343.893	73.5
344.12	81.5
344.348	88.5
344.576	100.5
344.804	95.5
345.031	86.5
345.259	91.5
345.487	88.5
345.714	88.5
345.942	65.5
346.17	94.5
346.397	91.5
346.625	96.5
346.853	84.5
347.08	94.5
347.308	97.5
347.535	85.5
347.763	83.5
347.99	95.5
348.218	91.5
348.445	84.5
348.673	95.5
348.9	93.5
349.128	83.5
349.355	90.5
349.583	96.5
349.81	91.5
350.037	87.5
350.265	89.5
350.492	78.5
350.72	90.5
350.947	78.5
351.174	84.5
351.402	75.5
351.629	88.5
351.856	85.5
352.083	91.5
352.311	69.5
352.538	84.5
352.765	92.5
352.992	100.5
353.22	94.5
353.447	85.5
353.674	73.5
353.901	74.5
354.128	90.5
354.355	87.5
354.583	80.5
354.81	90.5
355.037	82.5
355.264	94.5
355.491	76.5
355.718	81.5
355.945	102.5
356.172	89.5
356.399	77.5
356.626	81.5
356.853	84.5
357.08	84.5
357.307	81.5
357.534	92.5
357.761	90.5
357.988	82.5
358.215	89.5
358.441	98.5
358.668	86.5
358.895	90.5
359.122	86.5
359.349	87.5
359.576	93.5
359.802	84.5
360.029	78.5
360.256	87.5
360.483	75.5
360.709	94.5
360.936	95.5
361.163	84.5
361.39	82.5
361.616	74.5
361.843	85.5
362.07	89.5
362.296	99.5
362.523	89.5
362.749	84.5
362.976	80.5
363.203	77.5
363.429	97.5
363.656	85.5
363.882	86.5
364.109	87.5
364.335	82.5
364.562	75.5
364.788	85.5
365.015	88.5
365.241	96.5
365.468	82.5
365.694	84.5
365.92	76.5
366.147	86.5
366.373	89.5
366.599	74.5
366.826	82.5
367.052	95.5
367.278	87.5
367.505	79.5
367.731	90.5
367.957	86.5
368.184	85.5
368.41	87.5
368.636	104.5
368.862	89.5
369.089	92.5
369.315	87.5
369.541	93.5
369.767	84.5
369.993	94.5
370.219	94.5
370.445	95.5
370.672	68.5
370.898	89.5
371.124	86.5
371.35	94.5
371.576	108.5
371.802	85.5
372.028	83.5
372.254	104.5
372.48	85.5
372.706	89.5
372.932	95.5
373.158	79.5
373.384	98.5
373.61	87.5
373.835	90.5
374.061	80.5
374.287	97.5
374.513	95.5
374.739	86.5
374.965	90.5
375.191	95.5
375.416	91.5
375.642	89.5
375.868	94.5
376.094	92.5
376.319	97.5
376.545	102.5
376.771	100.5
376.997	103.5
377.222	82.5
377.448	86.5
377.674	78.5
377.899	91.5
378.125	94.5
378.35	90.5
378.576	109.5
378.802	104.5
379.027	93.5
379.253	94.5
379.478	102.5
379.704	103.5
379.929	93.5
380.155	92.5
380.38	86.5
380.606	98.5
380.831	97.5
381.057	115.5
381.282	101.5
381.507	101.5
381.733	82.5
381.958	98.5
382.184	96.5
382.409	94.5
382.634	111.5
382.86	92.5
383.085	104.5
383.31	110.5
383.535	98.5
383.761	93.5
383.986	94.5
384.211	96.5
384.436	88.5
384.662	77.5
384.887	104.5
385.112	99.5
385.337	106.5
385.562	97.5
385.787	102.5
386.013	97.5
386.238	96.5
386.463	84.5
386.688	101.5
386.913	106.5
387.138	105.5
387.363	106.5
387.588	103.5
387.813	100.5
388.038	103.5
388.263	93.5
388.488	101.5
388.713	110.5
388.938	102.5
389.163	99.5
389.387	111.5
389.612	113.5
389.837	96.5
390.062	106.5
390.287	115.5
390.512	120.5
390.736	104.5
390.961	99.5
391.186	103.5
391.411	81.5
391.636	96.5
391.86	102.5
392.085	103.5
392.31	108.5
392.534	107.5
392.759	97.5
392.984	94.5
393.208	103.5
393.433	111.5
393.658	117.5
393.882	115.5
394.107	108.5
394.331	113.5
394.556	110.5
394.78	121.5
395.005	106.5
395.229	101.5
395.454	113.5
395.678	110.5
395.903	104.5
396.127	110.5
396.352	126.5
396.576	120.5
396.801	105.5
397.025	101.5
397.249	100.5
397.474	107.5
397.698	103.5
397.922	114.5
398.147	129.5
398.371	113.5
398.595	115.5
398.82	115.5
399.044	114.5
399.268	113.5
399.492	116.5
399.717	116.5
399.941	114.5
400.165	114.5
400.389	110.5
400.613	121.5
400.837	111.5
401.062	122.5
401.286	122.5
401.51	101.5
401.734	113.5
401.958	116.5
402.182	109.5
402.406	125.5
402.63	118.5
402.854	99.5
403.078	101.5
403.302	116.5
403.526	117.5
403.75	115.5
403.974	129.5
404.198	98.5
404.422	117.5
404.645	117.5
404.869	121.5
405.093	115.5
405.317	105.5
405.541	141.5
405.765	121.5
405.988	119.5
406.212	113.5
406.436	123.5
406.66	124.5
406.883	133.5
407.107	119.5
407.331	123.5
407.555	120.5
407.778	130.5
408.002	114.5
408.226	118.5
408.449	129.5
408.673	113.5
408.896	139.5
409.12	122.5
409.344	116.5
409.567	121.5
409.791	117.5
410.014	102.5
410.238	117.5
410.461	131.5
410.685	116.5
410.908	115.5
411.132	127.5
411.355	123.5
411.578	126.5
411.802	108.5
412.025	128.5
412.249	126.5
412.472	119.5
412.695	117.5
412.919	108.5
413.142	105.5
413.365	130.5
413.589	125.5
413.812	110.5
414.035	123.5
414.258	126.5
414.482	117.5
414.705	129.5
414.928	120.5
415.151	116.5
415.374	117.5
415.597	134.5
415.821	107.5
416.044	119.5
416.267	130.5
416.49	122.5
416.713	126.5
416.936	117.5
417.159	132.5
417.382	120.5
417.605	109.5
417.828	124.5
418.051	133.5
418.274	149.5
418.497	148.5
418.72	126.5
418.943	138.5
419.166	130.5
419.389	145.5
419.611	156.5
419.834	127.5
420.057	137.5
420.28	137.5
420.503	124.5
420.726	146.5
420.948	124.5
421.171	128.5
421.394	143.5
421.617	131.5
421.839	140.5
422.062	137.5
422.285	130.5
422.507	142.5
422.73	122.5
422.953	118.5
423.175	122.5
423.398	146.5
423.621	124.5
423.843	138.5
424.066	152.5
424.288	143.5
424.511	136.5
424.733	136.5
424.956	127.5
425.178	149.5
425.401	150.5
425.623	131.5
425.846	139.5
426.068	143.5
426.291	137.5
426.513	140.5
426.735	135.5
426.958	142.5
427.18	132.5
427.402	134.5
427.625	134.5
427.847	133.5
428.069	141.5
428.292	134.5
428.514	127.5
428.736	122.5
428.958	136.5
429.181	129.5
429.403	134.5
429.625	123.5
429.847	110.5
430.069	126.5
430.292	123.5
430.514	121.5
430.736	127.5
430.958	144.5
431.18	119.5
431.402	129.5
431.624	125.5
431.846	105.5
432.068	103.5
432.29	101.5
432.512	93.5
432.734	136.5
432.956	135.5
433.178	152.5
433.4	131.5
433.622	135.5
433.844	144.5
434.066	138.5
434.287	118.5
434.509	106.5
434.731	99.5
434.953	114.5
435.175	109.5
435.397	124.5
435.618	114.5
435.84	128.5
436.062	118.5
436.284	130.5
436.505	133.5
436.727	118.5
436.949	126.5
437.17	125.5
437.392	136.5
437.614	124.5
437.835	103.5
438.057	118.5
438.278	114.5
438.5	122.5
438.721	136.5
438.943	134.5
439.165	138.5
439.386	139.5
439.608	137.5
439.829	145.5
440.05	142.5
440.272	137.5
440.493	157.5
440.715	163.5
440.936	151.5
441.158	139.5
441.379	123.5
441.6	157.5
441.822	157.5
442.043	142.5
442.264	141.5
442.486	148.5
442.707	127.5
442.928	134.5
443.149	149.5
443.371	145.5
443.592	140.5
443.813	137.5
444.034	135.5
444.255	132.5
444.476	141.5
444.698	139.5
444.919	142.5
445.14	278.5
445.361	205.5
445.582	143.5
445.803	143.5
446.024	132.5
446.245	141.5
446.466	134.5
446.687	151.5
446.908	157.5
447.129	148.5
447.35	135.5
447.571	150.5
447.792	150.5
448.013	148.5
448.234	141.5
448.455	144.5
448.675	153.5
448.896	140.5
449.117	142.5
449.338	134.5
449.559	142.5
449.779	132.5
450	134.5
450.221	133.5
450.442	136.5
450.662	139.5
450.883	124.5
451.104	131.5
451.324	121.5
451.545	133.5
451.766	142.5
451.986	134.5
452.207	123.5
452.428	122.5
452.648	115.5
452.869	119.5
453.089	120.5
453.31	115.5
453.53	101.5
453.751	117.5
453.971	101.5
454.192	118.5
454.412	117.5
454.633	117.5
454.853	134.5
455.073	117.5
455.294	133.5
455.514	127.5
455.734	117.5
455.955	125.5
456.175	118.5
456.395	108.5
456.616	115.5
456.836	112.5
457.056	113.5
457.276	107.5
457.497	108.5
457.717	102.5
457.937	113.5
458.157	115.5
458.377	113.5
458.598	99.5
458.818	93.5
459.038	74.5
459.258	79.5
459.478	87.5
459.698	95.5
459.918	106.5
460.138	94.5
460.358	106.5
460.578	117.5
460.798	110.5
461.018	119.5
461.238	122.5
461.458	124.5
461.678	108.5
461.898	103.5
462.118	95.5
462.338	121.5
462.558	115.5
462.777	116.5
462.997	109.5
463.217	97.5
463.437	109.5
463.657	91.5
463.876	114.5
464.096	103.5
464.316	116.5
464.536	92.5
464.755	112.5
464.975	130.5
465.195	113.5
465.414	120.5
465.634	126.5
465.854	119.5
466.073	109.5
466.293	120.5
466.512	127.5
466.732	139.5
466.951	139.5
467.171	154.5
467.391	129.5
467.61	130.5
467.829	121.5
468.049	140.5
468.268	126.5
468.488	137.5
468.707	139.5
468.927	123.5
469.146	136.5
469.365	140.5
469.585	123.5
469.804	133.5
470.023	135.5
470.243	144.5
470.462	144.5
470.681	140.5
470.901	148.5
471.12	128.5
471.339	149.5
471.558	137.5
471.777	149.5
471.997	134.5
472.216	115.5
472.435	110.5
472.654	112.5
472.873	109.5
473.092	115.5
473.311	129.5
473.53	137.5
473.749	132.5
473.968	139.5
474.187	117.5
474.406	129.5
474.625	126.5
474.844	133.5
475.063	124.5
475.282	130.5
475.501	127.5
475.72	119.5
475.939	121.5
476.158	132.5
476.377	136.5
476.596	111.5
476.814	111.5
477.033	120.5
477.252	115.5
477.471	138.5
477.69	139.5
477.908	121.5
478.127	139.5
478.346	145.5
478.564	127.5
478.783	133.5
479.002	129.5
479.22	133.5
479.439	134.5
479.658	127.5
479.876	128.5
480.095	119.5
480.313	117.5
480.532	106.5
480.751	124.5
480.969	99.5
481.188	100.5
481.406	96.5
481.624	90.5
481.843	83.5
482.061	115.5
482.28	117.5
482.498	129.5
482.717	109.5
482.935	122.5
483.153	155.5
483.372	139.5
483.59	156.5
483.808	150.5
484.027	131.5
484.245	131.5
484.463	150.5
484.681	149.5
484.9	144.5
485.118	134.5
485.336	134.5
485.554	106.5
485.772	102.5
485.99	116.5
486.209	109.5
486.427	123.5
486.645	133.5
486.863	140.5
487.081	131.5
487.299	136.5
487.517	142.5
487.735	165.5
487.953	175.5
488.171	194.5
488.389	182.5
488.607	153.5
488.825	142.5
489.043	139.5
489.261	128.5
489.479	139.5
489.696	146.5
489.914	137.5
490.132	141.5
490.35	142.5
490.568	162.5
490.786	179.5
491.003	180.5
491.221	181.5
491.439	185.5
491.657	196.5
491.874	188.5
492.092	209.5
492.31	226.5
492.527	245.5
492.745	197.5
492.963	194.5
493.18	172.5
493.398	171.5
493.615	157.5
493.833	173.5
494.05	185.5
494.268	166.5
494.485	163.5
494.703	167.5
494.92	180.5
495.138	174.5
495.355	161.5
495.573	174.5
495.79	165.5
496.008	169.5
496.225	169.5
496.442	166.5
496.66	163.5
496.877	177.5
497.094	174.5
497.312	161.5
497.529	158.5
497.746	143.5
497.963	135.5
498.181	133.5
498.398	122.5
498.615	127.5
498.832	133.5
499.049	110.5
499.267	126.5
499.484	137.5
499.701	137.5
499.918	130.5
500.135	136.5
500.352	150.5
500.569	123.5
500.786	149.5
501.003	139.5
501.22	138.5
501.437	154.5
501.654	144.5
501.871	137.5
502.088	130.5
502.305	144.5
502.522	134.5
502.739	133.5
502.956	130.5
503.172	125.5
503.389	125.5
503.606	115.5
503.823	116.5
504.04	136.5
504.256	131.5
504.473	122.5
504.69	123.5
504.907	124.5
505.123	119.5
505.34	123.5
505.557	132.5
505.773	128.5
505.99	136.5
506.207	126.5
506.423	133.5
506.64	129.5
506.856	121.5
507.073	125.5
507.289	119.5
507.506	132.5
507.722	136.5
507.939	119.5
508.155	125.5
508.372	105.5
508.588	116.5
508.805	105.5
509.021	99.5
509.238	99.5
509.454	95.5
509.67	95.5
509.887	101.5
510.103	100.5
510.319	90.5
510.536	98.5
510.752	87.5
510.968	94.5
511.184	85.5
511.401	75.5
511.617	98.5
511.833	95.5
512.049	90.5
512.265	93.5
512.481	94.5
512.698	93.5
512.914	78.5
513.13	104.5
513.346	81.5
513.562	95.5
513.778	92.5
513.994	94.5
514.21	89.5
514.426	96.5
514.642	98.5
514.858	81.5
515.074	94.5
515.29	84.5
515.506	98.5
515.721	101.5
515.937	89.5
516.153	96.5
516.369	92.5
516.585	87.5
516.801	100.5
517.016	101.5
517.232	104.5
517.448	92.5
517.664	91.5
517.879	89.5
518.095	85.5
518.311	89.5
518.527	104.5
518.742	95.5
518.958	95.5
519.173	121.5
519.389	106.5
519.605	109.5
519.82	107.5
520.036	98.5
520.251	114.5
520.467	106.5
520.682	103.5
520.898	96.5
521.113	81.5
521.329	95.5
521.544	93.5
521.76	98.5
521.975	87.5
522.19	98.5
522.406	98.5
522.621	94.5
522.836	88.5
523.052	115.5
523.267	105.5
523.482	125.5
523.698	110.5
523.913	124.5
524.128	122.5
524.343	120.5
524.559	109.5
524.774	115.5
524.989	111.5
525.204	115.5
525.419	125.5
525.634	114.5
525.849	101.5
526.064	109.5
526.28	102.5
526.495	91.5
526.71	92.5
526.925	76.5
527.14	92.5
527.355	89.5
527.57	90.5
527.785	95.5
527.999	84.5
528.214	98.5
528.429	89.5
528.644	117.5
528.859	125.5
529.074	127.5
529.289	161.5
529.503	155.5
529.718	130.5
529.933	121.5
530.148	109.5
530.363	113.5
530.577	83.5
