Data from Location2.07152019.Energy5.Lamp.07192019.3%Agarose_HRD10591_14-58-47-359.txt Node
Date: Fri Jul 19 14:58:47 EDT 2019
User: cochatt
Spectrometer: HR+D1059
Trigger mode: 1
Integration Time (sec): 1.000000E-1
Scans to average: 1
Electric dark correction enabled: true
Nonlinearity correction enabled: false
Boxcar width: 0
XAxis mode: Wavelengths
Number of Pixels in Spectrum: 2048
>>>>>Begin Spectral Data<<<<<
223.165	0.56
223.4	0.56
223.635	0.56
223.869	-15.44
224.104	-13.44
224.338	-23.44
224.573	-24.44
224.808	-10.44
225.042	-8.44
225.277	-5.44
225.511	-3.44
225.746	8.56
225.98	-3.44
226.215	11.56
226.449	20.56
226.683	20.56
226.918	14.56
227.152	31.56
227.387	31.56
227.621	33.56
227.856	57.56
228.09	44.56
228.324	48.56
228.559	57.56
228.793	58.56
229.027	59.56
229.262	66.56
229.496	60.56
229.73	65.56
229.964	62.56
230.199	69.56
230.433	78.56
230.667	78.56
230.901	89.56
231.136	81.56
231.37	69.56
231.604	67.56
231.838	80.56
232.072	81.56
232.306	77.56
232.541	62.56
232.775	81.56
233.009	84.56
233.243	91.56
233.477	98.56
233.711	85.56
233.945	79.56
234.179	80.56
234.413	73.56
234.647	84.56
234.881	92.56
235.115	84.56
235.349	84.56
235.583	88.56
235.817	84.56
236.051	83.56
236.285	74.56
236.519	86.56
236.753	77.56
236.987	66.56
237.221	83.56
237.455	87.56
237.689	88.56
237.922	74.56
238.156	83.56
238.39	77.56
238.624	73.56
238.858	89.56
239.091	70.56
239.325	74.56
239.559	71.56
239.793	62.56
240.027	69.56
240.26	71.56
240.494	78.56
240.728	80.56
240.961	75.56
241.195	73.56
241.429	74.56
241.662	78.56
241.896	71.56
242.13	71.56
242.363	84.56
242.597	71.56
242.83	81.56
243.064	81.56
243.298	74.56
243.531	81.56
243.765	85.56
243.998	95.56
244.232	80.56
244.465	91.56
244.699	79.56
244.932	88.56
245.166	58.56
245.399	75.56
245.633	72.56
245.866	74.56
246.099	76.56
246.333	90.56
246.566	66.56
246.8	94.56
247.033	78.56
247.266	81.56
247.5	74.56
247.733	86.56
247.966	83.56
248.2	90.56
248.433	84.56
248.666	83.56
248.899	74.56
249.133	78.56
249.366	89.56
249.599	81.56
249.832	96.56
250.066	78.56
250.299	82.56
250.532	75.56
250.765	96.56
250.998	92.56
251.231	76.56
251.465	81.56
251.698	75.56
251.931	78.56
252.164	67.56
252.397	90.56
252.63	87.56
252.863	72.56
253.096	71.56
253.329	76.56
253.562	82.56
253.795	79.56
254.028	80.56
254.261	86.56
254.494	80.56
254.727	69.56
254.96	65.56
255.193	80.56
255.426	81.56
255.659	90.56
255.892	91.56
256.124	80.56
256.357	93.56
256.59	87.56
256.823	83.56
257.056	75.56
257.289	79.56
257.521	95.56
257.754	82.56
257.987	75.56
258.22	91.56
258.452	70.56
258.685	98.56
258.918	91.56
259.151	80.56
259.383	98.56
259.616	73.56
259.849	75.56
260.081	70.56
260.314	80.56
260.547	77.56
260.779	82.56
261.012	78.56
261.244	78.56
261.477	81.56
261.71	71.56
261.942	79.56
262.175	94.56
262.407	86.56
262.64	78.56
262.872	74.56
263.105	80.56
263.337	80.56
263.57	80.56
263.802	80.56
264.035	83.56
264.267	77.56
264.499	90.56
264.732	79.56
264.964	70.56
265.197	63.56
265.429	83.56
265.661	80.56
265.894	87.56
266.126	75.56
266.358	88.56
266.591	78.56
266.823	78.56
267.055	87.56
267.287	78.56
267.52	89.56
267.752	75.56
267.984	83.56
268.216	81.56
268.448	80.56
268.681	78.56
268.913	80.56
269.145	75.56
269.377	74.56
269.609	87.56
269.841	96.56
270.073	89.56
270.306	93.56
270.538	73.56
270.77	85.56
271.002	82.56
271.234	87.56
271.466	86.56
271.698	73.56
271.93	83.56
272.162	56.56
272.394	86.56
272.626	72.56
272.858	80.56
273.09	80.56
273.322	85.56
273.553	87.56
273.785	72.56
274.017	81.56
274.249	78.56
274.481	86.56
274.713	90.56
274.945	81.56
275.176	85.56
275.408	88.56
275.64	97.56
275.872	80.56
276.104	88.56
276.335	81.56
276.567	79.56
276.799	99.56
277.031	76.56
277.262	91.56
277.494	100.56
277.726	77.56
277.957	83.56
278.189	80.56
278.421	94.56
278.652	96.56
278.884	86.56
279.115	95.56
279.347	87.56
279.579	73.56
279.81	94.56
280.042	84.56
280.273	94.56
280.505	80.56
280.736	69.56
280.968	80.56
281.199	87.56
281.431	88.56
281.662	88.56
281.894	81.56
282.125	69.56
282.356	69.56
282.588	79.56
282.819	86.56
283.051	76.56
283.282	84.56
283.513	84.56
283.745	98.56
283.976	92.56
284.207	88.56
284.439	76.56
284.67	89.56
284.901	106.56
285.132	78.56
285.364	93.56
285.595	103.56
285.826	90.56
286.057	69.56
286.288	71.56
286.52	79.56
286.751	84.56
286.982	108.56
287.213	84.56
287.444	69.56
287.675	96.56
287.906	78.56
288.138	85.56
288.369	89.56
288.6	81.56
288.831	83.56
289.062	84.56
289.293	77.56
289.524	82.56
289.755	85.56
289.986	92.56
290.217	83.56
290.448	78.56
290.679	94.56
290.91	82.56
291.141	82.56
291.371	85.56
291.602	83.56
291.833	80.56
292.064	85.56
292.295	88.56
292.526	85.56
292.757	77.56
292.987	88.56
293.218	92.56
293.449	89.56
293.68	82.56
293.91	75.56
294.141	86.56
294.372	93.56
294.603	85.56
294.833	86.56
295.064	86.56
295.295	81.56
295.525	97.56
295.756	95.56
295.987	92.56
296.217	89.56
296.448	78.56
296.679	93.56
296.909	82.56
297.14	81.56
297.37	86.56
297.601	90.56
297.831	85.56
298.062	83.56
298.292	88.56
298.523	93.56
298.753	85.56
298.984	80.56
299.214	78.56
299.445	84.56
299.675	92.56
299.905	102.56
300.136	108.56
300.366	96.56
300.597	92.56
300.827	95.56
301.057	95.56
301.288	93.56
301.518	97.56
301.748	76.56
301.979	89.56
302.209	75.56
302.439	70.56
302.669	69.56
302.9	70.56
303.13	78.56
303.36	80.56
303.59	90.56
303.82	91.56
304.051	74.56
304.281	91.56
304.511	90.56
304.741	88.56
304.971	79.56
305.201	100.56
305.431	96.56
305.661	86.56
305.891	78.56
306.121	95.56
306.352	85.56
306.582	95.56
306.812	82.56
307.042	106.56
307.272	80.56
307.502	81.56
307.731	90.56
307.961	85.56
308.191	83.56
308.421	60.56
308.651	89.56
308.881	69.56
309.111	89.56
309.341	83.56
309.571	82.56
309.8	69.56
310.03	89.56
310.26	84.56
310.49	86.56
310.72	77.56
310.949	88.56
311.179	90.56
311.409	88.56
311.639	98.56
311.868	87.56
312.098	91.56
312.328	88.56
312.557	91.56
312.787	79.56
313.017	76.56
313.246	71.56
313.476	89.56
313.706	88.56
313.935	88.56
314.165	92.56
314.394	78.56
314.624	83.56
314.853	83.56
315.083	93.56
315.312	83.56
315.542	92.56
315.771	89.56
316.001	68.56
316.23	84.56
316.46	76.56
316.689	79.56
316.919	82.56
317.148	76.56
317.377	78.56
317.607	88.56
317.836	86.56
318.065	91.56
318.295	86.56
318.524	91.56
318.753	84.56
318.983	88.56
319.212	78.56
319.441	80.56
319.67	79.56
319.9	83.56
320.129	81.56
320.358	81.56
320.587	88.56
320.816	91.56
321.046	81.56
321.275	89.56
321.504	69.56
321.733	74.56
321.962	88.56
322.191	81.56
322.42	95.56
322.649	80.56
322.878	95.56
323.108	86.56
323.337	84.56
323.566	87.56
323.795	77.56
324.024	85.56
324.253	78.56
324.482	85.56
324.71	76.56
324.939	82.56
325.168	76.56
325.397	76.56
325.626	85.56
325.855	85.56
326.084	92.56
326.313	88.56
326.542	82.56
326.77	91.56
326.999	91.56
327.228	87.56
327.457	87.56
327.686	88.56
327.914	92.56
328.143	85.56
328.372	88.56
328.6	93.56
328.829	78.56
329.058	87.56
329.287	97.56
329.515	90.56
329.744	82.56
329.972	88.56
330.201	91.56
330.43	77.56
330.658	83.56
330.887	77.56
331.115	82.56
331.344	69.56
331.572	66.56
331.801	76.56
332.03	75.56
332.258	78.56
332.486	92.56
332.715	88.56
332.943	73.56
333.172	85.56
333.4	87.56
333.629	96.56
333.857	82.56
334.085	90.56
334.314	88.56
334.542	85.56
334.771	76.56
334.999	94.56
335.227	83.56
335.455	69.56
335.684	93.56
335.912	86.56
336.14	84.56
336.369	85.56
336.597	85.56
336.825	81.56
337.053	89.56
337.281	87.56
337.51	72.56
337.738	90.56
337.966	90.56
338.194	93.56
338.422	85.56
338.65	89.56
338.878	82.56
339.106	96.56
339.334	92.56
339.562	91.56
339.79	77.56
340.018	76.56
340.246	87.56
340.474	85.56
340.702	80.56
340.93	91.56
341.158	84.56
341.386	98.56
341.614	82.56
341.842	78.56
342.07	84.56
342.298	83.56
342.526	79.56
342.754	70.56
342.981	88.56
343.209	84.56
343.437	89.56
343.665	86.56
343.893	85.56
344.12	88.56
344.348	86.56
344.576	92.56
344.804	88.56
345.031	96.56
345.259	93.56
345.487	91.56
345.714	91.56
345.942	81.56
346.17	97.56
346.397	91.56
346.625	83.56
346.853	83.56
347.08	92.56
347.308	94.56
347.535	91.56
347.763	88.56
347.99	77.56
348.218	87.56
348.445	82.56
348.673	86.56
348.9	84.56
349.128	76.56
349.355	87.56
349.583	83.56
349.81	83.56
350.037	90.56
350.265	80.56
350.492	78.56
350.72	90.56
350.947	100.56
351.174	87.56
351.402	73.56
351.629	85.56
351.856	83.56
352.083	82.56
352.311	82.56
352.538	77.56
352.765	94.56
352.992	89.56
353.22	84.56
353.447	85.56
353.674	90.56
353.901	91.56
354.128	86.56
354.355	93.56
354.583	79.56
354.81	83.56
355.037	84.56
355.264	74.56
355.491	79.56
355.718	86.56
355.945	88.56
356.172	81.56
356.399	73.56
356.626	86.56
356.853	93.56
357.08	89.56
357.307	83.56
357.534	72.56
357.761	81.56
357.988	95.56
358.215	72.56
358.441	93.56
358.668	74.56
358.895	79.56
359.122	87.56
359.349	85.56
359.576	88.56
359.802	91.56
360.029	94.56
360.256	82.56
360.483	79.56
360.709	85.56
360.936	90.56
361.163	87.56
361.39	82.56
361.616	78.56
361.843	73.56
362.07	81.56
362.296	85.56
362.523	86.56
362.749	83.56
362.976	83.56
363.203	80.56
363.429	89.56
363.656	87.56
363.882	84.56
364.109	90.56
364.335	87.56
364.562	98.56
364.788	90.56
365.015	90.56
365.241	86.56
365.468	95.56
365.694	83.56
365.92	75.56
366.147	74.56
366.373	94.56
366.599	94.56
366.826	93.56
367.052	86.56
367.278	78.56
367.505	85.56
367.731	91.56
367.957	88.56
368.184	89.56
368.41	92.56
368.636	100.56
368.862	109.56
369.089	89.56
369.315	101.56
369.541	94.56
369.767	96.56
369.993	96.56
370.219	88.56
370.445	93.56
370.672	76.56
370.898	94.56
371.124	110.56
371.35	93.56
371.576	99.56
371.802	92.56
372.028	87.56
372.254	88.56
372.48	90.56
372.706	94.56
372.932	96.56
373.158	96.56
373.384	90.56
373.61	101.56
373.835	89.56
374.061	77.56
374.287	82.56
374.513	85.56
374.739	92.56
374.965	99.56
375.191	100.56
375.416	96.56
375.642	88.56
375.868	97.56
376.094	98.56
376.319	92.56
376.545	95.56
376.771	90.56
376.997	85.56
377.222	91.56
377.448	90.56
377.674	93.56
377.899	96.56
378.125	101.56
378.35	102.56
378.576	99.56
378.802	108.56
379.027	88.56
379.253	99.56
379.478	96.56
379.704	101.56
379.929	90.56
380.155	103.56
380.38	100.56
380.606	96.56
380.831	101.56
381.057	98.56
381.282	89.56
381.507	104.56
381.733	89.56
381.958	93.56
382.184	101.56
382.409	103.56
382.634	96.56
382.86	84.56
383.085	100.56
383.31	103.56
383.535	100.56
383.761	109.56
383.986	93.56
384.211	102.56
384.436	107.56
384.662	91.56
384.887	76.56
385.112	97.56
385.337	98.56
385.562	101.56
385.787	97.56
386.013	91.56
386.238	110.56
386.463	106.56
386.688	103.56
386.913	92.56
387.138	93.56
387.363	103.56
387.588	90.56
387.813	90.56
388.038	105.56
388.263	105.56
388.488	107.56
388.713	106.56
388.938	97.56
389.163	93.56
389.387	113.56
389.612	100.56
389.837	91.56
390.062	98.56
390.287	107.56
390.512	98.56
390.736	77.56
390.961	99.56
391.186	115.56
391.411	100.56
391.636	108.56
391.86	103.56
392.085	101.56
392.31	106.56
392.534	96.56
392.759	100.56
392.984	98.56
393.208	96.56
393.433	110.56
393.658	114.56
393.882	94.56
394.107	115.56
394.331	112.56
394.556	109.56
394.78	117.56
395.005	108.56
395.229	107.56
395.454	120.56
395.678	99.56
395.903	97.56
396.127	117.56
396.352	116.56
396.576	94.56
396.801	104.56
397.025	120.56
397.249	118.56
397.474	123.56
397.698	110.56
397.922	119.56
398.147	99.56
398.371	102.56
398.595	118.56
398.82	100.56
399.044	118.56
399.268	117.56
399.492	108.56
399.717	100.56
399.941	100.56
400.165	108.56
400.389	112.56
400.613	118.56
400.837	113.56
401.062	124.56
401.286	112.56
401.51	106.56
401.734	109.56
401.958	120.56
402.182	97.56
402.406	112.56
402.63	102.56
402.854	121.56
403.078	117.56
403.302	118.56
403.526	122.56
403.75	125.56
403.974	114.56
404.198	119.56
404.422	113.56
404.645	116.56
404.869	117.56
405.093	114.56
405.317	125.56
405.541	115.56
405.765	114.56
405.988	118.56
406.212	121.56
406.436	105.56
406.66	122.56
406.883	126.56
407.107	111.56
407.331	108.56
407.555	125.56
407.778	111.56
408.002	128.56
408.226	131.56
408.449	113.56
408.673	112.56
408.896	115.56
409.12	122.56
409.344	126.56
409.567	125.56
409.791	124.56
410.014	116.56
410.238	132.56
410.461	124.56
410.685	124.56
410.908	117.56
411.132	115.56
411.355	103.56
411.578	124.56
411.802	114.56
412.025	128.56
412.249	114.56
412.472	120.56
412.695	122.56
412.919	117.56
413.142	122.56
413.365	120.56
413.589	123.56
413.812	127.56
414.035	132.56
414.258	110.56
414.482	115.56
414.705	125.56
414.928	121.56
415.151	115.56
415.374	130.56
415.597	113.56
415.821	129.56
416.044	122.56
416.267	119.56
416.49	130.56
416.713	125.56
416.936	132.56
417.159	135.56
417.382	128.56
417.605	116.56
417.828	117.56
418.051	122.56
418.274	110.56
418.497	145.56
418.72	130.56
418.943	131.56
419.166	138.56
419.389	142.56
419.611	130.56
419.834	140.56
420.057	137.56
420.28	137.56
420.503	119.56
420.726	113.56
420.948	129.56
421.171	137.56
421.394	132.56
421.617	150.56
421.839	138.56
422.062	135.56
422.285	135.56
422.507	143.56
422.73	124.56
422.953	118.56
423.175	126.56
423.398	135.56
423.621	130.56
423.843	128.56
424.066	123.56
424.288	150.56
424.511	156.56
424.733	134.56
424.956	155.56
425.178	147.56
425.401	148.56
425.623	145.56
425.846	146.56
426.068	124.56
426.291	130.56
426.513	136.56
426.735	138.56
426.958	126.56
427.18	123.56
427.402	129.56
427.625	126.56
427.847	137.56
428.069	123.56
428.292	128.56
428.514	131.56
428.736	129.56
428.958	118.56
429.181	126.56
429.403	135.56
429.625	138.56
429.847	130.56
430.069	121.56
430.292	137.56
430.514	128.56
430.736	132.56
430.958	129.56
431.18	118.56
431.402	120.56
431.624	104.56
431.846	97.56
432.068	96.56
432.29	97.56
432.512	107.56
432.734	116.56
432.956	128.56
433.178	157.56
433.4	146.56
433.622	138.56
433.844	143.56
434.066	121.56
434.287	110.56
434.509	107.56
434.731	109.56
434.953	120.56
435.175	130.56
435.397	136.56
435.618	120.56
435.84	110.56
436.062	114.56
436.284	125.56
436.505	128.56
436.727	132.56
436.949	129.56
437.17	143.56
437.392	120.56
437.614	132.56
437.835	124.56
438.057	103.56
438.278	117.56
438.5	122.56
438.721	125.56
438.943	125.56
439.165	138.56
439.386	141.56
439.608	168.56
439.829	132.56
440.05	146.56
440.272	148.56
440.493	134.56
440.715	136.56
440.936	152.56
441.158	140.56
441.379	134.56
441.6	149.56
441.822	130.56
442.043	146.56
442.264	144.56
442.486	132.56
442.707	131.56
442.928	147.56
443.149	135.56
443.371	148.56
443.592	142.56
443.813	140.56
444.034	142.56
444.255	142.56
444.476	138.56
444.698	148.56
444.919	142.56
445.14	262.56
445.361	189.56
445.582	158.56
445.803	160.56
446.024	136.56
446.245	143.56
446.466	142.56
446.687	168.56
446.908	141.56
447.129	142.56
447.35	150.56
447.571	146.56
447.792	149.56
448.013	134.56
448.234	146.56
448.455	135.56
448.675	145.56
448.896	129.56
449.117	140.56
449.338	133.56
449.559	135.56
449.779	137.56
450	127.56
450.221	130.56
450.442	145.56
450.662	134.56
450.883	139.56
451.104	134.56
451.324	133.56
451.545	125.56
451.766	134.56
451.986	123.56
452.207	125.56
452.428	124.56
452.648	132.56
452.869	136.56
453.089	120.56
453.31	116.56
453.53	118.56
453.751	107.56
453.971	114.56
454.192	118.56
454.412	112.56
454.633	101.56
454.853	126.56
455.073	116.56
455.294	124.56
455.514	132.56
455.734	124.56
455.955	107.56
456.175	108.56
456.395	122.56
456.616	101.56
456.836	106.56
457.056	109.56
457.276	113.56
457.497	104.56
457.717	100.56
457.937	116.56
458.157	117.56
458.377	109.56
458.598	117.56
458.818	109.56
459.038	93.56
459.258	96.56
459.478	84.56
459.698	96.56
459.918	106.56
460.138	106.56
460.358	99.56
460.578	121.56
460.798	120.56
461.018	108.56
461.238	120.56
461.458	117.56
461.678	93.56
461.898	119.56
462.118	105.56
462.338	98.56
462.558	122.56
462.777	116.56
462.997	110.56
463.217	120.56
463.437	126.56
463.657	110.56
463.876	111.56
464.096	107.56
464.316	109.56
464.536	106.56
464.755	112.56
464.975	130.56
465.195	109.56
465.414	123.56
465.634	110.56
465.854	119.56
466.073	138.56
466.293	134.56
466.512	120.56
466.732	125.56
466.951	132.56
467.171	120.56
467.391	130.56
467.61	125.56
467.829	145.56
468.049	145.56
468.268	139.56
468.488	130.56
468.707	149.56
468.927	143.56
469.146	146.56
469.365	156.56
469.585	147.56
469.804	130.56
470.023	144.56
470.243	156.56
470.462	138.56
470.681	137.56
470.901	133.56
471.12	132.56
471.339	148.56
471.558	142.56
471.777	136.56
471.997	147.56
472.216	124.56
472.435	113.56
472.654	112.56
472.873	113.56
473.092	138.56
473.311	126.56
473.53	122.56
473.749	142.56
473.968	131.56
474.187	136.56
474.406	120.56
474.625	123.56
474.844	143.56
475.063	131.56
475.282	129.56
475.501	121.56
475.72	124.56
475.939	119.56
476.158	123.56
476.377	143.56
476.596	126.56
476.814	123.56
477.033	110.56
477.252	121.56
477.471	110.56
477.69	133.56
477.908	150.56
478.127	141.56
478.346	148.56
478.564	125.56
478.783	153.56
479.002	162.56
479.22	133.56
479.439	128.56
479.658	138.56
479.876	116.56
480.095	119.56
480.313	113.56
480.532	115.56
480.751	130.56
480.969	86.56
481.188	92.56
481.406	92.56
481.624	96.56
481.843	83.56
482.061	105.56
482.28	104.56
482.498	116.56
482.717	101.56
482.935	120.56
483.153	143.56
483.372	149.56
483.59	149.56
483.808	146.56
484.027	132.56
484.245	127.56
484.463	149.56
484.681	165.56
484.9	130.56
485.118	132.56
485.336	133.56
485.554	109.56
485.772	106.56
485.99	94.56
486.209	116.56
486.427	106.56
486.645	116.56
486.863	147.56
487.081	128.56
487.299	125.56
487.517	140.56
487.735	160.56
487.953	176.56
488.171	173.56
488.389	175.56
488.607	162.56
488.825	146.56
489.043	149.56
489.261	134.56
489.479	134.56
489.696	132.56
489.914	132.56
490.132	127.56
490.35	146.56
490.568	166.56
490.786	170.56
491.003	168.56
491.221	172.56
491.439	193.56
491.657	188.56
491.874	189.56
492.092	217.56
492.31	226.56
492.527	222.56
492.745	205.56
492.963	204.56
493.18	188.56
493.398	177.56
493.615	187.56
493.833	195.56
494.05	174.56
494.268	171.56
494.485	180.56
494.703	171.56
494.92	161.56
495.138	181.56
495.355	178.56
495.573	173.56
495.79	170.56
496.008	158.56
496.225	180.56
496.442	165.56
496.66	168.56
496.877	158.56
497.094	173.56
497.312	161.56
497.529	187.56
497.746	134.56
497.963	141.56
498.181	132.56
498.398	127.56
498.615	129.56
498.832	129.56
499.049	122.56
499.267	108.56
499.484	122.56
499.701	127.56
499.918	126.56
500.135	136.56
500.352	146.56
500.569	141.56
500.786	146.56
501.003	146.56
501.22	129.56
501.437	140.56
501.654	150.56
501.871	136.56
502.088	137.56
502.305	127.56
502.522	132.56
502.739	128.56
502.956	115.56
503.172	126.56
503.389	126.56
503.606	123.56
503.823	118.56
504.04	128.56
504.256	123.56
504.473	136.56
504.69	136.56
504.907	119.56
505.123	115.56
505.34	126.56
505.557	127.56
505.773	112.56
505.99	108.56
506.207	123.56
506.423	132.56
506.64	129.56
506.856	124.56
507.073	126.56
507.289	119.56
507.506	124.56
507.722	116.56
507.939	123.56
508.155	118.56
508.372	112.56
508.588	100.56
508.805	117.56
509.021	108.56
509.238	105.56
509.454	95.56
509.67	97.56
509.887	98.56
510.103	96.56
510.319	99.56
510.536	85.56
510.752	81.56
510.968	93.56
511.184	76.56
511.401	83.56
511.617	109.56
