Data from Location2.07152019.Energy5.Lamp.07192019.3%Agarose_HRD10591_14-56-21-358.txt Node
Date: Fri Jul 19 14:56:21 EDT 2019
User: cochatt
Spectrometer: HR+D1059
Trigger mode: 1
Integration Time (sec): 1.000000E-1
Scans to average: 1
Electric dark correction enabled: true
Nonlinearity correction enabled: false
Boxcar width: 0
XAxis mode: Wavelengths
Number of Pixels in Spectrum: 2048
>>>>>Begin Spectral Data<<<<<
223.165	-9.31
223.4	-9.31
223.635	-9.31
223.869	-26.31
224.104	-10.31
224.338	-5.31
224.573	3.69
224.808	-20.31
225.042	-15.31
225.277	-4.31
225.511	-7.31
225.746	3.69
225.98	7.69
226.215	15.69
226.449	10.69
226.683	20.69
226.918	14.69
227.152	21.69
227.387	33.69
227.621	40.69
227.856	53.69
228.09	33.69
228.324	56.69
228.559	58.69
228.793	66.69
229.027	47.69
229.262	74.69
229.496	83.69
229.73	68.69
229.964	75.69
230.199	77.69
230.433	73.69
230.667	92.69
230.901	66.69
231.136	78.69
231.37	86.69
231.604	79.69
231.838	83.69
232.072	83.69
232.306	98.69
232.541	77.69
232.775	77.69
233.009	80.69
233.243	73.69
233.477	95.69
233.711	74.69
233.945	67.69
234.179	83.69
234.413	71.69
234.647	87.69
234.881	80.69
235.115	78.69
235.349	84.69
235.583	84.69
235.817	91.69
236.051	80.69
236.285	87.69
236.519	77.69
236.753	77.69
236.987	68.69
237.221	79.69
237.455	78.69
237.689	78.69
237.922	72.69
238.156	84.69
238.39	83.69
238.624	86.69
238.858	69.69
239.091	88.69
239.325	75.69
239.559	86.69
239.793	79.69
240.027	73.69
240.26	89.69
240.494	76.69
240.728	75.69
240.961	77.69
241.195	77.69
241.429	78.69
241.662	82.69
241.896	88.69
242.13	79.69
242.363	86.69
242.597	74.69
242.83	85.69
243.064	87.69
243.298	75.69
243.531	76.69
243.765	81.69
243.998	78.69
244.232	92.69
244.465	62.69
244.699	73.69
244.932	78.69
245.166	92.69
245.399	85.69
245.633	74.69
245.866	74.69
246.099	70.69
246.333	92.69
246.566	86.69
246.8	75.69
247.033	74.69
247.266	86.69
247.5	91.69
247.733	90.69
247.966	71.69
248.2	80.69
248.433	71.69
248.666	81.69
248.899	77.69
249.133	71.69
249.366	91.69
249.599	69.69
249.832	83.69
250.066	77.69
250.299	85.69
250.532	81.69
250.765	79.69
250.998	67.69
251.231	89.69
251.465	77.69
251.698	78.69
251.931	76.69
252.164	69.69
252.397	65.69
252.63	83.69
252.863	91.69
253.096	81.69
253.329	81.69
253.562	88.69
253.795	72.69
254.028	77.69
254.261	81.69
254.494	83.69
254.727	87.69
254.96	75.69
255.193	73.69
255.426	85.69
255.659	69.69
255.892	80.69
256.124	76.69
256.357	85.69
256.59	94.69
256.823	75.69
257.056	76.69
257.289	68.69
257.521	82.69
257.754	79.69
257.987	68.69
258.22	83.69
258.452	74.69
258.685	80.69
258.918	76.69
259.151	71.69
259.383	78.69
259.616	73.69
259.849	79.69
260.081	90.69
260.314	95.69
260.547	97.69
260.779	77.69
261.012	72.69
261.244	84.69
261.477	80.69
261.71	77.69
261.942	74.69
262.175	65.69
262.407	81.69
262.64	87.69
262.872	101.69
263.105	84.69
263.337	82.69
263.57	78.69
263.802	90.69
264.035	92.69
264.267	81.69
264.499	77.69
264.732	83.69
264.964	85.69
265.197	106.69
265.429	93.69
265.661	86.69
265.894	77.69
266.126	79.69
266.358	90.69
266.591	91.69
266.823	83.69
267.055	85.69
267.287	84.69
267.52	90.69
267.752	81.69
267.984	83.69
268.216	88.69
268.448	80.69
268.681	93.69
268.913	88.69
269.145	83.69
269.377	85.69
269.609	75.69
269.841	84.69
270.073	84.69
270.306	89.69
270.538	72.69
270.77	82.69
271.002	86.69
271.234	83.69
271.466	87.69
271.698	86.69
271.93	79.69
272.162	87.69
272.394	92.69
272.626	71.69
272.858	75.69
273.09	100.69
273.322	79.69
273.553	85.69
273.785	79.69
274.017	93.69
274.249	95.69
274.481	82.69
274.713	84.69
274.945	97.69
275.176	90.69
275.408	76.69
275.64	78.69
275.872	73.69
276.104	80.69
276.335	88.69
276.567	85.69
276.799	87.69
277.031	78.69
277.262	77.69
277.494	84.69
277.726	82.69
277.957	81.69
278.189	82.69
278.421	90.69
278.652	86.69
278.884	91.69
279.115	81.69
279.347	75.69
279.579	100.69
279.81	78.69
280.042	71.69
280.273	75.69
280.505	89.69
280.736	83.69
280.968	78.69
281.199	88.69
281.431	83.69
281.662	87.69
281.894	94.69
282.125	79.69
282.356	77.69
282.588	79.69
282.819	86.69
283.051	71.69
283.282	87.69
283.513	88.69
283.745	88.69
283.976	79.69
284.207	93.69
284.439	81.69
284.67	84.69
284.901	80.69
285.132	75.69
285.364	83.69
285.595	89.69
285.826	72.69
286.057	100.69
286.288	97.69
286.52	92.69
286.751	77.69
286.982	84.69
287.213	91.69
287.444	82.69
287.675	89.69
287.906	103.69
288.138	87.69
288.369	69.69
288.6	76.69
288.831	89.69
289.062	84.69
289.293	79.69
289.524	79.69
289.755	90.69
289.986	83.69
290.217	82.69
290.448	91.69
290.679	85.69
290.91	97.69
291.141	85.69
291.371	86.69
291.602	84.69
291.833	68.69
292.064	89.69
292.295	83.69
292.526	83.69
292.757	78.69
292.987	93.69
293.218	93.69
293.449	84.69
293.68	85.69
293.91	82.69
294.141	79.69
294.372	78.69
294.603	75.69
294.833	87.69
295.064	90.69
295.295	73.69
295.525	77.69
295.756	74.69
295.987	84.69
296.217	82.69
296.448	88.69
296.679	73.69
296.909	88.69
297.14	82.69
297.37	90.69
297.601	97.69
297.831	68.69
298.062	85.69
298.292	101.69
298.523	70.69
298.753	95.69
298.984	88.69
299.214	97.69
299.445	88.69
299.675	88.69
299.905	84.69
300.136	79.69
300.366	81.69
300.597	87.69
300.827	83.69
301.057	90.69
301.288	80.69
301.518	70.69
301.748	83.69
301.979	78.69
302.209	101.69
302.439	91.69
302.669	87.69
302.9	94.69
303.13	79.69
303.36	86.69
303.59	69.69
303.82	85.69
304.051	87.69
304.281	84.69
304.511	94.69
304.741	93.69
304.971	79.69
305.201	69.69
305.431	85.69
305.661	79.69
305.891	95.69
306.121	96.69
306.352	99.69
306.582	91.69
306.812	99.69
307.042	92.69
307.272	88.69
307.502	88.69
307.731	84.69
307.961	87.69
308.191	79.69
308.421	84.69
308.651	85.69
308.881	84.69
309.111	90.69
309.341	85.69
309.571	90.69
309.8	76.69
310.03	98.69
310.26	81.69
310.49	83.69
310.72	87.69
310.949	82.69
311.179	71.69
311.409	95.69
311.639	87.69
311.868	74.69
312.098	84.69
312.328	90.69
312.557	91.69
312.787	67.69
313.017	91.69
313.246	89.69
313.476	85.69
313.706	86.69
313.935	72.69
314.165	84.69
314.394	79.69
314.624	89.69
314.853	93.69
315.083	87.69
315.312	77.69
315.542	79.69
315.771	99.69
316.001	84.69
316.23	84.69
316.46	85.69
316.689	83.69
316.919	96.69
317.148	79.69
317.377	97.69
317.607	90.69
317.836	81.69
318.065	86.69
318.295	78.69
318.524	86.69
318.753	88.69
318.983	73.69
319.212	90.69
319.441	86.69
319.67	79.69
319.9	79.69
320.129	77.69
320.358	90.69
320.587	77.69
320.816	83.69
321.046	81.69
321.275	88.69
321.504	88.69
321.733	94.69
321.962	100.69
322.191	88.69
322.42	83.69
322.649	95.69
322.878	86.69
323.108	99.69
323.337	79.69
323.566	86.69
323.795	71.69
324.024	92.69
324.253	90.69
324.482	92.69
324.71	85.69
324.939	86.69
325.168	77.69
325.397	83.69
325.626	88.69
325.855	83.69
326.084	85.69
326.313	93.69
326.542	87.69
326.77	90.69
326.999	88.69
327.228	92.69
327.457	91.69
327.686	79.69
327.914	87.69
328.143	82.69
328.372	82.69
328.6	85.69
328.829	90.69
329.058	75.69
329.287	82.69
329.515	85.69
329.744	79.69
329.972	85.69
330.201	75.69
330.43	79.69
330.658	81.69
330.887	87.69
331.115	88.69
331.344	84.69
331.572	87.69
331.801	87.69
332.03	87.69
332.258	86.69
332.486	90.69
332.715	88.69
332.943	77.69
333.172	75.69
333.4	77.69
333.629	86.69
333.857	86.69
334.085	71.69
334.314	84.69
334.542	77.69
334.771	77.69
334.999	83.69
335.227	100.69
335.455	91.69
335.684	79.69
335.912	86.69
336.14	92.69
336.369	77.69
336.597	73.69
336.825	93.69
337.053	90.69
337.281	87.69
337.51	96.69
337.738	84.69
337.966	84.69
338.194	86.69
338.422	84.69
338.65	84.69
338.878	80.69
339.106	92.69
339.334	93.69
339.562	89.69
339.79	70.69
340.018	79.69
340.246	88.69
340.474	87.69
340.702	76.69
340.93	81.69
341.158	83.69
341.386	95.69
341.614	83.69
341.842	98.69
342.07	88.69
342.298	78.69
342.526	83.69
342.754	92.69
342.981	92.69
343.209	94.69
343.437	78.69
343.665	77.69
343.893	88.69
344.12	93.69
344.348	92.69
344.576	92.69
344.804	83.69
345.031	100.69
345.259	93.69
345.487	73.69
345.714	85.69
345.942	87.69
346.17	92.69
346.397	86.69
346.625	82.69
346.853	92.69
347.08	91.69
347.308	99.69
347.535	71.69
347.763	75.69
347.99	86.69
348.218	77.69
348.445	67.69
348.673	101.69
348.9	95.69
349.128	86.69
349.355	89.69
349.583	79.69
349.81	97.69
350.037	88.69
350.265	105.69
350.492	86.69
350.72	77.69
350.947	85.69
351.174	109.69
351.402	91.69
351.629	89.69
351.856	84.69
352.083	90.69
352.311	79.69
352.538	78.69
352.765	71.69
352.992	81.69
353.22	85.69
353.447	79.69
353.674	92.69
353.901	88.69
354.128	82.69
354.355	83.69
354.583	90.69
354.81	91.69
355.037	66.69
355.264	79.69
355.491	79.69
355.718	92.69
355.945	80.69
356.172	98.69
356.399	89.69
356.626	81.69
356.853	96.69
357.08	79.69
357.307	91.69
357.534	91.69
357.761	92.69
357.988	94.69
358.215	96.69
358.441	87.69
358.668	101.69
358.895	85.69
359.122	87.69
359.349	98.69
359.576	85.69
359.802	95.69
360.029	100.69
360.256	92.69
360.483	79.69
360.709	80.69
360.936	100.69
361.163	86.69
361.39	67.69
361.616	76.69
361.843	85.69
362.07	92.69
362.296	82.69
362.523	72.69
362.749	86.69
362.976	86.69
363.203	101.69
363.429	73.69
363.656	79.69
363.882	80.69
364.109	82.69
364.335	82.69
364.562	76.69
364.788	85.69
365.015	92.69
365.241	89.69
365.468	84.69
365.694	88.69
365.92	90.69
366.147	86.69
366.373	79.69
366.599	69.69
366.826	83.69
367.052	89.69
367.278	82.69
367.505	94.69
367.731	85.69
367.957	93.69
368.184	90.69
368.41	83.69
368.636	90.69
368.862	93.69
369.089	96.69
369.315	75.69
369.541	83.69
369.767	89.69
369.993	90.69
370.219	87.69
370.445	91.69
370.672	82.69
370.898	92.69
371.124	99.69
371.35	103.69
371.576	92.69
371.802	92.69
372.028	105.69
372.254	103.69
372.48	100.69
372.706	82.69
372.932	98.69
373.158	89.69
373.384	99.69
373.61	90.69
373.835	108.69
374.061	92.69
374.287	102.69
374.513	86.69
374.739	97.69
374.965	94.69
375.191	94.69
375.416	95.69
375.642	100.69
375.868	91.69
376.094	89.69
376.319	91.69
376.545	93.69
376.771	85.69
376.997	84.69
377.222	115.69
377.448	86.69
377.674	103.69
377.899	106.69
378.125	77.69
378.35	90.69
378.576	93.69
378.802	89.69
379.027	86.69
379.253	101.69
379.478	92.69
379.704	85.69
379.929	87.69
380.155	98.69
380.38	86.69
380.606	99.69
380.831	103.69
381.057	102.69
381.282	101.69
381.507	89.69
381.733	93.69
381.958	85.69
382.184	98.69
382.409	77.69
382.634	102.69
382.86	89.69
383.085	99.69
383.31	96.69
383.535	96.69
383.761	91.69
383.986	89.69
384.211	104.69
384.436	96.69
384.662	94.69
384.887	92.69
385.112	106.69
385.337	96.69
385.562	94.69
385.787	104.69
386.013	113.69
386.238	94.69
386.463	102.69
386.688	109.69
386.913	96.69
387.138	111.69
387.363	100.69
387.588	104.69
387.813	102.69
388.038	101.69
388.263	98.69
388.488	93.69
388.713	120.69
388.938	104.69
389.163	95.69
389.387	100.69
389.612	100.69
389.837	106.69
390.062	113.69
390.287	96.69
390.512	100.69
390.736	94.69
390.961	113.69
391.186	109.69
391.411	117.69
391.636	96.69
391.86	102.69
392.085	105.69
392.31	109.69
392.534	105.69
392.759	104.69
392.984	117.69
393.208	102.69
393.433	111.69
393.658	107.69
393.882	93.69
394.107	109.69
394.331	126.69
394.556	102.69
394.78	101.69
395.005	110.69
395.229	105.69
395.454	131.69
395.678	107.69
395.903	125.69
396.127	123.69
396.352	107.69
396.576	111.69
396.801	103.69
397.025	113.69
397.249	100.69
397.474	99.69
397.698	121.69
397.922	114.69
398.147	122.69
398.371	107.69
398.595	115.69
398.82	106.69
399.044	99.69
399.268	106.69
399.492	105.69
399.717	128.69
399.941	121.69
400.165	124.69
400.389	114.69
400.613	107.69
400.837	101.69
401.062	105.69
401.286	102.69
401.51	117.69
401.734	102.69
401.958	129.69
402.182	125.69
402.406	124.69
402.63	119.69
402.854	130.69
403.078	104.69
403.302	125.69
403.526	122.69
403.75	119.69
403.974	111.69
404.198	109.69
404.422	108.69
404.645	103.69
404.869	110.69
405.093	129.69
405.317	120.69
405.541	111.69
405.765	127.69
405.988	109.69
406.212	125.69
406.436	120.69
406.66	113.69
406.883	116.69
407.107	105.69
407.331	129.69
407.555	117.69
407.778	123.69
408.002	126.69
408.226	122.69
408.449	125.69
408.673	120.69
408.896	125.69
409.12	119.69
409.344	114.69
409.567	127.69
409.791	134.69
410.014	128.69
410.238	120.69
410.461	116.69
410.685	119.69
410.908	120.69
411.132	119.69
411.355	120.69
411.578	131.69
411.802	125.69
412.025	114.69
412.249	129.69
412.472	122.69
412.695	114.69
412.919	109.69
413.142	134.69
413.365	123.69
413.589	126.69
413.812	137.69
414.035	129.69
414.258	129.69
414.482	121.69
414.705	111.69
414.928	113.69
415.151	126.69
415.374	135.69
415.597	121.69
415.821	113.69
416.044	129.69
416.267	122.69
416.49	131.69
416.713	126.69
416.936	137.69
417.159	99.69
417.382	123.69
417.605	117.69
417.828	123.69
418.051	146.69
418.274	133.69
418.497	132.69
418.72	148.69
418.943	124.69
419.166	136.69
419.389	133.69
419.611	131.69
419.834	138.69
420.057	131.69
420.28	138.69
420.503	139.69
420.726	137.69
420.948	116.69
421.171	129.69
421.394	123.69
421.617	137.69
421.839	140.69
422.062	146.69
422.285	144.69
422.507	129.69
422.73	133.69
422.953	127.69
423.175	126.69
423.398	132.69
423.621	123.69
423.843	140.69
424.066	136.69
424.288	147.69
424.511	153.69
424.733	145.69
424.956	131.69
425.178	135.69
425.401	129.69
425.623	124.69
425.846	138.69
426.068	119.69
426.291	128.69
426.513	137.69
426.735	135.69
426.958	129.69
427.18	132.69
427.402	122.69
427.625	132.69
427.847	128.69
428.069	139.69
428.292	138.69
428.514	131.69
428.736	122.69
428.958	126.69
429.181	119.69
429.403	138.69
429.625	139.69
429.847	126.69
430.069	152.69
430.292	131.69
430.514	131.69
430.736	132.69
430.958	150.69
431.18	122.69
431.402	129.69
431.624	115.69
431.846	107.69
432.068	108.69
432.29	96.69
432.512	104.69
432.734	130.69
432.956	129.69
433.178	128.69
433.4	148.69
433.622	137.69
433.844	148.69
434.066	129.69
434.287	106.69
434.509	93.69
434.731	100.69
434.953	110.69
435.175	129.69
435.397	125.69
435.618	139.69
435.84	113.69
436.062	119.69
436.284	136.69
436.505	130.69
436.727	119.69
436.949	127.69
437.17	131.69
437.392	140.69
437.614	131.69
437.835	118.69
438.057	110.69
438.278	113.69
438.5	129.69
438.721	135.69
438.943	143.69
439.165	145.69
439.386	149.69
439.608	161.69
439.829	142.69
440.05	147.69
440.272	151.69
440.493	139.69
440.715	151.69
440.936	135.69
441.158	153.69
441.379	156.69
441.6	138.69
441.822	149.69
442.043	155.69
442.264	147.69
442.486	152.69
442.707	133.69
442.928	149.69
443.149	141.69
443.371	150.69
443.592	140.69
443.813	137.69
444.034	150.69
444.255	143.69
444.476	139.69
444.698	136.69
444.919	153.69
445.14	266.69
445.361	187.69
445.582	159.69
445.803	166.69
446.024	143.69
446.245	152.69
446.466	138.69
446.687	162.69
446.908	155.69
447.129	160.69
447.35	165.69
447.571	150.69
447.792	156.69
448.013	132.69
448.234	147.69
448.455	151.69
448.675	150.69
448.896	150.69
449.117	135.69
449.338	140.69
449.559	149.69
449.779	150.69
450	152.69
450.221	146.69
450.442	135.69
450.662	126.69
450.883	148.69
451.104	151.69
451.324	137.69
451.545	126.69
451.766	134.69
451.986	136.69
452.207	125.69
452.428	132.69
452.648	125.69
452.869	117.69
453.089	114.69
453.31	114.69
453.53	102.69
453.751	120.69
453.971	109.69
454.192	103.69
454.412	113.69
454.633	114.69
454.853	108.69
455.073	125.69
455.294	132.69
455.514	129.69
455.734	131.69
455.955	125.69
456.175	131.69
456.395	122.69
456.616	109.69
456.836	113.69
457.056	119.69
457.276	106.69
457.497	109.69
457.717	108.69
457.937	112.69
458.157	102.69
458.377	116.69
458.598	107.69
458.818	113.69
459.038	95.69
459.258	80.69
459.478	104.69
459.698	108.69
459.918	98.69
460.138	98.69
460.358	102.69
460.578	115.69
460.798	117.69
461.018	124.69
461.238	116.69
461.458	122.69
461.678	104.69
461.898	117.69
462.118	131.69
462.338	104.69
462.558	106.69
462.777	121.69
462.997	106.69
463.217	105.69
463.437	110.69
463.657	118.69
463.876	111.69
464.096	102.69
464.316	109.69
464.536	128.69
464.755	119.69
464.975	114.69
465.195	121.69
465.414	118.69
465.634	119.69
465.854	116.69
466.073	110.69
466.293	133.69
466.512	133.69
466.732	143.69
466.951	137.69
467.171	144.69
467.391	145.69
467.61	130.69
467.829	126.69
468.049	143.69
468.268	134.69
468.488	132.69
468.707	141.69
468.927	133.69
469.146	142.69
469.365	124.69
469.585	142.69
469.804	143.69
470.023	135.69
470.243	135.69
470.462	143.69
470.681	166.69
470.901	155.69
471.12	136.69
471.339	143.69
471.558	143.69
471.777	127.69
471.997	149.69
472.216	131.69
472.435	117.69
472.654	119.69
472.873	106.69
473.092	118.69
473.311	135.69
473.53	115.69
473.749	118.69
473.968	121.69
474.187	117.69
474.406	119.69
474.625	127.69
474.844	130.69
475.063	141.69
475.282	132.69
475.501	128.69
475.72	118.69
475.939	133.69
476.158	127.69
476.377	122.69
476.596	114.69
476.814	100.69
477.033	103.69
477.252	107.69
477.471	126.69
477.69	131.69
477.908	133.69
478.127	133.69
478.346	150.69
478.564	136.69
478.783	139.69
479.002	143.69
479.22	141.69
479.439	123.69
479.658	117.69
479.876	123.69
480.095	108.69
480.313	112.69
480.532	122.69
480.751	94.69
480.969	113.69
481.188	87.69
481.406	90.69
481.624	85.69
481.843	75.69
482.061	81.69
482.28	118.69
482.498	119.69
482.717	102.69
482.935	121.69
483.153	152.69
483.372	149.69
483.59	162.69
483.808	144.69
484.027	136.69
484.245	127.69
484.463	139.69
484.681	155.69
484.9	151.69
485.118	135.69
485.336	138.69
485.554	101.69
485.772	127.69
485.99	117.69
486.209	128.69
486.427	127.69
486.645	108.69
486.863	129.69
487.081	144.69
487.299	134.69
487.517	147.69
487.735	167.69
487.953	194.69
488.171	161.69
488.389	168.69
488.607	174.69
488.825	144.69
489.043	149.69
489.261	128.69
489.479	121.69
489.696	136.69
489.914	134.69
490.132	143.69
490.35	154.69
490.568	179.69
490.786	186.69
491.003	170.69
491.221	190.69
491.439	190.69
491.657	204.69
491.874	195.69
492.092	233.69
492.31	252.69
492.527	239.69
492.745	204.69
492.963	200.69
493.18	174.69
493.398	187.69
493.615	177.69
493.833	175.69
494.05	173.69
494.268	173.69
494.485	165.69
494.703	167.69
494.92	169.69
495.138	181.69
495.355	170.69
495.573	172.69
495.79	172.69
496.008	178.69
496.225	181.69
496.442	172.69
496.66	185.69
496.877	152.69
497.094	157.69
497.312	175.69
497.529	165.69
497.746	151.69
497.963	143.69
498.181	124.69
498.398	131.69
498.615	113.69
498.832	128.69
499.049	119.69
499.267	119.69
499.484	129.69
499.701	139.69
499.918	134.69
500.135	137.69
500.352	138.69
500.569	139.69
500.786	152.69
501.003	126.69
501.22	143.69
501.437	135.69
501.654	130.69
501.871	127.69
502.088	135.69
502.305	143.69
502.522	120.69
502.739	133.69
502.956	123.69
503.172	128.69
503.389	127.69
503.606	117.69
503.823	128.69
504.04	110.69
504.256	132.69
504.473	116.69
504.69	125.69
504.907	121.69
505.123	136.69
505.34	119.69
505.557	117.69
505.773	121.69
505.99	122.69
506.207	128.69
506.423	120.69
506.64	114.69
506.856	115.69
507.073	114.69
507.289	126.69
507.506	122.69
507.722	138.69
507.939	133.69
508.155	108.69
508.372	125.69
508.588	114.69
508.805	111.69
509.021	107.69
509.238	102.69
509.454	97.69
509.67	103.69
509.887	92.69
510.103	96.69
510.319	93.69
510.536	104.69
510.752	87.69
510.968	92.69
511.184	92.69
511.401	84.69
