Data from Location2.07152019.Energy5.Lamp.07192019.3%Agarose_HRD10591_14-58-27-359.txt Node
Date: Fri Jul 19 14:58:27 EDT 2019
User: cochatt
Spectrometer: HR+D1059
Trigger mode: 1
Integration Time (sec): 1.000000E-1
Scans to average: 1
Electric dark correction enabled: true
Nonlinearity correction enabled: false
Boxcar width: 0
XAxis mode: Wavelengths
Number of Pixels in Spectrum: 2048
>>>>>Begin Spectral Data<<<<<
223.165	-19.69
223.4	-19.69
223.635	-19.69
223.869	-9.69
224.104	-12.69
224.338	-9.69
224.573	-18.69
224.808	-12.69
225.042	-14.69
225.277	-0.69
225.511	9.31
225.746	1.31
225.98	20.31
226.215	-6.69
226.449	15.31
226.683	5.31
226.918	24.31
227.152	29.31
227.387	40.31
227.621	48.31
227.856	45.31
228.09	51.31
228.324	41.31
228.559	59.31
228.793	55.31
229.027	71.31
229.262	70.31
229.496	65.31
229.73	80.31
229.964	79.31
230.199	79.31
230.433	78.31
230.667	67.31
230.901	86.31
231.136	90.31
231.37	85.31
231.604	83.31
231.838	89.31
232.072	92.31
232.306	72.31
232.541	94.31
232.775	81.31
233.009	81.31
233.243	83.31
233.477	81.31
233.711	85.31
233.945	73.31
234.179	82.31
234.413	71.31
234.647	101.31
234.881	73.31
235.115	77.31
235.349	82.31
235.583	83.31
235.817	75.31
236.051	79.31
236.285	83.31
236.519	75.31
236.753	84.31
236.987	97.31
237.221	86.31
237.455	87.31
237.689	86.31
237.922	77.31
238.156	76.31
238.39	88.31
238.624	84.31
238.858	68.31
239.091	69.31
239.325	78.31
239.559	66.31
239.793	76.31
240.027	85.31
240.26	83.31
240.494	83.31
240.728	89.31
240.961	66.31
241.195	89.31
241.429	89.31
241.662	73.31
241.896	79.31
242.13	92.31
242.363	90.31
242.597	86.31
242.83	73.31
243.064	81.31
243.298	90.31
243.531	83.31
243.765	95.31
243.998	77.31
244.232	73.31
244.465	82.31
244.699	98.31
244.932	86.31
245.166	85.31
245.399	95.31
245.633	101.31
245.866	92.31
246.099	70.31
246.333	98.31
246.566	76.31
246.8	74.31
247.033	83.31
247.266	77.31
247.5	88.31
247.733	88.31
247.966	87.31
248.2	78.31
248.433	87.31
248.666	71.31
248.899	88.31
249.133	83.31
249.366	77.31
249.599	103.31
249.832	83.31
250.066	84.31
250.299	79.31
250.532	87.31
250.765	88.31
250.998	76.31
251.231	86.31
251.465	79.31
251.698	84.31
251.931	86.31
252.164	95.31
252.397	83.31
252.63	87.31
252.863	83.31
253.096	74.31
253.329	86.31
253.562	85.31
253.795	92.31
254.028	86.31
254.261	92.31
254.494	70.31
254.727	84.31
254.96	85.31
255.193	72.31
255.426	84.31
255.659	83.31
255.892	75.31
256.124	75.31
256.357	90.31
256.59	92.31
256.823	82.31
257.056	85.31
257.289	83.31
257.521	98.31
257.754	80.31
257.987	73.31
258.22	75.31
258.452	80.31
258.685	84.31
258.918	76.31
259.151	89.31
259.383	81.31
259.616	89.31
259.849	98.31
260.081	95.31
260.314	84.31
260.547	80.31
260.779	74.31
261.012	84.31
261.244	89.31
261.477	71.31
261.71	78.31
261.942	79.31
262.175	89.31
262.407	71.31
262.64	91.31
262.872	84.31
263.105	87.31
263.337	88.31
263.57	79.31
263.802	79.31
264.035	86.31
264.267	87.31
264.499	85.31
264.732	91.31
264.964	86.31
265.197	86.31
265.429	91.31
265.661	96.31
265.894	86.31
266.126	88.31
266.358	80.31
266.591	67.31
266.823	89.31
267.055	78.31
267.287	80.31
267.52	94.31
267.752	85.31
267.984	94.31
268.216	75.31
268.448	92.31
268.681	104.31
268.913	73.31
269.145	87.31
269.377	78.31
269.609	95.31
269.841	83.31
270.073	89.31
270.306	89.31
270.538	66.31
270.77	90.31
271.002	85.31
271.234	91.31
271.466	86.31
271.698	81.31
271.93	83.31
272.162	81.31
272.394	90.31
272.626	89.31
272.858	88.31
273.09	82.31
273.322	83.31
273.553	90.31
273.785	89.31
274.017	82.31
274.249	89.31
274.481	83.31
274.713	97.31
274.945	68.31
275.176	89.31
275.408	97.31
275.64	89.31
275.872	66.31
276.104	83.31
276.335	85.31
276.567	98.31
276.799	86.31
277.031	86.31
277.262	83.31
277.494	93.31
277.726	89.31
277.957	90.31
278.189	79.31
278.421	82.31
278.652	80.31
278.884	88.31
279.115	81.31
279.347	92.31
279.579	90.31
279.81	82.31
280.042	92.31
280.273	89.31
280.505	91.31
280.736	99.31
280.968	78.31
281.199	82.31
281.431	87.31
281.662	87.31
281.894	96.31
282.125	84.31
282.356	94.31
282.588	79.31
282.819	91.31
283.051	92.31
283.282	99.31
283.513	90.31
283.745	100.31
283.976	97.31
284.207	75.31
284.439	87.31
284.67	97.31
284.901	82.31
285.132	85.31
285.364	83.31
285.595	88.31
285.826	75.31
286.057	77.31
286.288	84.31
286.52	75.31
286.751	81.31
286.982	101.31
287.213	91.31
287.444	85.31
287.675	87.31
287.906	79.31
288.138	92.31
288.369	91.31
288.6	79.31
288.831	91.31
289.062	99.31
289.293	88.31
289.524	96.31
289.755	78.31
289.986	79.31
290.217	90.31
290.448	76.31
290.679	88.31
290.91	77.31
291.141	80.31
291.371	85.31
291.602	88.31
291.833	81.31
292.064	97.31
292.295	98.31
292.526	87.31
292.757	79.31
292.987	95.31
293.218	88.31
293.449	95.31
293.68	85.31
293.91	91.31
294.141	88.31
294.372	82.31
294.603	99.31
294.833	95.31
295.064	84.31
295.295	85.31
295.525	87.31
295.756	84.31
295.987	81.31
296.217	84.31
296.448	78.31
296.679	97.31
296.909	86.31
297.14	97.31
297.37	94.31
297.601	69.31
297.831	80.31
298.062	85.31
298.292	81.31
298.523	87.31
298.753	96.31
298.984	81.31
299.214	91.31
299.445	79.31
299.675	97.31
299.905	74.31
300.136	80.31
300.366	78.31
300.597	91.31
300.827	91.31
301.057	74.31
301.288	96.31
301.518	83.31
301.748	100.31
301.979	76.31
302.209	77.31
302.439	87.31
302.669	86.31
302.9	92.31
303.13	87.31
303.36	89.31
303.59	72.31
303.82	75.31
304.051	83.31
304.281	81.31
304.511	95.31
304.741	82.31
304.971	88.31
305.201	81.31
305.431	83.31
305.661	87.31
305.891	83.31
306.121	90.31
306.352	86.31
306.582	86.31
306.812	85.31
307.042	66.31
307.272	75.31
307.502	95.31
307.731	86.31
307.961	97.31
308.191	91.31
308.421	95.31
308.651	84.31
308.881	72.31
309.111	94.31
309.341	89.31
309.571	92.31
309.8	107.31
310.03	89.31
310.26	94.31
310.49	89.31
310.72	82.31
310.949	85.31
311.179	85.31
311.409	89.31
311.639	88.31
311.868	85.31
312.098	94.31
312.328	76.31
312.557	88.31
312.787	71.31
313.017	76.31
313.246	97.31
313.476	78.31
313.706	104.31
313.935	94.31
314.165	91.31
314.394	87.31
314.624	86.31
314.853	86.31
315.083	89.31
315.312	87.31
315.542	91.31
315.771	95.31
316.001	82.31
316.23	81.31
316.46	84.31
316.689	95.31
316.919	75.31
317.148	86.31
317.377	87.31
317.607	79.31
317.836	75.31
318.065	85.31
318.295	87.31
318.524	78.31
318.753	79.31
318.983	81.31
319.212	83.31
319.441	82.31
319.67	78.31
319.9	92.31
320.129	92.31
320.358	88.31
320.587	79.31
320.816	88.31
321.046	90.31
321.275	90.31
321.504	88.31
321.733	98.31
321.962	84.31
322.191	65.31
322.42	83.31
322.649	86.31
322.878	83.31
323.108	92.31
323.337	104.31
323.566	89.31
323.795	84.31
324.024	98.31
324.253	87.31
324.482	86.31
324.71	91.31
324.939	91.31
325.168	86.31
325.397	82.31
325.626	90.31
325.855	86.31
326.084	74.31
326.313	88.31
326.542	92.31
326.77	95.31
326.999	78.31
327.228	92.31
327.457	91.31
327.686	90.31
327.914	103.31
328.143	83.31
328.372	90.31
328.6	91.31
328.829	87.31
329.058	82.31
329.287	89.31
329.515	84.31
329.744	85.31
329.972	76.31
330.201	89.31
330.43	91.31
330.658	86.31
330.887	85.31
331.115	86.31
331.344	81.31
331.572	72.31
331.801	93.31
332.03	82.31
332.258	81.31
332.486	85.31
332.715	86.31
332.943	97.31
333.172	78.31
333.4	98.31
333.629	90.31
333.857	94.31
334.085	95.31
334.314	95.31
334.542	83.31
334.771	90.31
334.999	83.31
335.227	86.31
335.455	97.31
335.684	105.31
335.912	90.31
336.14	85.31
336.369	92.31
336.597	91.31
336.825	82.31
337.053	73.31
337.281	84.31
337.51	83.31
337.738	87.31
337.966	80.31
338.194	82.31
338.422	81.31
338.65	88.31
338.878	84.31
339.106	96.31
339.334	90.31
339.562	84.31
339.79	89.31
340.018	68.31
340.246	84.31
340.474	94.31
340.702	82.31
340.93	90.31
341.158	82.31
341.386	91.31
341.614	78.31
341.842	87.31
342.07	80.31
342.298	82.31
342.526	84.31
342.754	90.31
342.981	98.31
343.209	94.31
343.437	91.31
343.665	90.31
343.893	95.31
344.12	92.31
344.348	82.31
344.576	78.31
344.804	89.31
345.031	75.31
345.259	82.31
345.487	82.31
345.714	65.31
345.942	88.31
346.17	90.31
346.397	86.31
346.625	95.31
346.853	91.31
347.08	83.31
347.308	94.31
347.535	79.31
347.763	82.31
347.99	78.31
348.218	74.31
348.445	80.31
348.673	83.31
348.9	90.31
349.128	85.31
349.355	91.31
349.583	86.31
349.81	91.31
350.037	89.31
350.265	82.31
350.492	108.31
350.72	86.31
350.947	83.31
351.174	91.31
351.402	90.31
351.629	97.31
351.856	85.31
352.083	81.31
352.311	94.31
352.538	76.31
352.765	67.31
352.992	88.31
353.22	87.31
353.447	87.31
353.674	97.31
353.901	98.31
354.128	76.31
354.355	95.31
354.583	89.31
354.81	90.31
355.037	75.31
355.264	94.31
355.491	111.31
355.718	80.31
355.945	75.31
356.172	65.31
356.399	88.31
356.626	79.31
356.853	73.31
357.08	103.31
357.307	98.31
357.534	73.31
357.761	88.31
357.988	87.31
358.215	104.31
358.441	96.31
358.668	93.31
358.895	79.31
359.122	93.31
359.349	81.31
359.576	85.31
359.802	78.31
360.029	93.31
360.256	66.31
360.483	93.31
360.709	97.31
360.936	84.31
361.163	84.31
361.39	71.31
361.616	82.31
361.843	83.31
362.07	90.31
362.296	87.31
362.523	78.31
362.749	80.31
362.976	87.31
363.203	85.31
363.429	88.31
363.656	87.31
363.882	76.31
364.109	83.31
364.335	91.31
364.562	94.31
364.788	83.31
365.015	90.31
365.241	89.31
365.468	86.31
365.694	96.31
365.92	85.31
366.147	73.31
366.373	82.31
366.599	83.31
366.826	82.31
367.052	84.31
367.278	90.31
367.505	80.31
367.731	85.31
367.957	84.31
368.184	93.31
368.41	77.31
368.636	88.31
368.862	89.31
369.089	83.31
369.315	93.31
369.541	94.31
369.767	91.31
369.993	87.31
370.219	87.31
370.445	88.31
370.672	104.31
370.898	90.31
371.124	97.31
371.35	89.31
371.576	98.31
371.802	103.31
372.028	99.31
372.254	85.31
372.48	76.31
372.706	93.31
372.932	97.31
373.158	86.31
373.384	96.31
373.61	91.31
373.835	99.31
374.061	97.31
374.287	94.31
374.513	86.31
374.739	90.31
374.965	86.31
375.191	113.31
375.416	94.31
375.642	100.31
375.868	108.31
376.094	93.31
376.319	91.31
376.545	85.31
376.771	90.31
376.997	112.31
377.222	95.31
377.448	89.31
377.674	100.31
377.899	98.31
378.125	97.31
378.35	101.31
378.576	101.31
378.802	83.31
379.027	98.31
379.253	103.31
379.478	94.31
379.704	90.31
379.929	92.31
380.155	103.31
380.38	101.31
380.606	90.31
380.831	89.31
381.057	101.31
381.282	97.31
381.507	83.31
381.733	89.31
381.958	91.31
382.184	100.31
382.409	101.31
382.634	108.31
382.86	85.31
383.085	99.31
383.31	106.31
383.535	109.31
383.761	100.31
383.986	99.31
384.211	104.31
384.436	98.31
384.662	100.31
384.887	79.31
385.112	95.31
385.337	91.31
385.562	99.31
385.787	106.31
386.013	100.31
386.238	104.31
386.463	89.31
386.688	99.31
386.913	101.31
387.138	102.31
387.363	102.31
387.588	97.31
387.813	94.31
388.038	101.31
388.263	103.31
388.488	116.31
388.713	99.31
388.938	100.31
389.163	97.31
389.387	94.31
389.612	100.31
389.837	98.31
390.062	86.31
390.287	102.31
390.512	109.31
390.736	107.31
390.961	96.31
391.186	101.31
391.411	105.31
391.636	105.31
391.86	105.31
392.085	120.31
392.31	99.31
392.534	104.31
392.759	101.31
392.984	118.31
393.208	111.31
393.433	106.31
393.658	93.31
393.882	95.31
394.107	108.31
394.331	95.31
394.556	93.31
394.78	89.31
395.005	109.31
395.229	110.31
395.454	109.31
395.678	115.31
395.903	102.31
396.127	119.31
396.352	107.31
396.576	109.31
396.801	105.31
397.025	111.31
397.249	102.31
397.474	110.31
397.698	97.31
397.922	112.31
398.147	98.31
398.371	121.31
398.595	101.31
398.82	97.31
399.044	100.31
399.268	116.31
399.492	110.31
399.717	116.31
399.941	109.31
400.165	113.31
400.389	100.31
400.613	118.31
400.837	100.31
401.062	107.31
401.286	104.31
401.51	116.31
401.734	126.31
401.958	120.31
402.182	111.31
402.406	127.31
402.63	114.31
402.854	119.31
403.078	118.31
403.302	93.31
403.526	117.31
403.75	110.31
403.974	129.31
404.198	93.31
404.422	117.31
404.645	127.31
404.869	118.31
405.093	120.31
405.317	107.31
405.541	113.31
405.765	108.31
405.988	117.31
406.212	120.31
406.436	121.31
406.66	123.31
406.883	108.31
407.107	105.31
407.331	111.31
407.555	129.31
407.778	123.31
408.002	110.31
408.226	130.31
408.449	124.31
408.673	102.31
408.896	121.31
409.12	117.31
409.344	133.31
409.567	122.31
409.791	114.31
410.014	123.31
410.238	129.31
410.461	117.31
410.685	119.31
410.908	147.31
411.132	129.31
411.355	123.31
411.578	120.31
411.802	122.31
412.025	111.31
412.249	107.31
412.472	139.31
412.695	123.31
412.919	117.31
413.142	123.31
413.365	127.31
413.589	118.31
413.812	123.31
414.035	131.31
414.258	119.31
414.482	126.31
414.705	122.31
414.928	118.31
415.151	124.31
415.374	111.31
415.597	119.31
415.821	122.31
416.044	131.31
416.267	135.31
416.49	134.31
416.713	123.31
416.936	131.31
417.159	129.31
417.382	134.31
417.605	115.31
417.828	131.31
418.051	127.31
418.274	133.31
418.497	126.31
418.72	134.31
418.943	131.31
419.166	133.31
419.389	135.31
419.611	130.31
419.834	131.31
420.057	128.31
420.28	139.31
420.503	140.31
420.726	114.31
420.948	133.31
421.171	140.31
421.394	130.31
421.617	151.31
421.839	143.31
422.062	131.31
422.285	117.31
422.507	112.31
422.73	131.31
422.953	126.31
423.175	117.31
423.398	132.31
423.621	127.31
423.843	126.31
424.066	151.31
424.288	149.31
424.511	135.31
424.733	135.31
424.956	134.31
425.178	128.31
425.401	136.31
425.623	139.31
425.846	131.31
426.068	143.31
426.291	131.31
426.513	123.31
426.735	120.31
426.958	126.31
427.18	121.31
427.402	122.31
427.625	135.31
427.847	131.31
428.069	142.31
428.292	133.31
428.514	124.31
428.736	127.31
428.958	113.31
429.181	119.31
429.403	144.31
429.625	127.31
429.847	133.31
430.069	125.31
430.292	143.31
430.514	130.31
430.736	139.31
430.958	131.31
431.18	122.31
431.402	126.31
431.624	120.31
431.846	119.31
432.068	93.31
432.29	94.31
432.512	106.31
432.734	121.31
432.956	130.31
433.178	140.31
433.4	145.31
433.622	140.31
433.844	131.31
434.066	109.31
434.287	90.31
434.509	98.31
434.731	103.31
434.953	113.31
435.175	125.31
435.397	123.31
435.618	121.31
435.84	121.31
436.062	109.31
436.284	122.31
436.505	111.31
436.727	131.31
436.949	130.31
437.17	132.31
437.392	125.31
437.614	115.31
437.835	113.31
438.057	119.31
438.278	114.31
438.5	120.31
438.721	139.31
438.943	138.31
439.165	150.31
439.386	139.31
439.608	142.31
439.829	140.31
440.05	164.31
440.272	139.31
440.493	150.31
440.715	149.31
440.936	156.31
441.158	144.31
441.379	145.31
441.6	162.31
441.822	147.31
442.043	156.31
442.264	129.31
442.486	149.31
442.707	129.31
442.928	142.31
443.149	138.31
443.371	147.31
443.592	133.31
443.813	146.31
444.034	134.31
444.255	141.31
444.476	144.31
444.698	147.31
444.919	137.31
445.14	246.31
445.361	182.31
445.582	152.31
445.803	147.31
446.024	126.31
446.245	157.31
446.466	149.31
446.687	158.31
446.908	150.31
447.129	154.31
447.35	144.31
447.571	135.31
447.792	155.31
448.013	147.31
448.234	153.31
448.455	144.31
448.675	136.31
448.896	147.31
449.117	145.31
449.338	129.31
449.559	141.31
449.779	135.31
450	132.31
450.221	127.31
450.442	127.31
450.662	140.31
450.883	131.31
451.104	126.31
451.324	132.31
451.545	142.31
451.766	125.31
451.986	125.31
452.207	115.31
452.428	139.31
452.648	135.31
452.869	117.31
453.089	127.31
453.31	117.31
453.53	111.31
453.751	98.31
453.971	106.31
454.192	113.31
454.412	111.31
454.633	117.31
454.853	119.31
455.073	107.31
455.294	125.31
455.514	125.31
455.734	134.31
455.955	125.31
456.175	123.31
456.395	95.31
456.616	103.31
456.836	111.31
457.056	113.31
457.276	97.31
457.497	116.31
457.717	105.31
457.937	111.31
458.157	105.31
458.377	102.31
458.598	106.31
458.818	92.31
459.038	89.31
459.258	99.31
459.478	89.31
459.698	95.31
459.918	99.31
460.138	104.31
460.358	100.31
460.578	102.31
460.798	117.31
461.018	120.31
461.238	121.31
461.458	118.31
461.678	123.31
461.898	115.31
462.118	108.31
462.338	113.31
462.558	118.31
462.777	110.31
462.997	115.31
463.217	99.31
463.437	119.31
463.657	110.31
463.876	110.31
464.096	100.31
464.316	113.31
464.536	102.31
464.755	122.31
464.975	126.31
465.195	119.31
465.414	128.31
465.634	106.31
465.854	120.31
466.073	124.31
466.293	121.31
466.512	133.31
466.732	129.31
466.951	133.31
467.171	122.31
467.391	142.31
467.61	141.31
467.829	129.31
468.049	143.31
468.268	140.31
468.488	133.31
468.707	141.31
468.927	114.31
469.146	133.31
469.365	140.31
469.585	149.31
469.804	145.31
470.023	137.31
470.243	151.31
470.462	138.31
470.681	143.31
470.901	153.31
471.12	137.31
471.339	137.31
471.558	131.31
471.777	159.31
471.997	131.31
472.216	132.31
472.435	118.31
472.654	97.31
472.873	111.31
473.092	114.31
473.311	127.31
473.53	123.31
473.749	133.31
473.968	139.31
474.187	122.31
474.406	126.31
474.625	114.31
474.844	150.31
475.063	136.31
475.282	129.31
475.501	124.31
475.72	128.31
475.939	121.31
476.158	140.31
476.377	137.31
476.596	123.31
476.814	120.31
477.033	105.31
477.252	104.31
477.471	134.31
477.69	124.31
477.908	135.31
478.127	142.31
478.346	136.31
478.564	151.31
478.783	137.31
479.002	156.31
479.22	140.31
479.439	149.31
479.658	130.31
479.876	125.31
480.095	113.31
480.313	119.31
480.532	116.31
480.751	121.31
480.969	93.31
481.188	98.31
481.406	90.31
481.624	94.31
481.843	90.31
482.061	93.31
482.28	110.31
482.498	118.31
482.717	105.31
482.935	121.31
483.153	159.31
483.372	158.31
483.59	147.31
483.808	129.31
484.027	136.31
484.245	138.31
484.463	125.31
484.681	144.31
484.9	153.31
485.118	144.31
485.336	126.31
485.554	106.31
485.772	107.31
485.99	106.31
486.209	114.31
486.427	104.31
486.645	114.31
486.863	149.31
487.081	150.31
487.299	131.31
487.517	142.31
487.735	144.31
487.953	197.31
488.171	197.31
488.389	168.31
488.607	149.31
488.825	141.31
489.043	123.31
489.261	129.31
489.479	142.31
489.696	141.31
489.914	141.31
490.132	151.31
490.35	159.31
490.568	148.31
490.786	169.31
491.003	169.31
491.221	181.31
491.439	183.31
491.657	202.31
491.874	208.31
492.092	199.31
492.31	238.31
492.527	226.31
492.745	196.31
492.963	192.31
493.18	195.31
493.398	183.31
493.615	206.31
493.833	173.31
494.05	152.31
494.268	167.31
494.485	197.31
494.703	168.31
494.92	184.31
495.138	161.31
495.355	172.31
495.573	170.31
495.79	158.31
496.008	171.31
496.225	180.31
496.442	154.31
496.66	180.31
496.877	176.31
497.094	172.31
497.312	177.31
497.529	164.31
497.746	138.31
497.963	136.31
498.181	143.31
498.398	139.31
498.615	127.31
498.832	108.31
499.049	107.31
499.267	125.31
499.484	127.31
499.701	140.31
499.918	146.31
500.135	147.31
500.352	136.31
500.569	157.31
500.786	134.31
501.003	146.31
501.22	146.31
501.437	133.31
501.654	133.31
501.871	148.31
502.088	139.31
502.305	121.31
502.522	135.31
502.739	137.31
502.956	137.31
503.172	125.31
503.389	116.31
503.606	127.31
503.823	120.31
504.04	120.31
504.256	125.31
504.473	121.31
504.69	120.31
504.907	124.31
505.123	124.31
505.34	116.31
505.557	128.31
505.773	127.31
505.99	135.31
506.207	123.31
506.423	129.31
506.64	116.31
506.856	119.31
507.073	127.31
507.289	119.31
507.506	111.31
507.722	110.31
507.939	116.31
508.155	135.31
508.372	122.31
508.588	127.31
508.805	99.31
509.021	105.31
509.238	117.31
509.454	113.31
509.67	109.31
509.887	109.31
510.103	102.31
510.319	102.31
510.536	113.31
510.752	92.31
510.968	98.31
511.184	97.31
511.401	94.31
