Data from Location2.07152019.Energy5.Lamp.07192019.3%Agarose_HRD10591_14-57-32-359.txt Node
Date: Fri Jul 19 14:57:32 EDT 2019
User: cochatt
Spectrometer: HR+D1059
Trigger mode: 1
Integration Time (sec): 1.000000E-1
Scans to average: 1
Electric dark correction enabled: true
Nonlinearity correction enabled: false
Boxcar width: 0
XAxis mode: Wavelengths
Number of Pixels in Spectrum: 2048
>>>>>Begin Spectral Data<<<<<
223.165	-16.31
223.4	-16.31
223.635	-16.31
223.869	-7.31
224.104	-13.31
224.338	-9.31
224.573	-12.31
224.808	-19.31
225.042	-16.31
225.277	-15.31
225.511	-4.31
225.746	-6.31
225.98	-7.31
226.215	-0.31
226.449	19.69
226.683	33.69
226.918	35.69
227.152	38.69
227.387	33.69
227.621	31.69
227.856	46.69
228.09	48.69
228.324	55.69
228.559	58.69
228.793	57.69
229.027	61.69
229.262	65.69
229.496	78.69
229.73	83.69
229.964	67.69
230.199	67.69
230.433	68.69
230.667	80.69
230.901	66.69
231.136	67.69
231.37	79.69
231.604	69.69
231.838	92.69
232.072	77.69
232.306	87.69
232.541	74.69
232.775	81.69
233.009	81.69
233.243	84.69
233.477	83.69
233.711	93.69
233.945	68.69
234.179	77.69
234.413	83.69
234.647	83.69
234.881	86.69
235.115	81.69
235.349	72.69
235.583	90.69
235.817	75.69
236.051	73.69
236.285	80.69
236.519	84.69
236.753	102.69
236.987	91.69
237.221	83.69
237.455	72.69
237.689	75.69
237.922	75.69
238.156	76.69
238.39	69.69
238.624	71.69
238.858	76.69
239.091	73.69
239.325	66.69
239.559	70.69
239.793	67.69
240.027	68.69
240.26	83.69
240.494	83.69
240.728	70.69
240.961	65.69
241.195	82.69
241.429	82.69
241.662	73.69
241.896	85.69
242.13	71.69
242.363	83.69
242.597	74.69
242.83	74.69
243.064	82.69
243.298	83.69
243.531	80.69
243.765	66.69
243.998	76.69
244.232	74.69
244.465	61.69
244.699	77.69
244.932	70.69
245.166	75.69
245.399	80.69
245.633	73.69
245.866	78.69
246.099	77.69
246.333	72.69
246.566	66.69
246.8	86.69
247.033	76.69
247.266	76.69
247.5	81.69
247.733	81.69
247.966	74.69
248.2	88.69
248.433	69.69
248.666	67.69
248.899	69.69
249.133	74.69
249.366	68.69
249.599	76.69
249.832	66.69
250.066	81.69
250.299	79.69
250.532	80.69
250.765	85.69
250.998	71.69
251.231	71.69
251.465	85.69
251.698	91.69
251.931	69.69
252.164	91.69
252.397	82.69
252.63	63.69
252.863	67.69
253.096	83.69
253.329	86.69
253.562	76.69
253.795	77.69
254.028	71.69
254.261	82.69
254.494	93.69
254.727	94.69
254.96	77.69
255.193	75.69
255.426	73.69
255.659	76.69
255.892	70.69
256.124	84.69
256.357	82.69
256.59	73.69
256.823	93.69
257.056	75.69
257.289	70.69
257.521	79.69
257.754	77.69
257.987	85.69
258.22	83.69
258.452	83.69
258.685	77.69
258.918	91.69
259.151	89.69
259.383	77.69
259.616	79.69
259.849	79.69
260.081	80.69
260.314	88.69
260.547	79.69
260.779	80.69
261.012	81.69
261.244	88.69
261.477	73.69
261.71	83.69
261.942	96.69
262.175	90.69
262.407	71.69
262.64	76.69
262.872	87.69
263.105	79.69
263.337	81.69
263.57	83.69
263.802	83.69
264.035	91.69
264.267	75.69
264.499	89.69
264.732	73.69
264.964	73.69
265.197	81.69
265.429	83.69
265.661	89.69
265.894	73.69
266.126	72.69
266.358	76.69
266.591	65.69
266.823	77.69
267.055	89.69
267.287	78.69
267.52	74.69
267.752	79.69
267.984	88.69
268.216	76.69
268.448	95.69
268.681	71.69
268.913	76.69
269.145	83.69
269.377	91.69
269.609	94.69
269.841	99.69
270.073	76.69
270.306	87.69
270.538	84.69
270.77	98.69
271.002	89.69
271.234	84.69
271.466	86.69
271.698	86.69
271.93	77.69
272.162	83.69
272.394	94.69
272.626	83.69
272.858	76.69
273.09	79.69
273.322	105.69
273.553	74.69
273.785	81.69
274.017	68.69
274.249	88.69
274.481	81.69
274.713	90.69
274.945	81.69
275.176	87.69
275.408	79.69
275.64	80.69
275.872	81.69
276.104	76.69
276.335	81.69
276.567	93.69
276.799	94.69
277.031	83.69
277.262	82.69
277.494	83.69
277.726	87.69
277.957	70.69
278.189	86.69
278.421	96.69
278.652	88.69
278.884	75.69
279.115	87.69
279.347	86.69
279.579	84.69
279.81	85.69
280.042	83.69
280.273	75.69
280.505	85.69
280.736	74.69
280.968	81.69
281.199	77.69
281.431	83.69
281.662	81.69
281.894	84.69
282.125	71.69
282.356	73.69
282.588	76.69
282.819	77.69
283.051	72.69
283.282	76.69
283.513	83.69
283.745	93.69
283.976	97.69
284.207	95.69
284.439	80.69
284.67	73.69
284.901	81.69
285.132	65.69
285.364	77.69
285.595	76.69
285.826	79.69
286.057	92.69
286.288	72.69
286.52	88.69
286.751	74.69
286.982	75.69
287.213	79.69
287.444	83.69
287.675	73.69
287.906	88.69
288.138	92.69
288.369	83.69
288.6	80.69
288.831	78.69
289.062	81.69
289.293	88.69
289.524	81.69
289.755	87.69
289.986	91.69
290.217	95.69
290.448	88.69
290.679	82.69
290.91	85.69
291.141	76.69
291.371	97.69
291.602	93.69
291.833	90.69
292.064	77.69
292.295	91.69
292.526	96.69
292.757	77.69
292.987	99.69
293.218	99.69
293.449	94.69
293.68	80.69
293.91	83.69
294.141	77.69
294.372	85.69
294.603	76.69
294.833	79.69
295.064	101.69
295.295	78.69
295.525	70.69
295.756	90.69
295.987	76.69
296.217	76.69
296.448	75.69
296.679	76.69
296.909	90.69
297.14	88.69
297.37	88.69
297.601	84.69
297.831	87.69
298.062	79.69
298.292	73.69
298.523	72.69
298.753	78.69
298.984	81.69
299.214	90.69
299.445	87.69
299.675	85.69
299.905	99.69
300.136	80.69
300.366	75.69
300.597	103.69
300.827	102.69
301.057	83.69
301.288	81.69
301.518	79.69
301.748	86.69
301.979	89.69
302.209	88.69
302.439	73.69
302.669	86.69
302.9	89.69
303.13	73.69
303.36	83.69
303.59	81.69
303.82	86.69
304.051	92.69
304.281	84.69
304.511	83.69
304.741	72.69
304.971	81.69
305.201	77.69
305.431	81.69
305.661	87.69
305.891	86.69
306.121	86.69
306.352	99.69
306.582	72.69
306.812	77.69
307.042	84.69
307.272	89.69
307.502	91.69
307.731	86.69
307.961	78.69
308.191	79.69
308.421	80.69
308.651	77.69
308.881	91.69
309.111	73.69
309.341	90.69
309.571	83.69
309.8	76.69
310.03	78.69
310.26	84.69
310.49	78.69
310.72	76.69
310.949	95.69
311.179	106.69
311.409	90.69
311.639	86.69
311.868	87.69
312.098	88.69
312.328	74.69
312.557	79.69
312.787	83.69
313.017	76.69
313.246	93.69
313.476	64.69
313.706	77.69
313.935	80.69
314.165	74.69
314.394	81.69
314.624	78.69
314.853	92.69
315.083	87.69
315.312	85.69
315.542	76.69
315.771	99.69
316.001	69.69
316.23	84.69
316.46	89.69
316.689	88.69
316.919	85.69
317.148	77.69
317.377	92.69
317.607	89.69
317.836	81.69
318.065	82.69
318.295	89.69
318.524	88.69
318.753	94.69
318.983	83.69
319.212	91.69
319.441	78.69
319.67	75.69
319.9	80.69
320.129	75.69
320.358	84.69
320.587	77.69
320.816	75.69
321.046	82.69
321.275	99.69
321.504	96.69
321.733	88.69
321.962	86.69
322.191	79.69
322.42	91.69
322.649	82.69
322.878	80.69
323.108	58.69
323.337	81.69
323.566	81.69
323.795	92.69
324.024	104.69
324.253	84.69
324.482	76.69
324.71	89.69
324.939	78.69
325.168	85.69
325.397	92.69
325.626	85.69
325.855	70.69
326.084	77.69
326.313	95.69
326.542	92.69
326.77	91.69
326.999	88.69
327.228	85.69
327.457	81.69
327.686	88.69
327.914	88.69
328.143	90.69
328.372	88.69
328.6	83.69
328.829	82.69
329.058	88.69
329.287	100.69
329.515	79.69
329.744	87.69
329.972	85.69
330.201	81.69
330.43	76.69
330.658	80.69
330.887	79.69
331.115	89.69
331.344	95.69
331.572	90.69
331.801	78.69
332.03	102.69
332.258	92.69
332.486	71.69
332.715	79.69
332.943	85.69
333.172	85.69
333.4	82.69
333.629	94.69
333.857	92.69
334.085	85.69
334.314	83.69
334.542	87.69
334.771	78.69
334.999	70.69
335.227	89.69
335.455	99.69
335.684	82.69
335.912	86.69
336.14	84.69
336.369	85.69
336.597	93.69
336.825	81.69
337.053	86.69
337.281	84.69
337.51	74.69
337.738	90.69
337.966	92.69
338.194	82.69
338.422	95.69
338.65	88.69
338.878	82.69
339.106	76.69
339.334	94.69
339.562	74.69
339.79	102.69
340.018	81.69
340.246	91.69
340.474	88.69
340.702	85.69
340.93	90.69
341.158	96.69
341.386	78.69
341.614	85.69
341.842	84.69
342.07	88.69
342.298	84.69
342.526	74.69
342.754	78.69
342.981	82.69
343.209	80.69
343.437	73.69
343.665	73.69
343.893	90.69
344.12	72.69
344.348	86.69
344.576	81.69
344.804	91.69
345.031	101.69
345.259	96.69
345.487	89.69
345.714	90.69
345.942	86.69
346.17	97.69
346.397	88.69
346.625	85.69
346.853	83.69
347.08	93.69
347.308	76.69
347.535	95.69
347.763	82.69
347.99	70.69
348.218	77.69
348.445	77.69
348.673	103.69
348.9	84.69
349.128	98.69
349.355	80.69
349.583	80.69
349.81	95.69
350.037	73.69
350.265	91.69
350.492	83.69
350.72	82.69
350.947	82.69
351.174	76.69
351.402	84.69
351.629	87.69
351.856	89.69
352.083	77.69
352.311	89.69
352.538	77.69
352.765	82.69
352.992	88.69
353.22	86.69
353.447	95.69
353.674	94.69
353.901	80.69
354.128	88.69
354.355	88.69
354.583	85.69
354.81	82.69
355.037	75.69
355.264	71.69
355.491	85.69
355.718	95.69
355.945	79.69
356.172	84.69
356.399	93.69
356.626	75.69
356.853	76.69
357.08	70.69
357.307	88.69
357.534	86.69
357.761	95.69
357.988	82.69
358.215	63.69
358.441	83.69
358.668	77.69
358.895	82.69
359.122	69.69
359.349	84.69
359.576	90.69
359.802	74.69
360.029	83.69
360.256	76.69
360.483	80.69
360.709	68.69
360.936	85.69
361.163	87.69
361.39	77.69
361.616	82.69
361.843	84.69
362.07	81.69
362.296	69.69
362.523	72.69
362.749	80.69
362.976	75.69
363.203	99.69
363.429	81.69
363.656	97.69
363.882	73.69
364.109	84.69
364.335	73.69
364.562	80.69
364.788	103.69
365.015	82.69
365.241	82.69
365.468	76.69
365.694	77.69
365.92	90.69
366.147	90.69
366.373	76.69
366.599	97.69
366.826	87.69
367.052	95.69
367.278	86.69
367.505	89.69
367.731	80.69
367.957	90.69
368.184	98.69
368.41	98.69
368.636	73.69
368.862	104.69
369.089	97.69
369.315	94.69
369.541	103.69
369.767	86.69
369.993	103.69
370.219	97.69
370.445	85.69
370.672	95.69
370.898	95.69
371.124	89.69
371.35	90.69
371.576	92.69
371.802	86.69
372.028	105.69
372.254	91.69
372.48	102.69
372.706	89.69
372.932	85.69
373.158	97.69
373.384	93.69
373.61	100.69
373.835	82.69
374.061	103.69
374.287	98.69
374.513	92.69
374.739	86.69
374.965	95.69
375.191	89.69
375.416	91.69
375.642	78.69
375.868	99.69
376.094	114.69
376.319	107.69
376.545	85.69
376.771	107.69
376.997	105.69
377.222	80.69
377.448	90.69
377.674	90.69
377.899	98.69
378.125	88.69
378.35	93.69
378.576	76.69
378.802	99.69
379.027	101.69
379.253	112.69
379.478	97.69
379.704	100.69
379.929	107.69
380.155	94.69
380.38	90.69
380.606	86.69
380.831	113.69
381.057	111.69
381.282	108.69
381.507	84.69
381.733	111.69
381.958	101.69
382.184	86.69
382.409	103.69
382.634	95.69
382.86	89.69
383.085	97.69
383.31	91.69
383.535	92.69
383.761	93.69
383.986	94.69
384.211	101.69
384.436	95.69
384.662	85.69
384.887	79.69
385.112	92.69
385.337	94.69
385.562	105.69
385.787	89.69
386.013	97.69
386.238	105.69
386.463	104.69
386.688	95.69
386.913	103.69
387.138	90.69
387.363	101.69
387.588	95.69
387.813	105.69
388.038	124.69
388.263	109.69
388.488	104.69
388.713	95.69
388.938	91.69
389.163	103.69
389.387	95.69
389.612	94.69
389.837	98.69
390.062	95.69
390.287	104.69
390.512	88.69
390.736	107.69
390.961	85.69
391.186	106.69
391.411	117.69
391.636	103.69
391.86	104.69
392.085	103.69
392.31	101.69
392.534	112.69
392.759	97.69
392.984	93.69
393.208	115.69
393.433	108.69
393.658	102.69
393.882	110.69
394.107	108.69
394.331	113.69
394.556	100.69
394.78	101.69
395.005	114.69
395.229	105.69
395.454	105.69
395.678	103.69
395.903	94.69
396.127	93.69
396.352	109.69
396.576	122.69
396.801	118.69
397.025	105.69
397.249	93.69
397.474	98.69
397.698	114.69
397.922	105.69
398.147	119.69
398.371	112.69
398.595	111.69
398.82	116.69
399.044	106.69
399.268	101.69
399.492	118.69
399.717	106.69
399.941	120.69
400.165	111.69
400.389	101.69
400.613	99.69
400.837	113.69
401.062	106.69
401.286	111.69
401.51	119.69
401.734	105.69
401.958	113.69
402.182	125.69
402.406	115.69
402.63	112.69
402.854	126.69
403.078	122.69
403.302	110.69
403.526	104.69
403.75	115.69
403.974	115.69
404.198	128.69
404.422	123.69
404.645	113.69
404.869	111.69
405.093	121.69
405.317	98.69
405.541	125.69
405.765	125.69
405.988	126.69
406.212	110.69
406.436	124.69
406.66	123.69
406.883	117.69
407.107	114.69
407.331	128.69
407.555	120.69
407.778	107.69
408.002	119.69
408.226	99.69
408.449	111.69
408.673	123.69
408.896	108.69
409.12	110.69
409.344	118.69
409.567	125.69
409.791	117.69
410.014	114.69
410.238	119.69
410.461	128.69
410.685	124.69
410.908	113.69
411.132	127.69
411.355	128.69
411.578	135.69
411.802	123.69
412.025	128.69
412.249	110.69
412.472	131.69
412.695	126.69
412.919	127.69
413.142	124.69
413.365	129.69
413.589	123.69
413.812	123.69
414.035	128.69
414.258	121.69
414.482	120.69
414.705	126.69
414.928	123.69
415.151	123.69
415.374	104.69
415.597	129.69
415.821	122.69
416.044	121.69
416.267	126.69
416.49	107.69
416.713	114.69
416.936	122.69
417.159	123.69
417.382	103.69
417.605	124.69
417.828	123.69
418.051	116.69
418.274	132.69
418.497	129.69
418.72	122.69
418.943	130.69
419.166	138.69
419.389	136.69
419.611	148.69
419.834	139.69
420.057	150.69
420.28	117.69
420.503	130.69
420.726	123.69
420.948	123.69
421.171	142.69
421.394	135.69
421.617	148.69
421.839	122.69
422.062	143.69
422.285	133.69
422.507	133.69
422.73	136.69
422.953	124.69
423.175	130.69
423.398	135.69
423.621	127.69
423.843	136.69
424.066	148.69
424.288	139.69
424.511	131.69
424.733	148.69
424.956	151.69
425.178	150.69
425.401	138.69
425.623	144.69
425.846	143.69
426.068	148.69
426.291	122.69
426.513	133.69
426.735	140.69
426.958	135.69
427.18	133.69
427.402	133.69
427.625	139.69
427.847	160.69
428.069	118.69
428.292	136.69
428.514	128.69
428.736	129.69
428.958	125.69
429.181	141.69
429.403	118.69
429.625	123.69
429.847	121.69
430.069	119.69
430.292	132.69
430.514	136.69
430.736	118.69
430.958	128.69
431.18	118.69
431.402	129.69
431.624	121.69
431.846	107.69
432.068	99.69
432.29	97.69
432.512	109.69
432.734	122.69
432.956	131.69
433.178	143.69
433.4	122.69
433.622	151.69
433.844	139.69
434.066	111.69
434.287	120.69
434.509	96.69
434.731	98.69
434.953	109.69
435.175	131.69
435.397	124.69
435.618	122.69
435.84	109.69
436.062	118.69
436.284	125.69
436.505	129.69
436.727	139.69
436.949	119.69
437.17	123.69
437.392	125.69
437.614	111.69
437.835	116.69
438.057	107.69
438.278	117.69
438.5	111.69
438.721	123.69
438.943	141.69
439.165	131.69
439.386	135.69
439.608	154.69
439.829	139.69
440.05	141.69
440.272	142.69
440.493	152.69
440.715	141.69
440.936	144.69
441.158	137.69
441.379	151.69
441.6	142.69
441.822	153.69
442.043	139.69
442.264	149.69
442.486	150.69
442.707	137.69
442.928	145.69
443.149	138.69
443.371	140.69
443.592	136.69
443.813	142.69
444.034	142.69
444.255	138.69
444.476	141.69
444.698	142.69
444.919	145.69
445.14	229.69
445.361	181.69
445.582	151.69
445.803	157.69
446.024	139.69
446.245	138.69
446.466	147.69
446.687	141.69
446.908	155.69
447.129	154.69
447.35	152.69
447.571	146.69
447.792	143.69
448.013	131.69
448.234	147.69
448.455	136.69
448.675	132.69
448.896	141.69
449.117	126.69
449.338	152.69
449.559	142.69
449.779	131.69
450	135.69
450.221	134.69
450.442	127.69
450.662	135.69
450.883	131.69
451.104	138.69
451.324	138.69
451.545	131.69
451.766	118.69
451.986	121.69
452.207	134.69
452.428	123.69
452.648	123.69
452.869	112.69
453.089	108.69
453.31	107.69
453.53	111.69
453.751	119.69
453.971	106.69
454.192	115.69
454.412	111.69
454.633	118.69
454.853	115.69
455.073	113.69
455.294	127.69
455.514	127.69
455.734	125.69
455.955	121.69
456.175	111.69
456.395	99.69
456.616	106.69
456.836	101.69
457.056	100.69
457.276	110.69
457.497	114.69
457.717	117.69
457.937	107.69
458.157	104.69
458.377	118.69
458.598	111.69
458.818	97.69
459.038	92.69
459.258	91.69
459.478	98.69
459.698	87.69
459.918	95.69
460.138	105.69
460.358	119.69
460.578	120.69
460.798	116.69
461.018	117.69
461.238	95.69
461.458	125.69
461.678	120.69
461.898	106.69
462.118	113.69
462.338	122.69
462.558	102.69
462.777	115.69
462.997	105.69
463.217	99.69
463.437	105.69
463.657	107.69
463.876	114.69
464.096	111.69
464.316	113.69
464.536	112.69
464.755	121.69
464.975	113.69
465.195	101.69
465.414	111.69
465.634	127.69
465.854	123.69
466.073	136.69
466.293	118.69
466.512	120.69
466.732	127.69
466.951	131.69
467.171	140.69
467.391	141.69
467.61	116.69
467.829	125.69
468.049	115.69
468.268	146.69
468.488	147.69
468.707	126.69
468.927	137.69
469.146	120.69
469.365	137.69
469.585	140.69
469.804	145.69
470.023	133.69
470.243	135.69
470.462	147.69
470.681	129.69
470.901	129.69
471.12	140.69
471.339	138.69
471.558	148.69
471.777	151.69
471.997	126.69
472.216	141.69
472.435	120.69
472.654	119.69
472.873	133.69
473.092	126.69
473.311	122.69
473.53	142.69
473.749	117.69
473.968	106.69
474.187	127.69
474.406	118.69
474.625	142.69
474.844	141.69
475.063	151.69
475.282	130.69
475.501	109.69
475.72	127.69
475.939	131.69
476.158	142.69
476.377	103.69
476.596	121.69
476.814	113.69
477.033	116.69
477.252	123.69
477.471	121.69
477.69	152.69
477.908	144.69
478.127	140.69
478.346	126.69
478.564	136.69
478.783	135.69
479.002	138.69
479.22	146.69
479.439	131.69
479.658	131.69
479.876	112.69
480.095	121.69
480.313	113.69
480.532	124.69
480.751	113.69
480.969	111.69
481.188	99.69
481.406	99.69
481.624	94.69
481.843	92.69
482.061	99.69
482.28	112.69
482.498	123.69
482.717	99.69
482.935	111.69
483.153	150.69
483.372	163.69
483.59	152.69
483.808	149.69
484.027	133.69
484.245	133.69
484.463	147.69
484.681	156.69
484.9	142.69
485.118	135.69
485.336	135.69
485.554	104.69
485.772	118.69
485.99	106.69
486.209	121.69
486.427	109.69
486.645	122.69
486.863	145.69
487.081	163.69
487.299	131.69
487.517	131.69
487.735	171.69
487.953	196.69
488.171	168.69
488.389	169.69
488.607	165.69
488.825	140.69
489.043	122.69
489.261	153.69
489.479	138.69
489.696	124.69
489.914	142.69
490.132	134.69
490.35	152.69
490.568	161.69
490.786	161.69
491.003	176.69
491.221	177.69
491.439	175.69
491.657	186.69
491.874	202.69
492.092	226.69
492.31	229.69
492.527	222.69
492.745	209.69
492.963	210.69
493.18	181.69
493.398	173.69
493.615	177.69
493.833	155.69
494.05	175.69
494.268	175.69
494.485	156.69
494.703	173.69
494.92	179.69
495.138	181.69
495.355	169.69
495.573	162.69
495.79	172.69
496.008	175.69
496.225	177.69
496.442	181.69
496.66	176.69
496.877	156.69
497.094	169.69
497.312	155.69
497.529	142.69
497.746	138.69
497.963	136.69
498.181	141.69
498.398	122.69
498.615	127.69
498.832	118.69
499.049	113.69
499.267	129.69
499.484	134.69
499.701	125.69
499.918	159.69
500.135	121.69
500.352	145.69
500.569	134.69
500.786	144.69
501.003	155.69
501.22	137.69
501.437	131.69
501.654	141.69
501.871	140.69
502.088	135.69
502.305	136.69
502.522	138.69
502.739	132.69
502.956	131.69
503.172	122.69
503.389	117.69
503.606	111.69
503.823	117.69
504.04	119.69
504.256	129.69
504.473	125.69
504.69	125.69
504.907	121.69
505.123	124.69
505.34	129.69
505.557	125.69
505.773	129.69
505.99	125.69
506.207	133.69
506.423	119.69
506.64	111.69
506.856	117.69
507.073	124.69
507.289	124.69
507.506	119.69
507.722	125.69
507.939	113.69
508.155	107.69
508.372	114.69
508.588	121.69
508.805	105.69
509.021	104.69
509.238	108.69
509.454	102.69
509.67	113.69
509.887	110.69
510.103	96.69
510.319	87.69
510.536	88.69
510.752	86.69
510.968	76.69
511.184	87.69
511.401	90.69
