Data from Location2.07152019.Energy5.Lamp.07192019.3%Agarose_HRD10591_14-58-21-360.txt Node
Date: Fri Jul 19 14:58:21 EDT 2019
User: cochatt
Spectrometer: HR+D1059
Trigger mode: 1
Integration Time (sec): 1.000000E-1
Scans to average: 1
Electric dark correction enabled: true
Nonlinearity correction enabled: false
Boxcar width: 0
XAxis mode: Wavelengths
Number of Pixels in Spectrum: 2048
>>>>>Begin Spectral Data<<<<<
223.165	-9.38
223.4	-9.38
223.635	-9.38
223.869	-16.38
224.104	-15.38
224.338	-25.38
224.573	-22.38
224.808	-13.38
225.042	-13.38
225.277	-23.38
225.511	-7.38
225.746	10.62
225.98	15.62
226.215	10.62
226.449	16.62
226.683	19.62
226.918	38.62
227.152	34.62
227.387	24.62
227.621	33.62
227.856	41.62
228.09	40.62
228.324	50.62
228.559	58.62
228.793	53.62
229.027	46.62
229.262	67.62
229.496	52.62
229.73	78.62
229.964	72.62
230.199	67.62
230.433	56.62
230.667	74.62
230.901	87.62
231.136	75.62
231.37	85.62
231.604	80.62
231.838	92.62
232.072	88.62
232.306	84.62
232.541	78.62
232.775	78.62
233.009	71.62
233.243	85.62
233.477	75.62
233.711	84.62
233.945	94.62
234.179	82.62
234.413	64.62
234.647	76.62
234.881	69.62
235.115	81.62
235.349	83.62
235.583	65.62
235.817	78.62
236.051	82.62
236.285	82.62
236.519	74.62
236.753	77.62
236.987	78.62
237.221	64.62
237.455	70.62
237.689	66.62
237.922	77.62
238.156	82.62
238.39	74.62
238.624	59.62
238.858	68.62
239.091	89.62
239.325	80.62
239.559	76.62
239.793	100.62
240.027	77.62
240.26	74.62
240.494	63.62
240.728	72.62
240.961	66.62
241.195	76.62
241.429	76.62
241.662	78.62
241.896	70.62
242.13	76.62
242.363	84.62
242.597	89.62
242.83	76.62
243.064	55.62
243.298	81.62
243.531	84.62
243.765	78.62
243.998	88.62
244.232	79.62
244.465	70.62
244.699	76.62
244.932	52.62
245.166	81.62
245.399	71.62
245.633	95.62
245.866	75.62
246.099	72.62
246.333	69.62
246.566	72.62
246.8	69.62
247.033	79.62
247.266	80.62
247.5	73.62
247.733	71.62
247.966	83.62
248.2	65.62
248.433	65.62
248.666	78.62
248.899	79.62
249.133	79.62
249.366	72.62
249.599	84.62
249.832	84.62
250.066	80.62
250.299	84.62
250.532	83.62
250.765	79.62
250.998	81.62
251.231	84.62
251.465	95.62
251.698	81.62
251.931	84.62
252.164	77.62
252.397	71.62
252.63	70.62
252.863	83.62
253.096	81.62
253.329	71.62
253.562	82.62
253.795	74.62
254.028	85.62
254.261	86.62
254.494	69.62
254.727	98.62
254.96	79.62
255.193	85.62
255.426	76.62
255.659	76.62
255.892	92.62
256.124	72.62
256.357	83.62
256.59	79.62
256.823	88.62
257.056	77.62
257.289	84.62
257.521	80.62
257.754	76.62
257.987	82.62
258.22	79.62
258.452	74.62
258.685	95.62
258.918	67.62
259.151	71.62
259.383	81.62
259.616	73.62
259.849	73.62
260.081	83.62
260.314	64.62
260.547	71.62
260.779	85.62
261.012	93.62
261.244	70.62
261.477	85.62
261.71	76.62
261.942	77.62
262.175	75.62
262.407	63.62
262.64	78.62
262.872	73.62
263.105	81.62
263.337	85.62
263.57	79.62
263.802	67.62
264.035	70.62
264.267	65.62
264.499	76.62
264.732	78.62
264.964	73.62
265.197	82.62
265.429	83.62
265.661	95.62
265.894	75.62
266.126	73.62
266.358	82.62
266.591	63.62
266.823	71.62
267.055	67.62
267.287	86.62
267.52	83.62
267.752	80.62
267.984	90.62
268.216	99.62
268.448	79.62
268.681	76.62
268.913	83.62
269.145	78.62
269.377	78.62
269.609	82.62
269.841	83.62
270.073	83.62
270.306	76.62
270.538	80.62
270.77	76.62
271.002	84.62
271.234	80.62
271.466	97.62
271.698	79.62
271.93	82.62
272.162	81.62
272.394	83.62
272.626	89.62
272.858	74.62
273.09	75.62
273.322	88.62
273.553	91.62
273.785	80.62
274.017	76.62
274.249	78.62
274.481	86.62
274.713	74.62
274.945	83.62
275.176	84.62
275.408	80.62
275.64	79.62
275.872	76.62
276.104	73.62
276.335	89.62
276.567	75.62
276.799	84.62
277.031	80.62
277.262	94.62
277.494	95.62
277.726	89.62
277.957	81.62
278.189	73.62
278.421	80.62
278.652	79.62
278.884	85.62
279.115	90.62
279.347	85.62
279.579	91.62
279.81	79.62
280.042	81.62
280.273	80.62
280.505	77.62
280.736	86.62
280.968	74.62
281.199	79.62
281.431	87.62
281.662	83.62
281.894	93.62
282.125	82.62
282.356	88.62
282.588	80.62
282.819	74.62
283.051	81.62
283.282	71.62
283.513	91.62
283.745	82.62
283.976	114.62
284.207	86.62
284.439	85.62
284.67	83.62
284.901	74.62
285.132	54.62
285.364	76.62
285.595	96.62
285.826	76.62
286.057	81.62
286.288	79.62
286.52	75.62
286.751	87.62
286.982	86.62
287.213	100.62
287.444	88.62
287.675	77.62
287.906	89.62
288.138	82.62
288.369	76.62
288.6	79.62
288.831	90.62
289.062	82.62
289.293	77.62
289.524	81.62
289.755	71.62
289.986	97.62
290.217	79.62
290.448	69.62
290.679	74.62
290.91	84.62
291.141	100.62
291.371	99.62
291.602	83.62
291.833	81.62
292.064	74.62
292.295	82.62
292.526	73.62
292.757	88.62
292.987	73.62
293.218	86.62
293.449	84.62
293.68	80.62
293.91	81.62
294.141	87.62
294.372	95.62
294.603	85.62
294.833	90.62
295.064	91.62
295.295	77.62
295.525	77.62
295.756	81.62
295.987	99.62
296.217	64.62
296.448	79.62
296.679	94.62
296.909	75.62
297.14	81.62
297.37	91.62
297.601	88.62
297.831	77.62
298.062	75.62
298.292	80.62
298.523	75.62
298.753	76.62
298.984	84.62
299.214	75.62
299.445	83.62
299.675	81.62
299.905	73.62
300.136	81.62
300.366	83.62
300.597	92.62
300.827	96.62
301.057	90.62
301.288	84.62
301.518	82.62
301.748	88.62
301.979	76.62
302.209	84.62
302.439	76.62
302.669	71.62
302.9	79.62
303.13	86.62
303.36	93.62
303.59	82.62
303.82	82.62
304.051	92.62
304.281	78.62
304.511	88.62
304.741	101.62
304.971	72.62
305.201	90.62
305.431	91.62
305.661	84.62
305.891	88.62
306.121	72.62
306.352	82.62
306.582	84.62
306.812	76.62
307.042	80.62
307.272	75.62
307.502	64.62
307.731	80.62
307.961	91.62
308.191	83.62
308.421	78.62
308.651	85.62
308.881	85.62
309.111	93.62
309.341	80.62
309.571	98.62
309.8	81.62
310.03	91.62
310.26	73.62
310.49	84.62
310.72	74.62
310.949	78.62
311.179	94.62
311.409	93.62
311.639	83.62
311.868	78.62
312.098	75.62
312.328	86.62
312.557	90.62
312.787	82.62
313.017	73.62
313.246	93.62
313.476	84.62
313.706	76.62
313.935	88.62
314.165	74.62
314.394	75.62
314.624	95.62
314.853	88.62
315.083	91.62
315.312	89.62
315.542	76.62
315.771	76.62
316.001	76.62
316.23	89.62
316.46	79.62
316.689	82.62
316.919	86.62
317.148	97.62
317.377	84.62
317.607	91.62
317.836	82.62
318.065	87.62
318.295	88.62
318.524	75.62
318.753	75.62
318.983	88.62
319.212	80.62
319.441	74.62
319.67	90.62
319.9	81.62
320.129	98.62
320.358	79.62
320.587	70.62
320.816	88.62
321.046	73.62
321.275	91.62
321.504	86.62
321.733	91.62
321.962	79.62
322.191	82.62
322.42	88.62
322.649	87.62
322.878	87.62
323.108	70.62
323.337	83.62
323.566	88.62
323.795	93.62
324.024	80.62
324.253	82.62
324.482	94.62
324.71	95.62
324.939	102.62
325.168	100.62
325.397	86.62
325.626	84.62
325.855	93.62
326.084	87.62
326.313	90.62
326.542	85.62
326.77	101.62
326.999	93.62
327.228	96.62
327.457	86.62
327.686	94.62
327.914	69.62
328.143	101.62
328.372	88.62
328.6	62.62
328.829	65.62
329.058	87.62
329.287	86.62
329.515	91.62
329.744	83.62
329.972	91.62
330.201	97.62
330.43	82.62
330.658	72.62
330.887	94.62
331.115	81.62
331.344	72.62
331.572	80.62
331.801	91.62
332.03	82.62
332.258	85.62
332.486	97.62
332.715	82.62
332.943	88.62
333.172	70.62
333.4	84.62
333.629	81.62
333.857	82.62
334.085	78.62
334.314	84.62
334.542	84.62
334.771	86.62
334.999	80.62
335.227	83.62
335.455	84.62
335.684	83.62
335.912	84.62
336.14	79.62
336.369	107.62
336.597	99.62
336.825	90.62
337.053	82.62
337.281	81.62
337.51	86.62
337.738	84.62
337.966	80.62
338.194	88.62
338.422	83.62
338.65	86.62
338.878	84.62
339.106	86.62
339.334	100.62
339.562	86.62
339.79	77.62
340.018	81.62
340.246	80.62
340.474	90.62
340.702	76.62
340.93	85.62
341.158	91.62
341.386	97.62
341.614	89.62
341.842	87.62
342.07	91.62
342.298	88.62
342.526	67.62
342.754	95.62
342.981	89.62
343.209	99.62
343.437	92.62
343.665	87.62
343.893	105.62
344.12	87.62
344.348	88.62
344.576	82.62
344.804	91.62
345.031	83.62
345.259	90.62
345.487	89.62
345.714	66.62
345.942	84.62
346.17	78.62
346.397	81.62
346.625	94.62
346.853	79.62
347.08	81.62
347.308	72.62
347.535	75.62
347.763	83.62
347.99	94.62
348.218	81.62
348.445	81.62
348.673	79.62
348.9	97.62
349.128	80.62
349.355	83.62
349.583	69.62
349.81	85.62
350.037	85.62
350.265	100.62
350.492	91.62
350.72	82.62
350.947	77.62
351.174	83.62
351.402	73.62
351.629	81.62
351.856	86.62
352.083	72.62
352.311	85.62
352.538	86.62
352.765	85.62
352.992	81.62
353.22	78.62
353.447	71.62
353.674	93.62
353.901	77.62
354.128	86.62
354.355	89.62
354.583	77.62
354.81	85.62
355.037	90.62
355.264	89.62
355.491	85.62
355.718	80.62
355.945	90.62
356.172	73.62
356.399	80.62
356.626	77.62
356.853	87.62
357.08	87.62
357.307	73.62
357.534	93.62
357.761	86.62
357.988	73.62
358.215	88.62
358.441	84.62
358.668	77.62
358.895	80.62
359.122	87.62
359.349	89.62
359.576	81.62
359.802	83.62
360.029	85.62
360.256	79.62
360.483	82.62
360.709	82.62
360.936	87.62
361.163	97.62
361.39	91.62
361.616	76.62
361.843	90.62
362.07	78.62
362.296	81.62
362.523	97.62
362.749	79.62
362.976	77.62
363.203	93.62
363.429	89.62
363.656	91.62
363.882	89.62
364.109	84.62
364.335	71.62
364.562	77.62
364.788	66.62
365.015	80.62
365.241	76.62
365.468	98.62
365.694	96.62
365.92	82.62
366.147	86.62
366.373	91.62
366.599	78.62
366.826	90.62
367.052	86.62
367.278	81.62
367.505	80.62
367.731	104.62
367.957	84.62
368.184	100.62
368.41	83.62
368.636	92.62
368.862	93.62
369.089	94.62
369.315	79.62
369.541	86.62
369.767	92.62
369.993	92.62
370.219	96.62
370.445	83.62
370.672	78.62
370.898	71.62
371.124	95.62
371.35	76.62
371.576	95.62
371.802	81.62
372.028	95.62
372.254	99.62
372.48	87.62
372.706	89.62
372.932	83.62
373.158	98.62
373.384	111.62
373.61	90.62
373.835	82.62
374.061	97.62
374.287	105.62
374.513	81.62
374.739	87.62
374.965	94.62
375.191	105.62
375.416	94.62
375.642	87.62
375.868	95.62
376.094	90.62
376.319	104.62
376.545	96.62
376.771	105.62
376.997	95.62
377.222	101.62
377.448	75.62
377.674	87.62
377.899	98.62
378.125	88.62
378.35	84.62
378.576	92.62
378.802	86.62
379.027	95.62
379.253	95.62
379.478	95.62
379.704	88.62
379.929	91.62
380.155	94.62
380.38	91.62
380.606	81.62
380.831	90.62
381.057	96.62
381.282	104.62
381.507	105.62
381.733	92.62
381.958	89.62
382.184	101.62
382.409	92.62
382.634	100.62
382.86	105.62
383.085	83.62
383.31	107.62
383.535	92.62
383.761	93.62
383.986	87.62
384.211	96.62
384.436	110.62
384.662	101.62
384.887	92.62
385.112	90.62
385.337	87.62
385.562	95.62
385.787	108.62
386.013	108.62
386.238	98.62
386.463	100.62
386.688	86.62
386.913	102.62
387.138	107.62
387.363	102.62
387.588	115.62
387.813	100.62
388.038	89.62
388.263	102.62
388.488	94.62
388.713	111.62
388.938	103.62
389.163	105.62
389.387	97.62
389.612	89.62
389.837	99.62
390.062	87.62
390.287	93.62
390.512	92.62
390.736	95.62
390.961	91.62
391.186	113.62
391.411	106.62
391.636	92.62
391.86	106.62
392.085	102.62
392.31	100.62
392.534	103.62
392.759	120.62
392.984	90.62
393.208	90.62
393.433	120.62
393.658	116.62
393.882	105.62
394.107	104.62
394.331	114.62
394.556	107.62
394.78	113.62
395.005	103.62
395.229	106.62
395.454	103.62
395.678	113.62
395.903	103.62
396.127	105.62
396.352	107.62
396.576	98.62
396.801	94.62
397.025	118.62
397.249	115.62
397.474	117.62
397.698	103.62
397.922	98.62
398.147	102.62
398.371	103.62
398.595	113.62
398.82	108.62
399.044	106.62
399.268	105.62
399.492	109.62
399.717	109.62
399.941	99.62
400.165	102.62
400.389	105.62
400.613	115.62
400.837	122.62
401.062	112.62
401.286	120.62
401.51	118.62
401.734	114.62
401.958	101.62
402.182	112.62
402.406	122.62
402.63	112.62
402.854	106.62
403.078	125.62
403.302	118.62
403.526	120.62
403.75	105.62
403.974	107.62
404.198	84.62
404.422	135.62
404.645	110.62
404.869	119.62
405.093	124.62
405.317	124.62
405.541	116.62
405.765	113.62
405.988	117.62
406.212	102.62
406.436	131.62
406.66	125.62
406.883	124.62
407.107	122.62
407.331	114.62
407.555	117.62
407.778	110.62
408.002	109.62
408.226	123.62
408.449	116.62
408.673	112.62
408.896	117.62
409.12	107.62
409.344	117.62
409.567	121.62
409.791	122.62
410.014	123.62
410.238	116.62
410.461	131.62
410.685	120.62
410.908	109.62
411.132	131.62
411.355	126.62
411.578	128.62
411.802	119.62
412.025	115.62
412.249	115.62
412.472	121.62
412.695	124.62
412.919	124.62
413.142	119.62
413.365	114.62
413.589	116.62
413.812	116.62
414.035	134.62
414.258	126.62
414.482	118.62
414.705	113.62
414.928	121.62
415.151	121.62
415.374	118.62
415.597	101.62
415.821	117.62
416.044	115.62
416.267	114.62
416.49	122.62
416.713	139.62
416.936	126.62
417.159	116.62
417.382	127.62
417.605	114.62
417.828	125.62
418.051	132.62
418.274	136.62
418.497	134.62
418.72	117.62
418.943	124.62
419.166	132.62
419.389	136.62
419.611	140.62
419.834	124.62
420.057	128.62
420.28	132.62
420.503	136.62
420.726	116.62
420.948	128.62
421.171	128.62
421.394	139.62
421.617	133.62
421.839	120.62
422.062	120.62
422.285	135.62
422.507	126.62
422.73	137.62
422.953	132.62
423.175	137.62
423.398	118.62
423.621	127.62
423.843	128.62
424.066	128.62
424.288	147.62
424.511	122.62
424.733	130.62
424.956	126.62
425.178	123.62
425.401	127.62
425.623	147.62
425.846	127.62
426.068	132.62
426.291	137.62
426.513	110.62
426.735	120.62
426.958	129.62
427.18	124.62
427.402	124.62
427.625	116.62
427.847	132.62
428.069	146.62
428.292	121.62
428.514	122.62
428.736	133.62
428.958	125.62
429.181	127.62
429.403	123.62
429.625	123.62
429.847	123.62
430.069	127.62
430.292	139.62
430.514	135.62
430.736	128.62
430.958	120.62
431.18	116.62
431.402	134.62
431.624	112.62
431.846	111.62
432.068	96.62
432.29	97.62
432.512	107.62
432.734	108.62
432.956	129.62
433.178	138.62
433.4	127.62
433.622	143.62
433.844	129.62
434.066	125.62
434.287	99.62
434.509	108.62
434.731	99.62
434.953	109.62
435.175	126.62
435.397	129.62
435.618	117.62
435.84	112.62
436.062	128.62
436.284	117.62
436.505	136.62
436.727	122.62
436.949	126.62
437.17	118.62
437.392	126.62
437.614	120.62
437.835	105.62
438.057	104.62
438.278	115.62
438.5	131.62
438.721	126.62
438.943	140.62
439.165	140.62
439.386	129.62
439.608	142.62
439.829	145.62
440.05	147.62
440.272	138.62
440.493	153.62
440.715	137.62
440.936	150.62
441.158	150.62
441.379	136.62
441.6	155.62
441.822	120.62
442.043	131.62
442.264	131.62
442.486	132.62
442.707	139.62
442.928	145.62
443.149	150.62
443.371	137.62
443.592	147.62
443.813	134.62
444.034	140.62
444.255	135.62
444.476	128.62
444.698	142.62
444.919	146.62
445.14	271.62
445.361	214.62
445.582	151.62
445.803	142.62
446.024	165.62
446.245	153.62
446.466	158.62
446.687	139.62
446.908	154.62
447.129	146.62
447.35	139.62
447.571	130.62
447.792	161.62
448.013	144.62
448.234	129.62
448.455	145.62
448.675	127.62
448.896	133.62
449.117	138.62
449.338	128.62
449.559	126.62
449.779	143.62
450	120.62
450.221	136.62
450.442	139.62
450.662	129.62
450.883	130.62
451.104	140.62
451.324	131.62
451.545	125.62
451.766	126.62
451.986	121.62
452.207	124.62
452.428	132.62
452.648	125.62
452.869	112.62
453.089	104.62
453.31	121.62
453.53	116.62
453.751	114.62
453.971	103.62
454.192	117.62
454.412	106.62
454.633	115.62
454.853	120.62
455.073	111.62
455.294	118.62
455.514	118.62
455.734	123.62
455.955	137.62
456.175	118.62
456.395	111.62
456.616	110.62
456.836	95.62
457.056	99.62
457.276	114.62
457.497	112.62
457.717	105.62
457.937	102.62
458.157	117.62
458.377	113.62
458.598	110.62
458.818	100.62
459.038	87.62
459.258	84.62
459.478	76.62
459.698	90.62
459.918	95.62
460.138	103.62
460.358	105.62
460.578	116.62
460.798	116.62
461.018	121.62
461.238	104.62
461.458	115.62
461.678	112.62
461.898	118.62
462.118	119.62
462.338	119.62
462.558	116.62
462.777	105.62
462.997	100.62
463.217	116.62
463.437	102.62
463.657	109.62
463.876	89.62
464.096	108.62
464.316	110.62
464.536	99.62
464.755	120.62
464.975	119.62
465.195	107.62
465.414	104.62
465.634	113.62
465.854	126.62
466.073	112.62
466.293	114.62
466.512	115.62
466.732	138.62
466.951	124.62
467.171	135.62
467.391	128.62
467.61	124.62
467.829	140.62
468.049	134.62
468.268	128.62
468.488	127.62
468.707	149.62
468.927	115.62
469.146	141.62
469.365	136.62
469.585	124.62
469.804	144.62
470.023	131.62
470.243	144.62
470.462	148.62
470.681	134.62
470.901	134.62
471.12	134.62
471.339	136.62
471.558	153.62
471.777	154.62
471.997	135.62
472.216	116.62
472.435	123.62
472.654	85.62
472.873	102.62
473.092	122.62
473.311	116.62
473.53	123.62
473.749	125.62
473.968	120.62
474.187	105.62
474.406	104.62
474.625	124.62
474.844	136.62
475.063	126.62
475.282	130.62
475.501	124.62
475.72	114.62
475.939	119.62
476.158	141.62
476.377	115.62
476.596	115.62
476.814	123.62
477.033	103.62
477.252	102.62
477.471	118.62
477.69	133.62
477.908	131.62
478.127	133.62
478.346	135.62
478.564	140.62
478.783	141.62
479.002	135.62
479.22	154.62
479.439	129.62
479.658	129.62
479.876	119.62
480.095	100.62
480.313	112.62
480.532	120.62
480.751	114.62
480.969	105.62
481.188	88.62
481.406	107.62
481.624	91.62
481.843	77.62
482.061	82.62
482.28	119.62
482.498	106.62
482.717	116.62
482.935	118.62
483.153	145.62
483.372	155.62
483.59	158.62
483.808	138.62
484.027	120.62
484.245	133.62
484.463	148.62
484.681	147.62
484.9	149.62
485.118	136.62
485.336	124.62
485.554	115.62
485.772	103.62
485.99	104.62
486.209	105.62
486.427	105.62
486.645	118.62
486.863	148.62
487.081	133.62
487.299	126.62
487.517	130.62
487.735	159.62
487.953	185.62
488.171	188.62
488.389	151.62
488.607	144.62
488.825	151.62
489.043	123.62
489.261	144.62
489.479	129.62
489.696	133.62
489.914	163.62
490.132	149.62
490.35	155.62
490.568	146.62
490.786	149.62
491.003	179.62
491.221	179.62
491.439	196.62
491.657	201.62
491.874	184.62
492.092	230.62
492.31	219.62
492.527	226.62
492.745	199.62
492.963	201.62
493.18	186.62
493.398	187.62
493.615	185.62
493.833	178.62
494.05	153.62
494.268	177.62
494.485	169.62
494.703	166.62
494.92	178.62
495.138	171.62
495.355	171.62
495.573	168.62
495.79	171.62
496.008	157.62
496.225	174.62
496.442	164.62
496.66	168.62
496.877	156.62
497.094	166.62
497.312	177.62
497.529	153.62
497.746	159.62
497.963	136.62
498.181	131.62
498.398	124.62
498.615	124.62
498.832	114.62
499.049	125.62
499.267	132.62
499.484	118.62
499.701	128.62
499.918	127.62
500.135	131.62
500.352	141.62
500.569	148.62
500.786	135.62
501.003	154.62
501.22	139.62
501.437	137.62
501.654	122.62
501.871	141.62
502.088	130.62
502.305	136.62
502.522	128.62
502.739	135.62
502.956	136.62
503.172	118.62
503.389	119.62
503.606	132.62
503.823	127.62
504.04	123.62
504.256	128.62
504.473	114.62
504.69	121.62
504.907	113.62
505.123	120.62
505.34	124.62
505.557	128.62
505.773	132.62
505.99	113.62
506.207	138.62
506.423	112.62
506.64	123.62
506.856	112.62
507.073	122.62
507.289	110.62
507.506	111.62
507.722	116.62
507.939	111.62
508.155	116.62
508.372	121.62
508.588	133.62
508.805	95.62
509.021	107.62
509.238	97.62
509.454	100.62
509.67	101.62
509.887	95.62
510.103	105.62
510.319	97.62
510.536	84.62
510.752	82.62
510.968	76.62
511.184	88.62
511.401	80.62
511.617	84.62
