Data from Location2.07152019.Energy5.Lamp.07192019.3%Agarose_HRD10591_14-57-36-359.txt Node
Date: Fri Jul 19 14:57:36 EDT 2019
User: cochatt
Spectrometer: HR+D1059
Trigger mode: 1
Integration Time (sec): 1.000000E-1
Scans to average: 1
Electric dark correction enabled: true
Nonlinearity correction enabled: false
Boxcar width: 0
XAxis mode: Wavelengths
Number of Pixels in Spectrum: 2048
>>>>>Begin Spectral Data<<<<<
223.165	-12.31
223.4	-12.31
223.635	-12.31
223.869	-15.31
224.104	-25.31
224.338	-11.31
224.573	-14.31
224.808	-27.31
225.042	-11.31
225.277	5.69
225.511	4.69
225.746	-3.31
225.98	0.69
226.215	14.69
226.449	6.69
226.683	34.69
226.918	25.69
227.152	27.69
227.387	33.69
227.621	31.69
227.856	47.69
228.09	50.69
228.324	45.69
228.559	55.69
228.793	65.69
229.027	65.69
229.262	40.69
229.496	69.69
229.73	78.69
229.964	70.69
230.199	72.69
230.433	78.69
230.667	88.69
230.901	78.69
231.136	65.69
231.37	78.69
231.604	78.69
231.838	74.69
232.072	80.69
232.306	85.69
232.541	84.69
232.775	85.69
233.009	92.69
233.243	73.69
233.477	88.69
233.711	88.69
233.945	71.69
234.179	92.69
234.413	92.69
234.647	94.69
234.881	79.69
235.115	97.69
235.349	87.69
235.583	86.69
235.817	85.69
236.051	80.69
236.285	86.69
236.519	81.69
236.753	81.69
236.987	78.69
237.221	65.69
237.455	83.69
237.689	80.69
237.922	82.69
238.156	80.69
238.39	80.69
238.624	83.69
238.858	87.69
239.091	86.69
239.325	80.69
239.559	87.69
239.793	72.69
240.027	69.69
240.26	86.69
240.494	76.69
240.728	82.69
240.961	84.69
241.195	69.69
241.429	76.69
241.662	93.69
241.896	71.69
242.13	82.69
242.363	75.69
242.597	75.69
242.83	78.69
243.064	77.69
243.298	88.69
243.531	83.69
243.765	84.69
243.998	76.69
244.232	82.69
244.465	72.69
244.699	81.69
244.932	76.69
245.166	65.69
245.399	82.69
245.633	79.69
245.866	77.69
246.099	85.69
246.333	81.69
246.566	76.69
246.8	83.69
247.033	82.69
247.266	83.69
247.5	80.69
247.733	76.69
247.966	83.69
248.2	81.69
248.433	79.69
248.666	85.69
248.899	77.69
249.133	80.69
249.366	94.69
249.599	83.69
249.832	79.69
250.066	84.69
250.299	74.69
250.532	87.69
250.765	89.69
250.998	79.69
251.231	83.69
251.465	72.69
251.698	68.69
251.931	73.69
252.164	90.69
252.397	78.69
252.63	78.69
252.863	100.69
253.096	80.69
253.329	78.69
253.562	75.69
253.795	73.69
254.028	89.69
254.261	92.69
254.494	80.69
254.727	77.69
254.96	88.69
255.193	91.69
255.426	82.69
255.659	88.69
255.892	99.69
256.124	91.69
256.357	81.69
256.59	70.69
256.823	88.69
257.056	75.69
257.289	91.69
257.521	81.69
257.754	84.69
257.987	84.69
258.22	78.69
258.452	70.69
258.685	84.69
258.918	75.69
259.151	76.69
259.383	74.69
259.616	84.69
259.849	80.69
260.081	104.69
260.314	63.69
260.547	73.69
260.779	85.69
261.012	83.69
261.244	75.69
261.477	82.69
261.71	94.69
261.942	82.69
262.175	75.69
262.407	85.69
262.64	80.69
262.872	94.69
263.105	85.69
263.337	83.69
263.57	75.69
263.802	90.69
264.035	76.69
264.267	75.69
264.499	84.69
264.732	90.69
264.964	89.69
265.197	78.69
265.429	89.69
265.661	98.69
265.894	83.69
266.126	86.69
266.358	72.69
266.591	92.69
266.823	83.69
267.055	81.69
267.287	90.69
267.52	97.69
267.752	85.69
267.984	88.69
268.216	94.69
268.448	91.69
268.681	90.69
268.913	95.69
269.145	87.69
269.377	77.69
269.609	88.69
269.841	87.69
270.073	87.69
270.306	68.69
270.538	88.69
270.77	72.69
271.002	90.69
271.234	73.69
271.466	95.69
271.698	87.69
271.93	97.69
272.162	82.69
272.394	85.69
272.626	82.69
272.858	85.69
273.09	86.69
273.322	99.69
273.553	85.69
273.785	78.69
274.017	78.69
274.249	76.69
274.481	77.69
274.713	78.69
274.945	102.69
275.176	81.69
275.408	86.69
275.64	98.69
275.872	92.69
276.104	96.69
276.335	80.69
276.567	77.69
276.799	78.69
277.031	76.69
277.262	66.69
277.494	73.69
277.726	95.69
277.957	92.69
278.189	83.69
278.421	86.69
278.652	77.69
278.884	88.69
279.115	85.69
279.347	88.69
279.579	80.69
279.81	87.69
280.042	77.69
280.273	72.69
280.505	85.69
280.736	78.69
280.968	96.69
281.199	88.69
281.431	89.69
281.662	81.69
281.894	85.69
282.125	91.69
282.356	92.69
282.588	92.69
282.819	92.69
283.051	100.69
283.282	76.69
283.513	84.69
283.745	89.69
283.976	86.69
284.207	83.69
284.439	93.69
284.67	104.69
284.901	93.69
285.132	81.69
285.364	81.69
285.595	88.69
285.826	80.69
286.057	92.69
286.288	107.69
286.52	93.69
286.751	76.69
286.982	89.69
287.213	72.69
287.444	86.69
287.675	86.69
287.906	88.69
288.138	78.69
288.369	81.69
288.6	82.69
288.831	81.69
289.062	82.69
289.293	83.69
289.524	86.69
289.755	98.69
289.986	72.69
290.217	87.69
290.448	69.69
290.679	97.69
290.91	96.69
291.141	86.69
291.371	92.69
291.602	86.69
291.833	90.69
292.064	95.69
292.295	93.69
292.526	70.69
292.757	91.69
292.987	94.69
293.218	77.69
293.449	96.69
293.68	92.69
293.91	71.69
294.141	88.69
294.372	77.69
294.603	80.69
294.833	92.69
295.064	83.69
295.295	83.69
295.525	91.69
295.756	88.69
295.987	92.69
296.217	78.69
296.448	79.69
296.679	86.69
296.909	77.69
297.14	77.69
297.37	81.69
297.601	94.69
297.831	84.69
298.062	92.69
298.292	99.69
298.523	84.69
298.753	89.69
298.984	98.69
299.214	83.69
299.445	78.69
299.675	82.69
299.905	91.69
300.136	78.69
300.366	92.69
300.597	94.69
300.827	95.69
301.057	82.69
301.288	87.69
301.518	84.69
301.748	81.69
301.979	74.69
302.209	81.69
302.439	84.69
302.669	83.69
302.9	75.69
303.13	84.69
303.36	95.69
303.59	78.69
303.82	78.69
304.051	91.69
304.281	79.69
304.511	87.69
304.741	97.69
304.971	87.69
305.201	101.69
305.431	78.69
305.661	96.69
305.891	86.69
306.121	72.69
306.352	72.69
306.582	76.69
306.812	83.69
307.042	84.69
307.272	81.69
307.502	77.69
307.731	92.69
307.961	83.69
308.191	92.69
308.421	83.69
308.651	77.69
308.881	98.69
309.111	83.69
309.341	93.69
309.571	88.69
309.8	65.69
310.03	93.69
310.26	88.69
310.49	77.69
310.72	80.69
310.949	91.69
311.179	73.69
311.409	89.69
311.639	87.69
311.868	83.69
312.098	90.69
312.328	86.69
312.557	87.69
312.787	93.69
313.017	96.69
313.246	79.69
313.476	86.69
313.706	77.69
313.935	84.69
314.165	97.69
314.394	98.69
314.624	98.69
314.853	82.69
315.083	77.69
315.312	81.69
315.542	79.69
315.771	89.69
316.001	83.69
316.23	90.69
316.46	94.69
316.689	92.69
316.919	86.69
317.148	102.69
317.377	91.69
317.607	86.69
317.836	88.69
318.065	83.69
318.295	81.69
318.524	88.69
318.753	89.69
318.983	73.69
319.212	81.69
319.441	84.69
319.67	86.69
319.9	86.69
320.129	78.69
320.358	77.69
320.587	97.69
320.816	69.69
321.046	74.69
321.275	89.69
321.504	91.69
321.733	83.69
321.962	81.69
322.191	83.69
322.42	88.69
322.649	95.69
322.878	86.69
323.108	98.69
323.337	77.69
323.566	87.69
323.795	89.69
324.024	100.69
324.253	88.69
324.482	95.69
324.71	85.69
324.939	85.69
325.168	104.69
325.397	84.69
325.626	71.69
325.855	95.69
326.084	90.69
326.313	91.69
326.542	85.69
326.77	98.69
326.999	75.69
327.228	77.69
327.457	96.69
327.686	74.69
327.914	85.69
328.143	103.69
328.372	98.69
328.6	80.69
328.829	71.69
329.058	92.69
329.287	74.69
329.515	87.69
329.744	91.69
329.972	86.69
330.201	93.69
330.43	93.69
330.658	94.69
330.887	92.69
331.115	86.69
331.344	82.69
331.572	85.69
331.801	96.69
332.03	82.69
332.258	87.69
332.486	76.69
332.715	76.69
332.943	95.69
333.172	92.69
333.4	88.69
333.629	82.69
333.857	73.69
334.085	93.69
334.314	85.69
334.542	92.69
334.771	86.69
334.999	88.69
335.227	97.69
335.455	79.69
335.684	91.69
335.912	82.69
336.14	80.69
336.369	79.69
336.597	83.69
336.825	90.69
337.053	89.69
337.281	87.69
337.51	86.69
337.738	82.69
337.966	83.69
338.194	74.69
338.422	90.69
338.65	90.69
338.878	89.69
339.106	85.69
339.334	103.69
339.562	101.69
339.79	98.69
340.018	93.69
340.246	106.69
340.474	87.69
340.702	95.69
340.93	80.69
341.158	90.69
341.386	86.69
341.614	83.69
341.842	82.69
342.07	88.69
342.298	85.69
342.526	86.69
342.754	88.69
342.981	82.69
343.209	98.69
343.437	81.69
343.665	85.69
343.893	89.69
344.12	75.69
344.348	92.69
344.576	97.69
344.804	71.69
345.031	72.69
345.259	91.69
345.487	90.69
345.714	95.69
345.942	80.69
346.17	92.69
346.397	89.69
346.625	99.69
346.853	79.69
347.08	86.69
347.308	90.69
347.535	77.69
347.763	87.69
347.99	93.69
348.218	85.69
348.445	97.69
348.673	106.69
348.9	83.69
349.128	91.69
349.355	70.69
349.583	81.69
349.81	88.69
350.037	96.69
350.265	75.69
350.492	88.69
350.72	97.69
350.947	94.69
351.174	77.69
351.402	74.69
351.629	82.69
351.856	85.69
352.083	78.69
352.311	90.69
352.538	93.69
352.765	88.69
352.992	91.69
353.22	92.69
353.447	78.69
353.674	75.69
353.901	78.69
354.128	95.69
354.355	72.69
354.583	92.69
354.81	88.69
355.037	75.69
355.264	87.69
355.491	78.69
355.718	75.69
355.945	86.69
356.172	94.69
356.399	76.69
356.626	86.69
356.853	82.69
357.08	79.69
357.307	87.69
357.534	103.69
357.761	96.69
357.988	100.69
358.215	85.69
358.441	101.69
358.668	80.69
358.895	92.69
359.122	101.69
359.349	94.69
359.576	85.69
359.802	76.69
360.029	93.69
360.256	83.69
360.483	83.69
360.709	99.69
360.936	84.69
361.163	84.69
361.39	79.69
361.616	88.69
361.843	80.69
362.07	77.69
362.296	88.69
362.523	76.69
362.749	85.69
362.976	78.69
363.203	78.69
363.429	89.69
363.656	86.69
363.882	88.69
364.109	85.69
364.335	93.69
364.562	91.69
364.788	101.69
365.015	66.69
365.241	83.69
365.468	96.69
365.694	96.69
365.92	74.69
366.147	98.69
366.373	89.69
366.599	83.69
366.826	81.69
367.052	88.69
367.278	84.69
367.505	96.69
367.731	86.69
367.957	78.69
368.184	95.69
368.41	91.69
368.636	102.69
368.862	93.69
369.089	100.69
369.315	88.69
369.541	99.69
369.767	93.69
369.993	92.69
370.219	97.69
370.445	87.69
370.672	85.69
370.898	99.69
371.124	90.69
371.35	98.69
371.576	102.69
371.802	104.69
372.028	90.69
372.254	95.69
372.48	82.69
372.706	91.69
372.932	94.69
373.158	99.69
373.384	95.69
373.61	104.69
373.835	81.69
374.061	87.69
374.287	97.69
374.513	95.69
374.739	108.69
374.965	99.69
375.191	101.69
375.416	102.69
375.642	99.69
375.868	90.69
376.094	92.69
376.319	101.69
376.545	97.69
376.771	87.69
376.997	96.69
377.222	83.69
377.448	99.69
377.674	91.69
377.899	82.69
378.125	85.69
378.35	86.69
378.576	104.69
378.802	98.69
379.027	92.69
379.253	106.69
379.478	102.69
379.704	103.69
379.929	109.69
380.155	87.69
380.38	86.69
380.606	92.69
380.831	94.69
381.057	113.69
381.282	103.69
381.507	96.69
381.733	84.69
381.958	86.69
382.184	98.69
382.409	106.69
382.634	101.69
382.86	93.69
383.085	110.69
383.31	93.69
383.535	118.69
383.761	106.69
383.986	114.69
384.211	95.69
384.436	93.69
384.662	107.69
384.887	99.69
385.112	90.69
385.337	89.69
385.562	92.69
385.787	93.69
386.013	110.69
386.238	105.69
386.463	89.69
386.688	100.69
386.913	102.69
387.138	104.69
387.363	85.69
387.588	91.69
387.813	116.69
388.038	98.69
388.263	98.69
388.488	99.69
388.713	117.69
388.938	97.69
389.163	114.69
389.387	92.69
389.612	97.69
389.837	102.69
390.062	109.69
390.287	113.69
390.512	94.69
390.736	99.69
390.961	92.69
391.186	103.69
391.411	98.69
391.636	102.69
391.86	88.69
392.085	99.69
392.31	96.69
392.534	92.69
392.759	111.69
392.984	100.69
393.208	112.69
393.433	100.69
393.658	108.69
393.882	109.69
394.107	110.69
394.331	121.69
394.556	93.69
394.78	109.69
395.005	107.69
395.229	96.69
395.454	118.69
395.678	126.69
395.903	89.69
396.127	106.69
396.352	116.69
396.576	107.69
396.801	108.69
397.025	121.69
397.249	118.69
397.474	116.69
397.698	112.69
397.922	101.69
398.147	100.69
398.371	113.69
398.595	112.69
398.82	106.69
399.044	98.69
399.268	108.69
399.492	93.69
399.717	129.69
399.941	116.69
400.165	116.69
400.389	102.69
400.613	107.69
400.837	117.69
401.062	124.69
401.286	121.69
401.51	107.69
401.734	122.69
401.958	121.69
402.182	118.69
402.406	120.69
402.63	120.69
402.854	110.69
403.078	121.69
403.302	125.69
403.526	113.69
403.75	98.69
403.974	118.69
404.198	116.69
404.422	125.69
404.645	104.69
404.869	122.69
405.093	128.69
405.317	124.69
405.541	119.69
405.765	124.69
405.988	120.69
406.212	126.69
406.436	124.69
406.66	134.69
406.883	120.69
407.107	137.69
407.331	108.69
407.555	106.69
407.778	119.69
408.002	118.69
408.226	118.69
408.449	120.69
408.673	118.69
408.896	111.69
409.12	124.69
409.344	121.69
409.567	132.69
409.791	108.69
410.014	103.69
410.238	128.69
410.461	120.69
410.685	127.69
410.908	130.69
411.132	122.69
411.355	119.69
411.578	127.69
411.802	126.69
412.025	122.69
412.249	123.69
412.472	130.69
412.695	131.69
412.919	134.69
413.142	131.69
413.365	120.69
413.589	124.69
413.812	122.69
414.035	120.69
414.258	121.69
414.482	133.69
414.705	137.69
414.928	122.69
415.151	123.69
415.374	132.69
415.597	119.69
415.821	107.69
416.044	146.69
416.267	138.69
416.49	128.69
416.713	131.69
416.936	128.69
417.159	120.69
417.382	113.69
417.605	134.69
417.828	136.69
418.051	122.69
418.274	137.69
418.497	126.69
418.72	119.69
418.943	117.69
419.166	123.69
419.389	143.69
419.611	134.69
419.834	146.69
420.057	123.69
420.28	135.69
420.503	126.69
420.726	109.69
420.948	136.69
421.171	124.69
421.394	139.69
421.617	148.69
421.839	156.69
422.062	140.69
422.285	125.69
422.507	123.69
422.73	116.69
422.953	120.69
423.175	112.69
423.398	138.69
423.621	126.69
423.843	135.69
424.066	133.69
424.288	150.69
424.511	141.69
424.733	137.69
424.956	134.69
425.178	135.69
425.401	132.69
425.623	138.69
425.846	130.69
426.068	148.69
426.291	138.69
426.513	128.69
426.735	126.69
426.958	145.69
427.18	138.69
427.402	132.69
427.625	134.69
427.847	128.69
428.069	117.69
428.292	122.69
428.514	132.69
428.736	135.69
428.958	129.69
429.181	120.69
429.403	124.69
429.625	124.69
429.847	110.69
430.069	129.69
430.292	143.69
430.514	136.69
430.736	138.69
430.958	143.69
431.18	122.69
431.402	129.69
431.624	115.69
431.846	115.69
432.068	108.69
432.29	104.69
432.512	116.69
432.734	122.69
432.956	137.69
433.178	136.69
433.4	139.69
433.622	132.69
433.844	132.69
434.066	129.69
434.287	104.69
434.509	98.69
434.731	107.69
434.953	114.69
435.175	114.69
435.397	128.69
435.618	124.69
435.84	127.69
436.062	120.69
436.284	137.69
436.505	139.69
436.727	127.69
436.949	129.69
437.17	141.69
437.392	129.69
437.614	140.69
437.835	118.69
438.057	97.69
438.278	121.69
438.5	122.69
438.721	127.69
438.943	153.69
439.165	154.69
439.386	151.69
439.608	144.69
439.829	136.69
440.05	156.69
440.272	148.69
440.493	151.69
440.715	140.69
440.936	147.69
441.158	142.69
441.379	141.69
441.6	144.69
441.822	132.69
442.043	144.69
442.264	136.69
442.486	130.69
442.707	141.69
442.928	133.69
443.149	133.69
443.371	130.69
443.592	141.69
443.813	148.69
444.034	136.69
444.255	146.69
444.476	128.69
444.698	134.69
444.919	140.69
445.14	227.69
445.361	188.69
445.582	142.69
445.803	139.69
446.024	147.69
446.245	160.69
446.466	156.69
446.687	142.69
446.908	146.69
447.129	151.69
447.35	170.69
447.571	154.69
447.792	149.69
448.013	165.69
448.234	138.69
448.455	152.69
448.675	146.69
448.896	137.69
449.117	149.69
449.338	156.69
449.559	150.69
449.779	128.69
450	145.69
450.221	133.69
450.442	130.69
450.662	121.69
450.883	129.69
451.104	134.69
451.324	130.69
451.545	129.69
451.766	138.69
451.986	129.69
452.207	140.69
452.428	146.69
452.648	134.69
452.869	123.69
453.089	130.69
453.31	117.69
453.53	112.69
453.751	110.69
453.971	100.69
454.192	108.69
454.412	102.69
454.633	115.69
454.853	131.69
455.073	123.69
455.294	132.69
455.514	132.69
455.734	121.69
455.955	106.69
456.175	123.69
456.395	121.69
456.616	114.69
456.836	99.69
457.056	109.69
457.276	109.69
457.497	114.69
457.717	123.69
457.937	111.69
458.157	108.69
458.377	116.69
458.598	90.69
458.818	97.69
459.038	98.69
459.258	101.69
459.478	89.69
459.698	90.69
459.918	106.69
460.138	102.69
460.358	100.69
460.578	123.69
460.798	114.69
461.018	122.69
461.238	115.69
461.458	112.69
461.678	107.69
461.898	119.69
462.118	89.69
462.338	122.69
462.558	115.69
462.777	100.69
462.997	112.69
463.217	98.69
463.437	112.69
463.657	110.69
463.876	123.69
464.096	114.69
464.316	109.69
464.536	107.69
464.755	124.69
464.975	108.69
465.195	125.69
465.414	120.69
465.634	121.69
465.854	129.69
466.073	121.69
466.293	123.69
466.512	120.69
466.732	135.69
466.951	141.69
467.171	124.69
467.391	138.69
467.61	135.69
467.829	136.69
468.049	139.69
468.268	148.69
468.488	130.69
468.707	133.69
468.927	147.69
469.146	136.69
469.365	145.69
469.585	125.69
469.804	137.69
470.023	158.69
470.243	150.69
470.462	137.69
470.681	151.69
470.901	140.69
471.12	140.69
471.339	142.69
471.558	148.69
471.777	134.69
471.997	131.69
472.216	128.69
472.435	124.69
472.654	110.69
472.873	113.69
473.092	118.69
473.311	112.69
473.53	114.69
473.749	140.69
473.968	145.69
474.187	120.69
474.406	124.69
474.625	136.69
474.844	134.69
475.063	126.69
475.282	124.69
475.501	116.69
475.72	137.69
475.939	121.69
476.158	133.69
476.377	131.69
476.596	125.69
476.814	112.69
477.033	100.69
477.252	93.69
477.471	129.69
477.69	129.69
477.908	140.69
478.127	142.69
478.346	132.69
478.564	131.69
478.783	137.69
479.002	140.69
479.22	134.69
479.439	141.69
479.658	141.69
479.876	104.69
480.095	118.69
480.313	117.69
480.532	116.69
480.751	120.69
480.969	99.69
481.188	99.69
481.406	97.69
481.624	95.69
481.843	83.69
482.061	105.69
482.28	119.69
482.498	125.69
482.717	116.69
482.935	122.69
483.153	161.69
483.372	163.69
483.59	167.69
483.808	142.69
484.027	133.69
484.245	144.69
484.463	154.69
484.681	147.69
484.9	150.69
485.118	135.69
485.336	134.69
485.554	119.69
485.772	101.69
485.99	112.69
486.209	118.69
486.427	118.69
486.645	122.69
486.863	142.69
487.081	134.69
487.299	136.69
487.517	140.69
487.735	166.69
487.953	183.69
488.171	188.69
488.389	182.69
488.607	160.69
488.825	149.69
489.043	131.69
489.261	148.69
489.479	130.69
489.696	125.69
489.914	145.69
490.132	154.69
490.35	163.69
490.568	185.69
490.786	180.69
491.003	183.69
491.221	192.69
491.439	167.69
491.657	185.69
491.874	195.69
492.092	219.69
492.31	226.69
492.527	231.69
492.745	215.69
492.963	190.69
493.18	177.69
493.398	173.69
493.615	180.69
493.833	196.69
494.05	177.69
494.268	191.69
494.485	177.69
494.703	172.69
494.92	172.69
495.138	169.69
495.355	176.69
495.573	173.69
495.79	176.69
496.008	171.69
496.225	160.69
496.442	164.69
496.66	173.69
496.877	160.69
497.094	164.69
497.312	171.69
497.529	171.69
497.746	152.69
497.963	141.69
498.181	144.69
498.398	117.69
498.615	115.69
498.832	112.69
499.049	127.69
499.267	118.69
499.484	125.69
499.701	128.69
499.918	132.69
500.135	126.69
500.352	140.69
500.569	130.69
500.786	151.69
501.003	125.69
501.22	131.69
501.437	138.69
501.654	135.69
501.871	132.69
502.088	125.69
502.305	130.69
502.522	132.69
502.739	128.69
502.956	124.69
503.172	133.69
503.389	120.69
503.606	134.69
503.823	131.69
504.04	118.69
504.256	123.69
504.473	123.69
504.69	111.69
504.907	121.69
505.123	118.69
505.34	109.69
505.557	120.69
505.773	128.69
505.99	130.69
506.207	132.69
506.423	122.69
506.64	128.69
506.856	132.69
507.073	117.69
507.289	113.69
507.506	130.69
507.722	117.69
507.939	120.69
508.155	133.69
508.372	132.69
508.588	123.69
508.805	120.69
509.021	101.69
509.238	105.69
509.454	103.69
509.67	91.69
509.887	99.69
510.103	109.69
510.319	89.69
510.536	89.69
510.752	88.69
510.968	93.69
511.184	104.69
511.401	101.69
