Data from Location2.07152019.Energy5.Lamp.07192019.3%Agarose_HRD10591_14-56-18-358.txt Node
Date: Fri Jul 19 14:56:18 EDT 2019
User: cochatt
Spectrometer: HR+D1059
Trigger mode: 1
Integration Time (sec): 1.000000E-1
Scans to average: 1
Electric dark correction enabled: true
Nonlinearity correction enabled: false
Boxcar width: 0
XAxis mode: Wavelengths
Number of Pixels in Spectrum: 2048
>>>>>Begin Spectral Data<<<<<
223.165	-15.81
223.4	-15.81
223.635	-15.81
223.869	-14.81
224.104	-15.81
224.338	-16.81
224.573	-16.81
224.808	0.19
225.042	-14.81
225.277	-8.81
225.511	8.19
225.746	-4.81
225.98	4.19
226.215	-6.81
226.449	3.19
226.683	38.19
226.918	30.19
227.152	31.19
227.387	39.19
227.621	29.19
227.856	29.19
228.09	43.19
228.324	47.19
228.559	48.19
228.793	44.19
229.027	53.19
229.262	73.19
229.496	61.19
229.73	65.19
229.964	78.19
230.199	76.19
230.433	77.19
230.667	73.19
230.901	68.19
231.136	90.19
231.37	81.19
231.604	78.19
231.838	89.19
232.072	76.19
232.306	81.19
232.541	96.19
232.775	102.19
233.009	81.19
233.243	73.19
233.477	73.19
233.711	79.19
233.945	79.19
234.179	95.19
234.413	84.19
234.647	91.19
234.881	91.19
235.115	87.19
235.349	86.19
235.583	64.19
235.817	84.19
236.051	86.19
236.285	89.19
236.519	84.19
236.753	68.19
236.987	80.19
237.221	75.19
237.455	73.19
237.689	83.19
237.922	71.19
238.156	83.19
238.39	79.19
238.624	76.19
238.858	86.19
239.091	75.19
239.325	71.19
239.559	67.19
239.793	88.19
240.027	79.19
240.26	72.19
240.494	78.19
240.728	64.19
240.961	70.19
241.195	77.19
241.429	64.19
241.662	68.19
241.896	64.19
242.13	73.19
242.363	74.19
242.597	83.19
242.83	80.19
243.064	79.19
243.298	79.19
243.531	84.19
243.765	83.19
243.998	87.19
244.232	64.19
244.465	95.19
244.699	73.19
244.932	88.19
245.166	84.19
245.399	85.19
245.633	68.19
245.866	73.19
246.099	72.19
246.333	73.19
246.566	92.19
246.8	74.19
247.033	73.19
247.266	77.19
247.5	82.19
247.733	69.19
247.966	80.19
248.2	73.19
248.433	76.19
248.666	80.19
248.899	87.19
249.133	84.19
249.366	87.19
249.599	72.19
249.832	79.19
250.066	96.19
250.299	88.19
250.532	87.19
250.765	87.19
250.998	92.19
251.231	74.19
251.465	76.19
251.698	84.19
251.931	78.19
252.164	90.19
252.397	77.19
252.63	82.19
252.863	81.19
253.096	80.19
253.329	91.19
253.562	81.19
253.795	86.19
254.028	59.19
254.261	87.19
254.494	74.19
254.727	85.19
254.96	85.19
255.193	77.19
255.426	80.19
255.659	91.19
255.892	81.19
256.124	73.19
256.357	80.19
256.59	78.19
256.823	83.19
257.056	67.19
257.289	75.19
257.521	83.19
257.754	77.19
257.987	77.19
258.22	76.19
258.452	77.19
258.685	90.19
258.918	76.19
259.151	83.19
259.383	83.19
259.616	87.19
259.849	63.19
260.081	73.19
260.314	78.19
260.547	81.19
260.779	84.19
261.012	90.19
261.244	78.19
261.477	79.19
261.71	91.19
261.942	74.19
262.175	83.19
262.407	81.19
262.64	85.19
262.872	79.19
263.105	88.19
263.337	90.19
263.57	81.19
263.802	79.19
264.035	77.19
264.267	81.19
264.499	84.19
264.732	88.19
264.964	94.19
265.197	83.19
265.429	89.19
265.661	81.19
265.894	93.19
266.126	90.19
266.358	76.19
266.591	81.19
266.823	75.19
267.055	81.19
267.287	83.19
267.52	86.19
267.752	81.19
267.984	99.19
268.216	91.19
268.448	78.19
268.681	83.19
268.913	79.19
269.145	96.19
269.377	92.19
269.609	77.19
269.841	79.19
270.073	84.19
270.306	80.19
270.538	82.19
270.77	86.19
271.002	86.19
271.234	99.19
271.466	90.19
271.698	88.19
271.93	69.19
272.162	89.19
272.394	79.19
272.626	90.19
272.858	83.19
273.09	84.19
273.322	95.19
273.553	76.19
273.785	82.19
274.017	74.19
274.249	73.19
274.481	71.19
274.713	85.19
274.945	85.19
275.176	91.19
275.408	78.19
275.64	73.19
275.872	87.19
276.104	76.19
276.335	86.19
276.567	83.19
276.799	83.19
277.031	73.19
277.262	64.19
277.494	83.19
277.726	79.19
277.957	81.19
278.189	101.19
278.421	71.19
278.652	88.19
278.884	79.19
279.115	65.19
279.347	76.19
279.579	80.19
279.81	78.19
280.042	82.19
280.273	89.19
280.505	74.19
280.736	79.19
280.968	93.19
281.199	83.19
281.431	95.19
281.662	80.19
281.894	88.19
282.125	80.19
282.356	87.19
282.588	85.19
282.819	75.19
283.051	92.19
283.282	90.19
283.513	67.19
283.745	86.19
283.976	73.19
284.207	91.19
284.439	88.19
284.67	73.19
284.901	73.19
285.132	81.19
285.364	75.19
285.595	87.19
285.826	88.19
286.057	78.19
286.288	79.19
286.52	91.19
286.751	82.19
286.982	83.19
287.213	86.19
287.444	86.19
287.675	86.19
287.906	84.19
288.138	87.19
288.369	98.19
288.6	75.19
288.831	81.19
289.062	84.19
289.293	76.19
289.524	97.19
289.755	90.19
289.986	79.19
290.217	85.19
290.448	89.19
290.679	96.19
290.91	70.19
291.141	88.19
291.371	77.19
291.602	83.19
291.833	83.19
292.064	90.19
292.295	84.19
292.526	79.19
292.757	69.19
292.987	65.19
293.218	77.19
293.449	84.19
293.68	77.19
293.91	108.19
294.141	79.19
294.372	90.19
294.603	95.19
294.833	80.19
295.064	85.19
295.295	84.19
295.525	76.19
295.756	85.19
295.987	94.19
296.217	84.19
296.448	88.19
296.679	88.19
296.909	83.19
297.14	84.19
297.37	95.19
297.601	98.19
297.831	96.19
298.062	83.19
298.292	84.19
298.523	81.19
298.753	93.19
298.984	96.19
299.214	91.19
299.445	86.19
299.675	75.19
299.905	84.19
300.136	87.19
300.366	99.19
300.597	80.19
300.827	91.19
301.057	84.19
301.288	89.19
301.518	81.19
301.748	76.19
301.979	94.19
302.209	81.19
302.439	92.19
302.669	83.19
302.9	78.19
303.13	81.19
303.36	81.19
303.59	82.19
303.82	87.19
304.051	89.19
304.281	89.19
304.511	84.19
304.741	77.19
304.971	76.19
305.201	85.19
305.431	91.19
305.661	88.19
305.891	80.19
306.121	96.19
306.352	85.19
306.582	78.19
306.812	91.19
307.042	90.19
307.272	86.19
307.502	79.19
307.731	95.19
307.961	90.19
308.191	88.19
308.421	64.19
308.651	75.19
308.881	87.19
309.111	88.19
309.341	72.19
309.571	82.19
309.8	76.19
310.03	80.19
310.26	92.19
310.49	80.19
310.72	80.19
310.949	90.19
311.179	85.19
311.409	89.19
311.639	83.19
311.868	83.19
312.098	93.19
312.328	87.19
312.557	86.19
312.787	86.19
313.017	84.19
313.246	87.19
313.476	78.19
313.706	73.19
313.935	83.19
314.165	88.19
314.394	87.19
314.624	82.19
314.853	85.19
315.083	75.19
315.312	72.19
315.542	76.19
315.771	75.19
316.001	80.19
316.23	91.19
316.46	83.19
316.689	86.19
316.919	83.19
317.148	90.19
317.377	84.19
317.607	72.19
317.836	88.19
318.065	92.19
318.295	87.19
318.524	80.19
318.753	89.19
318.983	91.19
319.212	86.19
319.441	76.19
319.67	80.19
319.9	91.19
320.129	97.19
320.358	74.19
320.587	88.19
320.816	93.19
321.046	103.19
321.275	79.19
321.504	80.19
321.733	84.19
321.962	82.19
322.191	77.19
322.42	76.19
322.649	83.19
322.878	72.19
323.108	87.19
323.337	93.19
323.566	88.19
323.795	90.19
324.024	87.19
324.253	91.19
324.482	89.19
324.71	81.19
324.939	81.19
325.168	85.19
325.397	98.19
325.626	84.19
325.855	93.19
326.084	87.19
326.313	83.19
326.542	89.19
326.77	91.19
326.999	76.19
327.228	93.19
327.457	77.19
327.686	85.19
327.914	83.19
328.143	98.19
328.372	78.19
328.6	77.19
328.829	86.19
329.058	87.19
329.287	77.19
329.515	78.19
329.744	87.19
329.972	82.19
330.201	96.19
330.43	87.19
330.658	81.19
330.887	82.19
331.115	83.19
331.344	76.19
331.572	76.19
331.801	79.19
332.03	75.19
332.258	87.19
332.486	77.19
332.715	86.19
332.943	85.19
333.172	102.19
333.4	80.19
333.629	72.19
333.857	90.19
334.085	83.19
334.314	86.19
334.542	92.19
334.771	96.19
334.999	87.19
335.227	83.19
335.455	72.19
335.684	74.19
335.912	78.19
336.14	94.19
336.369	91.19
336.597	84.19
336.825	91.19
337.053	79.19
337.281	88.19
337.51	92.19
337.738	92.19
337.966	84.19
338.194	86.19
338.422	90.19
338.65	91.19
338.878	83.19
339.106	85.19
339.334	100.19
339.562	83.19
339.79	82.19
340.018	86.19
340.246	70.19
340.474	80.19
340.702	80.19
340.93	99.19
341.158	81.19
341.386	96.19
341.614	80.19
341.842	87.19
342.07	86.19
342.298	88.19
342.526	97.19
342.754	74.19
342.981	82.19
343.209	85.19
343.437	99.19
343.665	79.19
343.893	88.19
344.12	91.19
344.348	86.19
344.576	89.19
344.804	106.19
345.031	80.19
345.259	77.19
345.487	85.19
345.714	90.19
345.942	81.19
346.17	100.19
346.397	94.19
346.625	83.19
346.853	100.19
347.08	77.19
347.308	83.19
347.535	93.19
347.763	76.19
347.99	73.19
348.218	79.19
348.445	85.19
348.673	89.19
348.9	77.19
349.128	73.19
349.355	81.19
349.583	89.19
349.81	77.19
350.037	82.19
350.265	83.19
350.492	90.19
350.72	85.19
350.947	94.19
351.174	81.19
351.402	84.19
351.629	79.19
351.856	74.19
352.083	83.19
352.311	94.19
352.538	92.19
352.765	92.19
352.992	96.19
353.22	94.19
353.447	65.19
353.674	81.19
353.901	88.19
354.128	89.19
354.355	83.19
354.583	84.19
354.81	98.19
355.037	67.19
355.264	72.19
355.491	83.19
355.718	80.19
355.945	77.19
356.172	73.19
356.399	72.19
356.626	72.19
356.853	82.19
357.08	88.19
357.307	78.19
357.534	91.19
357.761	84.19
357.988	89.19
358.215	92.19
358.441	95.19
358.668	92.19
358.895	88.19
359.122	87.19
359.349	97.19
359.576	86.19
359.802	84.19
360.029	76.19
360.256	99.19
360.483	88.19
360.709	77.19
360.936	85.19
361.163	76.19
361.39	71.19
361.616	93.19
361.843	88.19
362.07	80.19
362.296	83.19
362.523	87.19
362.749	74.19
362.976	93.19
363.203	94.19
363.429	84.19
363.656	76.19
363.882	99.19
364.109	95.19
364.335	81.19
364.562	71.19
364.788	96.19
365.015	75.19
365.241	93.19
365.468	82.19
365.694	97.19
365.92	84.19
366.147	89.19
366.373	78.19
366.599	88.19
366.826	95.19
367.052	85.19
367.278	95.19
367.505	81.19
367.731	98.19
367.957	79.19
368.184	86.19
368.41	87.19
368.636	90.19
368.862	85.19
369.089	77.19
369.315	87.19
369.541	90.19
369.767	96.19
369.993	90.19
370.219	84.19
370.445	93.19
370.672	90.19
370.898	74.19
371.124	85.19
371.35	84.19
371.576	95.19
371.802	87.19
372.028	75.19
372.254	98.19
372.48	88.19
372.706	91.19
372.932	87.19
373.158	95.19
373.384	96.19
373.61	89.19
373.835	88.19
374.061	90.19
374.287	97.19
374.513	96.19
374.739	90.19
374.965	106.19
375.191	101.19
375.416	98.19
375.642	100.19
375.868	75.19
376.094	100.19
376.319	92.19
376.545	87.19
376.771	103.19
376.997	78.19
377.222	92.19
377.448	97.19
377.674	100.19
377.899	79.19
378.125	83.19
378.35	103.19
378.576	88.19
378.802	73.19
379.027	92.19
379.253	89.19
379.478	98.19
379.704	85.19
379.929	92.19
380.155	88.19
380.38	97.19
380.606	99.19
380.831	86.19
381.057	90.19
381.282	99.19
381.507	100.19
381.733	115.19
381.958	105.19
382.184	100.19
382.409	96.19
382.634	82.19
382.86	93.19
383.085	90.19
383.31	111.19
383.535	96.19
383.761	98.19
383.986	104.19
384.211	97.19
384.436	101.19
384.662	92.19
384.887	91.19
385.112	93.19
385.337	95.19
385.562	100.19
385.787	103.19
386.013	91.19
386.238	99.19
386.463	113.19
386.688	94.19
386.913	92.19
387.138	109.19
387.363	92.19
387.588	112.19
387.813	98.19
388.038	97.19
388.263	105.19
388.488	102.19
388.713	106.19
388.938	96.19
389.163	100.19
389.387	97.19
389.612	90.19
389.837	94.19
390.062	100.19
390.287	98.19
390.512	112.19
390.736	99.19
390.961	92.19
391.186	105.19
391.411	95.19
391.636	101.19
391.86	93.19
392.085	100.19
392.31	96.19
392.534	108.19
392.759	90.19
392.984	103.19
393.208	105.19
393.433	92.19
393.658	103.19
393.882	108.19
394.107	101.19
394.331	106.19
394.556	113.19
394.78	119.19
395.005	116.19
395.229	114.19
395.454	113.19
395.678	98.19
395.903	107.19
396.127	98.19
396.352	108.19
396.576	107.19
396.801	89.19
397.025	88.19
397.249	106.19
397.474	93.19
397.698	101.19
397.922	112.19
398.147	106.19
398.371	117.19
398.595	95.19
398.82	119.19
399.044	107.19
399.268	109.19
399.492	114.19
399.717	115.19
399.941	116.19
400.165	127.19
400.389	127.19
400.613	110.19
400.837	117.19
401.062	105.19
401.286	106.19
401.51	120.19
401.734	115.19
401.958	110.19
402.182	106.19
402.406	95.19
402.63	102.19
402.854	116.19
403.078	123.19
403.302	109.19
403.526	119.19
403.75	108.19
403.974	122.19
404.198	99.19
404.422	122.19
404.645	127.19
404.869	125.19
405.093	124.19
405.317	120.19
405.541	117.19
405.765	117.19
405.988	104.19
406.212	119.19
406.436	115.19
406.66	121.19
406.883	119.19
407.107	99.19
407.331	104.19
407.555	122.19
407.778	106.19
408.002	110.19
408.226	113.19
408.449	107.19
408.673	119.19
408.896	116.19
409.12	125.19
409.344	119.19
409.567	114.19
409.791	134.19
410.014	111.19
410.238	117.19
410.461	121.19
410.685	103.19
410.908	122.19
411.132	127.19
411.355	113.19
411.578	119.19
411.802	120.19
412.025	117.19
412.249	115.19
412.472	114.19
412.695	115.19
412.919	114.19
413.142	115.19
413.365	117.19
413.589	122.19
413.812	121.19
414.035	117.19
414.258	126.19
414.482	112.19
414.705	120.19
414.928	123.19
415.151	128.19
415.374	119.19
415.597	125.19
415.821	134.19
416.044	117.19
416.267	132.19
416.49	126.19
416.713	124.19
416.936	132.19
417.159	120.19
417.382	123.19
417.605	124.19
417.828	141.19
418.051	120.19
418.274	119.19
418.497	121.19
418.72	138.19
418.943	127.19
419.166	127.19
419.389	131.19
419.611	131.19
419.834	124.19
420.057	137.19
420.28	127.19
420.503	126.19
420.726	125.19
420.948	143.19
421.171	136.19
421.394	129.19
421.617	117.19
421.839	140.19
422.062	136.19
422.285	123.19
422.507	146.19
422.73	127.19
422.953	117.19
423.175	122.19
423.398	134.19
423.621	118.19
423.843	138.19
424.066	133.19
424.288	131.19
424.511	140.19
424.733	139.19
424.956	135.19
425.178	147.19
425.401	147.19
425.623	130.19
425.846	131.19
426.068	116.19
426.291	127.19
426.513	127.19
426.735	121.19
426.958	125.19
427.18	115.19
427.402	126.19
427.625	131.19
427.847	125.19
428.069	136.19
428.292	124.19
428.514	127.19
428.736	135.19
428.958	137.19
429.181	124.19
429.403	117.19
429.625	125.19
429.847	123.19
430.069	113.19
430.292	133.19
430.514	114.19
430.736	142.19
430.958	120.19
431.18	124.19
431.402	129.19
431.624	121.19
431.846	115.19
432.068	101.19
432.29	95.19
432.512	127.19
432.734	111.19
432.956	134.19
433.178	133.19
433.4	138.19
433.622	138.19
433.844	133.19
434.066	140.19
434.287	113.19
434.509	89.19
434.731	99.19
434.953	115.19
435.175	120.19
435.397	124.19
435.618	114.19
435.84	122.19
436.062	103.19
436.284	115.19
436.505	123.19
436.727	124.19
436.949	131.19
437.17	123.19
437.392	136.19
437.614	128.19
437.835	99.19
438.057	115.19
438.278	104.19
438.5	136.19
438.721	120.19
438.943	135.19
439.165	145.19
439.386	140.19
439.608	142.19
439.829	147.19
440.05	137.19
440.272	146.19
440.493	125.19
440.715	141.19
440.936	147.19
441.158	150.19
441.379	129.19
441.6	155.19
441.822	133.19
442.043	134.19
442.264	141.19
442.486	145.19
442.707	137.19
442.928	137.19
443.149	146.19
443.371	159.19
443.592	150.19
443.813	150.19
444.034	127.19
444.255	142.19
444.476	139.19
444.698	131.19
444.919	139.19
445.14	281.19
445.361	189.19
445.582	156.19
445.803	146.19
446.024	132.19
446.245	137.19
446.466	142.19
446.687	136.19
446.908	159.19
447.129	156.19
447.35	159.19
447.571	151.19
447.792	170.19
448.013	166.19
448.234	133.19
448.455	131.19
448.675	145.19
448.896	147.19
449.117	133.19
449.338	127.19
449.559	132.19
449.779	139.19
450	145.19
450.221	122.19
450.442	133.19
450.662	127.19
450.883	119.19
451.104	146.19
451.324	119.19
451.545	124.19
451.766	125.19
451.986	140.19
452.207	127.19
452.428	118.19
452.648	125.19
452.869	120.19
453.089	108.19
453.31	104.19
453.53	101.19
453.751	98.19
453.971	103.19
454.192	103.19
454.412	112.19
454.633	111.19
454.853	120.19
455.073	117.19
455.294	127.19
455.514	117.19
455.734	122.19
455.955	116.19
456.175	125.19
456.395	93.19
456.616	103.19
456.836	106.19
457.056	122.19
457.276	118.19
457.497	116.19
457.717	117.19
457.937	119.19
458.157	108.19
458.377	108.19
458.598	105.19
458.818	90.19
459.038	93.19
459.258	91.19
459.478	80.19
459.698	74.19
459.918	101.19
460.138	87.19
460.358	106.19
460.578	117.19
460.798	111.19
461.018	115.19
461.238	116.19
461.458	102.19
461.678	105.19
461.898	124.19
462.118	114.19
462.338	114.19
462.558	120.19
462.777	95.19
462.997	99.19
463.217	125.19
463.437	113.19
463.657	92.19
463.876	100.19
464.096	101.19
464.316	109.19
464.536	116.19
464.755	115.19
464.975	123.19
465.195	120.19
465.414	121.19
465.634	114.19
465.854	117.19
466.073	120.19
466.293	118.19
466.512	129.19
466.732	122.19
466.951	128.19
467.171	131.19
467.391	119.19
467.61	140.19
467.829	122.19
468.049	143.19
468.268	135.19
468.488	136.19
468.707	136.19
468.927	130.19
469.146	127.19
469.365	150.19
469.585	127.19
469.804	143.19
470.023	144.19
470.243	141.19
470.462	152.19
470.681	135.19
470.901	141.19
471.12	136.19
471.339	132.19
471.558	153.19
471.777	131.19
471.997	154.19
472.216	129.19
472.435	113.19
472.654	121.19
472.873	108.19
473.092	108.19
473.311	123.19
473.53	131.19
473.749	125.19
473.968	108.19
474.187	114.19
474.406	123.19
474.625	131.19
474.844	135.19
475.063	117.19
475.282	117.19
475.501	116.19
475.72	131.19
475.939	121.19
476.158	127.19
476.377	120.19
476.596	114.19
476.814	120.19
477.033	99.19
477.252	115.19
477.471	120.19
477.69	129.19
477.908	131.19
478.127	130.19
478.346	134.19
478.564	132.19
478.783	134.19
479.002	123.19
479.22	129.19
479.439	127.19
479.658	130.19
479.876	123.19
480.095	125.19
480.313	126.19
480.532	135.19
480.751	115.19
480.969	101.19
481.188	81.19
481.406	71.19
481.624	96.19
481.843	82.19
482.061	93.19
482.28	106.19
482.498	123.19
482.717	107.19
482.935	108.19
483.153	133.19
483.372	142.19
483.59	151.19
483.808	132.19
484.027	129.19
484.245	145.19
484.463	152.19
484.681	160.19
484.9	130.19
485.118	147.19
485.336	118.19
485.554	116.19
485.772	104.19
485.99	102.19
486.209	98.19
486.427	108.19
486.645	112.19
486.863	139.19
487.081	144.19
487.299	122.19
487.517	141.19
487.735	160.19
487.953	171.19
488.171	177.19
488.389	163.19
488.607	161.19
488.825	151.19
489.043	128.19
489.261	131.19
489.479	136.19
489.696	156.19
489.914	140.19
490.132	136.19
490.35	145.19
490.568	152.19
490.786	164.19
491.003	172.19
491.221	180.19
491.439	184.19
491.657	175.19
491.874	201.19
492.092	212.19
492.31	233.19
492.527	210.19
492.745	197.19
492.963	185.19
493.18	175.19
493.398	193.19
493.615	179.19
493.833	177.19
494.05	184.19
494.268	187.19
494.485	170.19
494.703	188.19
494.92	176.19
495.138	182.19
495.355	179.19
495.573	173.19
495.79	150.19
496.008	183.19
496.225	154.19
496.442	154.19
496.66	164.19
496.877	153.19
497.094	163.19
497.312	161.19
497.529	135.19
497.746	160.19
497.963	146.19
498.181	129.19
498.398	127.19
498.615	114.19
498.832	109.19
499.049	113.19
499.267	115.19
499.484	122.19
499.701	119.19
499.918	137.19
500.135	123.19
500.352	140.19
500.569	131.19
500.786	146.19
501.003	135.19
501.22	133.19
501.437	131.19
501.654	137.19
501.871	129.19
502.088	131.19
502.305	140.19
502.522	133.19
502.739	136.19
502.956	137.19
503.172	135.19
503.389	130.19
503.606	119.19
503.823	107.19
504.04	123.19
504.256	123.19
504.473	132.19
504.69	111.19
504.907	115.19
505.123	102.19
505.34	129.19
505.557	119.19
505.773	128.19
505.99	120.19
506.207	112.19
506.423	130.19
506.64	112.19
506.856	121.19
507.073	124.19
507.289	124.19
507.506	120.19
507.722	121.19
507.939	121.19
508.155	111.19
508.372	101.19
508.588	115.19
508.805	117.19
509.021	116.19
509.238	96.19
509.454	100.19
509.67	96.19
509.887	89.19
510.103	99.19
510.319	108.19
510.536	113.19
510.752	96.19
510.968	93.19
511.184	87.19
511.401	94.19
511.617	75.19
511.833	83.19
