Data from Location2.07152019.Energy5.Lamp.07192019.3%Agarose_HRD10591_14-57-52-360.txt Node
Date: Fri Jul 19 14:57:52 EDT 2019
User: cochatt
Spectrometer: HR+D1059
Trigger mode: 1
Integration Time (sec): 1.000000E-1
Scans to average: 1
Electric dark correction enabled: true
Nonlinearity correction enabled: false
Boxcar width: 0
XAxis mode: Wavelengths
Number of Pixels in Spectrum: 2048
>>>>>Begin Spectral Data<<<<<
223.165	-19.88
223.4	-19.88
223.635	-19.88
223.869	-10.88
224.104	-30.88
224.338	-23.88
224.573	-18.88
224.808	-12.88
225.042	-8.88
225.277	-2.88
225.511	-0.88
225.746	11.12
225.98	0.12
226.215	15.12
226.449	10.12
226.683	25.12
226.918	30.12
227.152	38.12
227.387	20.12
227.621	27.12
227.856	43.12
228.09	41.12
228.324	65.12
228.559	38.12
228.793	57.12
229.027	60.12
229.262	66.12
229.496	64.12
229.73	65.12
229.964	77.12
230.199	67.12
230.433	69.12
230.667	75.12
230.901	87.12
231.136	75.12
231.37	89.12
231.604	91.12
231.838	74.12
232.072	64.12
232.306	82.12
232.541	72.12
232.775	71.12
233.009	81.12
233.243	81.12
233.477	77.12
233.711	83.12
233.945	93.12
234.179	100.12
234.413	86.12
234.647	86.12
234.881	75.12
235.115	79.12
235.349	67.12
235.583	83.12
235.817	74.12
236.051	91.12
236.285	85.12
236.519	78.12
236.753	80.12
236.987	69.12
237.221	67.12
237.455	64.12
237.689	89.12
237.922	75.12
238.156	76.12
238.39	74.12
238.624	76.12
238.858	73.12
239.091	75.12
239.325	78.12
239.559	73.12
239.793	82.12
240.027	78.12
240.26	71.12
240.494	76.12
240.728	77.12
240.961	75.12
241.195	71.12
241.429	72.12
241.662	86.12
241.896	65.12
242.13	83.12
242.363	69.12
242.597	85.12
242.83	87.12
243.064	77.12
243.298	80.12
243.531	80.12
243.765	83.12
243.998	82.12
244.232	76.12
244.465	89.12
244.699	82.12
244.932	83.12
245.166	91.12
245.399	73.12
245.633	58.12
245.866	68.12
246.099	81.12
246.333	78.12
246.566	84.12
246.8	82.12
247.033	80.12
247.266	73.12
247.5	76.12
247.733	73.12
247.966	92.12
248.2	71.12
248.433	72.12
248.666	85.12
248.899	74.12
249.133	87.12
249.366	61.12
249.599	75.12
249.832	88.12
250.066	91.12
250.299	75.12
250.532	86.12
250.765	81.12
250.998	84.12
251.231	73.12
251.465	74.12
251.698	74.12
251.931	84.12
252.164	74.12
252.397	90.12
252.63	82.12
252.863	77.12
253.096	72.12
253.329	91.12
253.562	86.12
253.795	72.12
254.028	69.12
254.261	75.12
254.494	88.12
254.727	74.12
254.96	87.12
255.193	83.12
255.426	76.12
255.659	78.12
255.892	95.12
256.124	84.12
256.357	75.12
256.59	80.12
256.823	85.12
257.056	92.12
257.289	86.12
257.521	68.12
257.754	69.12
257.987	86.12
258.22	89.12
258.452	85.12
258.685	75.12
258.918	77.12
259.151	90.12
259.383	93.12
259.616	76.12
259.849	92.12
260.081	96.12
260.314	78.12
260.547	84.12
260.779	84.12
261.012	86.12
261.244	96.12
261.477	80.12
261.71	75.12
261.942	83.12
262.175	86.12
262.407	81.12
262.64	90.12
262.872	77.12
263.105	71.12
263.337	71.12
263.57	93.12
263.802	75.12
264.035	82.12
264.267	65.12
264.499	72.12
264.732	75.12
264.964	93.12
265.197	74.12
265.429	79.12
265.661	87.12
265.894	88.12
266.126	86.12
266.358	84.12
266.591	74.12
266.823	85.12
267.055	85.12
267.287	78.12
267.52	84.12
267.752	87.12
267.984	75.12
268.216	82.12
268.448	87.12
268.681	77.12
268.913	89.12
269.145	87.12
269.377	87.12
269.609	81.12
269.841	92.12
270.073	72.12
270.306	80.12
270.538	82.12
270.77	70.12
271.002	63.12
271.234	85.12
271.466	83.12
271.698	87.12
271.93	90.12
272.162	85.12
272.394	95.12
272.626	90.12
272.858	88.12
273.09	83.12
273.322	82.12
273.553	73.12
273.785	81.12
274.017	87.12
274.249	92.12
274.481	86.12
274.713	75.12
274.945	85.12
275.176	67.12
275.408	84.12
275.64	81.12
275.872	86.12
276.104	89.12
276.335	71.12
276.567	97.12
276.799	91.12
277.031	81.12
277.262	84.12
277.494	89.12
277.726	92.12
277.957	93.12
278.189	67.12
278.421	80.12
278.652	93.12
278.884	93.12
279.115	88.12
279.347	87.12
279.579	68.12
279.81	88.12
280.042	86.12
280.273	81.12
280.505	80.12
280.736	91.12
280.968	76.12
281.199	84.12
281.431	89.12
281.662	81.12
281.894	90.12
282.125	89.12
282.356	92.12
282.588	76.12
282.819	84.12
283.051	73.12
283.282	92.12
283.513	78.12
283.745	81.12
283.976	107.12
284.207	97.12
284.439	93.12
284.67	88.12
284.901	84.12
285.132	81.12
285.364	83.12
285.595	82.12
285.826	79.12
286.057	82.12
286.288	89.12
286.52	85.12
286.751	82.12
286.982	67.12
287.213	85.12
287.444	88.12
287.675	80.12
287.906	73.12
288.138	92.12
288.369	97.12
288.6	81.12
288.831	75.12
289.062	97.12
289.293	91.12
289.524	72.12
289.755	79.12
289.986	83.12
290.217	96.12
290.448	88.12
290.679	90.12
290.91	81.12
291.141	95.12
291.371	91.12
291.602	74.12
291.833	91.12
292.064	96.12
292.295	73.12
292.526	64.12
292.757	72.12
292.987	77.12
293.218	89.12
293.449	81.12
293.68	80.12
293.91	82.12
294.141	76.12
294.372	93.12
294.603	94.12
294.833	82.12
295.064	94.12
295.295	93.12
295.525	96.12
295.756	102.12
295.987	81.12
296.217	80.12
296.448	85.12
296.679	81.12
296.909	84.12
297.14	98.12
297.37	81.12
297.601	81.12
297.831	88.12
298.062	80.12
298.292	90.12
298.523	81.12
298.753	92.12
298.984	90.12
299.214	86.12
299.445	90.12
299.675	92.12
299.905	67.12
300.136	87.12
300.366	84.12
300.597	72.12
300.827	84.12
301.057	87.12
301.288	96.12
301.518	80.12
301.748	83.12
301.979	71.12
302.209	83.12
302.439	76.12
302.669	98.12
302.9	106.12
303.13	74.12
303.36	72.12
303.59	75.12
303.82	91.12
304.051	86.12
304.281	91.12
304.511	84.12
304.741	95.12
304.971	89.12
305.201	88.12
305.431	77.12
305.661	94.12
305.891	86.12
306.121	75.12
306.352	87.12
306.582	90.12
306.812	68.12
307.042	70.12
307.272	93.12
307.502	89.12
307.731	92.12
307.961	81.12
308.191	85.12
308.421	81.12
308.651	90.12
308.881	90.12
309.111	115.12
309.341	100.12
309.571	75.12
309.8	94.12
310.03	87.12
310.26	77.12
310.49	85.12
310.72	85.12
310.949	72.12
311.179	79.12
311.409	73.12
311.639	81.12
311.868	101.12
312.098	89.12
312.328	83.12
312.557	81.12
312.787	83.12
313.017	100.12
313.246	81.12
313.476	88.12
313.706	111.12
313.935	74.12
314.165	84.12
314.394	78.12
314.624	96.12
314.853	73.12
315.083	77.12
315.312	73.12
315.542	79.12
315.771	87.12
316.001	87.12
316.23	103.12
316.46	85.12
316.689	70.12
316.919	84.12
317.148	89.12
317.377	78.12
317.607	100.12
317.836	81.12
318.065	79.12
318.295	80.12
318.524	77.12
318.753	89.12
318.983	88.12
319.212	92.12
319.441	91.12
319.67	94.12
319.9	96.12
320.129	78.12
320.358	89.12
320.587	89.12
320.816	87.12
321.046	88.12
321.275	69.12
321.504	79.12
321.733	73.12
321.962	94.12
322.191	85.12
322.42	87.12
322.649	96.12
322.878	81.12
323.108	90.12
323.337	81.12
323.566	75.12
323.795	83.12
324.024	84.12
324.253	70.12
324.482	98.12
324.71	93.12
324.939	97.12
325.168	92.12
325.397	83.12
325.626	83.12
325.855	87.12
326.084	111.12
326.313	87.12
326.542	85.12
326.77	95.12
326.999	87.12
327.228	88.12
327.457	77.12
327.686	80.12
327.914	85.12
328.143	78.12
328.372	79.12
328.6	93.12
328.829	91.12
329.058	80.12
329.287	83.12
329.515	97.12
329.744	103.12
329.972	79.12
330.201	105.12
330.43	92.12
330.658	92.12
330.887	80.12
331.115	79.12
331.344	92.12
331.572	92.12
331.801	91.12
332.03	88.12
332.258	93.12
332.486	92.12
332.715	83.12
332.943	81.12
333.172	70.12
333.4	79.12
333.629	83.12
333.857	96.12
334.085	93.12
334.314	97.12
334.542	71.12
334.771	96.12
334.999	82.12
335.227	76.12
335.455	89.12
335.684	100.12
335.912	83.12
336.14	98.12
336.369	85.12
336.597	73.12
336.825	84.12
337.053	76.12
337.281	97.12
337.51	78.12
337.738	88.12
337.966	93.12
338.194	79.12
338.422	87.12
338.65	96.12
338.878	75.12
339.106	80.12
339.334	89.12
339.562	87.12
339.79	68.12
340.018	98.12
340.246	92.12
340.474	85.12
340.702	85.12
340.93	85.12
341.158	78.12
341.386	76.12
341.614	85.12
341.842	86.12
342.07	78.12
342.298	72.12
342.526	81.12
342.754	69.12
342.981	95.12
343.209	93.12
343.437	86.12
343.665	86.12
343.893	75.12
344.12	82.12
344.348	91.12
344.576	98.12
344.804	80.12
345.031	88.12
345.259	77.12
345.487	79.12
345.714	75.12
345.942	99.12
346.17	85.12
346.397	80.12
346.625	94.12
346.853	79.12
347.08	99.12
347.308	99.12
347.535	83.12
347.763	82.12
347.99	80.12
348.218	81.12
348.445	88.12
348.673	86.12
348.9	100.12
349.128	83.12
349.355	89.12
349.583	91.12
349.81	85.12
350.037	81.12
350.265	73.12
350.492	91.12
350.72	91.12
350.947	79.12
351.174	84.12
351.402	79.12
351.629	81.12
351.856	92.12
352.083	77.12
352.311	91.12
352.538	87.12
352.765	81.12
352.992	91.12
353.22	82.12
353.447	86.12
353.674	90.12
353.901	93.12
354.128	84.12
354.355	92.12
354.583	87.12
354.81	88.12
355.037	75.12
355.264	84.12
355.491	73.12
355.718	81.12
355.945	93.12
356.172	93.12
356.399	89.12
356.626	63.12
356.853	79.12
357.08	90.12
357.307	91.12
357.534	86.12
357.761	95.12
357.988	91.12
358.215	80.12
358.441	84.12
358.668	87.12
358.895	91.12
359.122	91.12
359.349	73.12
359.576	82.12
359.802	96.12
360.029	81.12
360.256	77.12
360.483	88.12
360.709	79.12
360.936	96.12
361.163	69.12
361.39	91.12
361.616	73.12
361.843	74.12
362.07	85.12
362.296	77.12
362.523	85.12
362.749	89.12
362.976	86.12
363.203	85.12
363.429	91.12
363.656	84.12
363.882	88.12
364.109	82.12
364.335	81.12
364.562	86.12
364.788	75.12
365.015	87.12
365.241	78.12
365.468	89.12
365.694	103.12
365.92	80.12
366.147	81.12
366.373	94.12
366.599	85.12
366.826	84.12
367.052	80.12
367.278	80.12
367.505	79.12
367.731	95.12
367.957	101.12
368.184	84.12
368.41	100.12
368.636	108.12
368.862	73.12
369.089	89.12
369.315	96.12
369.541	85.12
369.767	89.12
369.993	95.12
370.219	75.12
370.445	81.12
370.672	78.12
370.898	93.12
371.124	102.12
371.35	104.12
371.576	90.12
371.802	91.12
372.028	92.12
372.254	95.12
372.48	83.12
372.706	78.12
372.932	106.12
373.158	90.12
373.384	89.12
373.61	89.12
373.835	97.12
374.061	73.12
374.287	85.12
374.513	93.12
374.739	104.12
374.965	102.12
375.191	83.12
375.416	77.12
375.642	87.12
375.868	94.12
376.094	75.12
376.319	93.12
376.545	83.12
376.771	91.12
376.997	85.12
377.222	90.12
377.448	103.12
377.674	94.12
377.899	90.12
378.125	99.12
378.35	84.12
378.576	97.12
378.802	86.12
379.027	87.12
379.253	104.12
379.478	93.12
379.704	118.12
379.929	90.12
380.155	87.12
380.38	86.12
380.606	105.12
380.831	111.12
381.057	100.12
381.282	97.12
381.507	92.12
381.733	101.12
381.958	90.12
382.184	93.12
382.409	89.12
382.634	93.12
382.86	104.12
383.085	115.12
383.31	111.12
383.535	98.12
383.761	101.12
383.986	94.12
384.211	99.12
384.436	89.12
384.662	105.12
384.887	95.12
385.112	112.12
385.337	100.12
385.562	103.12
385.787	96.12
386.013	100.12
386.238	97.12
386.463	95.12
386.688	98.12
386.913	101.12
387.138	92.12
387.363	105.12
387.588	100.12
387.813	102.12
388.038	119.12
388.263	102.12
388.488	105.12
388.713	96.12
388.938	95.12
389.163	94.12
389.387	93.12
389.612	123.12
389.837	116.12
390.062	111.12
390.287	106.12
390.512	102.12
390.736	109.12
390.961	103.12
391.186	92.12
391.411	105.12
391.636	117.12
391.86	104.12
392.085	101.12
392.31	116.12
392.534	85.12
392.759	117.12
392.984	103.12
393.208	103.12
393.433	101.12
393.658	99.12
393.882	102.12
394.107	97.12
394.331	103.12
394.556	97.12
394.78	113.12
395.005	101.12
395.229	109.12
395.454	99.12
395.678	95.12
395.903	113.12
396.127	96.12
396.352	99.12
396.576	98.12
396.801	105.12
397.025	99.12
397.249	114.12
397.474	101.12
397.698	109.12
397.922	112.12
398.147	113.12
398.371	102.12
398.595	120.12
398.82	84.12
399.044	113.12
399.268	122.12
399.492	112.12
399.717	106.12
399.941	117.12
400.165	125.12
400.389	124.12
400.613	112.12
400.837	114.12
401.062	118.12
401.286	123.12
401.51	124.12
401.734	118.12
401.958	120.12
402.182	119.12
402.406	103.12
402.63	118.12
402.854	106.12
403.078	119.12
403.302	108.12
403.526	112.12
403.75	111.12
403.974	133.12
404.198	124.12
404.422	112.12
404.645	111.12
404.869	116.12
405.093	111.12
405.317	107.12
405.541	120.12
405.765	127.12
405.988	117.12
406.212	121.12
406.436	116.12
406.66	121.12
406.883	125.12
407.107	117.12
407.331	128.12
407.555	115.12
407.778	119.12
408.002	113.12
408.226	113.12
408.449	104.12
408.673	123.12
408.896	135.12
409.12	122.12
409.344	112.12
409.567	113.12
409.791	124.12
410.014	124.12
410.238	108.12
410.461	127.12
410.685	121.12
410.908	112.12
411.132	111.12
411.355	129.12
411.578	123.12
411.802	117.12
412.025	133.12
412.249	129.12
412.472	131.12
412.695	131.12
412.919	98.12
413.142	99.12
413.365	124.12
413.589	115.12
413.812	109.12
414.035	135.12
414.258	132.12
414.482	119.12
414.705	129.12
414.928	122.12
415.151	119.12
415.374	116.12
415.597	113.12
415.821	122.12
416.044	131.12
416.267	129.12
416.49	125.12
416.713	129.12
416.936	133.12
417.159	125.12
417.382	119.12
417.605	122.12
417.828	114.12
418.051	123.12
418.274	135.12
418.497	146.12
418.72	126.12
418.943	135.12
419.166	132.12
419.389	124.12
419.611	125.12
419.834	140.12
420.057	129.12
420.28	134.12
420.503	131.12
420.726	141.12
420.948	135.12
421.171	119.12
421.394	128.12
421.617	148.12
421.839	151.12
422.062	139.12
422.285	146.12
422.507	137.12
422.73	117.12
422.953	138.12
423.175	133.12
423.398	131.12
423.621	142.12
423.843	127.12
424.066	146.12
424.288	147.12
424.511	143.12
424.733	141.12
424.956	137.12
425.178	133.12
425.401	127.12
425.623	129.12
425.846	137.12
426.068	133.12
426.291	124.12
426.513	132.12
426.735	136.12
426.958	145.12
427.18	121.12
427.402	136.12
427.625	120.12
427.847	125.12
428.069	125.12
428.292	133.12
428.514	136.12
428.736	124.12
428.958	135.12
429.181	137.12
429.403	129.12
429.625	141.12
429.847	132.12
430.069	128.12
430.292	123.12
430.514	131.12
430.736	127.12
430.958	128.12
431.18	121.12
431.402	130.12
431.624	115.12
431.846	107.12
432.068	95.12
432.29	88.12
432.512	108.12
432.734	123.12
432.956	131.12
433.178	126.12
433.4	141.12
433.622	140.12
433.844	137.12
434.066	127.12
434.287	98.12
434.509	86.12
434.731	86.12
434.953	106.12
435.175	118.12
435.397	133.12
435.618	115.12
435.84	100.12
436.062	117.12
436.284	131.12
436.505	121.12
436.727	114.12
436.949	123.12
437.17	124.12
437.392	126.12
437.614	131.12
437.835	116.12
438.057	117.12
438.278	113.12
438.5	117.12
438.721	141.12
438.943	138.12
439.165	137.12
439.386	124.12
439.608	133.12
439.829	137.12
440.05	145.12
440.272	144.12
440.493	134.12
440.715	145.12
440.936	151.12
441.158	138.12
441.379	145.12
441.6	141.12
441.822	132.12
442.043	134.12
442.264	137.12
442.486	137.12
442.707	127.12
442.928	146.12
443.149	144.12
443.371	129.12
443.592	149.12
443.813	147.12
444.034	137.12
444.255	147.12
444.476	129.12
444.698	144.12
444.919	136.12
445.14	205.12
445.361	188.12
445.582	149.12
445.803	159.12
446.024	144.12
446.245	149.12
446.466	143.12
446.687	155.12
446.908	147.12
447.129	161.12
447.35	154.12
447.571	145.12
447.792	148.12
448.013	124.12
448.234	147.12
448.455	151.12
448.675	145.12
448.896	140.12
449.117	137.12
449.338	139.12
449.559	137.12
449.779	146.12
450	141.12
450.221	138.12
450.442	136.12
450.662	131.12
450.883	127.12
451.104	133.12
451.324	127.12
451.545	135.12
451.766	131.12
451.986	135.12
452.207	136.12
452.428	136.12
452.648	140.12
452.869	121.12
453.089	114.12
453.31	117.12
453.53	121.12
453.751	106.12
453.971	105.12
454.192	103.12
454.412	85.12
454.633	120.12
454.853	106.12
455.073	121.12
455.294	126.12
455.514	141.12
455.734	124.12
455.955	130.12
456.175	122.12
456.395	104.12
456.616	104.12
456.836	98.12
457.056	111.12
457.276	103.12
457.497	119.12
457.717	108.12
457.937	103.12
458.157	109.12
458.377	95.12
458.598	99.12
458.818	99.12
459.038	97.12
459.258	92.12
459.478	85.12
459.698	98.12
459.918	106.12
460.138	90.12
460.358	111.12
460.578	120.12
460.798	121.12
461.018	104.12
461.238	118.12
461.458	102.12
461.678	117.12
461.898	111.12
462.118	117.12
462.338	120.12
462.558	106.12
462.777	105.12
462.997	127.12
463.217	119.12
463.437	98.12
463.657	118.12
463.876	103.12
464.096	116.12
464.316	104.12
464.536	118.12
464.755	121.12
464.975	115.12
465.195	112.12
465.414	117.12
465.634	108.12
465.854	117.12
466.073	131.12
466.293	133.12
466.512	124.12
466.732	123.12
466.951	116.12
467.171	142.12
467.391	120.12
467.61	149.12
467.829	131.12
468.049	140.12
468.268	127.12
468.488	122.12
468.707	141.12
468.927	150.12
469.146	132.12
469.365	145.12
469.585	137.12
469.804	152.12
470.023	147.12
470.243	127.12
470.462	145.12
470.681	152.12
470.901	134.12
471.12	142.12
471.339	150.12
471.558	121.12
471.777	138.12
471.997	125.12
472.216	128.12
472.435	125.12
472.654	105.12
472.873	123.12
473.092	123.12
473.311	136.12
473.53	113.12
473.749	137.12
473.968	123.12
474.187	122.12
474.406	110.12
474.625	122.12
474.844	126.12
475.063	140.12
475.282	127.12
475.501	129.12
475.72	116.12
475.939	121.12
476.158	127.12
476.377	125.12
476.596	135.12
476.814	114.12
477.033	124.12
477.252	96.12
477.471	115.12
477.69	143.12
477.908	135.12
478.127	136.12
478.346	128.12
478.564	139.12
478.783	136.12
479.002	135.12
479.22	133.12
479.439	130.12
479.658	123.12
479.876	127.12
480.095	98.12
480.313	117.12
480.532	112.12
480.751	120.12
480.969	92.12
481.188	88.12
481.406	106.12
481.624	98.12
481.843	93.12
482.061	95.12
482.28	123.12
482.498	114.12
482.717	107.12
482.935	115.12
483.153	139.12
483.372	158.12
483.59	165.12
483.808	148.12
484.027	133.12
484.245	114.12
484.463	138.12
484.681	140.12
484.9	156.12
485.118	142.12
485.336	123.12
485.554	126.12
485.772	111.12
485.99	108.12
486.209	105.12
486.427	102.12
486.645	112.12
486.863	142.12
487.081	138.12
487.299	131.12
487.517	139.12
487.735	159.12
487.953	183.12
488.171	171.12
488.389	180.12
488.607	164.12
488.825	142.12
489.043	127.12
489.261	139.12
489.479	135.12
489.696	154.12
489.914	139.12
490.132	146.12
490.35	142.12
490.568	162.12
490.786	164.12
491.003	173.12
491.221	192.12
491.439	171.12
491.657	178.12
491.874	213.12
492.092	213.12
492.31	225.12
492.527	226.12
492.745	194.12
492.963	190.12
493.18	182.12
493.398	171.12
493.615	179.12
493.833	182.12
494.05	177.12
494.268	176.12
494.485	188.12
494.703	182.12
494.92	173.12
495.138	176.12
495.355	167.12
495.573	167.12
495.79	178.12
496.008	163.12
496.225	178.12
496.442	158.12
496.66	169.12
496.877	170.12
497.094	180.12
497.312	147.12
497.529	162.12
497.746	160.12
497.963	138.12
498.181	127.12
498.398	126.12
498.615	121.12
498.832	114.12
499.049	107.12
499.267	118.12
499.484	112.12
499.701	137.12
499.918	140.12
500.135	136.12
500.352	142.12
500.569	143.12
500.786	158.12
501.003	130.12
501.22	155.12
501.437	131.12
501.654	124.12
501.871	141.12
502.088	120.12
502.305	124.12
502.522	123.12
502.739	129.12
502.956	128.12
503.172	113.12
503.389	104.12
503.606	127.12
503.823	123.12
504.04	130.12
504.256	123.12
504.473	119.12
504.69	115.12
504.907	116.12
505.123	124.12
505.34	112.12
505.557	130.12
505.773	130.12
505.99	116.12
506.207	123.12
506.423	123.12
506.64	122.12
506.856	117.12
507.073	108.12
507.289	123.12
507.506	120.12
507.722	112.12
507.939	117.12
508.155	120.12
508.372	113.12
508.588	114.12
508.805	105.12
509.021	111.12
509.238	103.12
509.454	111.12
509.67	103.12
509.887	96.12
510.103	122.12
510.319	99.12
510.536	104.12
510.752	99.12
510.968	73.12
511.184	80.12
511.401	82.12
