Data from Location2.07152019.Energy5.Lamp.07192019.3%Agarose_HRD10591_14-56-25-359.txt Node
Date: Fri Jul 19 14:56:25 EDT 2019
User: cochatt
Spectrometer: HR+D1059
Trigger mode: 1
Integration Time (sec): 1.000000E-1
Scans to average: 1
Electric dark correction enabled: true
Nonlinearity correction enabled: false
Boxcar width: 0
XAxis mode: Wavelengths
Number of Pixels in Spectrum: 2048
>>>>>Begin Spectral Data<<<<<
223.165	-18.88
223.4	-18.88
223.635	-18.88
223.869	-15.88
224.104	-13.88
224.338	-13.88
224.573	-22.88
224.808	-17.88
225.042	-8.88
225.277	-8.88
225.511	-2.88
225.746	6.12
225.98	20.12
226.215	3.12
226.449	23.12
226.683	18.12
226.918	19.12
227.152	34.12
227.387	34.12
227.621	41.12
227.856	34.12
228.09	41.12
228.324	44.12
228.559	58.12
228.793	64.12
229.027	46.12
229.262	70.12
229.496	69.12
229.73	76.12
229.964	70.12
230.199	70.12
230.433	77.12
230.667	76.12
230.901	90.12
231.136	93.12
231.37	83.12
231.604	76.12
231.838	74.12
232.072	93.12
232.306	75.12
232.541	72.12
232.775	81.12
233.009	82.12
233.243	89.12
233.477	80.12
233.711	85.12
233.945	101.12
234.179	84.12
234.413	74.12
234.647	84.12
234.881	83.12
235.115	81.12
235.349	92.12
235.583	81.12
235.817	77.12
236.051	81.12
236.285	74.12
236.519	85.12
236.753	78.12
236.987	89.12
237.221	80.12
237.455	81.12
237.689	89.12
237.922	68.12
238.156	91.12
238.39	68.12
238.624	65.12
238.858	77.12
239.091	74.12
239.325	56.12
239.559	74.12
239.793	80.12
240.027	70.12
240.26	78.12
240.494	99.12
240.728	84.12
240.961	66.12
241.195	78.12
241.429	84.12
241.662	70.12
241.896	82.12
242.13	90.12
242.363	87.12
242.597	70.12
242.83	74.12
243.064	83.12
243.298	67.12
243.531	69.12
243.765	77.12
243.998	86.12
244.232	86.12
244.465	66.12
244.699	57.12
244.932	82.12
245.166	84.12
245.399	75.12
245.633	85.12
245.866	79.12
246.099	77.12
246.333	76.12
246.566	75.12
246.8	87.12
247.033	72.12
247.266	81.12
247.5	94.12
247.733	78.12
247.966	71.12
248.2	82.12
248.433	75.12
248.666	87.12
248.899	68.12
249.133	93.12
249.366	95.12
249.599	82.12
249.832	78.12
250.066	85.12
250.299	88.12
250.532	80.12
250.765	78.12
250.998	91.12
251.231	81.12
251.465	73.12
251.698	67.12
251.931	84.12
252.164	85.12
252.397	72.12
252.63	86.12
252.863	90.12
253.096	76.12
253.329	71.12
253.562	88.12
253.795	99.12
254.028	89.12
254.261	71.12
254.494	83.12
254.727	72.12
254.96	94.12
255.193	76.12
255.426	68.12
255.659	78.12
255.892	69.12
256.124	75.12
256.357	78.12
256.59	69.12
256.823	69.12
257.056	83.12
257.289	76.12
257.521	72.12
257.754	80.12
257.987	84.12
258.22	90.12
258.452	75.12
258.685	77.12
258.918	89.12
259.151	85.12
259.383	76.12
259.616	72.12
259.849	83.12
260.081	77.12
260.314	77.12
260.547	76.12
260.779	83.12
261.012	86.12
261.244	94.12
261.477	84.12
261.71	77.12
261.942	76.12
262.175	82.12
262.407	95.12
262.64	98.12
262.872	79.12
263.105	82.12
263.337	79.12
263.57	79.12
263.802	86.12
264.035	84.12
264.267	82.12
264.499	87.12
264.732	94.12
264.964	90.12
265.197	79.12
265.429	80.12
265.661	86.12
265.894	74.12
266.126	75.12
266.358	88.12
266.591	80.12
266.823	71.12
267.055	77.12
267.287	84.12
267.52	85.12
267.752	82.12
267.984	67.12
268.216	75.12
268.448	79.12
268.681	80.12
268.913	92.12
269.145	92.12
269.377	77.12
269.609	71.12
269.841	85.12
270.073	88.12
270.306	84.12
270.538	97.12
270.77	80.12
271.002	78.12
271.234	68.12
271.466	80.12
271.698	91.12
271.93	77.12
272.162	89.12
272.394	86.12
272.626	79.12
272.858	93.12
273.09	85.12
273.322	84.12
273.553	82.12
273.785	92.12
274.017	90.12
274.249	94.12
274.481	101.12
274.713	86.12
274.945	96.12
275.176	82.12
275.408	98.12
275.64	86.12
275.872	78.12
276.104	104.12
276.335	77.12
276.567	96.12
276.799	93.12
277.031	80.12
277.262	100.12
277.494	88.12
277.726	87.12
277.957	83.12
278.189	86.12
278.421	85.12
278.652	74.12
278.884	90.12
279.115	76.12
279.347	81.12
279.579	100.12
279.81	84.12
280.042	75.12
280.273	93.12
280.505	89.12
280.736	89.12
280.968	74.12
281.199	87.12
281.431	92.12
281.662	74.12
281.894	84.12
282.125	90.12
282.356	74.12
282.588	78.12
282.819	87.12
283.051	77.12
283.282	84.12
283.513	94.12
283.745	88.12
283.976	85.12
284.207	93.12
284.439	93.12
284.67	83.12
284.901	80.12
285.132	88.12
285.364	85.12
285.595	94.12
285.826	93.12
286.057	79.12
286.288	87.12
286.52	90.12
286.751	95.12
286.982	84.12
287.213	87.12
287.444	84.12
287.675	87.12
287.906	96.12
288.138	82.12
288.369	88.12
288.6	95.12
288.831	87.12
289.062	78.12
289.293	84.12
289.524	86.12
289.755	87.12
289.986	95.12
290.217	80.12
290.448	85.12
290.679	92.12
290.91	83.12
291.141	77.12
291.371	91.12
291.602	81.12
291.833	100.12
292.064	93.12
292.295	70.12
292.526	99.12
292.757	82.12
292.987	80.12
293.218	79.12
293.449	89.12
293.68	77.12
293.91	80.12
294.141	90.12
294.372	99.12
294.603	83.12
294.833	85.12
295.064	83.12
295.295	88.12
295.525	91.12
295.756	84.12
295.987	73.12
296.217	86.12
296.448	91.12
296.679	84.12
296.909	96.12
297.14	83.12
297.37	84.12
297.601	83.12
297.831	90.12
298.062	82.12
298.292	86.12
298.523	83.12
298.753	78.12
298.984	80.12
299.214	78.12
299.445	98.12
299.675	85.12
299.905	84.12
300.136	90.12
300.366	78.12
300.597	85.12
300.827	80.12
301.057	86.12
301.288	86.12
301.518	92.12
301.748	92.12
301.979	101.12
302.209	84.12
302.439	88.12
302.669	81.12
302.9	87.12
303.13	90.12
303.36	85.12
303.59	84.12
303.82	82.12
304.051	96.12
304.281	99.12
304.511	88.12
304.741	94.12
304.971	82.12
305.201	88.12
305.431	84.12
305.661	83.12
305.891	73.12
306.121	86.12
306.352	81.12
306.582	75.12
306.812	73.12
307.042	88.12
307.272	92.12
307.502	79.12
307.731	100.12
307.961	106.12
308.191	78.12
308.421	96.12
308.651	89.12
308.881	79.12
309.111	84.12
309.341	88.12
309.571	76.12
309.8	100.12
310.03	83.12
310.26	86.12
310.49	93.12
310.72	85.12
310.949	80.12
311.179	92.12
311.409	90.12
311.639	87.12
311.868	83.12
312.098	94.12
312.328	72.12
312.557	84.12
312.787	85.12
313.017	89.12
313.246	84.12
313.476	75.12
313.706	85.12
313.935	91.12
314.165	77.12
314.394	87.12
314.624	96.12
314.853	82.12
315.083	91.12
315.312	90.12
315.542	77.12
315.771	96.12
316.001	97.12
316.23	77.12
316.46	99.12
316.689	82.12
316.919	83.12
317.148	86.12
317.377	89.12
317.607	95.12
317.836	95.12
318.065	90.12
318.295	87.12
318.524	76.12
318.753	70.12
318.983	87.12
319.212	81.12
319.441	82.12
319.67	94.12
319.9	90.12
320.129	86.12
320.358	84.12
320.587	85.12
320.816	94.12
321.046	96.12
321.275	87.12
321.504	93.12
321.733	96.12
321.962	79.12
322.191	88.12
322.42	84.12
322.649	91.12
322.878	82.12
323.108	83.12
323.337	88.12
323.566	86.12
323.795	97.12
324.024	93.12
324.253	82.12
324.482	86.12
324.71	89.12
324.939	86.12
325.168	82.12
325.397	84.12
325.626	83.12
325.855	88.12
326.084	79.12
326.313	84.12
326.542	98.12
326.77	86.12
326.999	76.12
327.228	75.12
327.457	87.12
327.686	86.12
327.914	95.12
328.143	79.12
328.372	92.12
328.6	79.12
328.829	79.12
329.058	93.12
329.287	87.12
329.515	93.12
329.744	107.12
329.972	96.12
330.201	95.12
330.43	87.12
330.658	94.12
330.887	95.12
331.115	84.12
331.344	77.12
331.572	79.12
331.801	87.12
332.03	64.12
332.258	85.12
332.486	88.12
332.715	73.12
332.943	98.12
333.172	87.12
333.4	86.12
333.629	91.12
333.857	92.12
334.085	70.12
334.314	89.12
334.542	86.12
334.771	79.12
334.999	85.12
335.227	79.12
335.455	76.12
335.684	94.12
335.912	84.12
336.14	87.12
336.369	88.12
336.597	95.12
336.825	94.12
337.053	86.12
337.281	78.12
337.51	92.12
337.738	76.12
337.966	75.12
338.194	92.12
338.422	93.12
338.65	96.12
338.878	77.12
339.106	78.12
339.334	96.12
339.562	82.12
339.79	84.12
340.018	82.12
340.246	79.12
340.474	86.12
340.702	91.12
340.93	106.12
341.158	97.12
341.386	83.12
341.614	78.12
341.842	96.12
342.07	85.12
342.298	74.12
342.526	78.12
342.754	85.12
342.981	88.12
343.209	95.12
343.437	93.12
343.665	83.12
343.893	84.12
344.12	104.12
344.348	101.12
344.576	85.12
344.804	69.12
345.031	78.12
345.259	88.12
345.487	91.12
345.714	78.12
345.942	84.12
346.17	88.12
346.397	80.12
346.625	90.12
346.853	86.12
347.08	88.12
347.308	91.12
347.535	86.12
347.763	77.12
347.99	72.12
348.218	87.12
348.445	74.12
348.673	80.12
348.9	93.12
349.128	82.12
349.355	91.12
349.583	77.12
349.81	88.12
350.037	86.12
350.265	91.12
350.492	88.12
350.72	93.12
350.947	87.12
351.174	93.12
351.402	83.12
351.629	84.12
351.856	87.12
352.083	75.12
352.311	88.12
352.538	76.12
352.765	81.12
352.992	96.12
353.22	95.12
353.447	88.12
353.674	75.12
353.901	87.12
354.128	73.12
354.355	76.12
354.583	80.12
354.81	85.12
355.037	88.12
355.264	95.12
355.491	106.12
355.718	91.12
355.945	98.12
356.172	81.12
356.399	93.12
356.626	81.12
356.853	86.12
357.08	92.12
357.307	88.12
357.534	89.12
357.761	88.12
357.988	98.12
358.215	91.12
358.441	80.12
358.668	73.12
358.895	87.12
359.122	96.12
359.349	85.12
359.576	80.12
359.802	91.12
360.029	94.12
360.256	102.12
360.483	110.12
360.709	99.12
360.936	88.12
361.163	85.12
361.39	102.12
361.616	97.12
361.843	93.12
362.07	86.12
362.296	86.12
362.523	83.12
362.749	83.12
362.976	79.12
363.203	97.12
363.429	80.12
363.656	91.12
363.882	93.12
364.109	90.12
364.335	83.12
364.562	74.12
364.788	79.12
365.015	99.12
365.241	99.12
365.468	86.12
365.694	91.12
365.92	91.12
366.147	90.12
366.373	88.12
366.599	86.12
366.826	82.12
367.052	84.12
367.278	88.12
367.505	107.12
367.731	103.12
367.957	83.12
368.184	81.12
368.41	98.12
368.636	94.12
368.862	98.12
369.089	95.12
369.315	92.12
369.541	101.12
369.767	101.12
369.993	84.12
370.219	92.12
370.445	89.12
370.672	98.12
370.898	91.12
371.124	89.12
371.35	99.12
371.576	103.12
371.802	87.12
372.028	84.12
372.254	101.12
372.48	92.12
372.706	105.12
372.932	92.12
373.158	96.12
373.384	101.12
373.61	117.12
373.835	84.12
374.061	92.12
374.287	94.12
374.513	85.12
374.739	97.12
374.965	95.12
375.191	101.12
375.416	101.12
375.642	90.12
375.868	107.12
376.094	95.12
376.319	102.12
376.545	78.12
376.771	87.12
376.997	94.12
377.222	92.12
377.448	99.12
377.674	87.12
377.899	95.12
378.125	100.12
378.35	86.12
378.576	99.12
378.802	104.12
379.027	99.12
379.253	90.12
379.478	97.12
379.704	95.12
379.929	103.12
380.155	118.12
380.38	91.12
380.606	97.12
380.831	111.12
381.057	99.12
381.282	106.12
381.507	93.12
381.733	104.12
381.958	98.12
382.184	99.12
382.409	103.12
382.634	115.12
382.86	90.12
383.085	109.12
383.31	107.12
383.535	100.12
383.761	101.12
383.986	107.12
384.211	97.12
384.436	103.12
384.662	107.12
384.887	96.12
385.112	93.12
385.337	86.12
385.562	85.12
385.787	88.12
386.013	103.12
386.238	101.12
386.463	102.12
386.688	100.12
386.913	110.12
387.138	99.12
387.363	96.12
387.588	109.12
387.813	91.12
388.038	106.12
388.263	89.12
388.488	115.12
388.713	105.12
388.938	108.12
389.163	99.12
389.387	96.12
389.612	84.12
389.837	103.12
390.062	108.12
390.287	107.12
390.512	106.12
390.736	100.12
390.961	103.12
391.186	100.12
391.411	103.12
391.636	107.12
391.86	98.12
392.085	106.12
392.31	103.12
392.534	105.12
392.759	99.12
392.984	133.12
393.208	118.12
393.433	107.12
393.658	103.12
393.882	93.12
394.107	108.12
394.331	105.12
394.556	96.12
394.78	105.12
395.005	119.12
395.229	122.12
395.454	110.12
395.678	107.12
395.903	96.12
396.127	106.12
396.352	102.12
396.576	91.12
396.801	111.12
397.025	110.12
397.249	113.12
397.474	97.12
397.698	109.12
397.922	103.12
398.147	87.12
398.371	114.12
398.595	100.12
398.82	115.12
399.044	120.12
399.268	102.12
399.492	114.12
399.717	118.12
399.941	114.12
400.165	108.12
400.389	106.12
400.613	123.12
400.837	106.12
401.062	122.12
401.286	110.12
401.51	114.12
401.734	122.12
401.958	118.12
402.182	115.12
402.406	108.12
402.63	106.12
402.854	103.12
403.078	117.12
403.302	112.12
403.526	114.12
403.75	116.12
403.974	118.12
404.198	122.12
404.422	116.12
404.645	131.12
404.869	109.12
405.093	120.12
405.317	122.12
405.541	115.12
405.765	121.12
405.988	110.12
406.212	128.12
406.436	126.12
406.66	114.12
406.883	129.12
407.107	141.12
407.331	114.12
407.555	130.12
407.778	119.12
408.002	130.12
408.226	104.12
408.449	130.12
408.673	106.12
408.896	106.12
409.12	109.12
409.344	122.12
409.567	126.12
409.791	117.12
410.014	106.12
410.238	122.12
410.461	124.12
410.685	132.12
410.908	123.12
411.132	120.12
411.355	119.12
411.578	111.12
411.802	111.12
412.025	108.12
412.249	117.12
412.472	130.12
412.695	128.12
412.919	133.12
413.142	128.12
413.365	119.12
413.589	102.12
413.812	111.12
414.035	128.12
414.258	114.12
414.482	122.12
414.705	126.12
414.928	130.12
415.151	121.12
415.374	142.12
415.597	140.12
415.821	144.12
416.044	130.12
416.267	136.12
416.49	131.12
416.713	131.12
416.936	140.12
417.159	134.12
417.382	129.12
417.605	122.12
417.828	127.12
418.051	136.12
418.274	127.12
418.497	134.12
418.72	142.12
418.943	139.12
419.166	139.12
419.389	142.12
419.611	125.12
419.834	134.12
420.057	143.12
420.28	126.12
420.503	124.12
420.726	137.12
420.948	136.12
421.171	132.12
421.394	128.12
421.617	138.12
421.839	134.12
422.062	125.12
422.285	136.12
422.507	140.12
422.73	122.12
422.953	120.12
423.175	123.12
423.398	132.12
423.621	124.12
423.843	144.12
424.066	128.12
424.288	127.12
424.511	133.12
424.733	144.12
424.956	133.12
425.178	145.12
425.401	130.12
425.623	134.12
425.846	136.12
426.068	134.12
426.291	147.12
426.513	130.12
426.735	132.12
426.958	138.12
427.18	142.12
427.402	129.12
427.625	133.12
427.847	138.12
428.069	132.12
428.292	116.12
428.514	132.12
428.736	118.12
428.958	130.12
429.181	124.12
429.403	131.12
429.625	141.12
429.847	136.12
430.069	140.12
430.292	133.12
430.514	128.12
430.736	125.12
430.958	126.12
431.18	124.12
431.402	127.12
431.624	123.12
431.846	112.12
432.068	101.12
432.29	101.12
432.512	111.12
432.734	126.12
432.956	127.12
433.178	130.12
433.4	130.12
433.622	139.12
433.844	140.12
434.066	130.12
434.287	95.12
434.509	94.12
434.731	112.12
434.953	112.12
435.175	107.12
435.397	134.12
435.618	122.12
435.84	119.12
436.062	121.12
436.284	128.12
436.505	146.12
436.727	132.12
436.949	107.12
437.17	125.12
437.392	137.12
437.614	123.12
437.835	111.12
438.057	112.12
438.278	105.12
438.5	124.12
438.721	134.12
438.943	154.12
439.165	140.12
439.386	142.12
439.608	146.12
439.829	139.12
440.05	148.12
440.272	137.12
440.493	140.12
440.715	139.12
440.936	139.12
441.158	139.12
441.379	160.12
441.6	152.12
441.822	136.12
442.043	145.12
442.264	138.12
442.486	144.12
442.707	140.12
442.928	144.12
443.149	142.12
443.371	136.12
443.592	130.12
443.813	127.12
444.034	150.12
444.255	143.12
444.476	140.12
444.698	144.12
444.919	135.12
445.14	273.12
445.361	211.12
445.582	150.12
445.803	134.12
446.024	150.12
446.245	165.12
446.466	160.12
446.687	160.12
446.908	161.12
447.129	149.12
447.35	151.12
447.571	143.12
447.792	148.12
448.013	136.12
448.234	144.12
448.455	139.12
448.675	138.12
448.896	134.12
449.117	139.12
449.338	151.12
449.559	156.12
449.779	129.12
450	140.12
450.221	143.12
450.442	147.12
450.662	124.12
450.883	135.12
451.104	124.12
451.324	125.12
451.545	136.12
451.766	122.12
451.986	128.12
452.207	126.12
452.428	120.12
452.648	118.12
452.869	132.12
453.089	122.12
453.31	121.12
453.53	113.12
453.751	115.12
453.971	107.12
454.192	117.12
454.412	118.12
454.633	111.12
454.853	121.12
455.073	124.12
455.294	120.12
455.514	123.12
455.734	125.12
455.955	118.12
456.175	106.12
456.395	99.12
456.616	107.12
456.836	98.12
457.056	112.12
457.276	115.12
457.497	131.12
457.717	110.12
457.937	102.12
458.157	106.12
458.377	100.12
458.598	95.12
458.818	91.12
459.038	104.12
459.258	92.12
459.478	92.12
459.698	91.12
459.918	99.12
460.138	110.12
460.358	109.12
460.578	121.12
460.798	122.12
461.018	119.12
461.238	122.12
461.458	119.12
461.678	98.12
461.898	114.12
462.118	114.12
462.338	117.12
462.558	124.12
462.777	105.12
462.997	109.12
463.217	101.12
463.437	92.12
463.657	107.12
463.876	107.12
464.096	118.12
464.316	121.12
464.536	105.12
464.755	114.12
464.975	117.12
465.195	119.12
465.414	116.12
465.634	120.12
465.854	121.12
466.073	103.12
466.293	142.12
466.512	124.12
466.732	138.12
466.951	136.12
467.171	130.12
467.391	136.12
467.61	144.12
467.829	144.12
468.049	134.12
468.268	128.12
468.488	138.12
468.707	141.12
468.927	136.12
469.146	125.12
469.365	139.12
469.585	134.12
469.804	154.12
470.023	142.12
470.243	134.12
470.462	158.12
470.681	155.12
470.901	143.12
471.12	136.12
471.339	138.12
471.558	135.12
471.777	141.12
471.997	139.12
472.216	122.12
472.435	126.12
472.654	117.12
472.873	100.12
473.092	122.12
473.311	130.12
473.53	127.12
473.749	123.12
473.968	123.12
474.187	112.12
474.406	129.12
474.625	132.12
474.844	128.12
475.063	128.12
475.282	134.12
475.501	127.12
475.72	126.12
475.939	124.12
476.158	123.12
476.377	145.12
476.596	123.12
476.814	107.12
477.033	103.12
477.252	108.12
477.471	124.12
477.69	126.12
477.908	135.12
478.127	131.12
478.346	140.12
478.564	131.12
478.783	127.12
479.002	160.12
479.22	145.12
479.439	135.12
479.658	136.12
479.876	108.12
480.095	104.12
480.313	121.12
480.532	122.12
480.751	125.12
480.969	100.12
481.188	100.12
481.406	76.12
481.624	91.12
481.843	90.12
482.061	80.12
482.28	110.12
482.498	111.12
482.717	111.12
482.935	126.12
483.153	148.12
483.372	143.12
483.59	151.12
483.808	142.12
484.027	139.12
484.245	120.12
484.463	147.12
484.681	152.12
484.9	145.12
485.118	120.12
485.336	123.12
485.554	115.12
485.772	110.12
485.99	107.12
486.209	104.12
486.427	124.12
486.645	122.12
486.863	137.12
487.081	143.12
487.299	139.12
487.517	137.12
487.735	163.12
487.953	190.12
488.171	175.12
488.389	179.12
488.607	153.12
488.825	149.12
489.043	132.12
489.261	148.12
489.479	137.12
489.696	137.12
489.914	149.12
490.132	140.12
490.35	148.12
490.568	167.12
490.786	178.12
491.003	174.12
491.221	187.12
491.439	182.12
491.657	199.12
491.874	203.12
492.092	219.12
492.31	236.12
492.527	215.12
492.745	209.12
492.963	182.12
493.18	176.12
493.398	178.12
493.615	182.12
493.833	178.12
494.05	172.12
494.268	179.12
494.485	189.12
494.703	160.12
494.92	165.12
495.138	169.12
495.355	161.12
495.573	169.12
495.79	181.12
496.008	184.12
496.225	174.12
496.442	186.12
496.66	166.12
496.877	156.12
497.094	179.12
497.312	168.12
497.529	157.12
497.746	159.12
497.963	133.12
498.181	119.12
498.398	124.12
498.615	127.12
498.832	122.12
499.049	111.12
499.267	115.12
499.484	135.12
499.701	142.12
499.918	135.12
500.135	134.12
500.352	144.12
500.569	147.12
500.786	142.12
501.003	141.12
501.22	136.12
501.437	149.12
501.654	130.12
501.871	139.12
502.088	121.12
502.305	129.12
502.522	136.12
502.739	143.12
502.956	128.12
503.172	132.12
503.389	129.12
503.606	119.12
503.823	114.12
504.04	114.12
504.256	119.12
504.473	123.12
504.69	114.12
504.907	126.12
505.123	123.12
505.34	127.12
505.557	135.12
505.773	139.12
505.99	133.12
506.207	133.12
506.423	125.12
506.64	124.12
506.856	126.12
507.073	130.12
507.289	126.12
507.506	118.12
507.722	117.12
507.939	117.12
508.155	123.12
508.372	130.12
508.588	116.12
508.805	109.12
509.021	102.12
509.238	110.12
509.454	103.12
509.67	100.12
509.887	87.12
510.103	111.12
510.319	98.12
510.536	84.12
510.752	72.12
510.968	82.12
511.184	85.12
