Data from Location2.07152019.Energy5.Lamp.07192019.3%Agarose_HRD10591_14-56-03-359.txt Node
Date: Fri Jul 19 14:56:03 EDT 2019
User: cochatt
Spectrometer: HR+D1059
Trigger mode: 1
Integration Time (sec): 1.000000E-1
Scans to average: 1
Electric dark correction enabled: true
Nonlinearity correction enabled: false
Boxcar width: 0
XAxis mode: Wavelengths
Number of Pixels in Spectrum: 2048
>>>>>Begin Spectral Data<<<<<
223.165	-15.06
223.4	-15.06
223.635	-15.06
223.869	-32.06
224.104	-26.06
224.338	-13.06
224.573	-8.06
224.808	-28.06
225.042	-3.06
225.277	0.94
225.511	4.94
225.746	8.94
225.98	12.94
226.215	7.94
226.449	21.94
226.683	21.94
226.918	9.94
227.152	35.94
227.387	26.94
227.621	35.94
227.856	37.94
228.09	40.94
228.324	41.94
228.559	58.94
228.793	71.94
229.027	60.94
229.262	56.94
229.496	55.94
229.73	80.94
229.964	85.94
230.199	74.94
230.433	82.94
230.667	60.94
230.901	61.94
231.136	71.94
231.37	82.94
231.604	83.94
231.838	74.94
232.072	91.94
232.306	72.94
232.541	79.94
232.775	92.94
233.009	84.94
233.243	86.94
233.477	84.94
233.711	93.94
233.945	78.94
234.179	80.94
234.413	71.94
234.647	85.94
234.881	72.94
235.115	77.94
235.349	73.94
235.583	71.94
235.817	78.94
236.051	82.94
236.285	82.94
236.519	89.94
236.753	70.94
236.987	72.94
237.221	65.94
237.455	82.94
237.689	65.94
237.922	78.94
238.156	72.94
238.39	78.94
238.624	81.94
238.858	80.94
239.091	88.94
239.325	69.94
239.559	87.94
239.793	76.94
240.027	63.94
240.26	73.94
240.494	85.94
240.728	88.94
240.961	69.94
241.195	56.94
241.429	88.94
241.662	79.94
241.896	64.94
242.13	75.94
242.363	62.94
242.597	62.94
242.83	65.94
243.064	74.94
243.298	75.94
243.531	80.94
243.765	68.94
243.998	83.94
244.232	72.94
244.465	68.94
244.699	78.94
244.932	85.94
245.166	90.94
245.399	74.94
245.633	84.94
245.866	66.94
246.099	77.94
246.333	70.94
246.566	68.94
246.8	81.94
247.033	78.94
247.266	79.94
247.5	67.94
247.733	79.94
247.966	78.94
248.2	74.94
248.433	83.94
248.666	76.94
248.899	69.94
249.133	84.94
249.366	85.94
249.599	79.94
249.832	79.94
250.066	74.94
250.299	71.94
250.532	75.94
250.765	73.94
250.998	72.94
251.231	70.94
251.465	65.94
251.698	68.94
251.931	82.94
252.164	78.94
252.397	82.94
252.63	69.94
252.863	75.94
253.096	76.94
253.329	80.94
253.562	66.94
253.795	72.94
254.028	75.94
254.261	76.94
254.494	71.94
254.727	82.94
254.96	74.94
255.193	87.94
255.426	73.94
255.659	70.94
255.892	79.94
256.124	84.94
256.357	75.94
256.59	89.94
256.823	83.94
257.056	74.94
257.289	78.94
257.521	91.94
257.754	81.94
257.987	64.94
258.22	78.94
258.452	75.94
258.685	84.94
258.918	93.94
259.151	87.94
259.383	69.94
259.616	81.94
259.849	86.94
260.081	77.94
260.314	87.94
260.547	91.94
260.779	77.94
261.012	74.94
261.244	86.94
261.477	88.94
261.71	77.94
261.942	80.94
262.175	81.94
262.407	78.94
262.64	84.94
262.872	73.94
263.105	63.94
263.337	88.94
263.57	86.94
263.802	81.94
264.035	77.94
264.267	89.94
264.499	86.94
264.732	84.94
264.964	74.94
265.197	80.94
265.429	86.94
265.661	82.94
265.894	81.94
266.126	65.94
266.358	78.94
266.591	86.94
266.823	81.94
267.055	60.94
267.287	93.94
267.52	75.94
267.752	71.94
267.984	81.94
268.216	61.94
268.448	92.94
268.681	84.94
268.913	82.94
269.145	76.94
269.377	92.94
269.609	82.94
269.841	88.94
270.073	87.94
270.306	74.94
270.538	77.94
270.77	72.94
271.002	77.94
271.234	76.94
271.466	64.94
271.698	68.94
271.93	73.94
272.162	68.94
272.394	96.94
272.626	76.94
272.858	73.94
273.09	84.94
273.322	84.94
273.553	75.94
273.785	65.94
274.017	81.94
274.249	85.94
274.481	83.94
274.713	94.94
274.945	83.94
275.176	86.94
275.408	65.94
275.64	71.94
275.872	81.94
276.104	89.94
276.335	70.94
276.567	79.94
276.799	74.94
277.031	94.94
277.262	85.94
277.494	85.94
277.726	74.94
277.957	86.94
278.189	74.94
278.421	79.94
278.652	80.94
278.884	83.94
279.115	88.94
279.347	79.94
279.579	87.94
279.81	76.94
280.042	89.94
280.273	79.94
280.505	82.94
280.736	92.94
280.968	74.94
281.199	94.94
281.431	100.94
281.662	93.94
281.894	90.94
282.125	91.94
282.356	84.94
282.588	90.94
282.819	89.94
283.051	82.94
283.282	73.94
283.513	63.94
283.745	69.94
283.976	71.94
284.207	74.94
284.439	82.94
284.67	87.94
284.901	81.94
285.132	81.94
285.364	88.94
285.595	73.94
285.826	76.94
286.057	82.94
286.288	82.94
286.52	62.94
286.751	81.94
286.982	77.94
287.213	88.94
287.444	90.94
287.675	80.94
287.906	78.94
288.138	85.94
288.369	91.94
288.6	68.94
288.831	81.94
289.062	89.94
289.293	90.94
289.524	87.94
289.755	83.94
289.986	88.94
290.217	88.94
290.448	74.94
290.679	92.94
290.91	89.94
291.141	92.94
291.371	92.94
291.602	61.94
291.833	80.94
292.064	89.94
292.295	87.94
292.526	94.94
292.757	73.94
292.987	81.94
293.218	88.94
293.449	88.94
293.68	88.94
293.91	85.94
294.141	71.94
294.372	87.94
294.603	82.94
294.833	83.94
295.064	75.94
295.295	83.94
295.525	95.94
295.756	81.94
295.987	85.94
296.217	86.94
296.448	88.94
296.679	70.94
296.909	86.94
297.14	101.94
297.37	91.94
297.601	88.94
297.831	84.94
298.062	81.94
298.292	81.94
298.523	89.94
298.753	91.94
298.984	91.94
299.214	65.94
299.445	82.94
299.675	76.94
299.905	88.94
300.136	81.94
300.366	72.94
300.597	84.94
300.827	90.94
301.057	78.94
301.288	70.94
301.518	99.94
301.748	99.94
301.979	92.94
302.209	83.94
302.439	84.94
302.669	83.94
302.9	96.94
303.13	82.94
303.36	81.94
303.59	93.94
303.82	77.94
304.051	67.94
304.281	73.94
304.511	85.94
304.741	87.94
304.971	86.94
305.201	95.94
305.431	87.94
305.661	98.94
305.891	83.94
306.121	72.94
306.352	70.94
306.582	70.94
306.812	60.94
307.042	85.94
307.272	72.94
307.502	93.94
307.731	79.94
307.961	87.94
308.191	95.94
308.421	85.94
308.651	69.94
308.881	97.94
309.111	81.94
309.341	84.94
309.571	77.94
309.8	85.94
310.03	92.94
310.26	83.94
310.49	89.94
310.72	87.94
310.949	71.94
311.179	71.94
311.409	101.94
311.639	83.94
311.868	72.94
312.098	80.94
312.328	76.94
312.557	77.94
312.787	82.94
313.017	97.94
313.246	81.94
313.476	78.94
313.706	86.94
313.935	85.94
314.165	80.94
314.394	93.94
314.624	81.94
314.853	86.94
315.083	71.94
315.312	70.94
315.542	88.94
315.771	79.94
316.001	88.94
316.23	82.94
316.46	74.94
316.689	81.94
316.919	87.94
317.148	73.94
317.377	80.94
317.607	97.94
317.836	80.94
318.065	85.94
318.295	76.94
318.524	80.94
318.753	92.94
318.983	93.94
319.212	92.94
319.441	82.94
319.67	86.94
319.9	94.94
320.129	94.94
320.358	80.94
320.587	95.94
320.816	78.94
321.046	80.94
321.275	81.94
321.504	88.94
321.733	88.94
321.962	69.94
322.191	79.94
322.42	79.94
322.649	74.94
322.878	63.94
323.108	79.94
323.337	85.94
323.566	79.94
323.795	87.94
324.024	95.94
324.253	73.94
324.482	58.94
324.71	88.94
324.939	79.94
325.168	77.94
325.397	85.94
325.626	80.94
325.855	78.94
326.084	92.94
326.313	73.94
326.542	85.94
326.77	69.94
326.999	79.94
327.228	69.94
327.457	80.94
327.686	83.94
327.914	78.94
328.143	84.94
328.372	73.94
328.6	74.94
328.829	87.94
329.058	86.94
329.287	92.94
329.515	92.94
329.744	81.94
329.972	81.94
330.201	70.94
330.43	88.94
330.658	84.94
330.887	74.94
331.115	77.94
331.344	93.94
331.572	80.94
331.801	81.94
332.03	92.94
332.258	77.94
332.486	79.94
332.715	62.94
332.943	78.94
333.172	80.94
333.4	76.94
333.629	75.94
333.857	60.94
334.085	82.94
334.314	89.94
334.542	82.94
334.771	74.94
334.999	83.94
335.227	91.94
335.455	83.94
335.684	81.94
335.912	83.94
336.14	67.94
336.369	83.94
336.597	78.94
336.825	84.94
337.053	88.94
337.281	87.94
337.51	77.94
337.738	86.94
337.966	78.94
338.194	91.94
338.422	84.94
338.65	88.94
338.878	93.94
339.106	84.94
339.334	77.94
339.562	85.94
339.79	82.94
340.018	73.94
340.246	75.94
340.474	68.94
340.702	77.94
340.93	78.94
341.158	90.94
341.386	73.94
341.614	77.94
341.842	89.94
342.07	76.94
342.298	87.94
342.526	97.94
342.754	81.94
342.981	96.94
343.209	77.94
343.437	93.94
343.665	69.94
343.893	73.94
344.12	86.94
344.348	89.94
344.576	84.94
344.804	94.94
345.031	78.94
345.259	77.94
345.487	81.94
345.714	79.94
345.942	73.94
346.17	74.94
346.397	91.94
346.625	90.94
346.853	69.94
347.08	84.94
347.308	89.94
347.535	80.94
347.763	85.94
347.99	86.94
348.218	89.94
348.445	78.94
348.673	88.94
348.9	79.94
349.128	75.94
349.355	74.94
349.583	90.94
349.81	85.94
350.037	85.94
350.265	93.94
350.492	79.94
350.72	78.94
350.947	94.94
351.174	79.94
351.402	69.94
351.629	80.94
351.856	76.94
352.083	72.94
352.311	72.94
352.538	86.94
352.765	77.94
352.992	82.94
353.22	70.94
353.447	65.94
353.674	62.94
353.901	65.94
354.128	77.94
354.355	68.94
354.583	89.94
354.81	90.94
355.037	87.94
355.264	85.94
355.491	89.94
355.718	61.94
355.945	85.94
356.172	88.94
356.399	79.94
356.626	83.94
356.853	81.94
357.08	82.94
357.307	76.94
357.534	81.94
357.761	84.94
357.988	96.94
358.215	83.94
358.441	68.94
358.668	87.94
358.895	81.94
359.122	88.94
359.349	79.94
359.576	88.94
359.802	74.94
360.029	78.94
360.256	78.94
360.483	77.94
360.709	81.94
360.936	89.94
361.163	90.94
361.39	72.94
361.616	86.94
361.843	71.94
362.07	70.94
362.296	74.94
362.523	80.94
362.749	72.94
362.976	74.94
363.203	77.94
363.429	80.94
363.656	84.94
363.882	89.94
364.109	86.94
364.335	79.94
364.562	67.94
364.788	75.94
365.015	73.94
365.241	82.94
365.468	92.94
365.694	72.94
365.92	79.94
366.147	82.94
366.373	88.94
366.599	77.94
366.826	93.94
367.052	78.94
367.278	88.94
367.505	79.94
367.731	97.94
367.957	84.94
368.184	80.94
368.41	72.94
368.636	87.94
368.862	96.94
369.089	86.94
369.315	82.94
369.541	100.94
369.767	97.94
369.993	76.94
370.219	93.94
370.445	87.94
370.672	96.94
370.898	82.94
371.124	80.94
371.35	86.94
371.576	102.94
371.802	94.94
372.028	83.94
372.254	80.94
372.48	82.94
372.706	81.94
372.932	81.94
373.158	87.94
373.384	95.94
373.61	82.94
373.835	91.94
374.061	80.94
374.287	84.94
374.513	83.94
374.739	82.94
374.965	84.94
375.191	101.94
375.416	92.94
375.642	90.94
375.868	88.94
376.094	94.94
376.319	89.94
376.545	72.94
376.771	84.94
376.997	96.94
377.222	82.94
377.448	83.94
377.674	95.94
377.899	92.94
378.125	86.94
378.35	76.94
378.576	96.94
378.802	92.94
379.027	88.94
379.253	104.94
379.478	93.94
379.704	79.94
379.929	98.94
380.155	99.94
380.38	86.94
380.606	87.94
380.831	102.94
381.057	92.94
381.282	95.94
381.507	79.94
381.733	96.94
381.958	92.94
382.184	84.94
382.409	85.94
382.634	96.94
382.86	94.94
383.085	97.94
383.31	95.94
383.535	100.94
383.761	102.94
383.986	101.94
384.211	90.94
384.436	91.94
384.662	88.94
384.887	96.94
385.112	110.94
385.337	84.94
385.562	96.94
385.787	86.94
386.013	118.94
386.238	100.94
386.463	92.94
386.688	82.94
386.913	92.94
387.138	87.94
387.363	95.94
387.588	101.94
387.813	99.94
388.038	95.94
388.263	101.94
388.488	80.94
388.713	108.94
388.938	87.94
389.163	85.94
389.387	85.94
389.612	94.94
389.837	92.94
390.062	79.94
390.287	106.94
390.512	98.94
390.736	109.94
390.961	95.94
391.186	94.94
391.411	97.94
391.636	93.94
391.86	100.94
392.085	85.94
392.31	100.94
392.534	100.94
392.759	102.94
392.984	107.94
393.208	103.94
393.433	79.94
393.658	100.94
393.882	105.94
394.107	99.94
394.331	89.94
394.556	98.94
394.78	104.94
395.005	97.94
395.229	90.94
395.454	97.94
395.678	91.94
395.903	102.94
396.127	112.94
396.352	103.94
396.576	87.94
396.801	108.94
397.025	87.94
397.249	113.94
397.474	97.94
397.698	109.94
397.922	98.94
398.147	98.94
398.371	94.94
398.595	101.94
398.82	110.94
399.044	96.94
399.268	96.94
399.492	100.94
399.717	119.94
399.941	113.94
400.165	105.94
400.389	106.94
400.613	116.94
400.837	106.94
401.062	97.94
401.286	106.94
401.51	121.94
401.734	106.94
401.958	111.94
402.182	118.94
402.406	116.94
402.63	106.94
402.854	114.94
403.078	106.94
403.302	116.94
403.526	114.94
403.75	108.94
403.974	114.94
404.198	117.94
404.422	107.94
404.645	124.94
404.869	104.94
405.093	106.94
405.317	113.94
405.541	116.94
405.765	112.94
405.988	108.94
406.212	101.94
406.436	112.94
406.66	114.94
406.883	127.94
407.107	124.94
407.331	128.94
407.555	126.94
407.778	116.94
408.002	123.94
408.226	113.94
408.449	122.94
408.673	110.94
408.896	110.94
409.12	124.94
409.344	114.94
409.567	122.94
409.791	120.94
410.014	122.94
410.238	118.94
410.461	112.94
410.685	123.94
410.908	116.94
411.132	131.94
411.355	110.94
411.578	114.94
411.802	121.94
412.025	109.94
412.249	111.94
412.472	130.94
412.695	118.94
412.919	115.94
413.142	110.94
413.365	123.94
413.589	110.94
413.812	111.94
414.035	120.94
414.258	113.94
414.482	110.94
414.705	114.94
414.928	140.94
415.151	118.94
415.374	120.94
415.597	114.94
415.821	106.94
416.044	120.94
416.267	121.94
416.49	114.94
416.713	125.94
416.936	134.94
417.159	124.94
417.382	127.94
417.605	138.94
417.828	121.94
418.051	131.94
418.274	126.94
418.497	122.94
418.72	136.94
418.943	133.94
419.166	124.94
419.389	121.94
419.611	135.94
419.834	134.94
420.057	119.94
420.28	159.94
420.503	118.94
420.726	124.94
420.948	131.94
421.171	131.94
421.394	126.94
421.617	143.94
421.839	135.94
422.062	127.94
422.285	124.94
422.507	132.94
422.73	129.94
422.953	110.94
423.175	116.94
423.398	110.94
423.621	138.94
423.843	124.94
424.066	115.94
424.288	126.94
424.511	132.94
424.733	131.94
424.956	126.94
425.178	143.94
425.401	138.94
425.623	141.94
425.846	135.94
426.068	126.94
426.291	117.94
426.513	128.94
426.735	132.94
426.958	122.94
427.18	122.94
427.402	135.94
427.625	122.94
427.847	119.94
428.069	129.94
428.292	122.94
428.514	119.94
428.736	122.94
428.958	125.94
429.181	122.94
429.403	113.94
429.625	122.94
429.847	133.94
430.069	122.94
430.292	120.94
430.514	123.94
430.736	136.94
430.958	134.94
431.18	115.94
431.402	114.94
431.624	112.94
431.846	108.94
432.068	90.94
432.29	116.94
432.512	117.94
432.734	97.94
432.956	130.94
433.178	106.94
433.4	130.94
433.622	128.94
433.844	117.94
434.066	132.94
434.287	108.94
434.509	80.94
434.731	101.94
434.953	94.94
435.175	120.94
435.397	125.94
435.618	142.94
435.84	114.94
436.062	98.94
436.284	121.94
436.505	137.94
436.727	126.94
436.949	135.94
437.17	120.94
437.392	124.94
437.614	116.94
437.835	111.94
438.057	105.94
438.278	116.94
438.5	136.94
438.721	130.94
438.943	130.94
439.165	133.94
439.386	134.94
439.608	135.94
439.829	140.94
440.05	136.94
440.272	127.94
440.493	126.94
440.715	150.94
440.936	140.94
441.158	146.94
441.379	144.94
441.6	137.94
441.822	150.94
442.043	137.94
442.264	143.94
442.486	130.94
442.707	145.94
442.928	140.94
443.149	142.94
443.371	148.94
443.592	146.94
443.813	122.94
444.034	127.94
444.255	126.94
444.476	142.94
444.698	136.94
444.919	137.94
445.14	262.94
445.361	185.94
445.582	156.94
445.803	152.94
446.024	142.94
446.245	145.94
446.466	149.94
446.687	151.94
446.908	148.94
447.129	154.94
447.35	124.94
447.571	142.94
447.792	142.94
448.013	143.94
448.234	146.94
448.455	141.94
448.675	135.94
448.896	144.94
449.117	121.94
449.338	140.94
449.559	137.94
449.779	156.94
450	129.94
450.221	133.94
450.442	123.94
450.662	138.94
450.883	131.94
451.104	135.94
451.324	138.94
451.545	129.94
451.766	126.94
451.986	129.94
452.207	127.94
452.428	125.94
452.648	135.94
452.869	113.94
453.089	108.94
453.31	104.94
453.53	100.94
453.751	112.94
453.971	105.94
454.192	102.94
454.412	116.94
454.633	92.94
454.853	112.94
455.073	108.94
455.294	135.94
455.514	122.94
455.734	138.94
455.955	119.94
456.175	103.94
456.395	105.94
456.616	113.94
456.836	105.94
457.056	108.94
457.276	100.94
457.497	107.94
457.717	124.94
457.937	106.94
458.157	102.94
458.377	85.94
458.598	96.94
458.818	92.94
459.038	89.94
459.258	103.94
459.478	98.94
459.698	90.94
459.918	88.94
460.138	98.94
460.358	105.94
460.578	111.94
460.798	110.94
461.018	119.94
461.238	110.94
461.458	113.94
461.678	91.94
461.898	113.94
462.118	124.94
462.338	96.94
462.558	113.94
462.777	100.94
462.997	104.94
463.217	97.94
463.437	110.94
463.657	96.94
463.876	98.94
464.096	78.94
464.316	100.94
464.536	115.94
464.755	117.94
464.975	105.94
465.195	116.94
465.414	116.94
465.634	125.94
465.854	110.94
466.073	128.94
466.293	106.94
466.512	104.94
466.732	130.94
466.951	148.94
467.171	129.94
467.391	109.94
467.61	125.94
467.829	133.94
468.049	133.94
468.268	139.94
468.488	133.94
468.707	122.94
468.927	128.94
469.146	136.94
469.365	129.94
469.585	137.94
469.804	143.94
470.023	142.94
470.243	141.94
470.462	125.94
470.681	142.94
470.901	137.94
471.12	135.94
471.339	134.94
471.558	129.94
471.777	137.94
471.997	126.94
472.216	124.94
472.435	107.94
472.654	99.94
472.873	108.94
473.092	118.94
473.311	133.94
473.53	105.94
473.749	122.94
473.968	122.94
474.187	125.94
474.406	110.94
474.625	129.94
474.844	126.94
475.063	122.94
475.282	127.94
475.501	105.94
475.72	141.94
475.939	118.94
476.158	120.94
476.377	119.94
476.596	123.94
476.814	116.94
477.033	120.94
477.252	95.94
477.471	118.94
477.69	114.94
477.908	142.94
478.127	132.94
478.346	138.94
478.564	121.94
478.783	125.94
479.002	129.94
479.22	149.94
479.439	132.94
479.658	134.94
479.876	124.94
480.095	106.94
480.313	120.94
480.532	106.94
480.751	121.94
480.969	99.94
481.188	84.94
481.406	97.94
481.624	88.94
481.843	88.94
482.061	99.94
482.28	110.94
482.498	108.94
482.717	103.94
482.935	122.94
483.153	142.94
483.372	144.94
483.59	133.94
483.808	131.94
484.027	129.94
484.245	117.94
484.463	148.94
484.681	148.94
484.9	141.94
485.118	128.94
485.336	134.94
485.554	112.94
485.772	102.94
485.99	106.94
486.209	93.94
486.427	114.94
486.645	114.94
486.863	129.94
487.081	144.94
487.299	133.94
487.517	118.94
487.735	159.94
487.953	180.94
488.171	184.94
488.389	161.94
488.607	156.94
488.825	124.94
489.043	124.94
489.261	125.94
489.479	130.94
489.696	147.94
489.914	154.94
490.132	142.94
490.35	145.94
490.568	142.94
490.786	171.94
491.003	169.94
491.221	162.94
491.439	190.94
491.657	182.94
491.874	194.94
492.092	216.94
492.31	228.94
492.527	227.94
492.745	192.94
492.963	192.94
493.18	184.94
493.398	192.94
493.615	174.94
493.833	166.94
494.05	182.94
494.268	174.94
494.485	168.94
494.703	180.94
494.92	172.94
495.138	170.94
495.355	175.94
495.573	184.94
495.79	167.94
496.008	180.94
496.225	157.94
496.442	168.94
496.66	159.94
496.877	162.94
497.094	179.94
497.312	153.94
497.529	161.94
497.746	143.94
497.963	129.94
498.181	130.94
498.398	135.94
498.615	111.94
498.832	104.94
499.049	122.94
499.267	106.94
499.484	124.94
499.701	136.94
499.918	137.94
500.135	136.94
500.352	144.94
500.569	146.94
500.786	138.94
501.003	153.94
501.22	144.94
501.437	132.94
501.654	132.94
501.871	138.94
502.088	124.94
502.305	137.94
502.522	141.94
502.739	121.94
502.956	120.94
503.172	117.94
503.389	113.94
503.606	112.94
503.823	125.94
504.04	125.94
504.256	125.94
504.473	118.94
504.69	114.94
504.907	133.94
505.123	120.94
505.34	119.94
505.557	121.94
505.773	121.94
505.99	115.94
506.207	103.94
506.423	109.94
506.64	113.94
506.856	115.94
507.073	112.94
507.289	120.94
507.506	113.94
507.722	106.94
507.939	120.94
508.155	122.94
508.372	111.94
508.588	114.94
508.805	94.94
509.021	103.94
509.238	99.94
509.454	118.94
509.67	94.94
509.887	89.94
510.103	104.94
510.319	110.94
510.536	97.94
510.752	87.94
510.968	98.94
511.184	106.94
511.401	85.94
511.617	91.94
511.833	68.94
512.049	80.94
512.265	79.94
