Data from Location2.07152019.Energy5.Lamp.07192019.3%Agarose_HRD10591_14-55-47-358.txt Node
Date: Fri Jul 19 14:55:47 EDT 2019
User: cochatt
Spectrometer: HR+D1059
Trigger mode: 1
Integration Time (sec): 1.000000E-1
Scans to average: 1
Electric dark correction enabled: true
Nonlinearity correction enabled: false
Boxcar width: 0
XAxis mode: Wavelengths
Number of Pixels in Spectrum: 2048
>>>>>Begin Spectral Data<<<<<
223.165	-15.38
223.4	-15.38
223.635	-15.38
223.869	-11.38
224.104	-10.38
224.338	-14.38
224.573	-8.38
224.808	-13.38
225.042	-12.38
225.277	-10.38
225.511	-5.38
225.746	8.62
225.98	11.62
226.215	11.62
226.449	12.62
226.683	12.62
226.918	12.62
227.152	31.62
227.387	44.62
227.621	44.62
227.856	36.62
228.09	40.62
228.324	56.62
228.559	57.62
228.793	55.62
229.027	77.62
229.262	64.62
229.496	60.62
229.73	67.62
229.964	68.62
230.199	74.62
230.433	66.62
230.667	61.62
230.901	76.62
231.136	75.62
231.37	67.62
231.604	70.62
231.838	98.62
232.072	91.62
232.306	80.62
232.541	84.62
232.775	76.62
233.009	72.62
233.243	85.62
233.477	78.62
233.711	83.62
233.945	80.62
234.179	79.62
234.413	90.62
234.647	81.62
234.881	68.62
235.115	63.62
235.349	79.62
235.583	78.62
235.817	83.62
236.051	54.62
236.285	72.62
236.519	80.62
236.753	82.62
236.987	84.62
237.221	89.62
237.455	99.62
237.689	74.62
237.922	79.62
238.156	75.62
238.39	64.62
238.624	75.62
238.858	72.62
239.091	75.62
239.325	71.62
239.559	92.62
239.793	84.62
240.027	79.62
240.26	74.62
240.494	65.62
240.728	71.62
240.961	82.62
241.195	70.62
241.429	84.62
241.662	75.62
241.896	68.62
242.13	72.62
242.363	76.62
242.597	74.62
242.83	79.62
243.064	84.62
243.298	80.62
243.531	66.62
243.765	76.62
243.998	60.62
244.232	70.62
244.465	75.62
244.699	78.62
244.932	62.62
245.166	86.62
245.399	76.62
245.633	85.62
245.866	91.62
246.099	64.62
246.333	80.62
246.566	91.62
246.8	74.62
247.033	74.62
247.266	82.62
247.5	82.62
247.733	76.62
247.966	61.62
248.2	74.62
248.433	75.62
248.666	90.62
248.899	74.62
249.133	73.62
249.366	86.62
249.599	63.62
249.832	79.62
250.066	89.62
250.299	82.62
250.532	70.62
250.765	81.62
250.998	87.62
251.231	74.62
251.465	83.62
251.698	82.62
251.931	77.62
252.164	75.62
252.397	78.62
252.63	82.62
252.863	76.62
253.096	78.62
253.329	96.62
253.562	75.62
253.795	72.62
254.028	87.62
254.261	90.62
254.494	81.62
254.727	75.62
254.96	86.62
255.193	78.62
255.426	83.62
255.659	91.62
255.892	71.62
256.124	84.62
256.357	61.62
256.59	70.62
256.823	75.62
257.056	86.62
257.289	83.62
257.521	74.62
257.754	71.62
257.987	86.62
258.22	84.62
258.452	80.62
258.685	78.62
258.918	69.62
259.151	81.62
259.383	90.62
259.616	91.62
259.849	79.62
260.081	79.62
260.314	69.62
260.547	68.62
260.779	67.62
261.012	69.62
261.244	83.62
261.477	82.62
261.71	71.62
261.942	66.62
262.175	74.62
262.407	67.62
262.64	74.62
262.872	86.62
263.105	79.62
263.337	79.62
263.57	91.62
263.802	84.62
264.035	72.62
264.267	91.62
264.499	74.62
264.732	80.62
264.964	64.62
265.197	87.62
265.429	84.62
265.661	77.62
265.894	78.62
266.126	75.62
266.358	67.62
266.591	74.62
266.823	88.62
267.055	68.62
267.287	86.62
267.52	99.62
267.752	89.62
267.984	93.62
268.216	72.62
268.448	97.62
268.681	80.62
268.913	69.62
269.145	79.62
269.377	75.62
269.609	83.62
269.841	90.62
270.073	84.62
270.306	83.62
270.538	71.62
270.77	92.62
271.002	83.62
271.234	84.62
271.466	79.62
271.698	82.62
271.93	82.62
272.162	85.62
272.394	84.62
272.626	86.62
272.858	80.62
273.09	81.62
273.322	83.62
273.553	74.62
273.785	83.62
274.017	85.62
274.249	84.62
274.481	87.62
274.713	76.62
274.945	80.62
275.176	87.62
275.408	83.62
275.64	79.62
275.872	87.62
276.104	82.62
276.335	77.62
276.567	88.62
276.799	68.62
277.031	82.62
277.262	85.62
277.494	79.62
277.726	82.62
277.957	84.62
278.189	103.62
278.421	82.62
278.652	92.62
278.884	79.62
279.115	75.62
279.347	95.62
279.579	80.62
279.81	73.62
280.042	91.62
280.273	86.62
280.505	75.62
280.736	85.62
280.968	86.62
281.199	87.62
281.431	82.62
281.662	82.62
281.894	83.62
282.125	69.62
282.356	77.62
282.588	90.62
282.819	79.62
283.051	78.62
283.282	73.62
283.513	93.62
283.745	92.62
283.976	86.62
284.207	80.62
284.439	96.62
284.67	78.62
284.901	81.62
285.132	100.62
285.364	97.62
285.595	79.62
285.826	86.62
286.057	82.62
286.288	76.62
286.52	75.62
286.751	85.62
286.982	89.62
287.213	88.62
287.444	79.62
287.675	85.62
287.906	84.62
288.138	82.62
288.369	86.62
288.6	85.62
288.831	91.62
289.062	87.62
289.293	87.62
289.524	84.62
289.755	81.62
289.986	90.62
290.217	82.62
290.448	85.62
290.679	82.62
290.91	86.62
291.141	84.62
291.371	87.62
291.602	83.62
291.833	82.62
292.064	94.62
292.295	78.62
292.526	93.62
292.757	94.62
292.987	90.62
293.218	80.62
293.449	86.62
293.68	83.62
293.91	86.62
294.141	87.62
294.372	80.62
294.603	94.62
294.833	76.62
295.064	78.62
295.295	87.62
295.525	84.62
295.756	79.62
295.987	86.62
296.217	74.62
296.448	78.62
296.679	83.62
296.909	87.62
297.14	84.62
297.37	76.62
297.601	64.62
297.831	75.62
298.062	96.62
298.292	70.62
298.523	88.62
298.753	91.62
298.984	74.62
299.214	104.62
299.445	89.62
299.675	81.62
299.905	79.62
300.136	83.62
300.366	70.62
300.597	75.62
300.827	81.62
301.057	95.62
301.288	91.62
301.518	84.62
301.748	83.62
301.979	79.62
302.209	72.62
302.439	87.62
302.669	76.62
302.9	80.62
303.13	80.62
303.36	76.62
303.59	76.62
303.82	79.62
304.051	78.62
304.281	75.62
304.511	87.62
304.741	95.62
304.971	62.62
305.201	80.62
305.431	81.62
305.661	86.62
305.891	85.62
306.121	87.62
306.352	69.62
306.582	87.62
306.812	78.62
307.042	80.62
307.272	81.62
307.502	84.62
307.731	81.62
307.961	86.62
308.191	75.62
308.421	75.62
308.651	75.62
308.881	84.62
309.111	73.62
309.341	77.62
309.571	90.62
309.8	82.62
310.03	82.62
310.26	66.62
310.49	76.62
310.72	90.62
310.949	79.62
311.179	92.62
311.409	82.62
311.639	82.62
311.868	86.62
312.098	82.62
312.328	77.62
312.557	92.62
312.787	88.62
313.017	74.62
313.246	84.62
313.476	71.62
313.706	83.62
313.935	94.62
314.165	74.62
314.394	79.62
314.624	62.62
314.853	74.62
315.083	92.62
315.312	76.62
315.542	85.62
315.771	70.62
316.001	91.62
316.23	85.62
316.46	89.62
316.689	95.62
316.919	88.62
317.148	92.62
317.377	84.62
317.607	71.62
317.836	84.62
318.065	78.62
318.295	97.62
318.524	80.62
318.753	68.62
318.983	66.62
319.212	92.62
319.441	81.62
319.67	81.62
319.9	82.62
320.129	65.62
320.358	75.62
320.587	64.62
320.816	80.62
321.046	94.62
321.275	86.62
321.504	81.62
321.733	86.62
321.962	68.62
322.191	76.62
322.42	90.62
322.649	90.62
322.878	92.62
323.108	83.62
323.337	83.62
323.566	95.62
323.795	78.62
324.024	90.62
324.253	90.62
324.482	70.62
324.71	79.62
324.939	79.62
325.168	90.62
325.397	76.62
325.626	70.62
325.855	84.62
326.084	80.62
326.313	88.62
326.542	87.62
326.77	82.62
326.999	76.62
327.228	81.62
327.457	80.62
327.686	78.62
327.914	77.62
328.143	86.62
328.372	82.62
328.6	87.62
328.829	81.62
329.058	76.62
329.287	72.62
329.515	72.62
329.744	97.62
329.972	88.62
330.201	80.62
330.43	90.62
330.658	82.62
330.887	76.62
331.115	87.62
331.344	79.62
331.572	86.62
331.801	70.62
332.03	73.62
332.258	88.62
332.486	74.62
332.715	80.62
332.943	88.62
333.172	70.62
333.4	76.62
333.629	89.62
333.857	90.62
334.085	76.62
334.314	85.62
334.542	77.62
334.771	83.62
334.999	89.62
335.227	84.62
335.455	75.62
335.684	79.62
335.912	81.62
336.14	87.62
336.369	76.62
336.597	72.62
336.825	87.62
337.053	78.62
337.281	86.62
337.51	76.62
337.738	85.62
337.966	75.62
338.194	85.62
338.422	78.62
338.65	81.62
338.878	76.62
339.106	81.62
339.334	78.62
339.562	78.62
339.79	78.62
340.018	73.62
340.246	90.62
340.474	69.62
340.702	82.62
340.93	78.62
341.158	98.62
341.386	91.62
341.614	80.62
341.842	73.62
342.07	84.62
342.298	83.62
342.526	83.62
342.754	68.62
342.981	66.62
343.209	80.62
343.437	87.62
343.665	75.62
343.893	92.62
344.12	90.62
344.348	81.62
344.576	92.62
344.804	88.62
345.031	79.62
345.259	80.62
345.487	79.62
345.714	85.62
345.942	74.62
346.17	71.62
346.397	76.62
346.625	81.62
346.853	76.62
347.08	82.62
347.308	80.62
347.535	83.62
347.763	76.62
347.99	67.62
348.218	85.62
348.445	79.62
348.673	82.62
348.9	69.62
349.128	90.62
349.355	80.62
349.583	98.62
349.81	81.62
350.037	88.62
350.265	91.62
350.492	86.62
350.72	73.62
350.947	90.62
351.174	91.62
351.402	89.62
351.629	85.62
351.856	83.62
352.083	75.62
352.311	75.62
352.538	72.62
352.765	64.62
352.992	82.62
353.22	94.62
353.447	76.62
353.674	94.62
353.901	87.62
354.128	79.62
354.355	73.62
354.583	80.62
354.81	77.62
355.037	71.62
355.264	90.62
355.491	88.62
355.718	81.62
355.945	93.62
356.172	81.62
356.399	73.62
356.626	74.62
356.853	81.62
357.08	87.62
357.307	86.62
357.534	81.62
357.761	97.62
357.988	80.62
358.215	74.62
358.441	82.62
358.668	81.62
358.895	73.62
359.122	93.62
359.349	81.62
359.576	76.62
359.802	85.62
360.029	87.62
360.256	85.62
360.483	81.62
360.709	70.62
360.936	91.62
361.163	94.62
361.39	88.62
361.616	73.62
361.843	81.62
362.07	67.62
362.296	82.62
362.523	86.62
362.749	83.62
362.976	90.62
363.203	92.62
363.429	87.62
363.656	98.62
363.882	91.62
364.109	77.62
364.335	88.62
364.562	76.62
364.788	81.62
365.015	82.62
365.241	71.62
365.468	69.62
365.694	84.62
365.92	95.62
366.147	79.62
366.373	79.62
366.599	83.62
366.826	86.62
367.052	79.62
367.278	81.62
367.505	86.62
367.731	78.62
367.957	96.62
368.184	86.62
368.41	82.62
368.636	81.62
368.862	93.62
369.089	90.62
369.315	85.62
369.541	81.62
369.767	86.62
369.993	91.62
370.219	89.62
370.445	89.62
370.672	83.62
370.898	82.62
371.124	98.62
371.35	86.62
371.576	87.62
371.802	81.62
372.028	81.62
372.254	95.62
372.48	98.62
372.706	96.62
372.932	93.62
373.158	85.62
373.384	100.62
373.61	97.62
373.835	88.62
374.061	85.62
374.287	89.62
374.513	93.62
374.739	99.62
374.965	96.62
375.191	80.62
375.416	93.62
375.642	98.62
375.868	84.62
376.094	75.62
376.319	74.62
376.545	79.62
376.771	91.62
376.997	90.62
377.222	91.62
377.448	87.62
377.674	80.62
377.899	97.62
378.125	96.62
378.35	90.62
378.576	100.62
378.802	96.62
379.027	82.62
379.253	101.62
379.478	91.62
379.704	100.62
379.929	115.62
380.155	94.62
380.38	85.62
380.606	97.62
380.831	84.62
381.057	107.62
381.282	98.62
381.507	95.62
381.733	88.62
381.958	83.62
382.184	92.62
382.409	95.62
382.634	90.62
382.86	90.62
383.085	103.62
383.31	95.62
383.535	98.62
383.761	84.62
383.986	98.62
384.211	91.62
384.436	103.62
384.662	111.62
384.887	99.62
385.112	87.62
385.337	86.62
385.562	95.62
385.787	97.62
386.013	98.62
386.238	88.62
386.463	92.62
386.688	89.62
386.913	89.62
387.138	90.62
387.363	106.62
387.588	103.62
387.813	88.62
388.038	100.62
388.263	99.62
388.488	97.62
388.713	110.62
388.938	98.62
389.163	100.62
389.387	91.62
389.612	98.62
389.837	109.62
390.062	106.62
390.287	114.62
390.512	104.62
390.736	94.62
390.961	95.62
391.186	108.62
391.411	103.62
391.636	99.62
391.86	80.62
392.085	118.62
392.31	102.62
392.534	94.62
392.759	110.62
392.984	110.62
393.208	100.62
393.433	104.62
393.658	100.62
393.882	110.62
394.107	98.62
394.331	114.62
394.556	108.62
394.78	94.62
395.005	114.62
395.229	108.62
395.454	98.62
395.678	103.62
395.903	108.62
396.127	110.62
396.352	102.62
396.576	93.62
396.801	110.62
397.025	97.62
397.249	112.62
397.474	107.62
397.698	117.62
397.922	110.62
398.147	121.62
398.371	105.62
398.595	108.62
398.82	107.62
399.044	121.62
399.268	113.62
399.492	112.62
399.717	108.62
399.941	112.62
400.165	112.62
400.389	107.62
400.613	98.62
400.837	110.62
401.062	116.62
401.286	118.62
401.51	101.62
401.734	115.62
401.958	110.62
402.182	108.62
402.406	124.62
402.63	122.62
402.854	122.62
403.078	117.62
403.302	108.62
403.526	111.62
403.75	124.62
403.974	117.62
404.198	120.62
404.422	121.62
404.645	124.62
404.869	118.62
405.093	112.62
405.317	121.62
405.541	128.62
405.765	115.62
405.988	107.62
406.212	105.62
406.436	119.62
406.66	109.62
406.883	114.62
407.107	121.62
407.331	114.62
407.555	116.62
407.778	126.62
408.002	114.62
408.226	122.62
408.449	112.62
408.673	122.62
408.896	135.62
409.12	123.62
409.344	116.62
409.567	122.62
409.791	111.62
410.014	116.62
410.238	105.62
410.461	114.62
410.685	116.62
410.908	132.62
411.132	137.62
411.355	125.62
411.578	120.62
411.802	115.62
412.025	128.62
412.249	117.62
412.472	130.62
412.695	111.62
412.919	129.62
413.142	119.62
413.365	113.62
413.589	120.62
413.812	116.62
414.035	124.62
414.258	115.62
414.482	114.62
414.705	122.62
414.928	121.62
415.151	135.62
415.374	114.62
415.597	110.62
415.821	117.62
416.044	123.62
416.267	139.62
416.49	126.62
416.713	120.62
416.936	121.62
417.159	112.62
417.382	130.62
417.605	126.62
417.828	126.62
418.051	119.62
418.274	132.62
418.497	134.62
418.72	134.62
418.943	124.62
419.166	128.62
419.389	135.62
419.611	124.62
419.834	147.62
420.057	123.62
420.28	122.62
420.503	129.62
420.726	146.62
420.948	136.62
421.171	123.62
421.394	155.62
421.617	133.62
421.839	133.62
422.062	142.62
422.285	120.62
422.507	121.62
422.73	112.62
422.953	123.62
423.175	115.62
423.398	145.62
423.621	120.62
423.843	119.62
424.066	116.62
424.288	154.62
424.511	131.62
424.733	126.62
424.956	148.62
425.178	131.62
425.401	124.62
425.623	152.62
425.846	136.62
426.068	139.62
426.291	131.62
426.513	118.62
426.735	138.62
426.958	123.62
427.18	120.62
427.402	122.62
427.625	116.62
427.847	134.62
428.069	146.62
428.292	135.62
428.514	125.62
428.736	116.62
428.958	134.62
429.181	115.62
429.403	112.62
429.625	124.62
429.847	126.62
430.069	113.62
430.292	139.62
430.514	122.62
430.736	111.62
430.958	135.62
431.18	130.62
431.402	125.62
431.624	144.62
431.846	127.62
432.068	85.62
432.29	104.62
432.512	121.62
432.734	110.62
432.956	124.62
433.178	134.62
433.4	136.62
433.622	131.62
433.844	120.62
434.066	115.62
434.287	108.62
434.509	90.62
434.731	107.62
434.953	112.62
435.175	124.62
435.397	124.62
435.618	115.62
435.84	110.62
436.062	118.62
436.284	118.62
436.505	129.62
436.727	122.62
436.949	116.62
437.17	129.62
437.392	123.62
437.614	126.62
437.835	116.62
438.057	110.62
438.278	103.62
438.5	116.62
438.721	126.62
438.943	141.62
439.165	140.62
439.386	126.62
439.608	135.62
439.829	124.62
440.05	131.62
440.272	136.62
440.493	146.62
440.715	120.62
440.936	129.62
441.158	140.62
441.379	148.62
441.6	140.62
441.822	132.62
442.043	151.62
442.264	134.62
442.486	127.62
442.707	139.62
442.928	146.62
443.149	124.62
443.371	127.62
443.592	134.62
443.813	141.62
444.034	146.62
444.255	128.62
444.476	138.62
444.698	135.62
444.919	139.62
445.14	264.62
445.361	202.62
445.582	151.62
445.803	132.62
446.024	134.62
446.245	150.62
446.466	161.62
446.687	155.62
446.908	136.62
447.129	155.62
447.35	146.62
447.571	147.62
447.792	151.62
448.013	134.62
448.234	146.62
448.455	136.62
448.675	158.62
448.896	132.62
449.117	132.62
449.338	141.62
449.559	141.62
449.779	143.62
450	135.62
450.221	133.62
450.442	139.62
450.662	125.62
450.883	123.62
451.104	150.62
451.324	122.62
451.545	123.62
451.766	110.62
451.986	128.62
452.207	139.62
452.428	101.62
452.648	124.62
452.869	134.62
453.089	102.62
453.31	115.62
453.53	102.62
453.751	91.62
453.971	93.62
454.192	122.62
454.412	104.62
454.633	118.62
454.853	114.62
455.073	117.62
455.294	120.62
455.514	130.62
455.734	126.62
455.955	126.62
456.175	108.62
456.395	118.62
456.616	115.62
456.836	107.62
457.056	97.62
457.276	102.62
457.497	89.62
457.717	104.62
457.937	88.62
458.157	105.62
458.377	105.62
458.598	88.62
458.818	98.62
459.038	84.62
459.258	84.62
459.478	82.62
459.698	79.62
459.918	99.62
460.138	110.62
460.358	114.62
460.578	123.62
460.798	106.62
461.018	112.62
461.238	111.62
461.458	107.62
461.678	118.62
461.898	117.62
462.118	96.62
462.338	114.62
462.558	102.62
462.777	122.62
462.997	98.62
463.217	116.62
463.437	115.62
463.657	111.62
463.876	113.62
464.096	101.62
464.316	118.62
464.536	110.62
464.755	119.62
464.975	112.62
465.195	107.62
465.414	114.62
465.634	118.62
465.854	111.62
466.073	118.62
466.293	111.62
466.512	124.62
466.732	107.62
466.951	115.62
467.171	128.62
467.391	128.62
467.61	132.62
467.829	138.62
468.049	136.62
468.268	123.62
468.488	135.62
468.707	134.62
468.927	135.62
469.146	139.62
469.365	139.62
469.585	130.62
469.804	118.62
470.023	131.62
470.243	142.62
470.462	136.62
470.681	140.62
470.901	136.62
471.12	147.62
471.339	140.62
471.558	141.62
471.777	134.62
471.997	119.62
472.216	136.62
472.435	117.62
472.654	102.62
472.873	112.62
473.092	116.62
473.311	132.62
473.53	128.62
473.749	135.62
473.968	114.62
474.187	119.62
474.406	122.62
474.625	132.62
474.844	132.62
475.063	127.62
475.282	120.62
475.501	119.62
475.72	132.62
475.939	120.62
476.158	126.62
476.377	131.62
476.596	140.62
476.814	120.62
477.033	112.62
477.252	120.62
477.471	140.62
477.69	138.62
477.908	132.62
478.127	142.62
478.346	136.62
478.564	128.62
478.783	140.62
479.002	134.62
479.22	130.62
479.439	130.62
479.658	120.62
479.876	111.62
480.095	115.62
480.313	112.62
480.532	135.62
480.751	115.62
480.969	93.62
481.188	92.62
481.406	84.62
481.624	85.62
481.843	93.62
482.061	103.62
482.28	97.62
482.498	106.62
482.717	104.62
482.935	123.62
483.153	134.62
483.372	155.62
483.59	154.62
483.808	122.62
484.027	141.62
484.245	126.62
484.463	159.62
484.681	137.62
484.9	137.62
485.118	142.62
485.336	124.62
485.554	115.62
485.772	114.62
485.99	107.62
486.209	108.62
486.427	114.62
486.645	122.62
486.863	139.62
487.081	132.62
487.299	130.62
487.517	143.62
487.735	163.62
487.953	186.62
488.171	176.62
488.389	178.62
488.607	145.62
488.825	156.62
489.043	133.62
489.261	126.62
489.479	135.62
489.696	139.62
489.914	132.62
490.132	152.62
490.35	143.62
490.568	161.62
490.786	171.62
491.003	163.62
491.221	182.62
491.439	179.62
491.657	174.62
491.874	198.62
492.092	225.62
492.31	229.62
492.527	218.62
492.745	192.62
492.963	200.62
493.18	195.62
493.398	201.62
493.615	168.62
493.833	174.62
494.05	180.62
494.268	151.62
494.485	155.62
494.703	165.62
494.92	160.62
495.138	188.62
495.355	182.62
495.573	169.62
495.79	150.62
496.008	165.62
496.225	166.62
496.442	164.62
496.66	160.62
496.877	143.62
497.094	166.62
497.312	148.62
497.529	170.62
497.746	147.62
497.963	142.62
498.181	124.62
498.398	126.62
498.615	110.62
498.832	118.62
499.049	115.62
499.267	124.62
499.484	120.62
499.701	139.62
499.918	135.62
500.135	133.62
500.352	144.62
500.569	144.62
500.786	148.62
501.003	141.62
501.22	134.62
501.437	142.62
501.654	140.62
501.871	146.62
502.088	136.62
502.305	132.62
502.522	122.62
502.739	121.62
502.956	124.62
503.172	127.62
503.389	130.62
503.606	116.62
503.823	120.62
504.04	118.62
504.256	123.62
504.473	114.62
504.69	110.62
504.907	126.62
505.123	120.62
505.34	129.62
505.557	119.62
505.773	119.62
505.99	116.62
506.207	116.62
506.423	123.62
506.64	96.62
506.856	116.62
507.073	128.62
507.289	115.62
507.506	120.62
507.722	133.62
507.939	116.62
508.155	123.62
508.372	108.62
508.588	106.62
508.805	110.62
509.021	119.62
509.238	91.62
509.454	93.62
509.67	95.62
509.887	101.62
510.103	97.62
510.319	90.62
510.536	91.62
510.752	91.62
510.968	87.62
511.184	78.62
511.401	80.62
511.617	87.62
511.833	77.62
