Data from Location2.07152019.Energy5.Lamp.07192019.3%Agarose_HRD10591_14-55-50-358.txt Node
Date: Fri Jul 19 14:55:50 EDT 2019
User: cochatt
Spectrometer: HR+D1059
Trigger mode: 1
Integration Time (sec): 1.000000E-1
Scans to average: 1
Electric dark correction enabled: true
Nonlinearity correction enabled: false
Boxcar width: 0
XAxis mode: Wavelengths
Number of Pixels in Spectrum: 2048
>>>>>Begin Spectral Data<<<<<
223.165	-22.19
223.4	-22.19
223.635	-22.19
223.869	-9.19
224.104	-3.19
224.338	-11.19
224.573	-6.19
224.808	-8.19
225.042	-22.19
225.277	-4.19
225.511	0.81
225.746	9.81
225.98	-0.19
226.215	2.81
226.449	7.81
226.683	24.81
226.918	29.81
227.152	10.81
227.387	51.81
227.621	28.81
227.856	36.81
228.09	48.81
228.324	56.81
228.559	46.81
228.793	50.81
229.027	44.81
229.262	64.81
229.496	71.81
229.73	52.81
229.964	64.81
230.199	71.81
230.433	76.81
230.667	80.81
230.901	78.81
231.136	87.81
231.37	80.81
231.604	76.81
231.838	92.81
232.072	73.81
232.306	82.81
232.541	78.81
232.775	98.81
233.009	71.81
233.243	74.81
233.477	81.81
233.711	74.81
233.945	83.81
234.179	90.81
234.413	82.81
234.647	85.81
234.881	74.81
235.115	66.81
235.349	82.81
235.583	75.81
235.817	87.81
236.051	80.81
236.285	84.81
236.519	64.81
236.753	62.81
236.987	80.81
237.221	79.81
237.455	82.81
237.689	83.81
237.922	56.81
238.156	72.81
238.39	71.81
238.624	66.81
238.858	65.81
239.091	87.81
239.325	82.81
239.559	63.81
239.793	65.81
240.027	86.81
240.26	88.81
240.494	83.81
240.728	73.81
240.961	85.81
241.195	88.81
241.429	82.81
241.662	71.81
241.896	84.81
242.13	76.81
242.363	70.81
242.597	60.81
242.83	81.81
243.064	71.81
243.298	70.81
243.531	51.81
243.765	75.81
243.998	75.81
244.232	82.81
244.465	72.81
244.699	60.81
244.932	93.81
245.166	72.81
245.399	74.81
245.633	74.81
245.866	68.81
246.099	75.81
246.333	76.81
246.566	74.81
246.8	63.81
247.033	67.81
247.266	70.81
247.5	74.81
247.733	70.81
247.966	78.81
248.2	78.81
248.433	78.81
248.666	74.81
248.899	67.81
249.133	68.81
249.366	80.81
249.599	67.81
249.832	71.81
250.066	76.81
250.299	86.81
250.532	84.81
250.765	78.81
250.998	72.81
251.231	80.81
251.465	75.81
251.698	70.81
251.931	74.81
252.164	82.81
252.397	76.81
252.63	81.81
252.863	76.81
253.096	79.81
253.329	79.81
253.562	73.81
253.795	67.81
254.028	67.81
254.261	77.81
254.494	58.81
254.727	73.81
254.96	82.81
255.193	79.81
255.426	85.81
255.659	81.81
255.892	82.81
256.124	69.81
256.357	75.81
256.59	76.81
256.823	83.81
257.056	89.81
257.289	74.81
257.521	85.81
257.754	92.81
257.987	71.81
258.22	79.81
258.452	90.81
258.685	88.81
258.918	80.81
259.151	78.81
259.383	89.81
259.616	74.81
259.849	72.81
260.081	79.81
260.314	84.81
260.547	85.81
260.779	67.81
261.012	74.81
261.244	79.81
261.477	85.81
261.71	76.81
261.942	87.81
262.175	78.81
262.407	68.81
262.64	68.81
262.872	91.81
263.105	89.81
263.337	85.81
263.57	70.81
263.802	76.81
264.035	77.81
264.267	71.81
264.499	73.81
264.732	87.81
264.964	85.81
265.197	100.81
265.429	68.81
265.661	84.81
265.894	76.81
266.126	80.81
266.358	84.81
266.591	84.81
266.823	76.81
267.055	81.81
267.287	79.81
267.52	79.81
267.752	89.81
267.984	71.81
268.216	75.81
268.448	83.81
268.681	76.81
268.913	70.81
269.145	76.81
269.377	86.81
269.609	87.81
269.841	76.81
270.073	77.81
270.306	83.81
270.538	70.81
270.77	72.81
271.002	79.81
271.234	79.81
271.466	81.81
271.698	78.81
271.93	73.81
272.162	58.81
272.394	76.81
272.626	66.81
272.858	84.81
273.09	84.81
273.322	84.81
273.553	78.81
273.785	86.81
274.017	89.81
274.249	78.81
274.481	72.81
274.713	84.81
274.945	81.81
275.176	75.81
275.408	74.81
275.64	82.81
275.872	80.81
276.104	74.81
276.335	68.81
276.567	71.81
276.799	79.81
277.031	85.81
277.262	78.81
277.494	91.81
277.726	80.81
277.957	85.81
278.189	76.81
278.421	80.81
278.652	74.81
278.884	86.81
279.115	82.81
279.347	72.81
279.579	80.81
279.81	76.81
280.042	96.81
280.273	79.81
280.505	90.81
280.736	73.81
280.968	69.81
281.199	87.81
281.431	79.81
281.662	80.81
281.894	76.81
282.125	79.81
282.356	89.81
282.588	70.81
282.819	86.81
283.051	82.81
283.282	79.81
283.513	79.81
283.745	78.81
283.976	83.81
284.207	82.81
284.439	89.81
284.67	97.81
284.901	74.81
285.132	77.81
285.364	76.81
285.595	86.81
285.826	78.81
286.057	86.81
286.288	79.81
286.52	89.81
286.751	70.81
286.982	85.81
287.213	76.81
287.444	94.81
287.675	83.81
287.906	75.81
288.138	77.81
288.369	92.81
288.6	91.81
288.831	76.81
289.062	81.81
289.293	80.81
289.524	77.81
289.755	86.81
289.986	75.81
290.217	78.81
290.448	72.81
290.679	66.81
290.91	83.81
291.141	72.81
291.371	90.81
291.602	80.81
291.833	70.81
292.064	84.81
292.295	75.81
292.526	71.81
292.757	74.81
292.987	82.81
293.218	81.81
293.449	70.81
293.68	78.81
293.91	74.81
294.141	89.81
294.372	76.81
294.603	90.81
294.833	82.81
295.064	82.81
295.295	68.81
295.525	85.81
295.756	91.81
295.987	88.81
296.217	87.81
296.448	88.81
296.679	70.81
296.909	84.81
297.14	86.81
297.37	82.81
297.601	80.81
297.831	87.81
298.062	73.81
298.292	82.81
298.523	83.81
298.753	88.81
298.984	81.81
299.214	73.81
299.445	88.81
299.675	74.81
299.905	80.81
300.136	94.81
300.366	84.81
300.597	85.81
300.827	70.81
301.057	76.81
301.288	80.81
301.518	73.81
301.748	82.81
301.979	75.81
302.209	85.81
302.439	94.81
302.669	86.81
302.9	74.81
303.13	75.81
303.36	82.81
303.59	87.81
303.82	88.81
304.051	96.81
304.281	91.81
304.511	89.81
304.741	90.81
304.971	79.81
305.201	79.81
305.431	82.81
305.661	91.81
305.891	87.81
306.121	84.81
306.352	86.81
306.582	66.81
306.812	84.81
307.042	74.81
307.272	97.81
307.502	78.81
307.731	76.81
307.961	82.81
308.191	78.81
308.421	100.81
308.651	83.81
308.881	101.81
309.111	82.81
309.341	81.81
309.571	91.81
309.8	77.81
310.03	75.81
310.26	77.81
310.49	78.81
310.72	89.81
310.949	86.81
311.179	76.81
311.409	82.81
311.639	79.81
311.868	81.81
312.098	86.81
312.328	82.81
312.557	83.81
312.787	88.81
313.017	80.81
313.246	84.81
313.476	83.81
313.706	86.81
313.935	76.81
314.165	83.81
314.394	86.81
314.624	86.81
314.853	81.81
315.083	70.81
315.312	92.81
315.542	81.81
315.771	91.81
316.001	80.81
316.23	88.81
316.46	77.81
316.689	88.81
316.919	83.81
317.148	87.81
317.377	87.81
317.607	79.81
317.836	74.81
318.065	80.81
318.295	70.81
318.524	83.81
318.753	70.81
318.983	78.81
319.212	92.81
319.441	85.81
319.67	90.81
319.9	76.81
320.129	74.81
320.358	81.81
320.587	72.81
320.816	76.81
321.046	79.81
321.275	91.81
321.504	74.81
321.733	79.81
321.962	82.81
322.191	74.81
322.42	80.81
322.649	65.81
322.878	90.81
323.108	83.81
323.337	76.81
323.566	90.81
323.795	75.81
324.024	82.81
324.253	92.81
324.482	77.81
324.71	91.81
324.939	82.81
325.168	96.81
325.397	87.81
325.626	88.81
325.855	91.81
326.084	76.81
326.313	76.81
326.542	86.81
326.77	76.81
326.999	77.81
327.228	90.81
327.457	86.81
327.686	92.81
327.914	93.81
328.143	89.81
328.372	83.81
328.6	91.81
328.829	74.81
329.058	77.81
329.287	88.81
329.515	86.81
329.744	78.81
329.972	96.81
330.201	73.81
330.43	96.81
330.658	70.81
330.887	70.81
331.115	84.81
331.344	70.81
331.572	81.81
331.801	97.81
332.03	74.81
332.258	82.81
332.486	90.81
332.715	81.81
332.943	81.81
333.172	82.81
333.4	79.81
333.629	70.81
333.857	83.81
334.085	84.81
334.314	85.81
334.542	84.81
334.771	85.81
334.999	84.81
335.227	78.81
335.455	88.81
335.684	102.81
335.912	90.81
336.14	88.81
336.369	69.81
336.597	88.81
336.825	95.81
337.053	88.81
337.281	80.81
337.51	82.81
337.738	82.81
337.966	77.81
338.194	80.81
338.422	88.81
338.65	96.81
338.878	81.81
339.106	86.81
339.334	82.81
339.562	78.81
339.79	88.81
340.018	87.81
340.246	80.81
340.474	90.81
340.702	70.81
340.93	88.81
341.158	97.81
341.386	66.81
341.614	87.81
341.842	80.81
342.07	89.81
342.298	79.81
342.526	78.81
342.754	82.81
342.981	76.81
343.209	77.81
343.437	82.81
343.665	87.81
343.893	93.81
344.12	81.81
344.348	89.81
344.576	88.81
344.804	104.81
345.031	79.81
345.259	83.81
345.487	88.81
345.714	85.81
345.942	83.81
346.17	84.81
346.397	87.81
346.625	84.81
346.853	86.81
347.08	77.81
347.308	84.81
347.535	85.81
347.763	86.81
347.99	89.81
348.218	87.81
348.445	80.81
348.673	79.81
348.9	76.81
349.128	78.81
349.355	72.81
349.583	78.81
349.81	87.81
350.037	77.81
350.265	89.81
350.492	75.81
350.72	86.81
350.947	96.81
351.174	95.81
351.402	80.81
351.629	80.81
351.856	91.81
352.083	89.81
352.311	91.81
352.538	92.81
352.765	83.81
352.992	82.81
353.22	86.81
353.447	92.81
353.674	72.81
353.901	84.81
354.128	62.81
354.355	84.81
354.583	90.81
354.81	82.81
355.037	71.81
355.264	79.81
355.491	91.81
355.718	100.81
355.945	80.81
356.172	78.81
356.399	76.81
356.626	82.81
356.853	85.81
357.08	83.81
357.307	76.81
357.534	85.81
357.761	82.81
357.988	73.81
358.215	84.81
358.441	80.81
358.668	85.81
358.895	88.81
359.122	80.81
359.349	75.81
359.576	74.81
359.802	73.81
360.029	76.81
360.256	86.81
360.483	83.81
360.709	84.81
360.936	85.81
361.163	85.81
361.39	84.81
361.616	83.81
361.843	81.81
362.07	92.81
362.296	89.81
362.523	81.81
362.749	73.81
362.976	75.81
363.203	77.81
363.429	84.81
363.656	71.81
363.882	79.81
364.109	84.81
364.335	95.81
364.562	97.81
364.788	77.81
365.015	73.81
365.241	77.81
365.468	90.81
365.694	71.81
365.92	94.81
366.147	88.81
366.373	78.81
366.599	88.81
366.826	80.81
367.052	85.81
367.278	85.81
367.505	82.81
367.731	85.81
367.957	80.81
368.184	104.81
368.41	90.81
368.636	89.81
368.862	89.81
369.089	82.81
369.315	76.81
369.541	91.81
369.767	83.81
369.993	80.81
370.219	71.81
370.445	83.81
370.672	77.81
370.898	90.81
371.124	95.81
371.35	94.81
371.576	70.81
371.802	80.81
372.028	85.81
372.254	90.81
372.48	97.81
372.706	94.81
372.932	96.81
373.158	86.81
373.384	87.81
373.61	91.81
373.835	88.81
374.061	97.81
374.287	80.81
374.513	94.81
374.739	86.81
374.965	106.81
375.191	82.81
375.416	93.81
375.642	93.81
375.868	75.81
376.094	82.81
376.319	87.81
376.545	96.81
376.771	94.81
376.997	86.81
377.222	91.81
377.448	91.81
377.674	89.81
377.899	92.81
378.125	92.81
378.35	87.81
378.576	79.81
378.802	86.81
379.027	103.81
379.253	99.81
379.478	92.81
379.704	86.81
379.929	85.81
380.155	95.81
380.38	89.81
380.606	89.81
380.831	91.81
381.057	100.81
381.282	100.81
381.507	108.81
381.733	105.81
381.958	102.81
382.184	88.81
382.409	81.81
382.634	87.81
382.86	88.81
383.085	83.81
383.31	93.81
383.535	90.81
383.761	101.81
383.986	104.81
384.211	84.81
384.436	98.81
384.662	92.81
384.887	83.81
385.112	82.81
385.337	103.81
385.562	94.81
385.787	87.81
386.013	80.81
386.238	107.81
386.463	104.81
386.688	104.81
386.913	86.81
387.138	93.81
387.363	95.81
387.588	95.81
387.813	93.81
388.038	107.81
388.263	86.81
388.488	92.81
388.713	108.81
388.938	106.81
389.163	106.81
389.387	86.81
389.612	119.81
389.837	102.81
390.062	100.81
390.287	119.81
390.512	98.81
390.736	94.81
390.961	97.81
391.186	96.81
391.411	101.81
391.636	96.81
391.86	119.81
392.085	112.81
392.31	101.81
392.534	108.81
392.759	100.81
392.984	101.81
393.208	89.81
393.433	102.81
393.658	107.81
393.882	108.81
394.107	98.81
394.331	98.81
394.556	113.81
394.78	111.81
395.005	110.81
395.229	104.81
395.454	96.81
395.678	101.81
395.903	111.81
396.127	96.81
396.352	105.81
396.576	98.81
396.801	101.81
397.025	98.81
397.249	97.81
397.474	108.81
397.698	115.81
397.922	112.81
398.147	117.81
398.371	100.81
398.595	95.81
398.82	113.81
399.044	114.81
399.268	99.81
399.492	110.81
399.717	110.81
399.941	101.81
400.165	99.81
400.389	120.81
400.613	103.81
400.837	107.81
401.062	111.81
401.286	110.81
401.51	121.81
401.734	114.81
401.958	108.81
402.182	113.81
402.406	100.81
402.63	112.81
402.854	101.81
403.078	100.81
403.302	106.81
403.526	115.81
403.75	112.81
403.974	127.81
404.198	126.81
404.422	99.81
404.645	107.81
404.869	111.81
405.093	114.81
405.317	116.81
405.541	114.81
405.765	111.81
405.988	107.81
406.212	110.81
406.436	124.81
406.66	106.81
406.883	107.81
407.107	110.81
407.331	116.81
407.555	103.81
407.778	116.81
408.002	124.81
408.226	136.81
408.449	116.81
408.673	119.81
408.896	112.81
409.12	116.81
409.344	115.81
409.567	99.81
409.791	124.81
410.014	128.81
410.238	122.81
410.461	130.81
410.685	136.81
410.908	136.81
411.132	127.81
411.355	112.81
411.578	126.81
411.802	114.81
412.025	118.81
412.249	118.81
412.472	115.81
412.695	126.81
412.919	127.81
413.142	136.81
413.365	115.81
413.589	128.81
413.812	125.81
414.035	112.81
414.258	106.81
414.482	112.81
414.705	108.81
414.928	124.81
415.151	137.81
415.374	105.81
415.597	115.81
415.821	140.81
416.044	128.81
416.267	136.81
416.49	112.81
416.713	122.81
416.936	117.81
417.159	120.81
417.382	119.81
417.605	132.81
417.828	118.81
418.051	124.81
418.274	130.81
418.497	137.81
418.72	136.81
418.943	142.81
419.166	129.81
419.389	126.81
419.611	140.81
419.834	130.81
420.057	122.81
420.28	115.81
420.503	135.81
420.726	123.81
420.948	136.81
421.171	121.81
421.394	132.81
421.617	134.81
421.839	127.81
422.062	129.81
422.285	120.81
422.507	130.81
422.73	130.81
422.953	124.81
423.175	126.81
423.398	122.81
423.621	119.81
423.843	125.81
424.066	129.81
424.288	143.81
424.511	142.81
424.733	148.81
424.956	134.81
425.178	149.81
425.401	128.81
425.623	142.81
425.846	138.81
426.068	132.81
426.291	111.81
426.513	124.81
426.735	126.81
426.958	114.81
427.18	146.81
427.402	138.81
427.625	122.81
427.847	130.81
428.069	132.81
428.292	129.81
428.514	124.81
428.736	129.81
428.958	129.81
429.181	130.81
429.403	127.81
429.625	146.81
429.847	126.81
430.069	136.81
430.292	112.81
430.514	135.81
430.736	133.81
430.958	132.81
431.18	128.81
431.402	120.81
431.624	136.81
431.846	92.81
432.068	97.81
432.29	115.81
432.512	117.81
432.734	110.81
432.956	137.81
433.178	118.81
433.4	146.81
433.622	146.81
433.844	126.81
434.066	113.81
434.287	99.81
434.509	105.81
434.731	100.81
434.953	118.81
435.175	123.81
435.397	126.81
435.618	115.81
435.84	119.81
436.062	118.81
436.284	123.81
436.505	136.81
436.727	134.81
436.949	129.81
437.17	124.81
437.392	124.81
437.614	126.81
437.835	117.81
438.057	112.81
438.278	100.81
438.5	124.81
438.721	131.81
438.943	135.81
439.165	138.81
439.386	131.81
439.608	145.81
439.829	147.81
440.05	138.81
440.272	131.81
440.493	133.81
440.715	136.81
440.936	151.81
441.158	147.81
441.379	140.81
441.6	133.81
441.822	148.81
442.043	136.81
442.264	132.81
442.486	134.81
442.707	141.81
442.928	141.81
443.149	143.81
443.371	126.81
443.592	138.81
443.813	141.81
444.034	137.81
444.255	153.81
444.476	132.81
444.698	150.81
444.919	126.81
445.14	271.81
445.361	210.81
445.582	146.81
445.803	139.81
446.024	145.81
446.245	160.81
446.466	144.81
446.687	145.81
446.908	161.81
447.129	141.81
447.35	147.81
447.571	159.81
447.792	135.81
448.013	144.81
448.234	140.81
448.455	130.81
448.675	146.81
448.896	120.81
449.117	124.81
449.338	131.81
449.559	138.81
449.779	134.81
450	129.81
450.221	159.81
450.442	134.81
450.662	133.81
450.883	116.81
451.104	130.81
451.324	135.81
451.545	130.81
451.766	124.81
451.986	123.81
452.207	119.81
452.428	121.81
452.648	112.81
452.869	130.81
453.089	121.81
453.31	103.81
453.53	94.81
453.751	110.81
453.971	88.81
454.192	106.81
454.412	105.81
454.633	118.81
454.853	126.81
455.073	127.81
455.294	121.81
455.514	116.81
455.734	126.81
455.955	104.81
456.175	114.81
456.395	116.81
456.616	116.81
456.836	106.81
457.056	112.81
457.276	118.81
457.497	118.81
457.717	123.81
457.937	102.81
458.157	107.81
458.377	99.81
458.598	105.81
458.818	103.81
459.038	80.81
459.258	99.81
459.478	71.81
459.698	89.81
459.918	86.81
460.138	92.81
460.358	102.81
460.578	102.81
460.798	130.81
461.018	106.81
461.238	98.81
461.458	121.81
461.678	98.81
461.898	94.81
462.118	113.81
462.338	106.81
462.558	105.81
462.777	108.81
462.997	118.81
463.217	121.81
463.437	112.81
463.657	106.81
463.876	111.81
464.096	107.81
464.316	126.81
464.536	104.81
464.755	108.81
464.975	104.81
465.195	128.81
465.414	124.81
465.634	110.81
465.854	105.81
466.073	120.81
466.293	110.81
466.512	128.81
466.732	127.81
466.951	114.81
467.171	136.81
467.391	126.81
467.61	138.81
467.829	131.81
468.049	119.81
468.268	116.81
468.488	139.81
468.707	129.81
468.927	138.81
469.146	138.81
469.365	137.81
469.585	123.81
469.804	128.81
470.023	128.81
470.243	143.81
470.462	159.81
470.681	133.81
470.901	132.81
471.12	144.81
471.339	130.81
471.558	128.81
471.777	136.81
471.997	138.81
472.216	128.81
472.435	100.81
472.654	104.81
472.873	113.81
473.092	123.81
473.311	124.81
473.53	128.81
473.749	138.81
473.968	121.81
474.187	111.81
474.406	114.81
474.625	128.81
474.844	125.81
475.063	123.81
475.282	120.81
475.501	118.81
475.72	124.81
475.939	119.81
476.158	140.81
476.377	146.81
476.596	122.81
476.814	127.81
477.033	113.81
477.252	113.81
477.471	98.81
477.69	131.81
477.908	140.81
478.127	126.81
478.346	136.81
478.564	139.81
478.783	129.81
479.002	135.81
479.22	134.81
479.439	123.81
479.658	126.81
479.876	112.81
480.095	110.81
480.313	126.81
480.532	105.81
480.751	128.81
480.969	91.81
481.188	91.81
481.406	93.81
481.624	88.81
481.843	88.81
482.061	103.81
482.28	111.81
482.498	115.81
482.717	102.81
482.935	133.81
483.153	144.81
483.372	153.81
483.59	154.81
483.808	129.81
484.027	129.81
484.245	129.81
484.463	147.81
484.681	150.81
484.9	152.81
485.118	129.81
485.336	120.81
485.554	110.81
485.772	96.81
485.99	100.81
486.209	107.81
486.427	119.81
486.645	114.81
486.863	122.81
487.081	145.81
487.299	131.81
487.517	149.81
487.735	174.81
487.953	182.81
488.171	188.81
488.389	180.81
488.607	156.81
488.825	154.81
489.043	135.81
489.261	126.81
489.479	129.81
489.696	131.81
489.914	138.81
490.132	135.81
490.35	156.81
490.568	155.81
490.786	150.81
491.003	167.81
491.221	172.81
491.439	184.81
491.657	197.81
491.874	217.81
492.092	210.81
492.31	225.81
492.527	214.81
492.745	208.81
492.963	187.81
493.18	185.81
493.398	181.81
493.615	179.81
493.833	173.81
494.05	166.81
494.268	166.81
494.485	159.81
494.703	162.81
494.92	178.81
495.138	171.81
495.355	165.81
495.573	177.81
495.79	180.81
496.008	176.81
496.225	156.81
496.442	165.81
496.66	171.81
496.877	167.81
497.094	158.81
497.312	146.81
497.529	141.81
497.746	150.81
497.963	155.81
498.181	131.81
498.398	117.81
498.615	124.81
498.832	113.81
499.049	101.81
499.267	139.81
499.484	112.81
499.701	126.81
499.918	130.81
500.135	133.81
500.352	134.81
500.569	140.81
500.786	138.81
501.003	135.81
501.22	136.81
501.437	135.81
501.654	134.81
501.871	127.81
502.088	124.81
502.305	150.81
502.522	129.81
502.739	122.81
502.956	134.81
503.172	129.81
503.389	118.81
503.606	117.81
503.823	128.81
504.04	121.81
504.256	131.81
504.473	120.81
504.69	117.81
504.907	119.81
505.123	123.81
505.34	124.81
505.557	124.81
505.773	114.81
505.99	124.81
506.207	128.81
506.423	122.81
506.64	101.81
506.856	131.81
507.073	118.81
507.289	123.81
507.506	130.81
507.722	123.81
507.939	127.81
508.155	105.81
508.372	130.81
508.588	108.81
508.805	114.81
509.021	103.81
509.238	96.81
509.454	100.81
509.67	108.81
509.887	103.81
510.103	95.81
510.319	99.81
510.536	108.81
510.752	88.81
510.968	94.81
511.184	90.81
511.401	81.81
511.617	88.81
511.833	97.81
