Data from Location2.07152019.Energy5.Lamp.07192019.3%Agarose_HRD10591_14-57-21-358.txt Node
Date: Fri Jul 19 14:57:21 EDT 2019
User: cochatt
Spectrometer: HR+D1059
Trigger mode: 1
Integration Time (sec): 1.000000E-1
Scans to average: 1
Electric dark correction enabled: true
Nonlinearity correction enabled: false
Boxcar width: 0
XAxis mode: Wavelengths
Number of Pixels in Spectrum: 2048
>>>>>Begin Spectral Data<<<<<
223.165	-18.25
223.4	-18.25
223.635	-18.25
223.869	-19.25
224.104	-15.25
224.338	-1.25
224.573	-13.25
224.808	-31.25
225.042	-0.25
225.277	1.75
225.511	-0.25
225.746	-3.25
225.98	9.75
226.215	7.75
226.449	14.75
226.683	24.75
226.918	20.75
227.152	22.75
227.387	26.75
227.621	49.75
227.856	32.75
228.09	32.75
228.324	44.75
228.559	57.75
228.793	52.75
229.027	52.75
229.262	59.75
229.496	72.75
229.73	70.75
229.964	57.75
230.199	77.75
230.433	76.75
230.667	84.75
230.901	86.75
231.136	67.75
231.37	82.75
231.604	102.75
231.838	71.75
232.072	79.75
232.306	86.75
232.541	76.75
232.775	79.75
233.009	79.75
233.243	74.75
233.477	78.75
233.711	79.75
233.945	78.75
234.179	89.75
234.413	77.75
234.647	69.75
234.881	79.75
235.115	71.75
235.349	60.75
235.583	87.75
235.817	75.75
236.051	78.75
236.285	69.75
236.519	66.75
236.753	70.75
236.987	89.75
237.221	76.75
237.455	74.75
237.689	78.75
237.922	70.75
238.156	63.75
238.39	75.75
238.624	80.75
238.858	90.75
239.091	79.75
239.325	72.75
239.559	72.75
239.793	83.75
240.027	82.75
240.26	73.75
240.494	74.75
240.728	72.75
240.961	78.75
241.195	83.75
241.429	77.75
241.662	66.75
241.896	88.75
242.13	85.75
242.363	85.75
242.597	82.75
242.83	71.75
243.064	71.75
243.298	68.75
243.531	77.75
243.765	71.75
243.998	93.75
244.232	76.75
244.465	72.75
244.699	67.75
244.932	72.75
245.166	73.75
245.399	79.75
245.633	77.75
245.866	74.75
246.099	82.75
246.333	83.75
246.566	75.75
246.8	70.75
247.033	67.75
247.266	77.75
247.5	86.75
247.733	81.75
247.966	81.75
248.2	74.75
248.433	79.75
248.666	84.75
248.899	68.75
249.133	67.75
249.366	77.75
249.599	73.75
249.832	86.75
250.066	70.75
250.299	77.75
250.532	77.75
250.765	72.75
250.998	73.75
251.231	88.75
251.465	81.75
251.698	71.75
251.931	78.75
252.164	66.75
252.397	78.75
252.63	78.75
252.863	82.75
253.096	77.75
253.329	91.75
253.562	79.75
253.795	92.75
254.028	65.75
254.261	64.75
254.494	78.75
254.727	79.75
254.96	75.75
255.193	74.75
255.426	52.75
255.659	90.75
255.892	90.75
256.124	81.75
256.357	77.75
256.59	82.75
256.823	79.75
257.056	68.75
257.289	83.75
257.521	74.75
257.754	84.75
257.987	84.75
258.22	85.75
258.452	78.75
258.685	83.75
258.918	78.75
259.151	78.75
259.383	75.75
259.616	74.75
259.849	65.75
260.081	73.75
260.314	72.75
260.547	70.75
260.779	81.75
261.012	89.75
261.244	80.75
261.477	77.75
261.71	87.75
261.942	71.75
262.175	81.75
262.407	76.75
262.64	89.75
262.872	66.75
263.105	78.75
263.337	72.75
263.57	75.75
263.802	85.75
264.035	73.75
264.267	91.75
264.499	78.75
264.732	78.75
264.964	64.75
265.197	72.75
265.429	90.75
265.661	81.75
265.894	80.75
266.126	82.75
266.358	64.75
266.591	93.75
266.823	79.75
267.055	78.75
267.287	72.75
267.52	71.75
267.752	69.75
267.984	82.75
268.216	84.75
268.448	81.75
268.681	85.75
268.913	72.75
269.145	82.75
269.377	88.75
269.609	82.75
269.841	83.75
270.073	64.75
270.306	72.75
270.538	74.75
270.77	81.75
271.002	81.75
271.234	77.75
271.466	90.75
271.698	77.75
271.93	88.75
272.162	94.75
272.394	81.75
272.626	94.75
272.858	77.75
273.09	83.75
273.322	79.75
273.553	74.75
273.785	70.75
274.017	74.75
274.249	82.75
274.481	74.75
274.713	73.75
274.945	84.75
275.176	85.75
275.408	103.75
275.64	78.75
275.872	80.75
276.104	85.75
276.335	84.75
276.567	82.75
276.799	70.75
277.031	80.75
277.262	83.75
277.494	96.75
277.726	85.75
277.957	84.75
278.189	71.75
278.421	70.75
278.652	79.75
278.884	79.75
279.115	82.75
279.347	78.75
279.579	81.75
279.81	84.75
280.042	74.75
280.273	74.75
280.505	79.75
280.736	68.75
280.968	74.75
281.199	85.75
281.431	77.75
281.662	73.75
281.894	84.75
282.125	87.75
282.356	71.75
282.588	87.75
282.819	73.75
283.051	83.75
283.282	77.75
283.513	64.75
283.745	92.75
283.976	85.75
284.207	78.75
284.439	72.75
284.67	87.75
284.901	78.75
285.132	85.75
285.364	76.75
285.595	80.75
285.826	87.75
286.057	81.75
286.288	89.75
286.52	74.75
286.751	89.75
286.982	95.75
287.213	78.75
287.444	80.75
287.675	85.75
287.906	82.75
288.138	99.75
288.369	85.75
288.6	86.75
288.831	84.75
289.062	85.75
289.293	80.75
289.524	76.75
289.755	77.75
289.986	80.75
290.217	83.75
290.448	73.75
290.679	86.75
290.91	85.75
291.141	84.75
291.371	77.75
291.602	83.75
291.833	86.75
292.064	94.75
292.295	70.75
292.526	67.75
292.757	73.75
292.987	97.75
293.218	89.75
293.449	78.75
293.68	88.75
293.91	85.75
294.141	78.75
294.372	82.75
294.603	88.75
294.833	80.75
295.064	71.75
295.295	81.75
295.525	84.75
295.756	74.75
295.987	90.75
296.217	85.75
296.448	87.75
296.679	84.75
296.909	78.75
297.14	82.75
297.37	77.75
297.601	78.75
297.831	80.75
298.062	79.75
298.292	72.75
298.523	86.75
298.753	78.75
298.984	87.75
299.214	71.75
299.445	94.75
299.675	78.75
299.905	69.75
300.136	81.75
300.366	76.75
300.597	73.75
300.827	65.75
301.057	77.75
301.288	81.75
301.518	81.75
301.748	75.75
301.979	69.75
302.209	78.75
302.439	91.75
302.669	81.75
302.9	86.75
303.13	77.75
303.36	86.75
303.59	81.75
303.82	82.75
304.051	82.75
304.281	85.75
304.511	91.75
304.741	84.75
304.971	79.75
305.201	90.75
305.431	73.75
305.661	90.75
305.891	80.75
306.121	83.75
306.352	89.75
306.582	82.75
306.812	74.75
307.042	76.75
307.272	95.75
307.502	84.75
307.731	71.75
307.961	84.75
308.191	90.75
308.421	90.75
308.651	65.75
308.881	73.75
309.111	85.75
309.341	72.75
309.571	88.75
309.8	80.75
310.03	71.75
310.26	85.75
310.49	79.75
310.72	76.75
310.949	88.75
311.179	73.75
311.409	80.75
311.639	80.75
311.868	80.75
312.098	76.75
312.328	88.75
312.557	88.75
312.787	84.75
313.017	93.75
313.246	86.75
313.476	83.75
313.706	73.75
313.935	76.75
314.165	74.75
314.394	75.75
314.624	71.75
314.853	73.75
315.083	92.75
315.312	84.75
315.542	90.75
315.771	86.75
316.001	87.75
316.23	83.75
316.46	85.75
316.689	81.75
316.919	87.75
317.148	80.75
317.377	78.75
317.607	75.75
317.836	80.75
318.065	93.75
318.295	83.75
318.524	79.75
318.753	80.75
318.983	72.75
319.212	80.75
319.441	93.75
319.67	89.75
319.9	78.75
320.129	77.75
320.358	80.75
320.587	84.75
320.816	78.75
321.046	82.75
321.275	74.75
321.504	78.75
321.733	87.75
321.962	91.75
322.191	80.75
322.42	78.75
322.649	89.75
322.878	85.75
323.108	83.75
323.337	93.75
323.566	74.75
323.795	70.75
324.024	71.75
324.253	94.75
324.482	88.75
324.71	85.75
324.939	78.75
325.168	82.75
325.397	86.75
325.626	83.75
325.855	72.75
326.084	97.75
326.313	83.75
326.542	75.75
326.77	78.75
326.999	91.75
327.228	102.75
327.457	76.75
327.686	73.75
327.914	81.75
328.143	96.75
328.372	84.75
328.6	82.75
328.829	85.75
329.058	85.75
329.287	76.75
329.515	89.75
329.744	70.75
329.972	72.75
330.201	82.75
330.43	84.75
330.658	78.75
330.887	69.75
331.115	73.75
331.344	74.75
331.572	79.75
331.801	76.75
332.03	86.75
332.258	78.75
332.486	73.75
332.715	89.75
332.943	73.75
333.172	78.75
333.4	78.75
333.629	79.75
333.857	84.75
334.085	97.75
334.314	79.75
334.542	87.75
334.771	64.75
334.999	92.75
335.227	77.75
335.455	81.75
335.684	69.75
335.912	90.75
336.14	69.75
336.369	74.75
336.597	87.75
336.825	80.75
337.053	87.75
337.281	90.75
337.51	88.75
337.738	88.75
337.966	91.75
338.194	72.75
338.422	74.75
338.65	82.75
338.878	76.75
339.106	76.75
339.334	72.75
339.562	77.75
339.79	75.75
340.018	87.75
340.246	96.75
340.474	61.75
340.702	86.75
340.93	89.75
341.158	82.75
341.386	90.75
341.614	83.75
341.842	97.75
342.07	77.75
342.298	84.75
342.526	92.75
342.754	79.75
342.981	72.75
343.209	77.75
343.437	82.75
343.665	70.75
343.893	94.75
344.12	82.75
344.348	77.75
344.576	77.75
344.804	82.75
345.031	75.75
345.259	84.75
345.487	86.75
345.714	86.75
345.942	84.75
346.17	82.75
346.397	84.75
346.625	86.75
346.853	76.75
347.08	70.75
347.308	90.75
347.535	82.75
347.763	82.75
347.99	94.75
348.218	87.75
348.445	99.75
348.673	79.75
348.9	83.75
349.128	90.75
349.355	77.75
349.583	76.75
349.81	77.75
350.037	81.75
350.265	78.75
350.492	81.75
350.72	71.75
350.947	73.75
351.174	84.75
351.402	83.75
351.629	67.75
351.856	85.75
352.083	70.75
352.311	73.75
352.538	73.75
352.765	87.75
352.992	87.75
353.22	64.75
353.447	71.75
353.674	74.75
353.901	84.75
354.128	86.75
354.355	83.75
354.583	71.75
354.81	78.75
355.037	93.75
355.264	74.75
355.491	70.75
355.718	94.75
355.945	76.75
356.172	81.75
356.399	79.75
356.626	72.75
356.853	74.75
357.08	91.75
357.307	79.75
357.534	66.75
357.761	66.75
357.988	101.75
358.215	85.75
358.441	77.75
358.668	80.75
358.895	84.75
359.122	71.75
359.349	85.75
359.576	86.75
359.802	76.75
360.029	69.75
360.256	82.75
360.483	87.75
360.709	81.75
360.936	89.75
361.163	81.75
361.39	88.75
361.616	75.75
361.843	83.75
362.07	87.75
362.296	72.75
362.523	68.75
362.749	96.75
362.976	79.75
363.203	70.75
363.429	88.75
363.656	89.75
363.882	84.75
364.109	84.75
364.335	76.75
364.562	86.75
364.788	94.75
365.015	86.75
365.241	77.75
365.468	90.75
365.694	82.75
365.92	85.75
366.147	88.75
366.373	87.75
366.599	93.75
366.826	87.75
367.052	92.75
367.278	102.75
367.505	88.75
367.731	91.75
367.957	89.75
368.184	74.75
368.41	68.75
368.636	84.75
368.862	85.75
369.089	81.75
369.315	84.75
369.541	87.75
369.767	96.75
369.993	83.75
370.219	95.75
370.445	85.75
370.672	98.75
370.898	87.75
371.124	78.75
371.35	78.75
371.576	90.75
371.802	89.75
372.028	86.75
372.254	94.75
372.48	87.75
372.706	88.75
372.932	94.75
373.158	96.75
373.384	87.75
373.61	89.75
373.835	80.75
374.061	97.75
374.287	99.75
374.513	105.75
374.739	86.75
374.965	81.75
375.191	96.75
375.416	96.75
375.642	88.75
375.868	89.75
376.094	79.75
376.319	78.75
376.545	89.75
376.771	85.75
376.997	79.75
377.222	95.75
377.448	84.75
377.674	80.75
377.899	82.75
378.125	93.75
378.35	89.75
378.576	90.75
378.802	83.75
379.027	89.75
379.253	100.75
379.478	95.75
379.704	102.75
379.929	104.75
380.155	96.75
380.38	107.75
380.606	82.75
380.831	94.75
381.057	104.75
381.282	105.75
381.507	94.75
381.733	94.75
381.958	91.75
382.184	82.75
382.409	99.75
382.634	86.75
382.86	86.75
383.085	100.75
383.31	92.75
383.535	92.75
383.761	98.75
383.986	92.75
384.211	97.75
384.436	94.75
384.662	91.75
384.887	87.75
385.112	96.75
385.337	104.75
385.562	87.75
385.787	89.75
386.013	103.75
386.238	87.75
386.463	110.75
386.688	93.75
386.913	100.75
387.138	78.75
387.363	86.75
387.588	95.75
387.813	96.75
388.038	95.75
388.263	97.75
388.488	103.75
388.713	110.75
388.938	94.75
389.163	98.75
389.387	93.75
389.612	102.75
389.837	94.75
390.062	87.75
390.287	104.75
390.512	99.75
390.736	83.75
390.961	81.75
391.186	99.75
391.411	107.75
391.636	107.75
391.86	103.75
392.085	105.75
392.31	100.75
392.534	112.75
392.759	108.75
392.984	101.75
393.208	101.75
393.433	108.75
393.658	98.75
393.882	99.75
394.107	90.75
394.331	105.75
394.556	109.75
394.78	94.75
395.005	105.75
395.229	121.75
395.454	112.75
395.678	100.75
395.903	109.75
396.127	104.75
396.352	97.75
396.576	103.75
396.801	104.75
397.025	105.75
397.249	97.75
397.474	123.75
397.698	104.75
397.922	108.75
398.147	100.75
398.371	110.75
398.595	109.75
398.82	105.75
399.044	115.75
399.268	105.75
399.492	97.75
399.717	123.75
399.941	119.75
400.165	100.75
400.389	100.75
400.613	111.75
400.837	99.75
401.062	116.75
401.286	102.75
401.51	95.75
401.734	117.75
401.958	119.75
402.182	121.75
402.406	114.75
402.63	94.75
402.854	114.75
403.078	119.75
403.302	108.75
403.526	98.75
403.75	113.75
403.974	104.75
404.198	100.75
404.422	111.75
404.645	120.75
404.869	119.75
405.093	97.75
405.317	118.75
405.541	112.75
405.765	100.75
405.988	101.75
406.212	116.75
406.436	108.75
406.66	122.75
406.883	115.75
407.107	105.75
407.331	124.75
407.555	120.75
407.778	94.75
408.002	112.75
408.226	116.75
408.449	125.75
408.673	121.75
408.896	124.75
409.12	122.75
409.344	112.75
409.567	104.75
409.791	116.75
410.014	123.75
410.238	118.75
410.461	99.75
410.685	109.75
410.908	114.75
411.132	117.75
411.355	113.75
411.578	119.75
411.802	116.75
412.025	124.75
412.249	126.75
412.472	125.75
412.695	105.75
412.919	127.75
413.142	123.75
413.365	112.75
413.589	120.75
413.812	107.75
414.035	124.75
414.258	126.75
414.482	138.75
414.705	126.75
414.928	113.75
415.151	128.75
415.374	121.75
415.597	135.75
415.821	130.75
416.044	106.75
416.267	118.75
416.49	112.75
416.713	118.75
416.936	131.75
417.159	124.75
417.382	125.75
417.605	120.75
417.828	129.75
418.051	112.75
418.274	99.75
418.497	118.75
418.72	120.75
418.943	126.75
419.166	130.75
419.389	126.75
419.611	136.75
419.834	136.75
420.057	129.75
420.28	132.75
420.503	137.75
420.726	129.75
420.948	130.75
421.171	126.75
421.394	120.75
421.617	139.75
421.839	128.75
422.062	126.75
422.285	128.75
422.507	122.75
422.73	122.75
422.953	122.75
423.175	118.75
423.398	116.75
423.621	133.75
423.843	128.75
424.066	138.75
424.288	126.75
424.511	126.75
424.733	141.75
424.956	130.75
425.178	142.75
425.401	147.75
425.623	140.75
425.846	136.75
426.068	118.75
426.291	114.75
426.513	113.75
426.735	130.75
426.958	126.75
427.18	116.75
427.402	117.75
427.625	123.75
427.847	121.75
428.069	118.75
428.292	107.75
428.514	121.75
428.736	134.75
428.958	98.75
429.181	108.75
429.403	112.75
429.625	134.75
429.847	132.75
430.069	129.75
430.292	128.75
430.514	132.75
430.736	135.75
430.958	131.75
431.18	115.75
431.402	109.75
431.624	121.75
431.846	101.75
432.068	90.75
432.29	102.75
432.512	112.75
432.734	124.75
432.956	126.75
433.178	115.75
433.4	132.75
433.622	126.75
433.844	124.75
434.066	120.75
434.287	110.75
434.509	83.75
434.731	104.75
434.953	116.75
435.175	122.75
435.397	118.75
435.618	117.75
435.84	105.75
436.062	117.75
436.284	126.75
436.505	127.75
436.727	144.75
436.949	120.75
437.17	121.75
437.392	129.75
437.614	118.75
437.835	104.75
438.057	112.75
438.278	119.75
438.5	113.75
438.721	120.75
438.943	127.75
439.165	146.75
439.386	142.75
439.608	144.75
439.829	130.75
440.05	137.75
440.272	144.75
440.493	144.75
440.715	135.75
440.936	154.75
441.158	138.75
441.379	144.75
441.6	154.75
441.822	143.75
442.043	144.75
442.264	149.75
442.486	136.75
442.707	134.75
442.928	130.75
443.149	136.75
443.371	138.75
443.592	125.75
443.813	121.75
444.034	129.75
444.255	131.75
444.476	126.75
444.698	136.75
444.919	129.75
445.14	265.75
445.361	208.75
445.582	151.75
445.803	142.75
446.024	158.75
446.245	152.75
446.466	158.75
446.687	150.75
446.908	152.75
447.129	143.75
447.35	137.75
447.571	131.75
447.792	135.75
448.013	133.75
448.234	141.75
448.455	146.75
448.675	139.75
448.896	132.75
449.117	123.75
449.338	122.75
449.559	140.75
449.779	129.75
450	138.75
450.221	128.75
450.442	144.75
450.662	118.75
450.883	123.75
451.104	135.75
451.324	144.75
451.545	123.75
451.766	124.75
451.986	120.75
452.207	122.75
452.428	114.75
452.648	112.75
452.869	120.75
453.089	126.75
453.31	101.75
453.53	103.75
453.751	96.75
453.971	101.75
454.192	105.75
454.412	114.75
454.633	112.75
454.853	112.75
455.073	115.75
455.294	125.75
455.514	106.75
455.734	116.75
455.955	118.75
456.175	109.75
456.395	101.75
456.616	114.75
456.836	103.75
457.056	107.75
457.276	105.75
457.497	91.75
457.717	90.75
457.937	107.75
458.157	99.75
458.377	105.75
458.598	97.75
458.818	97.75
459.038	76.75
459.258	94.75
459.478	94.75
459.698	84.75
459.918	89.75
460.138	100.75
460.358	115.75
460.578	118.75
460.798	106.75
461.018	103.75
461.238	107.75
461.458	110.75
461.678	104.75
461.898	110.75
462.118	117.75
462.338	101.75
462.558	113.75
462.777	105.75
462.997	114.75
463.217	106.75
463.437	113.75
463.657	112.75
463.876	88.75
464.096	99.75
464.316	101.75
464.536	105.75
464.755	124.75
464.975	97.75
465.195	121.75
465.414	115.75
465.634	113.75
465.854	112.75
466.073	113.75
466.293	125.75
466.512	120.75
466.732	128.75
466.951	117.75
467.171	109.75
467.391	146.75
467.61	138.75
467.829	127.75
468.049	127.75
468.268	129.75
468.488	138.75
468.707	122.75
468.927	144.75
469.146	129.75
469.365	124.75
469.585	145.75
469.804	128.75
470.023	148.75
470.243	143.75
470.462	140.75
470.681	126.75
470.901	135.75
471.12	138.75
471.339	131.75
471.558	137.75
471.777	144.75
471.997	130.75
472.216	119.75
472.435	124.75
472.654	98.75
472.873	110.75
473.092	114.75
473.311	121.75
473.53	119.75
473.749	135.75
473.968	121.75
474.187	117.75
474.406	113.75
474.625	123.75
474.844	121.75
475.063	128.75
475.282	117.75
475.501	122.75
475.72	105.75
475.939	114.75
476.158	105.75
476.377	135.75
476.596	121.75
476.814	124.75
477.033	105.75
477.252	119.75
477.471	109.75
477.69	123.75
477.908	138.75
478.127	146.75
478.346	123.75
478.564	144.75
478.783	140.75
479.002	136.75
479.22	139.75
479.439	131.75
479.658	130.75
479.876	110.75
480.095	119.75
480.313	131.75
480.532	120.75
480.751	112.75
480.969	84.75
481.188	83.75
481.406	85.75
481.624	78.75
481.843	90.75
482.061	85.75
482.28	105.75
482.498	88.75
482.717	99.75
482.935	129.75
483.153	132.75
483.372	129.75
483.59	146.75
483.808	144.75
484.027	123.75
484.245	135.75
484.463	139.75
484.681	167.75
484.9	141.75
485.118	124.75
485.336	116.75
485.554	103.75
485.772	98.75
485.99	111.75
486.209	117.75
486.427	108.75
486.645	126.75
486.863	149.75
487.081	127.75
487.299	124.75
487.517	128.75
487.735	157.75
487.953	180.75
488.171	178.75
488.389	168.75
488.607	154.75
488.825	144.75
489.043	128.75
489.261	134.75
489.479	137.75
489.696	144.75
489.914	151.75
490.132	139.75
490.35	143.75
490.568	160.75
490.786	163.75
491.003	172.75
491.221	176.75
491.439	162.75
491.657	187.75
491.874	201.75
492.092	228.75
492.31	227.75
492.527	228.75
492.745	207.75
492.963	200.75
493.18	180.75
493.398	176.75
493.615	168.75
493.833	174.75
494.05	176.75
494.268	174.75
494.485	179.75
494.703	169.75
494.92	172.75
495.138	160.75
495.355	162.75
495.573	162.75
495.79	175.75
496.008	161.75
496.225	164.75
496.442	172.75
496.66	181.75
496.877	149.75
497.094	176.75
497.312	164.75
497.529	160.75
497.746	138.75
497.963	140.75
498.181	130.75
498.398	127.75
498.615	115.75
498.832	124.75
499.049	112.75
499.267	136.75
499.484	105.75
499.701	144.75
499.918	140.75
500.135	118.75
500.352	130.75
500.569	147.75
500.786	157.75
501.003	148.75
501.22	131.75
501.437	128.75
501.654	121.75
501.871	130.75
502.088	136.75
502.305	128.75
502.522	117.75
502.739	110.75
502.956	116.75
503.172	116.75
503.389	127.75
503.606	121.75
503.823	118.75
504.04	109.75
504.256	118.75
504.473	116.75
504.69	104.75
504.907	120.75
505.123	118.75
505.34	121.75
505.557	123.75
505.773	117.75
505.99	114.75
506.207	119.75
506.423	105.75
506.64	127.75
506.856	105.75
507.073	120.75
507.289	126.75
507.506	102.75
507.722	122.75
507.939	114.75
508.155	111.75
508.372	118.75
508.588	103.75
508.805	103.75
509.021	80.75
509.238	104.75
509.454	100.75
509.67	95.75
509.887	117.75
510.103	96.75
510.319	82.75
510.536	89.75
510.752	79.75
510.968	85.75
511.184	81.75
511.401	87.75
511.617	78.75
511.833	88.75
512.049	87.75
