Data from Location2.07152019.Energy5.Lamp.07192019.3%Agarose_HRD10591_14-57-11-359.txt Node
Date: Fri Jul 19 14:57:11 EDT 2019
User: cochatt
Spectrometer: HR+D1059
Trigger mode: 1
Integration Time (sec): 1.000000E-1
Scans to average: 1
Electric dark correction enabled: true
Nonlinearity correction enabled: false
Boxcar width: 0
XAxis mode: Wavelengths
Number of Pixels in Spectrum: 2048
>>>>>Begin Spectral Data<<<<<
223.165	1.12
223.4	1.12
223.635	1.12
223.869	-7.88
224.104	-11.88
224.338	-12.88
224.573	-15.88
224.808	-12.88
225.042	-12.88
225.277	-5.88
225.511	1.12
225.746	-7.88
225.98	14.12
226.215	11.12
226.449	10.12
226.683	4.12
226.918	12.12
227.152	34.12
227.387	31.12
227.621	32.12
227.856	43.12
228.09	46.12
228.324	35.12
228.559	55.12
228.793	66.12
229.027	58.12
229.262	62.12
229.496	69.12
229.73	62.12
229.964	76.12
230.199	66.12
230.433	75.12
230.667	82.12
230.901	69.12
231.136	75.12
231.37	80.12
231.604	72.12
231.838	94.12
232.072	83.12
232.306	77.12
232.541	87.12
232.775	88.12
233.009	67.12
233.243	78.12
233.477	88.12
233.711	69.12
233.945	85.12
234.179	80.12
234.413	81.12
234.647	82.12
234.881	72.12
235.115	82.12
235.349	79.12
235.583	80.12
235.817	85.12
236.051	77.12
236.285	85.12
236.519	67.12
236.753	85.12
236.987	66.12
237.221	91.12
237.455	84.12
237.689	92.12
237.922	66.12
238.156	70.12
238.39	78.12
238.624	80.12
238.858	83.12
239.091	84.12
239.325	83.12
239.559	64.12
239.793	77.12
240.027	67.12
240.26	85.12
240.494	66.12
240.728	75.12
240.961	88.12
241.195	76.12
241.429	88.12
241.662	77.12
241.896	81.12
242.13	80.12
242.363	84.12
242.597	71.12
242.83	77.12
243.064	67.12
243.298	66.12
243.531	74.12
243.765	80.12
243.998	71.12
244.232	73.12
244.465	85.12
244.699	97.12
244.932	85.12
245.166	81.12
245.399	85.12
245.633	75.12
245.866	72.12
246.099	75.12
246.333	81.12
246.566	84.12
246.8	89.12
247.033	81.12
247.266	80.12
247.5	79.12
247.733	77.12
247.966	76.12
248.2	71.12
248.433	84.12
248.666	70.12
248.899	67.12
249.133	74.12
249.366	78.12
249.599	86.12
249.832	79.12
250.066	89.12
250.299	72.12
250.532	71.12
250.765	74.12
250.998	76.12
251.231	84.12
251.465	75.12
251.698	79.12
251.931	74.12
252.164	75.12
252.397	75.12
252.63	82.12
252.863	94.12
253.096	72.12
253.329	91.12
253.562	80.12
253.795	69.12
254.028	76.12
254.261	83.12
254.494	78.12
254.727	92.12
254.96	87.12
255.193	89.12
255.426	80.12
255.659	78.12
255.892	89.12
256.124	88.12
256.357	84.12
256.59	72.12
256.823	75.12
257.056	80.12
257.289	89.12
257.521	72.12
257.754	92.12
257.987	81.12
258.22	95.12
258.452	66.12
258.685	89.12
258.918	82.12
259.151	86.12
259.383	81.12
259.616	86.12
259.849	81.12
260.081	70.12
260.314	89.12
260.547	92.12
260.779	90.12
261.012	79.12
261.244	78.12
261.477	105.12
261.71	64.12
261.942	91.12
262.175	76.12
262.407	77.12
262.64	83.12
262.872	95.12
263.105	83.12
263.337	104.12
263.57	80.12
263.802	80.12
264.035	71.12
264.267	84.12
264.499	76.12
264.732	74.12
264.964	80.12
265.197	74.12
265.429	82.12
265.661	79.12
265.894	82.12
266.126	83.12
266.358	83.12
266.591	84.12
266.823	92.12
267.055	83.12
267.287	83.12
267.52	76.12
267.752	89.12
267.984	79.12
268.216	75.12
268.448	77.12
268.681	67.12
268.913	76.12
269.145	89.12
269.377	97.12
269.609	71.12
269.841	90.12
270.073	88.12
270.306	98.12
270.538	80.12
270.77	77.12
271.002	76.12
271.234	84.12
271.466	95.12
271.698	83.12
271.93	86.12
272.162	90.12
272.394	75.12
272.626	58.12
272.858	86.12
273.09	86.12
273.322	82.12
273.553	73.12
273.785	80.12
274.017	78.12
274.249	89.12
274.481	77.12
274.713	94.12
274.945	82.12
275.176	73.12
275.408	82.12
275.64	80.12
275.872	75.12
276.104	77.12
276.335	87.12
276.567	81.12
276.799	76.12
277.031	85.12
277.262	80.12
277.494	80.12
277.726	81.12
277.957	85.12
278.189	91.12
278.421	76.12
278.652	71.12
278.884	79.12
279.115	80.12
279.347	84.12
279.579	80.12
279.81	79.12
280.042	84.12
280.273	82.12
280.505	89.12
280.736	77.12
280.968	87.12
281.199	88.12
281.431	97.12
281.662	84.12
281.894	72.12
282.125	81.12
282.356	87.12
282.588	83.12
282.819	96.12
283.051	70.12
283.282	75.12
283.513	103.12
283.745	99.12
283.976	87.12
284.207	78.12
284.439	82.12
284.67	85.12
284.901	87.12
285.132	89.12
285.364	84.12
285.595	81.12
285.826	88.12
286.057	77.12
286.288	96.12
286.52	83.12
286.751	79.12
286.982	84.12
287.213	74.12
287.444	87.12
287.675	83.12
287.906	97.12
288.138	81.12
288.369	100.12
288.6	87.12
288.831	83.12
289.062	71.12
289.293	82.12
289.524	79.12
289.755	84.12
289.986	81.12
290.217	73.12
290.448	78.12
290.679	88.12
290.91	77.12
291.141	73.12
291.371	83.12
291.602	92.12
291.833	97.12
292.064	80.12
292.295	88.12
292.526	84.12
292.757	90.12
292.987	79.12
293.218	75.12
293.449	81.12
293.68	72.12
293.91	78.12
294.141	78.12
294.372	84.12
294.603	76.12
294.833	77.12
295.064	86.12
295.295	94.12
295.525	95.12
295.756	71.12
295.987	82.12
296.217	90.12
296.448	73.12
296.679	81.12
296.909	87.12
297.14	87.12
297.37	78.12
297.601	87.12
297.831	93.12
298.062	89.12
298.292	91.12
298.523	94.12
298.753	80.12
298.984	89.12
299.214	73.12
299.445	80.12
299.675	87.12
299.905	97.12
300.136	77.12
300.366	75.12
300.597	77.12
300.827	94.12
301.057	83.12
301.288	82.12
301.518	94.12
301.748	90.12
301.979	74.12
302.209	95.12
302.439	89.12
302.669	87.12
302.9	85.12
303.13	86.12
303.36	86.12
303.59	90.12
303.82	82.12
304.051	78.12
304.281	75.12
304.511	98.12
304.741	75.12
304.971	81.12
305.201	84.12
305.431	79.12
305.661	79.12
305.891	71.12
306.121	82.12
306.352	83.12
306.582	81.12
306.812	89.12
307.042	87.12
307.272	88.12
307.502	80.12
307.731	83.12
307.961	81.12
308.191	84.12
308.421	74.12
308.651	76.12
308.881	94.12
309.111	93.12
309.341	95.12
309.571	81.12
309.8	78.12
310.03	87.12
310.26	73.12
310.49	90.12
310.72	91.12
310.949	96.12
311.179	91.12
311.409	80.12
311.639	79.12
311.868	92.12
312.098	96.12
312.328	80.12
312.557	81.12
312.787	89.12
313.017	78.12
313.246	71.12
313.476	82.12
313.706	94.12
313.935	94.12
314.165	87.12
314.394	76.12
314.624	77.12
314.853	86.12
315.083	84.12
315.312	93.12
315.542	82.12
315.771	76.12
316.001	89.12
316.23	89.12
316.46	78.12
316.689	91.12
316.919	88.12
317.148	79.12
317.377	84.12
317.607	81.12
317.836	85.12
318.065	96.12
318.295	80.12
318.524	95.12
318.753	88.12
318.983	88.12
319.212	92.12
319.441	94.12
319.67	98.12
319.9	95.12
320.129	84.12
320.358	99.12
320.587	87.12
320.816	90.12
321.046	77.12
321.275	83.12
321.504	73.12
321.733	72.12
321.962	83.12
322.191	86.12
322.42	96.12
322.649	79.12
322.878	72.12
323.108	78.12
323.337	86.12
323.566	97.12
323.795	85.12
324.024	85.12
324.253	76.12
324.482	82.12
324.71	95.12
324.939	91.12
325.168	76.12
325.397	91.12
325.626	108.12
325.855	94.12
326.084	89.12
326.313	94.12
326.542	89.12
326.77	74.12
326.999	91.12
327.228	90.12
327.457	88.12
327.686	74.12
327.914	79.12
328.143	66.12
328.372	89.12
328.6	85.12
328.829	90.12
329.058	95.12
329.287	89.12
329.515	87.12
329.744	90.12
329.972	82.12
330.201	101.12
330.43	97.12
330.658	80.12
330.887	91.12
331.115	85.12
331.344	74.12
331.572	85.12
331.801	95.12
332.03	90.12
332.258	74.12
332.486	85.12
332.715	81.12
332.943	87.12
333.172	84.12
333.4	77.12
333.629	91.12
333.857	90.12
334.085	77.12
334.314	95.12
334.542	80.12
334.771	87.12
334.999	81.12
335.227	85.12
335.455	98.12
335.684	89.12
335.912	80.12
336.14	94.12
336.369	80.12
336.597	91.12
336.825	87.12
337.053	82.12
337.281	99.12
337.51	79.12
337.738	85.12
337.966	74.12
338.194	84.12
338.422	90.12
338.65	89.12
338.878	72.12
339.106	87.12
339.334	75.12
339.562	81.12
339.79	94.12
340.018	85.12
340.246	89.12
340.474	83.12
340.702	88.12
340.93	87.12
341.158	93.12
341.386	74.12
341.614	76.12
341.842	87.12
342.07	76.12
342.298	90.12
342.526	83.12
342.754	82.12
342.981	84.12
343.209	79.12
343.437	97.12
343.665	88.12
343.893	80.12
344.12	87.12
344.348	85.12
344.576	74.12
344.804	86.12
345.031	74.12
345.259	86.12
345.487	77.12
345.714	69.12
345.942	88.12
346.17	94.12
346.397	89.12
346.625	93.12
346.853	89.12
347.08	73.12
347.308	78.12
347.535	81.12
347.763	94.12
347.99	94.12
348.218	76.12
348.445	86.12
348.673	80.12
348.9	79.12
349.128	90.12
349.355	89.12
349.583	75.12
349.81	65.12
350.037	92.12
350.265	104.12
350.492	83.12
350.72	83.12
350.947	67.12
351.174	79.12
351.402	80.12
351.629	84.12
351.856	99.12
352.083	87.12
352.311	81.12
352.538	77.12
352.765	83.12
352.992	72.12
353.22	94.12
353.447	93.12
353.674	80.12
353.901	88.12
354.128	99.12
354.355	80.12
354.583	81.12
354.81	96.12
355.037	90.12
355.264	84.12
355.491	88.12
355.718	83.12
355.945	79.12
356.172	91.12
356.399	87.12
356.626	84.12
356.853	87.12
357.08	78.12
357.307	76.12
357.534	82.12
357.761	91.12
357.988	83.12
358.215	79.12
358.441	86.12
358.668	84.12
358.895	81.12
359.122	79.12
359.349	107.12
359.576	83.12
359.802	80.12
360.029	80.12
360.256	75.12
360.483	88.12
360.709	81.12
360.936	75.12
361.163	83.12
361.39	91.12
361.616	75.12
361.843	88.12
362.07	83.12
362.296	79.12
362.523	85.12
362.749	90.12
362.976	95.12
363.203	93.12
363.429	82.12
363.656	91.12
363.882	81.12
364.109	89.12
364.335	99.12
364.562	81.12
364.788	76.12
365.015	90.12
365.241	84.12
365.468	71.12
365.694	83.12
365.92	92.12
366.147	85.12
366.373	99.12
366.599	80.12
366.826	100.12
367.052	83.12
367.278	84.12
367.505	91.12
367.731	85.12
367.957	83.12
368.184	84.12
368.41	99.12
368.636	83.12
368.862	88.12
369.089	94.12
369.315	83.12
369.541	110.12
369.767	92.12
369.993	88.12
370.219	91.12
370.445	90.12
370.672	97.12
370.898	90.12
371.124	84.12
371.35	79.12
371.576	90.12
371.802	89.12
372.028	89.12
372.254	88.12
372.48	105.12
372.706	78.12
372.932	80.12
373.158	111.12
373.384	90.12
373.61	85.12
373.835	88.12
374.061	101.12
374.287	97.12
374.513	83.12
374.739	101.12
374.965	86.12
375.191	90.12
375.416	84.12
375.642	82.12
375.868	96.12
376.094	87.12
376.319	88.12
376.545	78.12
376.771	97.12
376.997	87.12
377.222	92.12
377.448	90.12
377.674	84.12
377.899	106.12
378.125	110.12
378.35	85.12
378.576	90.12
378.802	99.12
379.027	98.12
379.253	106.12
379.478	90.12
379.704	97.12
379.929	107.12
380.155	105.12
380.38	88.12
380.606	89.12
380.831	99.12
381.057	98.12
381.282	94.12
381.507	100.12
381.733	97.12
381.958	104.12
382.184	89.12
382.409	86.12
382.634	106.12
382.86	101.12
383.085	95.12
383.31	90.12
383.535	103.12
383.761	98.12
383.986	90.12
384.211	102.12
384.436	119.12
384.662	114.12
384.887	114.12
385.112	81.12
385.337	106.12
385.562	94.12
385.787	101.12
386.013	115.12
386.238	110.12
386.463	98.12
386.688	105.12
386.913	98.12
387.138	95.12
387.363	109.12
387.588	105.12
387.813	94.12
388.038	106.12
388.263	117.12
388.488	108.12
388.713	98.12
388.938	96.12
389.163	100.12
389.387	103.12
389.612	102.12
389.837	101.12
390.062	103.12
390.287	90.12
390.512	105.12
390.736	89.12
390.961	88.12
391.186	103.12
391.411	102.12
391.636	115.12
391.86	102.12
392.085	100.12
392.31	95.12
392.534	107.12
392.759	101.12
392.984	107.12
393.208	100.12
393.433	114.12
393.658	112.12
393.882	100.12
394.107	114.12
394.331	101.12
394.556	100.12
394.78	105.12
395.005	102.12
395.229	114.12
395.454	112.12
395.678	106.12
395.903	106.12
396.127	112.12
396.352	117.12
396.576	114.12
396.801	110.12
397.025	120.12
397.249	94.12
397.474	96.12
397.698	115.12
397.922	107.12
398.147	108.12
398.371	99.12
398.595	115.12
398.82	110.12
399.044	119.12
399.268	102.12
399.492	107.12
399.717	94.12
399.941	109.12
400.165	115.12
400.389	112.12
400.613	108.12
400.837	97.12
401.062	112.12
401.286	119.12
401.51	114.12
401.734	113.12
401.958	108.12
402.182	120.12
402.406	103.12
402.63	113.12
402.854	112.12
403.078	108.12
403.302	112.12
403.526	119.12
403.75	106.12
403.974	114.12
404.198	117.12
404.422	126.12
404.645	103.12
404.869	119.12
405.093	118.12
405.317	112.12
405.541	119.12
405.765	114.12
405.988	121.12
406.212	116.12
406.436	111.12
406.66	124.12
406.883	112.12
407.107	121.12
407.331	102.12
407.555	119.12
407.778	119.12
408.002	115.12
408.226	115.12
408.449	126.12
408.673	128.12
408.896	128.12
409.12	112.12
409.344	107.12
409.567	102.12
409.791	110.12
410.014	115.12
410.238	123.12
410.461	101.12
410.685	108.12
410.908	133.12
411.132	132.12
411.355	128.12
411.578	114.12
411.802	120.12
412.025	124.12
412.249	120.12
412.472	126.12
412.695	120.12
412.919	125.12
413.142	120.12
413.365	114.12
413.589	114.12
413.812	118.12
414.035	122.12
414.258	135.12
414.482	118.12
414.705	111.12
414.928	123.12
415.151	121.12
415.374	123.12
415.597	118.12
415.821	105.12
416.044	133.12
416.267	122.12
416.49	112.12
416.713	131.12
416.936	113.12
417.159	123.12
417.382	123.12
417.605	134.12
417.828	121.12
418.051	126.12
418.274	146.12
418.497	116.12
418.72	131.12
418.943	143.12
419.166	121.12
419.389	119.12
419.611	125.12
419.834	128.12
420.057	128.12
420.28	124.12
420.503	122.12
420.726	122.12
420.948	116.12
421.171	137.12
421.394	136.12
421.617	140.12
421.839	131.12
422.062	130.12
422.285	131.12
422.507	129.12
422.73	122.12
422.953	131.12
423.175	130.12
423.398	129.12
423.621	135.12
423.843	129.12
424.066	133.12
424.288	138.12
424.511	159.12
424.733	136.12
424.956	132.12
425.178	128.12
425.401	127.12
425.623	140.12
425.846	138.12
426.068	120.12
426.291	122.12
426.513	121.12
426.735	130.12
426.958	138.12
427.18	132.12
427.402	135.12
427.625	138.12
427.847	130.12
428.069	119.12
428.292	114.12
428.514	126.12
428.736	122.12
428.958	123.12
429.181	125.12
429.403	122.12
429.625	120.12
429.847	129.12
430.069	119.12
430.292	132.12
430.514	144.12
430.736	134.12
430.958	129.12
431.18	130.12
431.402	121.12
431.624	110.12
431.846	103.12
432.068	93.12
432.29	91.12
432.512	104.12
432.734	121.12
432.956	130.12
433.178	127.12
433.4	126.12
433.622	118.12
433.844	134.12
434.066	112.12
434.287	114.12
434.509	100.12
434.731	93.12
434.953	96.12
435.175	126.12
435.397	130.12
435.618	103.12
435.84	112.12
436.062	120.12
436.284	125.12
436.505	117.12
436.727	127.12
436.949	128.12
437.17	125.12
437.392	130.12
437.614	129.12
437.835	134.12
438.057	106.12
438.278	118.12
438.5	128.12
438.721	129.12
438.943	134.12
439.165	147.12
439.386	144.12
439.608	132.12
439.829	133.12
440.05	162.12
440.272	145.12
440.493	140.12
440.715	138.12
440.936	146.12
441.158	152.12
441.379	147.12
441.6	145.12
441.822	151.12
442.043	136.12
442.264	132.12
442.486	136.12
442.707	139.12
442.928	131.12
443.149	133.12
443.371	133.12
443.592	130.12
443.813	133.12
444.034	138.12
444.255	149.12
444.476	131.12
444.698	129.12
444.919	135.12
445.14	270.12
445.361	198.12
445.582	160.12
445.803	140.12
446.024	134.12
446.245	139.12
446.466	151.12
446.687	150.12
446.908	157.12
447.129	147.12
447.35	144.12
447.571	136.12
447.792	128.12
448.013	145.12
448.234	131.12
448.455	134.12
448.675	143.12
448.896	124.12
449.117	139.12
449.338	122.12
449.559	146.12
449.779	142.12
450	135.12
450.221	134.12
450.442	137.12
450.662	134.12
450.883	124.12
451.104	137.12
451.324	127.12
451.545	129.12
451.766	147.12
451.986	129.12
452.207	120.12
452.428	130.12
452.648	134.12
452.869	128.12
453.089	116.12
453.31	113.12
453.53	97.12
453.751	98.12
453.971	99.12
454.192	104.12
454.412	103.12
454.633	132.12
454.853	120.12
455.073	131.12
455.294	118.12
455.514	124.12
455.734	115.12
455.955	122.12
456.175	107.12
456.395	110.12
456.616	120.12
456.836	123.12
457.056	114.12
457.276	107.12
457.497	101.12
457.717	117.12
457.937	116.12
458.157	104.12
458.377	105.12
458.598	102.12
458.818	101.12
459.038	86.12
459.258	102.12
459.478	77.12
459.698	83.12
459.918	99.12
460.138	110.12
460.358	102.12
460.578	122.12
460.798	108.12
461.018	106.12
461.238	123.12
461.458	122.12
461.678	111.12
461.898	120.12
462.118	133.12
462.338	119.12
462.558	113.12
462.777	112.12
462.997	111.12
463.217	112.12
463.437	106.12
463.657	104.12
463.876	103.12
464.096	107.12
464.316	112.12
464.536	116.12
464.755	124.12
464.975	116.12
465.195	112.12
465.414	113.12
465.634	117.12
465.854	112.12
466.073	110.12
466.293	111.12
466.512	121.12
466.732	126.12
466.951	119.12
467.171	134.12
467.391	126.12
467.61	131.12
467.829	136.12
468.049	153.12
468.268	134.12
468.488	121.12
468.707	128.12
468.927	143.12
469.146	130.12
469.365	134.12
469.585	125.12
469.804	145.12
470.023	136.12
470.243	147.12
470.462	141.12
470.681	131.12
470.901	142.12
471.12	144.12
471.339	132.12
471.558	136.12
471.777	143.12
471.997	125.12
472.216	127.12
472.435	101.12
472.654	106.12
472.873	106.12
473.092	121.12
473.311	131.12
473.53	112.12
473.749	119.12
473.968	126.12
474.187	135.12
474.406	124.12
474.625	112.12
474.844	123.12
475.063	130.12
475.282	135.12
475.501	126.12
475.72	115.12
475.939	133.12
476.158	120.12
476.377	132.12
476.596	124.12
476.814	120.12
477.033	110.12
477.252	122.12
477.471	138.12
477.69	130.12
477.908	122.12
478.127	139.12
478.346	124.12
478.564	130.12
478.783	123.12
479.002	131.12
479.22	144.12
479.439	126.12
479.658	135.12
479.876	111.12
480.095	108.12
480.313	115.12
480.532	119.12
480.751	127.12
480.969	107.12
481.188	85.12
481.406	93.12
481.624	107.12
481.843	97.12
482.061	101.12
482.28	103.12
482.498	99.12
482.717	106.12
482.935	126.12
483.153	137.12
483.372	141.12
483.59	146.12
483.808	128.12
484.027	114.12
484.245	118.12
484.463	131.12
484.681	158.12
484.9	129.12
485.118	138.12
485.336	135.12
485.554	126.12
485.772	122.12
485.99	104.12
486.209	109.12
486.427	107.12
486.645	119.12
486.863	128.12
487.081	128.12
487.299	140.12
487.517	146.12
487.735	158.12
487.953	175.12
488.171	185.12
488.389	166.12
488.607	166.12
488.825	140.12
489.043	132.12
489.261	139.12
489.479	130.12
489.696	123.12
489.914	139.12
490.132	155.12
490.35	156.12
490.568	154.12
490.786	171.12
491.003	186.12
491.221	172.12
491.439	177.12
491.657	196.12
491.874	171.12
492.092	214.12
492.31	247.12
492.527	219.12
492.745	200.12
492.963	202.12
493.18	181.12
493.398	179.12
493.615	172.12
493.833	183.12
494.05	162.12
494.268	170.12
494.485	181.12
494.703	186.12
494.92	177.12
495.138	167.12
495.355	168.12
495.573	178.12
495.79	181.12
496.008	156.12
496.225	165.12
496.442	187.12
496.66	175.12
496.877	158.12
497.094	161.12
497.312	170.12
497.529	154.12
497.746	146.12
497.963	142.12
498.181	148.12
498.398	122.12
498.615	116.12
498.832	123.12
499.049	116.12
499.267	114.12
499.484	113.12
499.701	128.12
499.918	130.12
500.135	140.12
500.352	136.12
500.569	140.12
500.786	145.12
501.003	139.12
501.22	154.12
501.437	128.12
501.654	128.12
501.871	120.12
502.088	126.12
502.305	146.12
502.522	134.12
502.739	133.12
502.956	134.12
503.172	125.12
503.389	120.12
503.606	130.12
503.823	125.12
504.04	127.12
504.256	128.12
504.473	123.12
504.69	121.12
504.907	113.12
505.123	124.12
505.34	118.12
505.557	119.12
505.773	117.12
505.99	128.12
506.207	119.12
506.423	120.12
506.64	127.12
506.856	120.12
507.073	112.12
507.289	120.12
507.506	110.12
507.722	112.12
507.939	111.12
508.155	130.12
508.372	119.12
508.588	122.12
508.805	120.12
509.021	99.12
509.238	118.12
509.454	100.12
509.67	91.12
509.887	101.12
510.103	101.12
510.319	103.12
510.536	96.12
510.752	77.12
510.968	87.12
511.184	88.12
511.401	85.12
