Data from Location2.07152019.Energy5.Lamp.07192019.3%Agarose_HRD10591_14-56-44-358.txt Node
Date: Fri Jul 19 14:56:44 EDT 2019
User: cochatt
Spectrometer: HR+D1059
Trigger mode: 1
Integration Time (sec): 1.000000E-1
Scans to average: 1
Electric dark correction enabled: true
Nonlinearity correction enabled: false
Boxcar width: 0
XAxis mode: Wavelengths
Number of Pixels in Spectrum: 2048
>>>>>Begin Spectral Data<<<<<
223.165	-9.69
223.4	-9.69
223.635	-9.69
223.869	-17.69
224.104	-4.69
224.338	-24.69
224.573	-11.69
224.808	-16.69
225.042	-8.69
225.277	8.31
225.511	-12.69
225.746	11.31
225.98	4.31
226.215	-1.69
226.449	20.31
226.683	19.31
226.918	13.31
227.152	31.31
227.387	45.31
227.621	27.31
227.856	40.31
228.09	42.31
228.324	47.31
228.559	50.31
228.793	52.31
229.027	64.31
229.262	68.31
229.496	52.31
229.73	78.31
229.964	86.31
230.199	72.31
230.433	70.31
230.667	67.31
230.901	68.31
231.136	77.31
231.37	77.31
231.604	84.31
231.838	85.31
232.072	80.31
232.306	82.31
232.541	77.31
232.775	91.31
233.009	89.31
233.243	83.31
233.477	80.31
233.711	92.31
233.945	84.31
234.179	87.31
234.413	86.31
234.647	85.31
234.881	80.31
235.115	84.31
235.349	84.31
235.583	87.31
235.817	70.31
236.051	82.31
236.285	79.31
236.519	74.31
236.753	74.31
236.987	68.31
237.221	78.31
237.455	81.31
237.689	80.31
237.922	61.31
238.156	87.31
238.39	84.31
238.624	88.31
238.858	77.31
239.091	67.31
239.325	77.31
239.559	78.31
239.793	89.31
240.027	82.31
240.26	62.31
240.494	69.31
240.728	76.31
240.961	68.31
241.195	84.31
241.429	82.31
241.662	79.31
241.896	51.31
242.13	72.31
242.363	79.31
242.597	81.31
242.83	85.31
243.064	83.31
243.298	75.31
243.531	76.31
243.765	79.31
243.998	88.31
244.232	95.31
244.465	63.31
244.699	80.31
244.932	83.31
245.166	99.31
245.399	79.31
245.633	69.31
245.866	86.31
246.099	82.31
246.333	83.31
246.566	72.31
246.8	76.31
247.033	76.31
247.266	84.31
247.5	79.31
247.733	76.31
247.966	69.31
248.2	74.31
248.433	79.31
248.666	71.31
248.899	72.31
249.133	83.31
249.366	82.31
249.599	76.31
249.832	74.31
250.066	83.31
250.299	70.31
250.532	84.31
250.765	80.31
250.998	68.31
251.231	87.31
251.465	83.31
251.698	87.31
251.931	73.31
252.164	82.31
252.397	75.31
252.63	92.31
252.863	79.31
253.096	71.31
253.329	88.31
253.562	89.31
253.795	86.31
254.028	83.31
254.261	74.31
254.494	76.31
254.727	86.31
254.96	73.31
255.193	77.31
255.426	86.31
255.659	71.31
255.892	72.31
256.124	79.31
256.357	72.31
256.59	72.31
256.823	74.31
257.056	81.31
257.289	76.31
257.521	95.31
257.754	79.31
257.987	75.31
258.22	74.31
258.452	86.31
258.685	96.31
258.918	83.31
259.151	77.31
259.383	75.31
259.616	70.31
259.849	75.31
260.081	79.31
260.314	80.31
260.547	80.31
260.779	79.31
261.012	92.31
261.244	84.31
261.477	104.31
261.71	76.31
261.942	82.31
262.175	74.31
262.407	85.31
262.64	85.31
262.872	86.31
263.105	72.31
263.337	92.31
263.57	77.31
263.802	71.31
264.035	81.31
264.267	79.31
264.499	88.31
264.732	96.31
264.964	84.31
265.197	77.31
265.429	85.31
265.661	79.31
265.894	82.31
266.126	77.31
266.358	87.31
266.591	76.31
266.823	86.31
267.055	75.31
267.287	75.31
267.52	83.31
267.752	90.31
267.984	69.31
268.216	94.31
268.448	83.31
268.681	68.31
268.913	90.31
269.145	90.31
269.377	83.31
269.609	87.31
269.841	76.31
270.073	91.31
270.306	77.31
270.538	78.31
270.77	77.31
271.002	79.31
271.234	75.31
271.466	82.31
271.698	86.31
271.93	83.31
272.162	84.31
272.394	75.31
272.626	82.31
272.858	96.31
273.09	85.31
273.322	73.31
273.553	78.31
273.785	75.31
274.017	79.31
274.249	67.31
274.481	84.31
274.713	78.31
274.945	85.31
275.176	83.31
275.408	82.31
275.64	83.31
275.872	77.31
276.104	71.31
276.335	76.31
276.567	66.31
276.799	94.31
277.031	83.31
277.262	77.31
277.494	84.31
277.726	70.31
277.957	81.31
278.189	69.31
278.421	87.31
278.652	83.31
278.884	86.31
279.115	89.31
279.347	88.31
279.579	74.31
279.81	83.31
280.042	103.31
280.273	87.31
280.505	62.31
280.736	94.31
280.968	99.31
281.199	86.31
281.431	87.31
281.662	88.31
281.894	80.31
282.125	85.31
282.356	87.31
282.588	76.31
282.819	93.31
283.051	79.31
283.282	79.31
283.513	106.31
283.745	96.31
283.976	81.31
284.207	77.31
284.439	77.31
284.67	76.31
284.901	93.31
285.132	83.31
285.364	93.31
285.595	79.31
285.826	80.31
286.057	87.31
286.288	90.31
286.52	83.31
286.751	85.31
286.982	97.31
287.213	92.31
287.444	91.31
287.675	76.31
287.906	94.31
288.138	85.31
288.369	65.31
288.6	77.31
288.831	87.31
289.062	83.31
289.293	72.31
289.524	78.31
289.755	91.31
289.986	80.31
290.217	77.31
290.448	78.31
290.679	85.31
290.91	88.31
291.141	87.31
291.371	76.31
291.602	84.31
291.833	78.31
292.064	90.31
292.295	89.31
292.526	72.31
292.757	85.31
292.987	88.31
293.218	92.31
293.449	93.31
293.68	86.31
293.91	82.31
294.141	85.31
294.372	93.31
294.603	87.31
294.833	80.31
295.064	77.31
295.295	97.31
295.525	89.31
295.756	95.31
295.987	83.31
296.217	89.31
296.448	90.31
296.679	83.31
296.909	86.31
297.14	83.31
297.37	89.31
297.601	85.31
297.831	77.31
298.062	97.31
298.292	89.31
298.523	80.31
298.753	84.31
298.984	90.31
299.214	83.31
299.445	83.31
299.675	88.31
299.905	93.31
300.136	79.31
300.366	85.31
300.597	85.31
300.827	94.31
301.057	81.31
301.288	103.31
301.518	91.31
301.748	78.31
301.979	79.31
302.209	76.31
302.439	91.31
302.669	77.31
302.9	84.31
303.13	81.31
303.36	80.31
303.59	80.31
303.82	80.31
304.051	86.31
304.281	86.31
304.511	71.31
304.741	75.31
304.971	74.31
305.201	89.31
305.431	92.31
305.661	69.31
305.891	95.31
306.121	77.31
306.352	87.31
306.582	74.31
306.812	89.31
307.042	87.31
307.272	94.31
307.502	92.31
307.731	69.31
307.961	101.31
308.191	90.31
308.421	79.31
308.651	90.31
308.881	91.31
309.111	69.31
309.341	87.31
309.571	78.31
309.8	83.31
310.03	78.31
310.26	92.31
310.49	91.31
310.72	77.31
310.949	95.31
311.179	89.31
311.409	87.31
311.639	81.31
311.868	82.31
312.098	93.31
312.328	81.31
312.557	75.31
312.787	96.31
313.017	86.31
313.246	98.31
313.476	96.31
313.706	83.31
313.935	86.31
314.165	103.31
314.394	75.31
314.624	90.31
314.853	87.31
315.083	87.31
315.312	79.31
315.542	83.31
315.771	81.31
316.001	96.31
316.23	82.31
316.46	83.31
316.689	92.31
316.919	80.31
317.148	83.31
317.377	77.31
317.607	81.31
317.836	89.31
318.065	91.31
318.295	104.31
318.524	86.31
318.753	66.31
318.983	78.31
319.212	98.31
319.441	100.31
319.67	71.31
319.9	87.31
320.129	95.31
320.358	87.31
320.587	90.31
320.816	101.31
321.046	67.31
321.275	88.31
321.504	82.31
321.733	83.31
321.962	86.31
322.191	77.31
322.42	99.31
322.649	93.31
322.878	91.31
323.108	82.31
323.337	87.31
323.566	83.31
323.795	98.31
324.024	82.31
324.253	83.31
324.482	85.31
324.71	84.31
324.939	89.31
325.168	75.31
325.397	83.31
325.626	92.31
325.855	81.31
326.084	87.31
326.313	79.31
326.542	83.31
326.77	81.31
326.999	85.31
327.228	98.31
327.457	92.31
327.686	96.31
327.914	93.31
328.143	79.31
328.372	85.31
328.6	83.31
328.829	82.31
329.058	72.31
329.287	74.31
329.515	77.31
329.744	77.31
329.972	81.31
330.201	82.31
330.43	81.31
330.658	75.31
330.887	72.31
331.115	96.31
331.344	86.31
331.572	87.31
331.801	82.31
332.03	88.31
332.258	83.31
332.486	87.31
332.715	90.31
332.943	93.31
333.172	85.31
333.4	82.31
333.629	86.31
333.857	84.31
334.085	74.31
334.314	85.31
334.542	79.31
334.771	86.31
334.999	87.31
335.227	76.31
335.455	87.31
335.684	90.31
335.912	73.31
336.14	81.31
336.369	88.31
336.597	90.31
336.825	95.31
337.053	71.31
337.281	75.31
337.51	93.31
337.738	81.31
337.966	70.31
338.194	81.31
338.422	82.31
338.65	86.31
338.878	98.31
339.106	88.31
339.334	78.31
339.562	92.31
339.79	85.31
340.018	79.31
340.246	75.31
340.474	88.31
340.702	92.31
340.93	90.31
341.158	84.31
341.386	87.31
341.614	88.31
341.842	81.31
342.07	79.31
342.298	89.31
342.526	84.31
342.754	76.31
342.981	102.31
343.209	89.31
343.437	100.31
343.665	73.31
343.893	84.31
344.12	101.31
344.348	78.31
344.576	79.31
344.804	93.31
345.031	82.31
345.259	79.31
345.487	91.31
345.714	84.31
345.942	92.31
346.17	90.31
346.397	87.31
346.625	100.31
346.853	91.31
347.08	83.31
347.308	79.31
347.535	85.31
347.763	97.31
347.99	83.31
348.218	89.31
348.445	90.31
348.673	67.31
348.9	91.31
349.128	92.31
349.355	96.31
349.583	97.31
349.81	87.31
350.037	89.31
350.265	82.31
350.492	85.31
350.72	83.31
350.947	76.31
351.174	87.31
351.402	79.31
351.629	81.31
351.856	82.31
352.083	99.31
352.311	73.31
352.538	80.31
352.765	86.31
352.992	82.31
353.22	74.31
353.447	85.31
353.674	97.31
353.901	94.31
354.128	88.31
354.355	90.31
354.583	85.31
354.81	82.31
355.037	87.31
355.264	80.31
355.491	99.31
355.718	75.31
355.945	98.31
356.172	103.31
356.399	88.31
356.626	104.31
356.853	97.31
357.08	87.31
357.307	80.31
357.534	75.31
357.761	92.31
357.988	72.31
358.215	73.31
358.441	87.31
358.668	74.31
358.895	83.31
359.122	78.31
359.349	86.31
359.576	87.31
359.802	72.31
360.029	86.31
360.256	80.31
360.483	74.31
360.709	89.31
360.936	87.31
361.163	78.31
361.39	73.31
361.616	85.31
361.843	79.31
362.07	76.31
362.296	79.31
362.523	95.31
362.749	79.31
362.976	82.31
363.203	84.31
363.429	74.31
363.656	85.31
363.882	74.31
364.109	84.31
364.335	76.31
364.562	85.31
364.788	85.31
365.015	85.31
365.241	85.31
365.468	88.31
365.694	80.31
365.92	86.31
366.147	81.31
366.373	76.31
366.599	72.31
366.826	107.31
367.052	84.31
367.278	80.31
367.505	76.31
367.731	94.31
367.957	97.31
368.184	82.31
368.41	76.31
368.636	96.31
368.862	93.31
369.089	95.31
369.315	92.31
369.541	90.31
369.767	96.31
369.993	87.31
370.219	92.31
370.445	84.31
370.672	88.31
370.898	98.31
371.124	81.31
371.35	83.31
371.576	87.31
371.802	105.31
372.028	102.31
372.254	92.31
372.48	79.31
372.706	103.31
372.932	96.31
373.158	96.31
373.384	98.31
373.61	87.31
373.835	86.31
374.061	106.31
374.287	83.31
374.513	98.31
374.739	88.31
374.965	83.31
375.191	90.31
375.416	88.31
375.642	98.31
375.868	84.31
376.094	84.31
376.319	84.31
376.545	98.31
376.771	106.31
376.997	114.31
377.222	88.31
377.448	92.31
377.674	85.31
377.899	101.31
378.125	96.31
378.35	92.31
378.576	106.31
378.802	85.31
379.027	99.31
379.253	95.31
379.478	89.31
379.704	77.31
379.929	106.31
380.155	88.31
380.38	74.31
380.606	100.31
380.831	97.31
381.057	100.31
381.282	99.31
381.507	98.31
381.733	99.31
381.958	103.31
382.184	92.31
382.409	87.31
382.634	92.31
382.86	95.31
383.085	89.31
383.31	92.31
383.535	106.31
383.761	89.31
383.986	93.31
384.211	83.31
384.436	81.31
384.662	102.31
384.887	98.31
385.112	87.31
385.337	83.31
385.562	99.31
385.787	116.31
386.013	98.31
386.238	106.31
386.463	98.31
386.688	91.31
386.913	105.31
387.138	98.31
387.363	95.31
387.588	99.31
387.813	92.31
388.038	92.31
388.263	92.31
388.488	104.31
388.713	100.31
388.938	95.31
389.163	95.31
389.387	96.31
389.612	94.31
389.837	98.31
390.062	101.31
390.287	91.31
390.512	96.31
390.736	109.31
390.961	102.31
391.186	90.31
391.411	112.31
391.636	107.31
391.86	98.31
392.085	104.31
392.31	111.31
392.534	114.31
392.759	86.31
392.984	103.31
393.208	112.31
393.433	109.31
393.658	113.31
393.882	107.31
394.107	106.31
394.331	101.31
394.556	100.31
394.78	106.31
395.005	107.31
395.229	103.31
395.454	112.31
395.678	103.31
395.903	105.31
396.127	119.31
396.352	125.31
396.576	112.31
396.801	99.31
397.025	102.31
397.249	121.31
397.474	110.31
397.698	108.31
397.922	100.31
398.147	123.31
398.371	105.31
398.595	113.31
398.82	114.31
399.044	116.31
399.268	105.31
399.492	104.31
399.717	102.31
399.941	123.31
400.165	130.31
400.389	121.31
400.613	113.31
400.837	113.31
401.062	108.31
401.286	117.31
401.51	113.31
401.734	114.31
401.958	112.31
402.182	105.31
402.406	104.31
402.63	114.31
402.854	121.31
403.078	107.31
403.302	119.31
403.526	128.31
403.75	121.31
403.974	126.31
404.198	130.31
404.422	132.31
404.645	114.31
404.869	123.31
405.093	114.31
405.317	115.31
405.541	122.31
405.765	112.31
405.988	115.31
406.212	122.31
406.436	115.31
406.66	128.31
406.883	119.31
407.107	114.31
407.331	117.31
407.555	115.31
407.778	127.31
408.002	128.31
408.226	113.31
408.449	130.31
408.673	113.31
408.896	101.31
409.12	125.31
409.344	123.31
409.567	118.31
409.791	121.31
410.014	125.31
410.238	131.31
410.461	128.31
410.685	120.31
410.908	109.31
411.132	128.31
411.355	116.31
411.578	114.31
411.802	115.31
412.025	109.31
412.249	129.31
412.472	107.31
412.695	121.31
412.919	113.31
413.142	129.31
413.365	121.31
413.589	121.31
413.812	120.31
414.035	121.31
414.258	122.31
414.482	114.31
414.705	122.31
414.928	132.31
415.151	116.31
415.374	114.31
415.597	119.31
415.821	141.31
416.044	127.31
416.267	117.31
416.49	120.31
416.713	122.31
416.936	100.31
417.159	134.31
417.382	122.31
417.605	125.31
417.828	117.31
418.051	137.31
418.274	145.31
418.497	130.31
418.72	133.31
418.943	139.31
419.166	134.31
419.389	143.31
419.611	121.31
419.834	125.31
420.057	139.31
420.28	126.31
420.503	141.31
420.726	133.31
420.948	129.31
421.171	138.31
421.394	137.31
421.617	126.31
421.839	132.31
422.062	136.31
422.285	139.31
422.507	132.31
422.73	127.31
422.953	114.31
423.175	131.31
423.398	144.31
423.621	127.31
423.843	122.31
424.066	127.31
424.288	129.31
424.511	128.31
424.733	129.31
424.956	136.31
425.178	130.31
425.401	131.31
425.623	144.31
425.846	135.31
426.068	139.31
426.291	128.31
426.513	124.31
426.735	132.31
426.958	119.31
427.18	135.31
427.402	115.31
427.625	137.31
427.847	122.31
428.069	135.31
428.292	136.31
428.514	129.31
428.736	134.31
428.958	130.31
429.181	136.31
429.403	135.31
429.625	145.31
429.847	132.31
430.069	138.31
430.292	138.31
430.514	135.31
430.736	133.31
430.958	131.31
431.18	135.31
431.402	130.31
431.624	124.31
431.846	116.31
432.068	98.31
432.29	101.31
432.512	105.31
432.734	122.31
432.956	144.31
433.178	129.31
433.4	126.31
433.622	139.31
433.844	131.31
434.066	122.31
434.287	109.31
434.509	103.31
434.731	107.31
434.953	123.31
435.175	124.31
435.397	145.31
435.618	124.31
435.84	116.31
436.062	118.31
436.284	120.31
436.505	130.31
436.727	131.31
436.949	123.31
437.17	127.31
437.392	123.31
437.614	121.31
437.835	122.31
438.057	110.31
438.278	105.31
438.5	127.31
438.721	139.31
438.943	141.31
439.165	140.31
439.386	130.31
439.608	140.31
439.829	142.31
440.05	144.31
440.272	146.31
440.493	143.31
440.715	139.31
440.936	165.31
441.158	131.31
441.379	146.31
441.6	137.31
441.822	143.31
442.043	152.31
442.264	147.31
442.486	131.31
442.707	125.31
442.928	150.31
443.149	141.31
443.371	131.31
443.592	134.31
443.813	139.31
444.034	145.31
444.255	139.31
444.476	140.31
444.698	152.31
444.919	143.31
445.14	272.31
445.361	205.31
445.582	155.31
445.803	147.31
446.024	145.31
446.245	157.31
446.466	155.31
446.687	142.31
446.908	137.31
447.129	155.31
447.35	131.31
447.571	162.31
447.792	146.31
448.013	149.31
448.234	117.31
448.455	148.31
448.675	137.31
448.896	153.31
449.117	139.31
449.338	144.31
449.559	137.31
449.779	140.31
450	140.31
450.221	135.31
450.442	151.31
450.662	132.31
450.883	135.31
451.104	127.31
451.324	125.31
451.545	134.31
451.766	131.31
451.986	114.31
452.207	148.31
452.428	127.31
452.648	131.31
452.869	117.31
453.089	127.31
453.31	99.31
453.53	101.31
453.751	112.31
453.971	106.31
454.192	99.31
454.412	102.31
454.633	109.31
454.853	118.31
455.073	115.31
455.294	107.31
455.514	117.31
455.734	128.31
455.955	111.31
456.175	120.31
456.395	115.31
456.616	115.31
456.836	104.31
457.056	110.31
457.276	98.31
457.497	107.31
457.717	100.31
457.937	108.31
458.157	104.31
458.377	101.31
458.598	106.31
458.818	104.31
459.038	92.31
459.258	88.31
459.478	97.31
459.698	99.31
459.918	100.31
460.138	113.31
460.358	127.31
460.578	119.31
460.798	116.31
461.018	122.31
461.238	117.31
461.458	109.31
461.678	109.31
461.898	123.31
462.118	117.31
462.338	108.31
462.558	98.31
462.777	116.31
462.997	119.31
463.217	107.31
463.437	108.31
463.657	119.31
463.876	110.31
464.096	116.31
464.316	117.31
464.536	130.31
464.755	116.31
464.975	109.31
465.195	113.31
465.414	121.31
465.634	119.31
465.854	120.31
466.073	106.31
466.293	123.31
466.512	132.31
466.732	134.31
466.951	114.31
467.171	135.31
467.391	141.31
467.61	127.31
467.829	122.31
468.049	133.31
468.268	141.31
468.488	128.31
468.707	133.31
468.927	124.31
469.146	148.31
469.365	148.31
469.585	147.31
469.804	139.31
470.023	135.31
470.243	148.31
470.462	147.31
470.681	135.31
470.901	138.31
471.12	140.31
471.339	156.31
471.558	151.31
471.777	128.31
471.997	139.31
472.216	122.31
472.435	128.31
472.654	123.31
472.873	121.31
473.092	113.31
473.311	102.31
473.53	131.31
473.749	132.31
473.968	133.31
474.187	112.31
474.406	123.31
474.625	120.31
474.844	132.31
475.063	117.31
475.282	121.31
475.501	125.31
475.72	132.31
475.939	114.31
476.158	135.31
476.377	135.31
476.596	123.31
476.814	132.31
477.033	122.31
477.252	104.31
477.471	133.31
477.69	127.31
477.908	136.31
478.127	147.31
478.346	148.31
478.564	120.31
478.783	133.31
479.002	131.31
479.22	145.31
479.439	135.31
479.658	128.31
479.876	119.31
480.095	112.31
480.313	117.31
480.532	106.31
480.751	108.31
480.969	89.31
481.188	84.31
481.406	84.31
481.624	95.31
481.843	88.31
482.061	104.31
482.28	105.31
482.498	108.31
482.717	111.31
482.935	133.31
483.153	147.31
483.372	151.31
483.59	146.31
483.808	142.31
484.027	137.31
484.245	132.31
484.463	142.31
484.681	140.31
484.9	147.31
485.118	143.31
485.336	136.31
485.554	115.31
485.772	104.31
485.99	105.31
486.209	96.31
486.427	121.31
486.645	127.31
486.863	132.31
487.081	146.31
487.299	127.31
487.517	146.31
487.735	161.31
487.953	191.31
488.171	186.31
488.389	172.31
488.607	150.31
488.825	139.31
489.043	123.31
489.261	127.31
489.479	148.31
489.696	139.31
489.914	131.31
490.132	145.31
490.35	155.31
490.568	163.31
490.786	177.31
491.003	173.31
491.221	184.31
491.439	193.31
491.657	172.31
491.874	210.31
492.092	208.31
492.31	223.31
492.527	214.31
492.745	198.31
492.963	187.31
493.18	186.31
493.398	183.31
493.615	162.31
493.833	179.31
494.05	170.31
494.268	175.31
494.485	183.31
494.703	175.31
494.92	180.31
495.138	178.31
495.355	176.31
495.573	184.31
495.79	183.31
496.008	168.31
496.225	157.31
496.442	163.31
496.66	165.31
496.877	146.31
497.094	170.31
497.312	163.31
497.529	145.31
497.746	152.31
497.963	134.31
498.181	137.31
498.398	125.31
498.615	107.31
498.832	134.31
499.049	123.31
499.267	113.31
499.484	134.31
499.701	128.31
499.918	137.31
500.135	131.31
500.352	125.31
500.569	143.31
500.786	140.31
501.003	146.31
501.22	141.31
501.437	152.31
501.654	119.31
501.871	130.31
502.088	124.31
502.305	150.31
502.522	131.31
502.739	131.31
502.956	133.31
503.172	131.31
503.389	124.31
503.606	121.31
503.823	128.31
504.04	136.31
504.256	125.31
504.473	125.31
504.69	136.31
504.907	138.31
505.123	116.31
505.34	124.31
505.557	132.31
505.773	109.31
505.99	115.31
506.207	108.31
506.423	124.31
506.64	102.31
506.856	109.31
507.073	115.31
507.289	127.31
507.506	114.31
507.722	115.31
507.939	107.31
508.155	117.31
508.372	117.31
508.588	101.31
508.805	120.31
509.021	103.31
509.238	106.31
509.454	97.31
509.67	107.31
509.887	107.31
510.103	96.31
510.319	96.31
510.536	103.31
510.752	99.31
510.968	65.31
511.184	80.31
511.401	77.31
