Data from Location2.07152019.Energy5.Lamp.07192019.3%Agarose_HRD10591_14-55-54-359.txt Node
Date: Fri Jul 19 14:55:54 EDT 2019
User: cochatt
Spectrometer: HR+D1059
Trigger mode: 1
Integration Time (sec): 1.000000E-1
Scans to average: 1
Electric dark correction enabled: true
Nonlinearity correction enabled: false
Boxcar width: 0
XAxis mode: Wavelengths
Number of Pixels in Spectrum: 2048
>>>>>Begin Spectral Data<<<<<
223.165	-25.56
223.4	-25.56
223.635	-25.56
223.869	-18.56
224.104	-20.56
224.338	-19.56
224.573	-8.56
224.808	-9.56
225.042	-18.56
225.277	-0.56
225.511	1.44
225.746	6.44
225.98	17.44
226.215	13.44
226.449	3.44
226.683	18.44
226.918	29.44
227.152	31.44
227.387	38.44
227.621	31.44
227.856	55.44
228.09	45.44
228.324	30.44
228.559	51.44
228.793	60.44
229.027	68.44
229.262	71.44
229.496	74.44
229.73	74.44
229.964	67.44
230.199	87.44
230.433	79.44
230.667	73.44
230.901	79.44
231.136	91.44
231.37	71.44
231.604	84.44
231.838	86.44
232.072	76.44
232.306	75.44
232.541	86.44
232.775	74.44
233.009	80.44
233.243	85.44
233.477	90.44
233.711	86.44
233.945	87.44
234.179	82.44
234.413	84.44
234.647	93.44
234.881	70.44
235.115	87.44
235.349	82.44
235.583	73.44
235.817	76.44
236.051	81.44
236.285	78.44
236.519	77.44
236.753	71.44
236.987	74.44
237.221	89.44
237.455	83.44
237.689	79.44
237.922	89.44
238.156	64.44
238.39	78.44
238.624	77.44
238.858	80.44
239.091	72.44
239.325	76.44
239.559	80.44
239.793	75.44
240.027	83.44
240.26	67.44
240.494	74.44
240.728	83.44
240.961	68.44
241.195	78.44
241.429	93.44
241.662	79.44
241.896	71.44
242.13	84.44
242.363	85.44
242.597	75.44
242.83	73.44
243.064	79.44
243.298	71.44
243.531	75.44
243.765	83.44
243.998	83.44
244.232	74.44
244.465	82.44
244.699	52.44
244.932	58.44
245.166	76.44
245.399	92.44
245.633	84.44
245.866	90.44
246.099	69.44
246.333	66.44
246.566	75.44
246.8	75.44
247.033	69.44
247.266	86.44
247.5	78.44
247.733	76.44
247.966	85.44
248.2	90.44
248.433	71.44
248.666	99.44
248.899	84.44
249.133	75.44
249.366	92.44
249.599	72.44
249.832	97.44
250.066	82.44
250.299	79.44
250.532	83.44
250.765	79.44
250.998	74.44
251.231	94.44
251.465	92.44
251.698	81.44
251.931	90.44
252.164	83.44
252.397	83.44
252.63	83.44
252.863	88.44
253.096	80.44
253.329	90.44
253.562	89.44
253.795	60.44
254.028	85.44
254.261	79.44
254.494	75.44
254.727	78.44
254.96	89.44
255.193	83.44
255.426	91.44
255.659	78.44
255.892	81.44
256.124	75.44
256.357	89.44
256.59	80.44
256.823	79.44
257.056	69.44
257.289	78.44
257.521	73.44
257.754	77.44
257.987	98.44
258.22	79.44
258.452	67.44
258.685	92.44
258.918	69.44
259.151	79.44
259.383	74.44
259.616	86.44
259.849	82.44
260.081	93.44
260.314	69.44
260.547	77.44
260.779	82.44
261.012	78.44
261.244	76.44
261.477	83.44
261.71	78.44
261.942	70.44
262.175	92.44
262.407	82.44
262.64	69.44
262.872	95.44
263.105	69.44
263.337	92.44
263.57	94.44
263.802	91.44
264.035	86.44
264.267	68.44
264.499	79.44
264.732	74.44
264.964	76.44
265.197	91.44
265.429	72.44
265.661	100.44
265.894	86.44
266.126	82.44
266.358	77.44
266.591	94.44
266.823	94.44
267.055	82.44
267.287	82.44
267.52	69.44
267.752	76.44
267.984	82.44
268.216	83.44
268.448	79.44
268.681	91.44
268.913	81.44
269.145	87.44
269.377	80.44
269.609	82.44
269.841	76.44
270.073	83.44
270.306	82.44
270.538	88.44
270.77	99.44
271.002	85.44
271.234	76.44
271.466	106.44
271.698	91.44
271.93	77.44
272.162	75.44
272.394	80.44
272.626	78.44
272.858	86.44
273.09	83.44
273.322	89.44
273.553	85.44
273.785	94.44
274.017	81.44
274.249	74.44
274.481	73.44
274.713	83.44
274.945	79.44
275.176	80.44
275.408	83.44
275.64	79.44
275.872	81.44
276.104	83.44
276.335	90.44
276.567	85.44
276.799	81.44
277.031	77.44
277.262	98.44
277.494	91.44
277.726	95.44
277.957	82.44
278.189	90.44
278.421	85.44
278.652	85.44
278.884	98.44
279.115	66.44
279.347	77.44
279.579	96.44
279.81	85.44
280.042	90.44
280.273	81.44
280.505	66.44
280.736	78.44
280.968	83.44
281.199	89.44
281.431	79.44
281.662	80.44
281.894	80.44
282.125	82.44
282.356	107.44
282.588	87.44
282.819	82.44
283.051	96.44
283.282	88.44
283.513	93.44
283.745	75.44
283.976	94.44
284.207	77.44
284.439	86.44
284.67	90.44
284.901	82.44
285.132	83.44
285.364	98.44
285.595	87.44
285.826	77.44
286.057	82.44
286.288	80.44
286.52	92.44
286.751	87.44
286.982	92.44
287.213	81.44
287.444	83.44
287.675	98.44
287.906	95.44
288.138	92.44
288.369	91.44
288.6	91.44
288.831	75.44
289.062	90.44
289.293	73.44
289.524	85.44
289.755	80.44
289.986	83.44
290.217	91.44
290.448	76.44
290.679	83.44
290.91	93.44
291.141	79.44
291.371	85.44
291.602	70.44
291.833	88.44
292.064	78.44
292.295	85.44
292.526	73.44
292.757	90.44
292.987	80.44
293.218	87.44
293.449	86.44
293.68	70.44
293.91	84.44
294.141	83.44
294.372	85.44
294.603	83.44
294.833	97.44
295.064	77.44
295.295	85.44
295.525	86.44
295.756	80.44
295.987	80.44
296.217	91.44
296.448	81.44
296.679	88.44
296.909	100.44
297.14	86.44
297.37	77.44
297.601	87.44
297.831	90.44
298.062	93.44
298.292	86.44
298.523	98.44
298.753	90.44
298.984	99.44
299.214	92.44
299.445	87.44
299.675	77.44
299.905	80.44
300.136	84.44
300.366	79.44
300.597	84.44
300.827	94.44
301.057	92.44
301.288	90.44
301.518	83.44
301.748	83.44
301.979	86.44
302.209	92.44
302.439	92.44
302.669	85.44
302.9	91.44
303.13	67.44
303.36	94.44
303.59	78.44
303.82	81.44
304.051	92.44
304.281	98.44
304.511	77.44
304.741	83.44
304.971	94.44
305.201	76.44
305.431	98.44
305.661	88.44
305.891	84.44
306.121	90.44
306.352	96.44
306.582	81.44
306.812	85.44
307.042	74.44
307.272	89.44
307.502	78.44
307.731	83.44
307.961	100.44
308.191	79.44
308.421	82.44
308.651	93.44
308.881	79.44
309.111	92.44
309.341	78.44
309.571	80.44
309.8	90.44
310.03	70.44
310.26	77.44
310.49	79.44
310.72	92.44
310.949	80.44
311.179	85.44
311.409	100.44
311.639	83.44
311.868	89.44
312.098	92.44
312.328	93.44
312.557	90.44
312.787	95.44
313.017	79.44
313.246	90.44
313.476	93.44
313.706	75.44
313.935	83.44
314.165	91.44
314.394	91.44
314.624	93.44
314.853	117.44
315.083	81.44
315.312	89.44
315.542	83.44
315.771	82.44
316.001	88.44
316.23	76.44
316.46	83.44
316.689	94.44
316.919	99.44
317.148	95.44
317.377	82.44
317.607	90.44
317.836	78.44
318.065	79.44
318.295	85.44
318.524	84.44
318.753	86.44
318.983	97.44
319.212	96.44
319.441	73.44
319.67	94.44
319.9	93.44
320.129	83.44
320.358	88.44
320.587	77.44
320.816	90.44
321.046	87.44
321.275	93.44
321.504	80.44
321.733	89.44
321.962	90.44
322.191	89.44
322.42	88.44
322.649	90.44
322.878	92.44
323.108	93.44
323.337	80.44
323.566	97.44
323.795	84.44
324.024	92.44
324.253	93.44
324.482	90.44
324.71	92.44
324.939	85.44
325.168	92.44
325.397	93.44
325.626	76.44
325.855	100.44
326.084	87.44
326.313	88.44
326.542	86.44
326.77	86.44
326.999	101.44
327.228	75.44
327.457	85.44
327.686	77.44
327.914	83.44
328.143	92.44
328.372	93.44
328.6	83.44
328.829	79.44
329.058	87.44
329.287	84.44
329.515	81.44
329.744	87.44
329.972	82.44
330.201	82.44
330.43	90.44
330.658	87.44
330.887	87.44
331.115	86.44
331.344	71.44
331.572	99.44
331.801	85.44
332.03	90.44
332.258	81.44
332.486	84.44
332.715	91.44
332.943	101.44
333.172	69.44
333.4	93.44
333.629	92.44
333.857	83.44
334.085	100.44
334.314	77.44
334.542	92.44
334.771	89.44
334.999	105.44
335.227	96.44
335.455	84.44
335.684	82.44
335.912	89.44
336.14	90.44
336.369	87.44
336.597	91.44
336.825	85.44
337.053	91.44
337.281	76.44
337.51	98.44
337.738	95.44
337.966	75.44
338.194	87.44
338.422	83.44
338.65	81.44
338.878	80.44
339.106	83.44
339.334	101.44
339.562	93.44
339.79	98.44
340.018	80.44
340.246	85.44
340.474	89.44
340.702	80.44
340.93	74.44
341.158	94.44
341.386	89.44
341.614	91.44
341.842	78.44
342.07	86.44
342.298	90.44
342.526	76.44
342.754	70.44
342.981	85.44
343.209	80.44
343.437	88.44
343.665	79.44
343.893	91.44
344.12	95.44
344.348	76.44
344.576	66.44
344.804	101.44
345.031	99.44
345.259	86.44
345.487	103.44
345.714	103.44
345.942	100.44
346.17	89.44
346.397	84.44
346.625	76.44
346.853	70.44
347.08	81.44
347.308	95.44
347.535	82.44
347.763	87.44
347.99	78.44
348.218	76.44
348.445	85.44
348.673	97.44
348.9	81.44
349.128	102.44
349.355	98.44
349.583	91.44
349.81	90.44
350.037	95.44
350.265	82.44
350.492	81.44
350.72	84.44
350.947	86.44
351.174	97.44
351.402	92.44
351.629	89.44
351.856	81.44
352.083	91.44
352.311	90.44
352.538	89.44
352.765	98.44
352.992	91.44
353.22	89.44
353.447	88.44
353.674	95.44
353.901	90.44
354.128	95.44
354.355	70.44
354.583	90.44
354.81	85.44
355.037	74.44
355.264	79.44
355.491	80.44
355.718	79.44
355.945	91.44
356.172	76.44
356.399	68.44
356.626	76.44
356.853	68.44
357.08	92.44
357.307	95.44
357.534	90.44
357.761	86.44
357.988	86.44
358.215	91.44
358.441	80.44
358.668	76.44
358.895	76.44
359.122	83.44
359.349	79.44
359.576	91.44
359.802	94.44
360.029	86.44
360.256	75.44
360.483	91.44
360.709	81.44
360.936	79.44
361.163	98.44
361.39	85.44
361.616	91.44
361.843	86.44
362.07	92.44
362.296	79.44
362.523	96.44
362.749	85.44
362.976	88.44
363.203	92.44
363.429	79.44
363.656	100.44
363.882	78.44
364.109	81.44
364.335	80.44
364.562	84.44
364.788	91.44
365.015	86.44
365.241	98.44
365.468	81.44
365.694	87.44
365.92	106.44
366.147	101.44
366.373	88.44
366.599	83.44
366.826	88.44
367.052	86.44
367.278	84.44
367.505	93.44
367.731	105.44
367.957	95.44
368.184	97.44
368.41	90.44
368.636	82.44
368.862	84.44
369.089	71.44
369.315	96.44
369.541	103.44
369.767	94.44
369.993	95.44
370.219	98.44
370.445	93.44
370.672	84.44
370.898	81.44
371.124	87.44
371.35	89.44
371.576	82.44
371.802	99.44
372.028	86.44
372.254	90.44
372.48	101.44
372.706	85.44
372.932	92.44
373.158	90.44
373.384	99.44
373.61	95.44
373.835	100.44
374.061	95.44
374.287	94.44
374.513	97.44
374.739	78.44
374.965	92.44
375.191	98.44
375.416	91.44
375.642	100.44
375.868	97.44
376.094	89.44
376.319	86.44
376.545	93.44
376.771	118.44
376.997	101.44
377.222	89.44
377.448	91.44
377.674	99.44
377.899	91.44
378.125	95.44
378.35	88.44
378.576	106.44
378.802	93.44
379.027	99.44
379.253	107.44
379.478	86.44
379.704	105.44
379.929	94.44
380.155	97.44
380.38	103.44
380.606	84.44
380.831	106.44
381.057	106.44
381.282	107.44
381.507	90.44
381.733	98.44
381.958	98.44
382.184	99.44
382.409	96.44
382.634	92.44
382.86	93.44
383.085	100.44
383.31	99.44
383.535	96.44
383.761	109.44
383.986	106.44
384.211	96.44
384.436	104.44
384.662	87.44
384.887	94.44
385.112	99.44
385.337	103.44
385.562	93.44
385.787	98.44
386.013	92.44
386.238	105.44
386.463	109.44
386.688	100.44
386.913	102.44
387.138	107.44
387.363	83.44
387.588	103.44
387.813	102.44
388.038	101.44
388.263	103.44
388.488	107.44
388.713	110.44
388.938	91.44
389.163	102.44
389.387	102.44
389.612	90.44
389.837	93.44
390.062	104.44
390.287	92.44
390.512	105.44
390.736	96.44
390.961	97.44
391.186	99.44
391.411	94.44
391.636	111.44
391.86	102.44
392.085	109.44
392.31	126.44
392.534	111.44
392.759	120.44
392.984	113.44
393.208	108.44
393.433	114.44
393.658	107.44
393.882	109.44
394.107	112.44
394.331	114.44
394.556	115.44
394.78	109.44
395.005	105.44
395.229	98.44
395.454	105.44
395.678	98.44
395.903	99.44
396.127	109.44
396.352	96.44
396.576	109.44
396.801	106.44
397.025	108.44
397.249	109.44
397.474	102.44
397.698	109.44
397.922	108.44
398.147	108.44
398.371	122.44
398.595	111.44
398.82	121.44
399.044	107.44
399.268	96.44
399.492	120.44
399.717	113.44
399.941	102.44
400.165	117.44
400.389	101.44
400.613	122.44
400.837	116.44
401.062	109.44
401.286	113.44
401.51	113.44
401.734	102.44
401.958	110.44
402.182	108.44
402.406	110.44
402.63	118.44
402.854	103.44
403.078	131.44
403.302	115.44
403.526	124.44
403.75	117.44
403.974	115.44
404.198	113.44
404.422	115.44
404.645	111.44
404.869	111.44
405.093	125.44
405.317	117.44
405.541	121.44
405.765	110.44
405.988	121.44
406.212	109.44
406.436	113.44
406.66	105.44
406.883	110.44
407.107	129.44
407.331	119.44
407.555	119.44
407.778	120.44
408.002	122.44
408.226	122.44
408.449	122.44
408.673	110.44
408.896	117.44
409.12	124.44
409.344	117.44
409.567	116.44
409.791	125.44
410.014	120.44
410.238	119.44
410.461	119.44
410.685	115.44
410.908	124.44
411.132	97.44
411.355	113.44
411.578	129.44
411.802	124.44
412.025	125.44
412.249	114.44
412.472	127.44
412.695	125.44
412.919	123.44
413.142	119.44
413.365	120.44
413.589	119.44
413.812	117.44
414.035	123.44
414.258	116.44
414.482	125.44
414.705	133.44
414.928	129.44
415.151	124.44
415.374	121.44
415.597	108.44
415.821	121.44
416.044	129.44
416.267	132.44
416.49	126.44
416.713	126.44
416.936	128.44
417.159	134.44
417.382	117.44
417.605	117.44
417.828	133.44
418.051	128.44
418.274	132.44
418.497	145.44
418.72	143.44
418.943	137.44
419.166	141.44
419.389	135.44
419.611	134.44
419.834	135.44
420.057	142.44
420.28	108.44
420.503	149.44
420.726	126.44
420.948	162.44
421.171	148.44
421.394	136.44
421.617	141.44
421.839	147.44
422.062	149.44
422.285	135.44
422.507	131.44
422.73	122.44
422.953	127.44
423.175	134.44
423.398	119.44
423.621	124.44
423.843	128.44
424.066	129.44
424.288	130.44
424.511	137.44
424.733	141.44
424.956	137.44
425.178	122.44
425.401	143.44
425.623	128.44
425.846	141.44
426.068	137.44
426.291	136.44
426.513	136.44
426.735	109.44
426.958	129.44
427.18	131.44
427.402	130.44
427.625	118.44
427.847	136.44
428.069	139.44
428.292	134.44
428.514	130.44
428.736	140.44
428.958	121.44
429.181	126.44
429.403	127.44
429.625	137.44
429.847	132.44
430.069	138.44
430.292	123.44
430.514	138.44
430.736	125.44
430.958	133.44
431.18	128.44
431.402	128.44
431.624	122.44
431.846	119.44
432.068	102.44
432.29	96.44
432.512	110.44
432.734	109.44
432.956	126.44
433.178	143.44
433.4	132.44
433.622	136.44
433.844	137.44
434.066	131.44
434.287	114.44
434.509	103.44
434.731	115.44
434.953	105.44
435.175	117.44
435.397	123.44
435.618	133.44
435.84	114.44
436.062	106.44
436.284	118.44
436.505	127.44
436.727	133.44
436.949	131.44
437.17	132.44
437.392	136.44
437.614	120.44
437.835	120.44
438.057	117.44
438.278	113.44
438.5	137.44
438.721	130.44
438.943	146.44
439.165	131.44
439.386	133.44
439.608	144.44
439.829	153.44
440.05	146.44
440.272	155.44
440.493	133.44
440.715	141.44
440.936	137.44
441.158	133.44
441.379	143.44
441.6	159.44
441.822	138.44
442.043	140.44
442.264	166.44
442.486	147.44
442.707	138.44
442.928	128.44
443.149	126.44
443.371	147.44
443.592	139.44
443.813	150.44
444.034	132.44
444.255	134.44
444.476	138.44
444.698	150.44
444.919	150.44
445.14	284.44
445.361	207.44
445.582	160.44
445.803	151.44
446.024	149.44
446.245	154.44
446.466	151.44
446.687	147.44
446.908	161.44
447.129	133.44
447.35	157.44
447.571	152.44
447.792	137.44
448.013	157.44
448.234	147.44
448.455	133.44
448.675	142.44
448.896	145.44
449.117	137.44
449.338	131.44
449.559	138.44
449.779	137.44
450	144.44
450.221	147.44
450.442	141.44
450.662	139.44
450.883	123.44
451.104	125.44
451.324	131.44
451.545	134.44
451.766	120.44
451.986	130.44
452.207	127.44
452.428	144.44
452.648	127.44
452.869	123.44
453.089	126.44
453.31	120.44
453.53	116.44
453.751	112.44
453.971	110.44
454.192	115.44
454.412	104.44
454.633	116.44
454.853	129.44
455.073	131.44
455.294	126.44
455.514	141.44
455.734	130.44
455.955	117.44
456.175	122.44
456.395	114.44
456.616	124.44
456.836	126.44
457.056	105.44
457.276	101.44
457.497	99.44
457.717	115.44
457.937	126.44
458.157	110.44
458.377	110.44
458.598	103.44
458.818	83.44
459.038	95.44
459.258	98.44
459.478	107.44
459.698	101.44
459.918	90.44
460.138	114.44
460.358	110.44
460.578	113.44
460.798	124.44
461.018	120.44
461.238	121.44
461.458	131.44
461.678	120.44
461.898	123.44
462.118	120.44
462.338	113.44
462.558	115.44
462.777	114.44
462.997	111.44
463.217	115.44
463.437	123.44
463.657	114.44
463.876	102.44
464.096	117.44
464.316	103.44
464.536	109.44
464.755	107.44
464.975	113.44
465.195	125.44
465.414	123.44
465.634	120.44
465.854	118.44
466.073	125.44
466.293	126.44
466.512	138.44
466.732	126.44
466.951	142.44
467.171	149.44
467.391	134.44
467.61	151.44
467.829	142.44
468.049	136.44
468.268	140.44
468.488	147.44
468.707	130.44
468.927	129.44
469.146	152.44
469.365	137.44
469.585	141.44
469.804	135.44
470.023	146.44
470.243	147.44
470.462	140.44
470.681	158.44
470.901	154.44
471.12	127.44
471.339	154.44
471.558	154.44
471.777	140.44
471.997	135.44
472.216	115.44
472.435	134.44
472.654	111.44
472.873	123.44
473.092	126.44
473.311	117.44
473.53	118.44
473.749	121.44
473.968	131.44
474.187	134.44
474.406	119.44
474.625	135.44
474.844	137.44
475.063	122.44
475.282	119.44
475.501	112.44
475.72	132.44
475.939	126.44
476.158	131.44
476.377	125.44
476.596	121.44
476.814	121.44
477.033	110.44
477.252	118.44
477.471	109.44
477.69	140.44
477.908	130.44
478.127	131.44
478.346	140.44
478.564	146.44
478.783	143.44
479.002	147.44
479.22	137.44
479.439	131.44
479.658	148.44
479.876	123.44
480.095	113.44
480.313	123.44
480.532	123.44
480.751	122.44
480.969	91.44
481.188	98.44
481.406	77.44
481.624	94.44
481.843	83.44
482.061	113.44
482.28	107.44
482.498	123.44
482.717	113.44
482.935	113.44
483.153	140.44
483.372	137.44
483.59	141.44
483.808	138.44
484.027	131.44
484.245	139.44
484.463	153.44
484.681	171.44
484.9	134.44
485.118	132.44
485.336	141.44
485.554	119.44
485.772	117.44
485.99	107.44
486.209	105.44
486.427	101.44
486.645	131.44
486.863	147.44
487.081	155.44
487.299	121.44
487.517	146.44
487.735	153.44
487.953	186.44
488.171	181.44
488.389	155.44
488.607	151.44
488.825	142.44
489.043	139.44
489.261	133.44
489.479	148.44
489.696	149.44
489.914	152.44
490.132	157.44
490.35	158.44
490.568	156.44
490.786	168.44
491.003	172.44
491.221	196.44
491.439	194.44
491.657	190.44
491.874	199.44
492.092	214.44
492.31	251.44
492.527	229.44
492.745	209.44
492.963	198.44
493.18	199.44
493.398	172.44
493.615	189.44
493.833	179.44
494.05	169.44
494.268	182.44
494.485	169.44
494.703	149.44
494.92	178.44
495.138	185.44
495.355	157.44
495.573	165.44
495.79	174.44
496.008	164.44
496.225	168.44
496.442	160.44
496.66	173.44
496.877	172.44
497.094	164.44
497.312	157.44
497.529	171.44
497.746	161.44
497.963	140.44
498.181	115.44
498.398	145.44
498.615	128.44
498.832	126.44
499.049	119.44
499.267	121.44
499.484	134.44
499.701	140.44
499.918	141.44
500.135	137.44
500.352	144.44
500.569	129.44
500.786	141.44
501.003	146.44
501.22	140.44
501.437	130.44
501.654	132.44
501.871	123.44
502.088	139.44
502.305	129.44
502.522	134.44
502.739	143.44
502.956	138.44
503.172	131.44
503.389	126.44
503.606	133.44
503.823	114.44
504.04	118.44
504.256	120.44
504.473	113.44
504.69	116.44
504.907	120.44
505.123	114.44
505.34	117.44
505.557	121.44
505.773	129.44
505.99	130.44
506.207	116.44
506.423	125.44
506.64	133.44
506.856	113.44
507.073	126.44
507.289	129.44
507.506	126.44
507.722	118.44
507.939	123.44
508.155	132.44
508.372	115.44
508.588	115.44
508.805	116.44
509.021	109.44
509.238	105.44
509.454	101.44
509.67	105.44
509.887	109.44
510.103	98.44
510.319	93.44
510.536	105.44
510.752	89.44
510.968	93.44
511.184	78.44
