Data from Location2.07152019.Energy5.Lamp.07192019.3%Agarose_HRD10591_14-55-48-358.txt Node
Date: Fri Jul 19 14:55:48 EDT 2019
User: cochatt
Spectrometer: HR+D1059
Trigger mode: 1
Integration Time (sec): 1.000000E-1
Scans to average: 1
Electric dark correction enabled: true
Nonlinearity correction enabled: false
Boxcar width: 0
XAxis mode: Wavelengths
Number of Pixels in Spectrum: 2048
>>>>>Begin Spectral Data<<<<<
223.165	-31.69
223.4	-31.69
223.635	-31.69
223.869	-12.69
224.104	-15.69
224.338	-25.69
224.573	-11.69
224.808	-6.69
225.042	9.31
225.277	-2.69
225.511	-24.69
225.746	3.31
225.98	15.31
226.215	13.31
226.449	10.31
226.683	26.31
226.918	24.31
227.152	29.31
227.387	26.31
227.621	38.31
227.856	61.31
228.09	42.31
228.324	44.31
228.559	57.31
228.793	60.31
229.027	52.31
229.262	61.31
229.496	73.31
229.73	84.31
229.964	69.31
230.199	71.31
230.433	86.31
230.667	74.31
230.901	75.31
231.136	72.31
231.37	84.31
231.604	86.31
231.838	80.31
232.072	88.31
232.306	75.31
232.541	77.31
232.775	68.31
233.009	96.31
233.243	73.31
233.477	78.31
233.711	91.31
233.945	84.31
234.179	88.31
234.413	86.31
234.647	80.31
234.881	94.31
235.115	71.31
235.349	78.31
235.583	77.31
235.817	77.31
236.051	72.31
236.285	79.31
236.519	77.31
236.753	70.31
236.987	67.31
237.221	72.31
237.455	68.31
237.689	58.31
237.922	69.31
238.156	67.31
238.39	72.31
238.624	73.31
238.858	67.31
239.091	80.31
239.325	81.31
239.559	74.31
239.793	73.31
240.027	76.31
240.26	78.31
240.494	81.31
240.728	75.31
240.961	81.31
241.195	76.31
241.429	87.31
241.662	71.31
241.896	72.31
242.13	80.31
242.363	72.31
242.597	75.31
242.83	86.31
243.064	72.31
243.298	80.31
243.531	70.31
243.765	77.31
243.998	82.31
244.232	76.31
244.465	73.31
244.699	92.31
244.932	57.31
245.166	76.31
245.399	90.31
245.633	80.31
245.866	70.31
246.099	74.31
246.333	87.31
246.566	85.31
246.8	73.31
247.033	78.31
247.266	61.31
247.5	68.31
247.733	76.31
247.966	84.31
248.2	71.31
248.433	90.31
248.666	81.31
248.899	74.31
249.133	93.31
249.366	77.31
249.599	80.31
249.832	77.31
250.066	82.31
250.299	79.31
250.532	97.31
250.765	76.31
250.998	78.31
251.231	79.31
251.465	80.31
251.698	77.31
251.931	91.31
252.164	79.31
252.397	76.31
252.63	80.31
252.863	85.31
253.096	83.31
253.329	92.31
253.562	83.31
253.795	61.31
254.028	83.31
254.261	84.31
254.494	74.31
254.727	101.31
254.96	87.31
255.193	77.31
255.426	72.31
255.659	80.31
255.892	90.31
256.124	94.31
256.357	72.31
256.59	72.31
256.823	79.31
257.056	79.31
257.289	76.31
257.521	80.31
257.754	85.31
257.987	82.31
258.22	81.31
258.452	85.31
258.685	90.31
258.918	82.31
259.151	93.31
259.383	81.31
259.616	63.31
259.849	75.31
260.081	85.31
260.314	78.31
260.547	79.31
260.779	82.31
261.012	83.31
261.244	73.31
261.477	89.31
261.71	89.31
261.942	72.31
262.175	88.31
262.407	89.31
262.64	73.31
262.872	83.31
263.105	80.31
263.337	83.31
263.57	97.31
263.802	88.31
264.035	84.31
264.267	86.31
264.499	80.31
264.732	89.31
264.964	80.31
265.197	87.31
265.429	85.31
265.661	83.31
265.894	78.31
266.126	92.31
266.358	78.31
266.591	78.31
266.823	80.31
267.055	92.31
267.287	92.31
267.52	77.31
267.752	76.31
267.984	93.31
268.216	96.31
268.448	85.31
268.681	74.31
268.913	80.31
269.145	82.31
269.377	89.31
269.609	75.31
269.841	81.31
270.073	85.31
270.306	62.31
270.538	81.31
270.77	90.31
271.002	81.31
271.234	80.31
271.466	90.31
271.698	69.31
271.93	78.31
272.162	88.31
272.394	97.31
272.626	71.31
272.858	76.31
273.09	95.31
273.322	90.31
273.553	98.31
273.785	84.31
274.017	79.31
274.249	85.31
274.481	83.31
274.713	84.31
274.945	90.31
275.176	79.31
275.408	83.31
275.64	74.31
275.872	78.31
276.104	88.31
276.335	87.31
276.567	81.31
276.799	82.31
277.031	78.31
277.262	85.31
277.494	86.31
277.726	73.31
277.957	97.31
278.189	89.31
278.421	92.31
278.652	92.31
278.884	88.31
279.115	90.31
279.347	94.31
279.579	83.31
279.81	107.31
280.042	83.31
280.273	94.31
280.505	79.31
280.736	72.31
280.968	84.31
281.199	84.31
281.431	87.31
281.662	80.31
281.894	74.31
282.125	68.31
282.356	80.31
282.588	85.31
282.819	89.31
283.051	89.31
283.282	70.31
283.513	95.31
283.745	88.31
283.976	82.31
284.207	86.31
284.439	88.31
284.67	91.31
284.901	87.31
285.132	90.31
285.364	93.31
285.595	84.31
285.826	82.31
286.057	80.31
286.288	85.31
286.52	92.31
286.751	82.31
286.982	82.31
287.213	82.31
287.444	71.31
287.675	88.31
287.906	81.31
288.138	83.31
288.369	76.31
288.6	83.31
288.831	82.31
289.062	91.31
289.293	93.31
289.524	86.31
289.755	65.31
289.986	82.31
290.217	80.31
290.448	79.31
290.679	76.31
290.91	80.31
291.141	84.31
291.371	94.31
291.602	71.31
291.833	92.31
292.064	77.31
292.295	91.31
292.526	89.31
292.757	76.31
292.987	82.31
293.218	92.31
293.449	80.31
293.68	82.31
293.91	86.31
294.141	81.31
294.372	83.31
294.603	87.31
294.833	82.31
295.064	80.31
295.295	79.31
295.525	87.31
295.756	87.31
295.987	98.31
296.217	92.31
296.448	79.31
296.679	87.31
296.909	81.31
297.14	90.31
297.37	82.31
297.601	93.31
297.831	78.31
298.062	94.31
298.292	90.31
298.523	96.31
298.753	88.31
298.984	95.31
299.214	80.31
299.445	76.31
299.675	87.31
299.905	86.31
300.136	90.31
300.366	92.31
300.597	92.31
300.827	86.31
301.057	83.31
301.288	79.31
301.518	91.31
301.748	73.31
301.979	84.31
302.209	82.31
302.439	95.31
302.669	89.31
302.9	91.31
303.13	86.31
303.36	74.31
303.59	90.31
303.82	83.31
304.051	103.31
304.281	94.31
304.511	97.31
304.741	82.31
304.971	91.31
305.201	98.31
305.431	77.31
305.661	78.31
305.891	80.31
306.121	80.31
306.352	91.31
306.582	86.31
306.812	96.31
307.042	80.31
307.272	81.31
307.502	87.31
307.731	81.31
307.961	86.31
308.191	93.31
308.421	87.31
308.651	87.31
308.881	87.31
309.111	97.31
309.341	82.31
309.571	87.31
309.8	82.31
310.03	97.31
310.26	91.31
310.49	89.31
310.72	92.31
310.949	83.31
311.179	83.31
311.409	85.31
311.639	78.31
311.868	89.31
312.098	98.31
312.328	79.31
312.557	90.31
312.787	79.31
313.017	97.31
313.246	93.31
313.476	85.31
313.706	97.31
313.935	89.31
314.165	86.31
314.394	84.31
314.624	89.31
314.853	89.31
315.083	97.31
315.312	95.31
315.542	102.31
315.771	84.31
316.001	85.31
316.23	93.31
316.46	101.31
316.689	88.31
316.919	85.31
317.148	105.31
317.377	84.31
317.607	70.31
317.836	77.31
318.065	86.31
318.295	87.31
318.524	93.31
318.753	69.31
318.983	72.31
319.212	84.31
319.441	87.31
319.67	79.31
319.9	83.31
320.129	81.31
320.358	77.31
320.587	100.31
320.816	91.31
321.046	83.31
321.275	91.31
321.504	95.31
321.733	96.31
321.962	82.31
322.191	91.31
322.42	69.31
322.649	89.31
322.878	94.31
323.108	102.31
323.337	92.31
323.566	81.31
323.795	86.31
324.024	90.31
324.253	66.31
324.482	91.31
324.71	85.31
324.939	88.31
325.168	85.31
325.397	80.31
325.626	81.31
325.855	95.31
326.084	93.31
326.313	90.31
326.542	107.31
326.77	83.31
326.999	79.31
327.228	92.31
327.457	81.31
327.686	86.31
327.914	83.31
328.143	83.31
328.372	89.31
328.6	70.31
328.829	75.31
329.058	97.31
329.287	102.31
329.515	69.31
329.744	98.31
329.972	96.31
330.201	77.31
330.43	77.31
330.658	65.31
330.887	87.31
331.115	92.31
331.344	78.31
331.572	77.31
331.801	93.31
332.03	89.31
332.258	85.31
332.486	81.31
332.715	82.31
332.943	94.31
333.172	74.31
333.4	80.31
333.629	96.31
333.857	88.31
334.085	85.31
334.314	89.31
334.542	85.31
334.771	84.31
334.999	89.31
335.227	79.31
335.455	91.31
335.684	91.31
335.912	98.31
336.14	105.31
336.369	75.31
336.597	84.31
336.825	75.31
337.053	82.31
337.281	79.31
337.51	82.31
337.738	87.31
337.966	83.31
338.194	83.31
338.422	92.31
338.65	92.31
338.878	86.31
339.106	92.31
339.334	92.31
339.562	85.31
339.79	88.31
340.018	85.31
340.246	90.31
340.474	75.31
340.702	95.31
340.93	99.31
341.158	72.31
341.386	93.31
341.614	88.31
341.842	70.31
342.07	70.31
342.298	92.31
342.526	82.31
342.754	81.31
342.981	78.31
343.209	91.31
343.437	94.31
343.665	85.31
343.893	74.31
344.12	83.31
344.348	87.31
344.576	86.31
344.804	90.31
345.031	80.31
345.259	73.31
345.487	87.31
345.714	81.31
345.942	81.31
346.17	76.31
346.397	82.31
346.625	73.31
346.853	77.31
347.08	76.31
347.308	84.31
347.535	75.31
347.763	81.31
347.99	80.31
348.218	91.31
348.445	97.31
348.673	78.31
348.9	81.31
349.128	92.31
349.355	85.31
349.583	98.31
349.81	84.31
350.037	73.31
350.265	84.31
350.492	81.31
350.72	98.31
350.947	80.31
351.174	80.31
351.402	89.31
351.629	93.31
351.856	93.31
352.083	85.31
352.311	85.31
352.538	93.31
352.765	77.31
352.992	71.31
353.22	83.31
353.447	66.31
353.674	96.31
353.901	90.31
354.128	96.31
354.355	81.31
354.583	99.31
354.81	85.31
355.037	81.31
355.264	86.31
355.491	82.31
355.718	76.31
355.945	90.31
356.172	83.31
356.399	79.31
356.626	82.31
356.853	95.31
357.08	93.31
357.307	97.31
357.534	83.31
357.761	82.31
357.988	85.31
358.215	89.31
358.441	91.31
358.668	83.31
358.895	90.31
359.122	92.31
359.349	88.31
359.576	81.31
359.802	86.31
360.029	75.31
360.256	84.31
360.483	78.31
360.709	84.31
360.936	92.31
361.163	83.31
361.39	82.31
361.616	94.31
361.843	69.31
362.07	79.31
362.296	89.31
362.523	99.31
362.749	94.31
362.976	88.31
363.203	79.31
363.429	78.31
363.656	94.31
363.882	93.31
364.109	94.31
364.335	68.31
364.562	84.31
364.788	80.31
365.015	100.31
365.241	91.31
365.468	96.31
365.694	99.31
365.92	90.31
366.147	84.31
366.373	88.31
366.599	83.31
366.826	80.31
367.052	73.31
367.278	81.31
367.505	83.31
367.731	109.31
367.957	94.31
368.184	96.31
368.41	97.31
368.636	88.31
368.862	91.31
369.089	79.31
369.315	81.31
369.541	75.31
369.767	98.31
369.993	77.31
370.219	81.31
370.445	99.31
370.672	92.31
370.898	86.31
371.124	82.31
371.35	78.31
371.576	99.31
371.802	95.31
372.028	113.31
372.254	98.31
372.48	97.31
372.706	91.31
372.932	99.31
373.158	92.31
373.384	94.31
373.61	104.31
373.835	93.31
374.061	88.31
374.287	91.31
374.513	94.31
374.739	93.31
374.965	101.31
375.191	93.31
375.416	80.31
375.642	86.31
375.868	98.31
376.094	76.31
376.319	85.31
376.545	100.31
376.771	105.31
376.997	90.31
377.222	90.31
377.448	96.31
377.674	98.31
377.899	86.31
378.125	108.31
378.35	93.31
378.576	94.31
378.802	89.31
379.027	102.31
379.253	100.31
379.478	103.31
379.704	102.31
379.929	108.31
380.155	95.31
380.38	91.31
380.606	92.31
380.831	83.31
381.057	102.31
381.282	89.31
381.507	95.31
381.733	94.31
381.958	108.31
382.184	91.31
382.409	97.31
382.634	114.31
382.86	96.31
383.085	100.31
383.31	98.31
383.535	119.31
383.761	96.31
383.986	115.31
384.211	82.31
384.436	92.31
384.662	100.31
384.887	114.31
385.112	102.31
385.337	104.31
385.562	86.31
385.787	107.31
386.013	113.31
386.238	85.31
386.463	107.31
386.688	109.31
386.913	93.31
387.138	107.31
387.363	90.31
387.588	109.31
387.813	106.31
388.038	98.31
388.263	104.31
388.488	86.31
388.713	97.31
388.938	93.31
389.163	116.31
389.387	108.31
389.612	101.31
389.837	102.31
390.062	121.31
390.287	126.31
390.512	100.31
390.736	102.31
390.961	109.31
391.186	122.31
391.411	114.31
391.636	100.31
391.86	109.31
392.085	105.31
392.31	105.31
392.534	104.31
392.759	115.31
392.984	92.31
393.208	98.31
393.433	87.31
393.658	109.31
393.882	107.31
394.107	103.31
394.331	98.31
394.556	114.31
394.78	96.31
395.005	101.31
395.229	101.31
395.454	115.31
395.678	122.31
395.903	86.31
396.127	115.31
396.352	98.31
396.576	96.31
396.801	90.31
397.025	108.31
397.249	112.31
397.474	122.31
397.698	105.31
397.922	106.31
398.147	106.31
398.371	105.31
398.595	123.31
398.82	112.31
399.044	121.31
399.268	121.31
399.492	127.31
399.717	133.31
399.941	110.31
400.165	112.31
400.389	108.31
400.613	117.31
400.837	118.31
401.062	118.31
401.286	105.31
401.51	113.31
401.734	114.31
401.958	106.31
402.182	109.31
402.406	105.31
402.63	114.31
402.854	109.31
403.078	118.31
403.302	114.31
403.526	118.31
403.75	115.31
403.974	118.31
404.198	127.31
404.422	112.31
404.645	119.31
404.869	126.31
405.093	118.31
405.317	114.31
405.541	124.31
405.765	115.31
405.988	116.31
406.212	100.31
406.436	114.31
406.66	113.31
406.883	128.31
407.107	116.31
407.331	124.31
407.555	121.31
407.778	118.31
408.002	115.31
408.226	125.31
408.449	120.31
408.673	117.31
408.896	129.31
409.12	128.31
409.344	106.31
409.567	115.31
409.791	122.31
410.014	110.31
410.238	122.31
410.461	135.31
410.685	128.31
410.908	132.31
411.132	123.31
411.355	110.31
411.578	132.31
411.802	138.31
412.025	125.31
412.249	114.31
412.472	119.31
412.695	132.31
412.919	126.31
413.142	112.31
413.365	129.31
413.589	127.31
413.812	108.31
414.035	129.31
414.258	115.31
414.482	129.31
414.705	132.31
414.928	132.31
415.151	123.31
415.374	132.31
415.597	129.31
415.821	128.31
416.044	119.31
416.267	128.31
416.49	128.31
416.713	128.31
416.936	106.31
417.159	134.31
417.382	106.31
417.605	128.31
417.828	128.31
418.051	129.31
418.274	129.31
418.497	124.31
418.72	132.31
418.943	130.31
419.166	128.31
419.389	141.31
419.611	128.31
419.834	124.31
420.057	129.31
420.28	124.31
420.503	123.31
420.726	135.31
420.948	114.31
421.171	132.31
421.394	141.31
421.617	134.31
421.839	152.31
422.062	144.31
422.285	140.31
422.507	121.31
422.73	129.31
422.953	125.31
423.175	132.31
423.398	146.31
423.621	148.31
423.843	136.31
424.066	139.31
424.288	125.31
424.511	130.31
424.733	112.31
424.956	126.31
425.178	135.31
425.401	137.31
425.623	122.31
425.846	139.31
426.068	137.31
426.291	148.31
426.513	135.31
426.735	119.31
426.958	134.31
427.18	134.31
427.402	139.31
427.625	147.31
427.847	147.31
428.069	130.31
428.292	129.31
428.514	131.31
428.736	128.31
428.958	129.31
429.181	130.31
429.403	137.31
429.625	128.31
429.847	130.31
430.069	131.31
430.292	152.31
430.514	121.31
430.736	118.31
430.958	120.31
431.18	118.31
431.402	123.31
431.624	105.31
431.846	113.31
432.068	98.31
432.29	112.31
432.512	101.31
432.734	119.31
432.956	136.31
433.178	127.31
433.4	135.31
433.622	146.31
433.844	138.31
434.066	128.31
434.287	96.31
434.509	97.31
434.731	121.31
434.953	124.31
435.175	117.31
435.397	116.31
435.618	121.31
435.84	109.31
436.062	119.31
436.284	121.31
436.505	133.31
436.727	137.31
436.949	130.31
437.17	123.31
437.392	134.31
437.614	111.31
437.835	121.31
438.057	115.31
438.278	105.31
438.5	120.31
438.721	132.31
438.943	134.31
439.165	148.31
439.386	139.31
439.608	144.31
439.829	144.31
440.05	136.31
440.272	132.31
440.493	146.31
440.715	146.31
440.936	137.31
441.158	143.31
441.379	148.31
441.6	149.31
441.822	143.31
442.043	129.31
442.264	150.31
442.486	159.31
442.707	132.31
442.928	132.31
443.149	136.31
443.371	151.31
443.592	140.31
443.813	128.31
444.034	124.31
444.255	140.31
444.476	150.31
444.698	141.31
444.919	146.31
445.14	266.31
445.361	211.31
445.582	146.31
445.803	136.31
446.024	146.31
446.245	131.31
446.466	154.31
446.687	149.31
446.908	138.31
447.129	153.31
447.35	160.31
447.571	146.31
447.792	157.31
448.013	127.31
448.234	140.31
448.455	140.31
448.675	139.31
448.896	142.31
449.117	145.31
449.338	141.31
449.559	152.31
449.779	138.31
450	135.31
450.221	142.31
450.442	129.31
450.662	150.31
450.883	134.31
451.104	136.31
451.324	123.31
451.545	126.31
451.766	137.31
451.986	140.31
452.207	136.31
452.428	129.31
452.648	128.31
452.869	124.31
453.089	118.31
453.31	105.31
453.53	107.31
453.751	112.31
453.971	110.31
454.192	105.31
454.412	105.31
454.633	112.31
454.853	113.31
455.073	117.31
455.294	129.31
455.514	115.31
455.734	120.31
455.955	113.31
456.175	110.31
456.395	133.31
456.616	121.31
456.836	116.31
457.056	115.31
457.276	107.31
457.497	116.31
457.717	106.31
457.937	111.31
458.157	116.31
458.377	108.31
458.598	108.31
458.818	90.31
459.038	95.31
459.258	89.31
459.478	90.31
459.698	97.31
459.918	93.31
460.138	94.31
460.358	105.31
460.578	112.31
460.798	128.31
461.018	112.31
461.238	118.31
461.458	117.31
461.678	113.31
461.898	113.31
462.118	111.31
462.338	128.31
462.558	121.31
462.777	116.31
462.997	115.31
463.217	113.31
463.437	129.31
463.657	108.31
463.876	112.31
464.096	109.31
464.316	118.31
464.536	112.31
464.755	112.31
464.975	114.31
465.195	121.31
465.414	106.31
465.634	109.31
465.854	130.31
466.073	112.31
466.293	117.31
466.512	118.31
466.732	129.31
466.951	138.31
467.171	140.31
467.391	130.31
467.61	126.31
467.829	133.31
468.049	150.31
468.268	124.31
468.488	128.31
468.707	124.31
468.927	140.31
469.146	147.31
469.365	148.31
469.585	148.31
469.804	129.31
470.023	146.31
470.243	150.31
470.462	146.31
470.681	157.31
470.901	148.31
471.12	151.31
471.339	148.31
471.558	137.31
471.777	152.31
471.997	147.31
472.216	137.31
472.435	131.31
472.654	108.31
472.873	109.31
473.092	127.31
473.311	126.31
473.53	122.31
473.749	128.31
473.968	126.31
474.187	123.31
474.406	127.31
474.625	119.31
474.844	121.31
475.063	132.31
475.282	134.31
475.501	132.31
475.72	119.31
475.939	134.31
476.158	128.31
476.377	134.31
476.596	139.31
476.814	112.31
477.033	112.31
477.252	125.31
477.471	118.31
477.69	141.31
477.908	148.31
478.127	156.31
478.346	141.31
478.564	127.31
478.783	149.31
479.002	143.31
479.22	133.31
479.439	144.31
479.658	128.31
479.876	125.31
480.095	116.31
480.313	115.31
480.532	130.31
480.751	110.31
480.969	93.31
481.188	81.31
481.406	101.31
481.624	100.31
481.843	102.31
482.061	98.31
482.28	108.31
482.498	123.31
482.717	105.31
482.935	119.31
483.153	145.31
483.372	147.31
483.59	144.31
483.808	159.31
484.027	137.31
484.245	140.31
484.463	149.31
484.681	156.31
484.9	141.31
485.118	143.31
485.336	124.31
485.554	103.31
485.772	101.31
485.99	117.31
486.209	115.31
486.427	118.31
486.645	135.31
486.863	146.31
487.081	148.31
487.299	122.31
487.517	134.31
487.735	170.31
487.953	189.31
488.171	172.31
488.389	179.31
488.607	158.31
488.825	140.31
489.043	128.31
489.261	142.31
489.479	130.31
489.696	141.31
489.914	123.31
490.132	133.31
490.35	156.31
490.568	158.31
490.786	165.31
491.003	191.31
491.221	192.31
491.439	184.31
491.657	185.31
491.874	189.31
492.092	224.31
492.31	243.31
492.527	235.31
492.745	222.31
492.963	201.31
493.18	194.31
493.398	187.31
493.615	185.31
493.833	188.31
494.05	191.31
494.268	186.31
494.485	177.31
494.703	172.31
494.92	171.31
495.138	164.31
495.355	177.31
495.573	184.31
495.79	184.31
496.008	192.31
496.225	161.31
496.442	159.31
496.66	166.31
496.877	171.31
497.094	164.31
497.312	169.31
497.529	162.31
497.746	164.31
497.963	148.31
498.181	126.31
498.398	138.31
498.615	117.31
498.832	114.31
499.049	113.31
499.267	138.31
499.484	124.31
499.701	124.31
499.918	134.31
500.135	146.31
500.352	136.31
500.569	146.31
500.786	155.31
501.003	143.31
501.22	144.31
501.437	139.31
501.654	138.31
501.871	142.31
502.088	128.31
502.305	117.31
502.522	131.31
502.739	129.31
502.956	127.31
503.172	130.31
503.389	123.31
503.606	131.31
503.823	131.31
504.04	118.31
504.256	104.31
504.473	125.31
504.69	132.31
504.907	132.31
505.123	126.31
505.34	132.31
505.557	123.31
505.773	121.31
505.99	139.31
506.207	118.31
506.423	129.31
506.64	120.31
506.856	114.31
507.073	130.31
507.289	133.31
507.506	120.31
507.722	124.31
507.939	111.31
508.155	124.31
508.372	113.31
508.588	123.31
508.805	105.31
509.021	110.31
509.238	109.31
509.454	112.31
509.67	116.31
509.887	102.31
510.103	98.31
510.319	97.31
510.536	104.31
510.752	88.31
510.968	98.31
511.184	88.31
511.401	87.31
