Data from Location2.07152019.Energy5.Lamp.07192019.3%Agarose_HRD10591_14-56-32-361.txt Node
Date: Fri Jul 19 14:56:32 EDT 2019
User: cochatt
Spectrometer: HR+D1059
Trigger mode: 1
Integration Time (sec): 1.000000E-1
Scans to average: 1
Electric dark correction enabled: true
Nonlinearity correction enabled: false
Boxcar width: 0
XAxis mode: Wavelengths
Number of Pixels in Spectrum: 2048
>>>>>Begin Spectral Data<<<<<
223.165	-9.75
223.4	-9.75
223.635	-9.75
223.869	-7.75
224.104	-13.75
224.338	-21.75
224.573	-22.75
224.808	-19.75
225.042	-5.75
225.277	-6.75
225.511	-2.75
225.746	2.25
225.98	0.25
226.215	19.25
226.449	21.25
226.683	25.25
226.918	28.25
227.152	14.25
227.387	28.25
227.621	27.25
227.856	48.25
228.09	41.25
228.324	60.25
228.559	50.25
228.793	50.25
229.027	52.25
229.262	70.25
229.496	54.25
229.73	65.25
229.964	66.25
230.199	54.25
230.433	69.25
230.667	62.25
230.901	64.25
231.136	70.25
231.37	81.25
231.604	84.25
231.838	79.25
232.072	74.25
232.306	74.25
232.541	87.25
232.775	81.25
233.009	83.25
233.243	81.25
233.477	80.25
233.711	79.25
233.945	73.25
234.179	78.25
234.413	88.25
234.647	83.25
234.881	77.25
235.115	74.25
235.349	78.25
235.583	79.25
235.817	62.25
236.051	72.25
236.285	84.25
236.519	75.25
236.753	76.25
236.987	90.25
237.221	81.25
237.455	78.25
237.689	74.25
237.922	77.25
238.156	77.25
238.39	73.25
238.624	72.25
238.858	74.25
239.091	70.25
239.325	88.25
239.559	85.25
239.793	73.25
240.027	78.25
240.26	65.25
240.494	65.25
240.728	70.25
240.961	63.25
241.195	80.25
241.429	81.25
241.662	73.25
241.896	76.25
242.13	72.25
242.363	66.25
242.597	87.25
242.83	74.25
243.064	74.25
243.298	75.25
243.531	83.25
243.765	75.25
243.998	69.25
244.232	95.25
244.465	70.25
244.699	69.25
244.932	83.25
245.166	84.25
245.399	79.25
245.633	75.25
245.866	73.25
246.099	88.25
246.333	85.25
246.566	83.25
246.8	74.25
247.033	88.25
247.266	65.25
247.5	71.25
247.733	76.25
247.966	58.25
248.2	71.25
248.433	85.25
248.666	71.25
248.899	76.25
249.133	66.25
249.366	73.25
249.599	76.25
249.832	76.25
250.066	74.25
250.299	86.25
250.532	70.25
250.765	81.25
250.998	89.25
251.231	83.25
251.465	72.25
251.698	79.25
251.931	82.25
252.164	74.25
252.397	65.25
252.63	79.25
252.863	83.25
253.096	79.25
253.329	81.25
253.562	82.25
253.795	74.25
254.028	94.25
254.261	86.25
254.494	94.25
254.727	83.25
254.96	84.25
255.193	66.25
255.426	89.25
255.659	80.25
255.892	76.25
256.124	66.25
256.357	70.25
256.59	77.25
256.823	67.25
257.056	71.25
257.289	88.25
257.521	81.25
257.754	74.25
257.987	62.25
258.22	95.25
258.452	60.25
258.685	77.25
258.918	76.25
259.151	86.25
259.383	68.25
259.616	81.25
259.849	74.25
260.081	77.25
260.314	69.25
260.547	58.25
260.779	81.25
261.012	82.25
261.244	78.25
261.477	87.25
261.71	94.25
261.942	78.25
262.175	63.25
262.407	75.25
262.64	69.25
262.872	83.25
263.105	78.25
263.337	83.25
263.57	78.25
263.802	79.25
264.035	78.25
264.267	80.25
264.499	74.25
264.732	76.25
264.964	75.25
265.197	80.25
265.429	75.25
265.661	82.25
265.894	76.25
266.126	72.25
266.358	78.25
266.591	65.25
266.823	78.25
267.055	55.25
267.287	72.25
267.52	77.25
267.752	82.25
267.984	85.25
268.216	92.25
268.448	94.25
268.681	79.25
268.913	81.25
269.145	74.25
269.377	71.25
269.609	66.25
269.841	66.25
270.073	72.25
270.306	84.25
270.538	89.25
270.77	75.25
271.002	94.25
271.234	88.25
271.466	81.25
271.698	83.25
271.93	80.25
272.162	79.25
272.394	78.25
272.626	72.25
272.858	75.25
273.09	82.25
273.322	87.25
273.553	74.25
273.785	91.25
274.017	96.25
274.249	63.25
274.481	84.25
274.713	79.25
274.945	88.25
275.176	77.25
275.408	68.25
275.64	98.25
275.872	83.25
276.104	90.25
276.335	77.25
276.567	78.25
276.799	74.25
277.031	78.25
277.262	80.25
277.494	72.25
277.726	73.25
277.957	81.25
278.189	89.25
278.421	79.25
278.652	86.25
278.884	87.25
279.115	82.25
279.347	84.25
279.579	89.25
279.81	74.25
280.042	89.25
280.273	78.25
280.505	81.25
280.736	78.25
280.968	83.25
281.199	86.25
281.431	73.25
281.662	72.25
281.894	72.25
282.125	83.25
282.356	68.25
282.588	73.25
282.819	72.25
283.051	85.25
283.282	72.25
283.513	76.25
283.745	79.25
283.976	69.25
284.207	91.25
284.439	74.25
284.67	78.25
284.901	87.25
285.132	78.25
285.364	81.25
285.595	77.25
285.826	81.25
286.057	79.25
286.288	87.25
286.52	79.25
286.751	74.25
286.982	95.25
287.213	80.25
287.444	78.25
287.675	76.25
287.906	69.25
288.138	85.25
288.369	72.25
288.6	71.25
288.831	65.25
289.062	83.25
289.293	79.25
289.524	83.25
289.755	79.25
289.986	75.25
290.217	80.25
290.448	80.25
290.679	91.25
290.91	93.25
291.141	88.25
291.371	86.25
291.602	79.25
291.833	82.25
292.064	75.25
292.295	80.25
292.526	79.25
292.757	78.25
292.987	83.25
293.218	80.25
293.449	98.25
293.68	90.25
293.91	79.25
294.141	80.25
294.372	76.25
294.603	75.25
294.833	77.25
295.064	73.25
295.295	67.25
295.525	73.25
295.756	84.25
295.987	84.25
296.217	73.25
296.448	91.25
296.679	85.25
296.909	78.25
297.14	77.25
297.37	79.25
297.601	86.25
297.831	60.25
298.062	79.25
298.292	72.25
298.523	87.25
298.753	90.25
298.984	84.25
299.214	74.25
299.445	86.25
299.675	90.25
299.905	90.25
300.136	89.25
300.366	82.25
300.597	74.25
300.827	85.25
301.057	73.25
301.288	84.25
301.518	68.25
301.748	79.25
301.979	82.25
302.209	95.25
302.439	83.25
302.669	83.25
302.9	89.25
303.13	79.25
303.36	58.25
303.59	87.25
303.82	81.25
304.051	87.25
304.281	81.25
304.511	80.25
304.741	91.25
304.971	86.25
305.201	90.25
305.431	89.25
305.661	83.25
305.891	90.25
306.121	88.25
306.352	74.25
306.582	73.25
306.812	78.25
307.042	86.25
307.272	72.25
307.502	78.25
307.731	73.25
307.961	82.25
308.191	88.25
308.421	86.25
308.651	80.25
308.881	78.25
309.111	88.25
309.341	73.25
309.571	82.25
309.8	78.25
310.03	75.25
310.26	72.25
310.49	84.25
310.72	85.25
310.949	74.25
311.179	84.25
311.409	86.25
311.639	85.25
311.868	86.25
312.098	96.25
312.328	79.25
312.557	79.25
312.787	89.25
313.017	81.25
313.246	83.25
313.476	74.25
313.706	69.25
313.935	68.25
314.165	72.25
314.394	80.25
314.624	72.25
314.853	64.25
315.083	79.25
315.312	79.25
315.542	86.25
315.771	91.25
316.001	80.25
316.23	67.25
316.46	83.25
316.689	82.25
316.919	85.25
317.148	80.25
317.377	102.25
317.607	92.25
317.836	80.25
318.065	70.25
318.295	63.25
318.524	97.25
318.753	75.25
318.983	71.25
319.212	74.25
319.441	77.25
319.67	84.25
319.9	79.25
320.129	84.25
320.358	73.25
320.587	77.25
320.816	86.25
321.046	83.25
321.275	86.25
321.504	77.25
321.733	77.25
321.962	81.25
322.191	100.25
322.42	74.25
322.649	73.25
322.878	76.25
323.108	88.25
323.337	93.25
323.566	77.25
323.795	80.25
324.024	86.25
324.253	87.25
324.482	80.25
324.71	72.25
324.939	95.25
325.168	80.25
325.397	65.25
325.626	82.25
325.855	88.25
326.084	64.25
326.313	73.25
326.542	85.25
326.77	84.25
326.999	77.25
327.228	72.25
327.457	80.25
327.686	78.25
327.914	90.25
328.143	88.25
328.372	77.25
328.6	63.25
328.829	86.25
329.058	76.25
329.287	71.25
329.515	70.25
329.744	66.25
329.972	72.25
330.201	78.25
330.43	84.25
330.658	79.25
330.887	75.25
331.115	85.25
331.344	71.25
331.572	67.25
331.801	82.25
332.03	78.25
332.258	89.25
332.486	80.25
332.715	93.25
332.943	77.25
333.172	84.25
333.4	80.25
333.629	79.25
333.857	89.25
334.085	83.25
334.314	88.25
334.542	72.25
334.771	61.25
334.999	81.25
335.227	79.25
335.455	72.25
335.684	79.25
335.912	83.25
336.14	88.25
336.369	84.25
336.597	81.25
336.825	83.25
337.053	85.25
337.281	89.25
337.51	88.25
337.738	80.25
337.966	85.25
338.194	64.25
338.422	98.25
338.65	84.25
338.878	84.25
339.106	84.25
339.334	77.25
339.562	82.25
339.79	69.25
340.018	83.25
340.246	92.25
340.474	92.25
340.702	82.25
340.93	82.25
341.158	88.25
341.386	86.25
341.614	79.25
341.842	82.25
342.07	77.25
342.298	80.25
342.526	81.25
342.754	76.25
342.981	95.25
343.209	80.25
343.437	88.25
343.665	86.25
343.893	87.25
344.12	97.25
344.348	81.25
344.576	83.25
344.804	77.25
345.031	80.25
345.259	79.25
345.487	78.25
345.714	84.25
345.942	77.25
346.17	77.25
346.397	83.25
346.625	61.25
346.853	78.25
347.08	91.25
347.308	81.25
347.535	83.25
347.763	73.25
347.99	90.25
348.218	89.25
348.445	90.25
348.673	83.25
348.9	93.25
349.128	82.25
349.355	89.25
349.583	94.25
349.81	79.25
350.037	77.25
350.265	87.25
350.492	78.25
350.72	76.25
350.947	96.25
351.174	73.25
351.402	89.25
351.629	79.25
351.856	72.25
352.083	70.25
352.311	77.25
352.538	71.25
352.765	85.25
352.992	78.25
353.22	84.25
353.447	71.25
353.674	86.25
353.901	78.25
354.128	74.25
354.355	68.25
354.583	73.25
354.81	71.25
355.037	74.25
355.264	82.25
355.491	89.25
355.718	70.25
355.945	70.25
356.172	85.25
356.399	77.25
356.626	73.25
356.853	84.25
357.08	61.25
357.307	80.25
357.534	80.25
357.761	66.25
357.988	85.25
358.215	78.25
358.441	82.25
358.668	72.25
358.895	79.25
359.122	72.25
359.349	83.25
359.576	80.25
359.802	70.25
360.029	77.25
360.256	95.25
360.483	90.25
360.709	96.25
360.936	69.25
361.163	70.25
361.39	73.25
361.616	78.25
361.843	77.25
362.07	83.25
362.296	102.25
362.523	80.25
362.749	72.25
362.976	79.25
363.203	89.25
363.429	81.25
363.656	70.25
363.882	90.25
364.109	80.25
364.335	82.25
364.562	80.25
364.788	84.25
365.015	77.25
365.241	76.25
365.468	95.25
365.694	85.25
365.92	92.25
366.147	84.25
366.373	79.25
366.599	80.25
366.826	84.25
367.052	79.25
367.278	73.25
367.505	73.25
367.731	84.25
367.957	84.25
368.184	81.25
368.41	99.25
368.636	80.25
368.862	82.25
369.089	97.25
369.315	85.25
369.541	91.25
369.767	83.25
369.993	90.25
370.219	85.25
370.445	80.25
370.672	90.25
370.898	85.25
371.124	75.25
371.35	77.25
371.576	93.25
371.802	93.25
372.028	99.25
372.254	92.25
372.48	80.25
372.706	94.25
372.932	86.25
373.158	90.25
373.384	79.25
373.61	90.25
373.835	97.25
374.061	90.25
374.287	101.25
374.513	73.25
374.739	90.25
374.965	81.25
375.191	93.25
375.416	99.25
375.642	86.25
375.868	94.25
376.094	92.25
376.319	80.25
376.545	89.25
376.771	85.25
376.997	80.25
377.222	92.25
377.448	90.25
377.674	86.25
377.899	93.25
378.125	96.25
378.35	98.25
378.576	81.25
378.802	89.25
379.027	85.25
379.253	107.25
379.478	94.25
379.704	88.25
379.929	91.25
380.155	98.25
380.38	80.25
380.606	93.25
380.831	82.25
381.057	109.25
381.282	100.25
381.507	95.25
381.733	90.25
381.958	103.25
382.184	86.25
382.409	104.25
382.634	96.25
382.86	95.25
383.085	99.25
383.31	105.25
383.535	93.25
383.761	76.25
383.986	91.25
384.211	95.25
384.436	93.25
384.662	104.25
384.887	75.25
385.112	95.25
385.337	95.25
385.562	82.25
385.787	90.25
386.013	77.25
386.238	97.25
386.463	104.25
386.688	99.25
386.913	98.25
387.138	103.25
387.363	103.25
387.588	119.25
387.813	108.25
388.038	110.25
388.263	102.25
388.488	96.25
388.713	85.25
388.938	97.25
389.163	95.25
389.387	90.25
389.612	96.25
389.837	104.25
390.062	110.25
390.287	104.25
390.512	108.25
390.736	103.25
390.961	92.25
391.186	103.25
391.411	115.25
391.636	98.25
391.86	98.25
392.085	113.25
392.31	124.25
392.534	102.25
392.759	97.25
392.984	99.25
393.208	102.25
393.433	120.25
393.658	108.25
393.882	100.25
394.107	106.25
394.331	100.25
394.556	87.25
394.78	100.25
395.005	104.25
395.229	97.25
395.454	103.25
395.678	97.25
395.903	114.25
396.127	86.25
396.352	120.25
396.576	104.25
396.801	105.25
397.025	102.25
397.249	108.25
397.474	112.25
397.698	113.25
397.922	120.25
398.147	97.25
398.371	103.25
398.595	103.25
398.82	106.25
399.044	114.25
399.268	103.25
399.492	105.25
399.717	121.25
399.941	107.25
400.165	113.25
400.389	117.25
400.613	96.25
400.837	112.25
401.062	103.25
401.286	112.25
401.51	116.25
401.734	116.25
401.958	100.25
402.182	102.25
402.406	105.25
402.63	128.25
402.854	113.25
403.078	101.25
403.302	114.25
403.526	118.25
403.75	118.25
403.974	103.25
404.198	112.25
404.422	103.25
404.645	114.25
404.869	123.25
405.093	122.25
405.317	131.25
405.541	117.25
405.765	106.25
405.988	111.25
406.212	110.25
406.436	126.25
406.66	135.25
406.883	119.25
407.107	124.25
407.331	113.25
407.555	116.25
407.778	108.25
408.002	114.25
408.226	124.25
408.449	112.25
408.673	124.25
408.896	121.25
409.12	116.25
409.344	109.25
409.567	104.25
409.791	106.25
410.014	92.25
410.238	122.25
410.461	139.25
410.685	126.25
410.908	122.25
411.132	122.25
411.355	108.25
411.578	118.25
411.802	126.25
412.025	122.25
412.249	122.25
412.472	124.25
412.695	118.25
412.919	118.25
413.142	112.25
413.365	113.25
413.589	124.25
413.812	118.25
414.035	128.25
414.258	122.25
414.482	124.25
414.705	110.25
414.928	117.25
415.151	133.25
415.374	124.25
415.597	120.25
415.821	126.25
416.044	113.25
416.267	129.25
416.49	128.25
416.713	121.25
416.936	125.25
417.159	124.25
417.382	122.25
417.605	132.25
417.828	110.25
418.051	122.25
418.274	128.25
418.497	112.25
418.72	123.25
418.943	126.25
419.166	139.25
419.389	128.25
419.611	133.25
419.834	136.25
420.057	123.25
420.28	128.25
420.503	133.25
420.726	127.25
420.948	131.25
421.171	125.25
421.394	128.25
421.617	134.25
421.839	137.25
422.062	148.25
422.285	103.25
422.507	130.25
422.73	124.25
422.953	112.25
423.175	123.25
423.398	130.25
423.621	120.25
423.843	135.25
424.066	133.25
424.288	138.25
424.511	128.25
424.733	143.25
424.956	138.25
425.178	135.25
425.401	133.25
425.623	128.25
425.846	121.25
426.068	123.25
426.291	121.25
426.513	109.25
426.735	122.25
426.958	132.25
427.18	132.25
427.402	128.25
427.625	133.25
427.847	125.25
428.069	129.25
428.292	127.25
428.514	127.25
428.736	131.25
428.958	128.25
429.181	129.25
429.403	129.25
429.625	121.25
429.847	128.25
430.069	138.25
430.292	117.25
430.514	130.25
430.736	118.25
430.958	132.25
431.18	134.25
431.402	121.25
431.624	109.25
431.846	104.25
432.068	91.25
432.29	89.25
432.512	102.25
432.734	129.25
432.956	137.25
433.178	135.25
433.4	118.25
433.622	122.25
433.844	117.25
434.066	130.25
434.287	101.25
434.509	86.25
434.731	96.25
434.953	109.25
435.175	130.25
435.397	119.25
435.618	116.25
435.84	110.25
436.062	110.25
436.284	108.25
436.505	118.25
436.727	118.25
436.949	131.25
437.17	122.25
437.392	116.25
437.614	128.25
437.835	124.25
438.057	108.25
438.278	108.25
438.5	130.25
438.721	123.25
438.943	131.25
439.165	135.25
439.386	129.25
439.608	148.25
439.829	142.25
440.05	148.25
440.272	151.25
440.493	133.25
440.715	144.25
440.936	138.25
441.158	138.25
441.379	145.25
441.6	145.25
441.822	144.25
442.043	144.25
442.264	146.25
442.486	125.25
442.707	135.25
442.928	129.25
443.149	128.25
443.371	141.25
443.592	135.25
443.813	120.25
444.034	153.25
444.255	146.25
444.476	137.25
444.698	135.25
444.919	130.25
445.14	261.25
445.361	206.25
445.582	152.25
445.803	135.25
446.024	146.25
446.245	159.25
446.466	165.25
446.687	161.25
446.908	151.25
447.129	157.25
447.35	136.25
447.571	138.25
447.792	140.25
448.013	148.25
448.234	148.25
448.455	125.25
448.675	141.25
448.896	138.25
449.117	131.25
449.338	126.25
449.559	133.25
449.779	125.25
450	111.25
450.221	137.25
450.442	128.25
450.662	127.25
450.883	133.25
451.104	130.25
451.324	133.25
451.545	132.25
451.766	143.25
451.986	126.25
452.207	123.25
452.428	120.25
452.648	122.25
452.869	109.25
453.089	116.25
453.31	103.25
453.53	108.25
453.751	116.25
453.971	108.25
454.192	101.25
454.412	114.25
454.633	114.25
454.853	113.25
455.073	104.25
455.294	108.25
455.514	118.25
455.734	112.25
455.955	124.25
456.175	114.25
456.395	114.25
456.616	112.25
456.836	101.25
457.056	101.25
457.276	102.25
457.497	113.25
457.717	118.25
457.937	93.25
458.157	100.25
458.377	96.25
458.598	93.25
458.818	87.25
459.038	88.25
459.258	85.25
459.478	87.25
459.698	86.25
459.918	101.25
460.138	112.25
460.358	116.25
460.578	119.25
460.798	118.25
461.018	119.25
461.238	126.25
461.458	114.25
461.678	120.25
461.898	123.25
462.118	113.25
462.338	116.25
462.558	114.25
462.777	118.25
462.997	117.25
463.217	117.25
463.437	112.25
463.657	104.25
463.876	105.25
464.096	108.25
464.316	96.25
464.536	109.25
464.755	97.25
464.975	118.25
465.195	111.25
465.414	103.25
465.634	126.25
465.854	112.25
466.073	119.25
466.293	113.25
466.512	124.25
466.732	134.25
466.951	134.25
467.171	132.25
467.391	138.25
467.61	132.25
467.829	123.25
468.049	122.25
468.268	144.25
468.488	127.25
468.707	110.25
468.927	148.25
469.146	132.25
469.365	138.25
469.585	139.25
469.804	140.25
470.023	143.25
470.243	138.25
470.462	147.25
470.681	148.25
470.901	130.25
471.12	129.25
471.339	137.25
471.558	130.25
471.777	124.25
471.997	146.25
472.216	125.25
472.435	120.25
472.654	116.25
472.873	110.25
473.092	124.25
473.311	128.25
473.53	117.25
473.749	131.25
473.968	119.25
474.187	120.25
474.406	117.25
474.625	118.25
474.844	129.25
475.063	128.25
475.282	124.25
475.501	104.25
475.72	116.25
475.939	114.25
476.158	118.25
476.377	130.25
476.596	117.25
476.814	126.25
477.033	113.25
477.252	103.25
477.471	122.25
477.69	130.25
477.908	121.25
478.127	143.25
478.346	139.25
478.564	133.25
478.783	130.25
479.002	132.25
479.22	129.25
479.439	126.25
479.658	125.25
479.876	112.25
480.095	110.25
480.313	101.25
480.532	104.25
480.751	111.25
480.969	93.25
481.188	86.25
481.406	86.25
481.624	99.25
481.843	79.25
482.061	95.25
482.28	114.25
482.498	108.25
482.717	97.25
482.935	118.25
483.153	126.25
483.372	154.25
483.59	137.25
483.808	120.25
484.027	138.25
484.245	136.25
484.463	129.25
484.681	156.25
484.9	142.25
485.118	142.25
485.336	119.25
485.554	112.25
485.772	106.25
485.99	90.25
486.209	114.25
486.427	122.25
486.645	129.25
486.863	135.25
487.081	144.25
487.299	130.25
487.517	126.25
487.735	159.25
487.953	184.25
488.171	193.25
488.389	163.25
488.607	150.25
488.825	151.25
489.043	126.25
489.261	135.25
489.479	138.25
489.696	142.25
489.914	128.25
490.132	150.25
490.35	157.25
490.568	163.25
490.786	169.25
491.003	167.25
491.221	165.25
491.439	189.25
491.657	180.25
491.874	196.25
492.092	224.25
492.31	217.25
492.527	205.25
492.745	194.25
492.963	192.25
493.18	195.25
493.398	194.25
493.615	174.25
493.833	161.25
494.05	175.25
494.268	161.25
494.485	154.25
494.703	177.25
494.92	169.25
495.138	167.25
495.355	162.25
495.573	172.25
495.79	173.25
496.008	173.25
496.225	161.25
496.442	149.25
496.66	173.25
496.877	154.25
497.094	165.25
497.312	149.25
497.529	169.25
497.746	149.25
497.963	134.25
498.181	126.25
498.398	120.25
498.615	101.25
498.832	108.25
499.049	110.25
499.267	124.25
499.484	132.25
499.701	120.25
499.918	135.25
500.135	143.25
500.352	136.25
500.569	142.25
500.786	156.25
501.003	134.25
501.22	136.25
501.437	138.25
501.654	132.25
501.871	119.25
502.088	137.25
502.305	133.25
502.522	141.25
502.739	135.25
502.956	126.25
503.172	131.25
503.389	114.25
503.606	121.25
503.823	134.25
504.04	122.25
504.256	111.25
504.473	108.25
504.69	122.25
504.907	120.25
505.123	128.25
505.34	130.25
505.557	116.25
505.773	115.25
505.99	114.25
506.207	134.25
506.423	116.25
506.64	122.25
506.856	127.25
507.073	115.25
507.289	116.25
507.506	119.25
507.722	96.25
507.939	117.25
508.155	123.25
508.372	106.25
508.588	114.25
508.805	114.25
509.021	97.25
509.238	111.25
509.454	112.25
509.67	88.25
509.887	96.25
510.103	105.25
510.319	95.25
510.536	85.25
510.752	91.25
510.968	84.25
511.184	92.25
511.401	86.25
511.617	79.25
511.833	80.25
512.049	97.25
