Data from Location2.07152019.Energy5.Lamp.07192019.3%Agarose_HRD10591_14-56-01-359.txt Node
Date: Fri Jul 19 14:56:01 EDT 2019
User: cochatt
Spectrometer: HR+D1059
Trigger mode: 1
Integration Time (sec): 1.000000E-1
Scans to average: 1
Electric dark correction enabled: true
Nonlinearity correction enabled: false
Boxcar width: 0
XAxis mode: Wavelengths
Number of Pixels in Spectrum: 2048
>>>>>Begin Spectral Data<<<<<
223.165	-14.88
223.4	-14.88
223.635	-14.88
223.869	-19.88
224.104	-20.88
224.338	-14.88
224.573	-22.88
224.808	-5.88
225.042	-10.88
225.277	1.12
225.511	-0.88
225.746	10.12
225.98	-1.88
226.215	27.12
226.449	-3.88
226.683	21.12
226.918	29.12
227.152	28.12
227.387	36.12
227.621	36.12
227.856	56.12
228.09	38.12
228.324	35.12
228.559	59.12
228.793	52.12
229.027	63.12
229.262	61.12
229.496	68.12
229.73	70.12
229.964	72.12
230.199	73.12
230.433	68.12
230.667	70.12
230.901	79.12
231.136	91.12
231.37	78.12
231.604	83.12
231.838	79.12
232.072	79.12
232.306	87.12
232.541	81.12
232.775	73.12
233.009	77.12
233.243	75.12
233.477	77.12
233.711	83.12
233.945	69.12
234.179	90.12
234.413	87.12
234.647	64.12
234.881	91.12
235.115	78.12
235.349	80.12
235.583	80.12
235.817	75.12
236.051	78.12
236.285	74.12
236.519	67.12
236.753	67.12
236.987	82.12
237.221	89.12
237.455	73.12
237.689	81.12
237.922	74.12
238.156	81.12
238.39	79.12
238.624	69.12
238.858	76.12
239.091	72.12
239.325	58.12
239.559	77.12
239.793	91.12
240.027	66.12
240.26	93.12
240.494	72.12
240.728	79.12
240.961	81.12
241.195	69.12
241.429	89.12
241.662	80.12
241.896	74.12
242.13	63.12
242.363	70.12
242.597	82.12
242.83	73.12
243.064	77.12
243.298	79.12
243.531	85.12
243.765	91.12
243.998	76.12
244.232	88.12
244.465	68.12
244.699	87.12
244.932	65.12
245.166	71.12
245.399	73.12
245.633	74.12
245.866	77.12
246.099	75.12
246.333	74.12
246.566	82.12
246.8	85.12
247.033	92.12
247.266	66.12
247.5	81.12
247.733	67.12
247.966	85.12
248.2	88.12
248.433	77.12
248.666	72.12
248.899	79.12
249.133	75.12
249.366	88.12
249.599	71.12
249.832	78.12
250.066	88.12
250.299	71.12
250.532	70.12
250.765	87.12
250.998	78.12
251.231	84.12
251.465	75.12
251.698	81.12
251.931	78.12
252.164	74.12
252.397	91.12
252.63	83.12
252.863	71.12
253.096	86.12
253.329	83.12
253.562	87.12
253.795	87.12
254.028	76.12
254.261	83.12
254.494	80.12
254.727	89.12
254.96	65.12
255.193	86.12
255.426	85.12
255.659	75.12
255.892	96.12
256.124	89.12
256.357	87.12
256.59	90.12
256.823	86.12
257.056	77.12
257.289	76.12
257.521	83.12
257.754	73.12
257.987	71.12
258.22	85.12
258.452	84.12
258.685	73.12
258.918	79.12
259.151	64.12
259.383	80.12
259.616	79.12
259.849	77.12
260.081	80.12
260.314	83.12
260.547	81.12
260.779	72.12
261.012	78.12
261.244	91.12
261.477	81.12
261.71	93.12
261.942	88.12
262.175	82.12
262.407	78.12
262.64	93.12
262.872	75.12
263.105	88.12
263.337	88.12
263.57	81.12
263.802	80.12
264.035	82.12
264.267	84.12
264.499	72.12
264.732	81.12
264.964	91.12
265.197	95.12
265.429	81.12
265.661	91.12
265.894	84.12
266.126	72.12
266.358	82.12
266.591	95.12
266.823	83.12
267.055	93.12
267.287	88.12
267.52	88.12
267.752	86.12
267.984	78.12
268.216	71.12
268.448	93.12
268.681	63.12
268.913	80.12
269.145	92.12
269.377	79.12
269.609	78.12
269.841	88.12
270.073	74.12
270.306	83.12
270.538	83.12
270.77	88.12
271.002	80.12
271.234	93.12
271.466	82.12
271.698	80.12
271.93	82.12
272.162	85.12
272.394	78.12
272.626	73.12
272.858	80.12
273.09	95.12
273.322	89.12
273.553	98.12
273.785	78.12
274.017	84.12
274.249	76.12
274.481	82.12
274.713	83.12
274.945	95.12
275.176	88.12
275.408	75.12
275.64	84.12
275.872	76.12
276.104	90.12
276.335	91.12
276.567	93.12
276.799	86.12
277.031	99.12
277.262	85.12
277.494	89.12
277.726	67.12
277.957	85.12
278.189	76.12
278.421	87.12
278.652	70.12
278.884	91.12
279.115	91.12
279.347	91.12
279.579	88.12
279.81	78.12
280.042	78.12
280.273	96.12
280.505	96.12
280.736	81.12
280.968	86.12
281.199	83.12
281.431	90.12
281.662	95.12
281.894	90.12
282.125	77.12
282.356	74.12
282.588	81.12
282.819	73.12
283.051	86.12
283.282	92.12
283.513	93.12
283.745	95.12
283.976	80.12
284.207	82.12
284.439	76.12
284.67	75.12
284.901	77.12
285.132	77.12
285.364	91.12
285.595	78.12
285.826	92.12
286.057	88.12
286.288	94.12
286.52	79.12
286.751	85.12
286.982	96.12
287.213	86.12
287.444	92.12
287.675	89.12
287.906	77.12
288.138	82.12
288.369	87.12
288.6	79.12
288.831	87.12
289.062	76.12
289.293	79.12
289.524	92.12
289.755	96.12
289.986	82.12
290.217	85.12
290.448	86.12
290.679	88.12
290.91	87.12
291.141	89.12
291.371	85.12
291.602	83.12
291.833	84.12
292.064	89.12
292.295	94.12
292.526	91.12
292.757	79.12
292.987	91.12
293.218	87.12
293.449	83.12
293.68	84.12
293.91	85.12
294.141	90.12
294.372	83.12
294.603	83.12
294.833	101.12
295.064	78.12
295.295	89.12
295.525	80.12
295.756	78.12
295.987	85.12
296.217	81.12
296.448	95.12
296.679	83.12
296.909	79.12
297.14	84.12
297.37	89.12
297.601	93.12
297.831	82.12
298.062	87.12
298.292	84.12
298.523	83.12
298.753	81.12
298.984	82.12
299.214	91.12
299.445	84.12
299.675	82.12
299.905	92.12
300.136	83.12
300.366	95.12
300.597	97.12
300.827	85.12
301.057	95.12
301.288	88.12
301.518	97.12
301.748	82.12
301.979	87.12
302.209	84.12
302.439	91.12
302.669	87.12
302.9	92.12
303.13	94.12
303.36	85.12
303.59	84.12
303.82	82.12
304.051	87.12
304.281	92.12
304.511	76.12
304.741	90.12
304.971	81.12
305.201	87.12
305.431	95.12
305.661	77.12
305.891	75.12
306.121	86.12
306.352	85.12
306.582	86.12
306.812	80.12
307.042	88.12
307.272	79.12
307.502	86.12
307.731	75.12
307.961	88.12
308.191	69.12
308.421	93.12
308.651	78.12
308.881	74.12
309.111	94.12
309.341	88.12
309.571	92.12
309.8	78.12
310.03	65.12
310.26	82.12
310.49	74.12
310.72	87.12
310.949	90.12
311.179	84.12
311.409	95.12
311.639	99.12
311.868	85.12
312.098	90.12
312.328	84.12
312.557	78.12
312.787	92.12
313.017	94.12
313.246	83.12
313.476	92.12
313.706	76.12
313.935	84.12
314.165	76.12
314.394	77.12
314.624	84.12
314.853	77.12
315.083	76.12
315.312	82.12
315.542	77.12
315.771	95.12
316.001	81.12
316.23	92.12
316.46	82.12
316.689	89.12
316.919	80.12
317.148	86.12
317.377	95.12
317.607	81.12
317.836	83.12
318.065	81.12
318.295	86.12
318.524	84.12
318.753	69.12
318.983	75.12
319.212	82.12
319.441	82.12
319.67	80.12
319.9	90.12
320.129	78.12
320.358	95.12
320.587	88.12
320.816	91.12
321.046	86.12
321.275	79.12
321.504	92.12
321.733	89.12
321.962	80.12
322.191	91.12
322.42	91.12
322.649	88.12
322.878	91.12
323.108	84.12
323.337	80.12
323.566	84.12
323.795	86.12
324.024	92.12
324.253	91.12
324.482	97.12
324.71	83.12
324.939	87.12
325.168	95.12
325.397	81.12
325.626	90.12
325.855	93.12
326.084	94.12
326.313	78.12
326.542	97.12
326.77	85.12
326.999	81.12
327.228	73.12
327.457	83.12
327.686	87.12
327.914	92.12
328.143	87.12
328.372	88.12
328.6	92.12
328.829	84.12
329.058	89.12
329.287	90.12
329.515	91.12
329.744	97.12
329.972	82.12
330.201	76.12
330.43	91.12
330.658	102.12
330.887	92.12
331.115	89.12
331.344	85.12
331.572	91.12
331.801	98.12
332.03	75.12
332.258	92.12
332.486	67.12
332.715	68.12
332.943	80.12
333.172	91.12
333.4	82.12
333.629	93.12
333.857	93.12
334.085	104.12
334.314	82.12
334.542	84.12
334.771	72.12
334.999	71.12
335.227	66.12
335.455	80.12
335.684	83.12
335.912	85.12
336.14	82.12
336.369	83.12
336.597	77.12
336.825	79.12
337.053	92.12
337.281	86.12
337.51	89.12
337.738	96.12
337.966	68.12
338.194	99.12
338.422	81.12
338.65	85.12
338.878	83.12
339.106	83.12
339.334	93.12
339.562	88.12
339.79	96.12
340.018	84.12
340.246	72.12
340.474	97.12
340.702	79.12
340.93	82.12
341.158	83.12
341.386	95.12
341.614	80.12
341.842	96.12
342.07	100.12
342.298	87.12
342.526	80.12
342.754	73.12
342.981	87.12
343.209	92.12
343.437	81.12
343.665	81.12
343.893	80.12
344.12	83.12
344.348	83.12
344.576	70.12
344.804	68.12
345.031	86.12
345.259	99.12
345.487	93.12
345.714	83.12
345.942	82.12
346.17	83.12
346.397	83.12
346.625	85.12
346.853	71.12
347.08	78.12
347.308	90.12
347.535	98.12
347.763	85.12
347.99	84.12
348.218	82.12
348.445	91.12
348.673	80.12
348.9	88.12
349.128	79.12
349.355	85.12
349.583	81.12
349.81	79.12
350.037	82.12
350.265	94.12
350.492	83.12
350.72	85.12
350.947	86.12
351.174	91.12
351.402	79.12
351.629	82.12
351.856	82.12
352.083	93.12
352.311	90.12
352.538	93.12
352.765	81.12
352.992	79.12
353.22	100.12
353.447	90.12
353.674	92.12
353.901	82.12
354.128	84.12
354.355	78.12
354.583	80.12
354.81	82.12
355.037	86.12
355.264	90.12
355.491	101.12
355.718	96.12
355.945	82.12
356.172	91.12
356.399	91.12
356.626	83.12
356.853	76.12
357.08	91.12
357.307	79.12
357.534	82.12
357.761	77.12
357.988	90.12
358.215	86.12
358.441	100.12
358.668	92.12
358.895	96.12
359.122	86.12
359.349	97.12
359.576	72.12
359.802	93.12
360.029	87.12
360.256	89.12
360.483	93.12
360.709	93.12
360.936	83.12
361.163	90.12
361.39	95.12
361.616	71.12
361.843	91.12
362.07	89.12
362.296	89.12
362.523	83.12
362.749	81.12
362.976	90.12
363.203	100.12
363.429	85.12
363.656	78.12
363.882	91.12
364.109	95.12
364.335	72.12
364.562	95.12
364.788	79.12
365.015	93.12
365.241	90.12
365.468	88.12
365.694	72.12
365.92	81.12
366.147	91.12
366.373	71.12
366.599	95.12
366.826	88.12
367.052	80.12
367.278	90.12
367.505	91.12
367.731	85.12
367.957	81.12
368.184	86.12
368.41	79.12
368.636	92.12
368.862	86.12
369.089	97.12
369.315	83.12
369.541	108.12
369.767	92.12
369.993	95.12
370.219	99.12
370.445	85.12
370.672	73.12
370.898	87.12
371.124	83.12
371.35	86.12
371.576	95.12
371.802	81.12
372.028	84.12
372.254	99.12
372.48	111.12
372.706	87.12
372.932	100.12
373.158	81.12
373.384	90.12
373.61	91.12
373.835	95.12
374.061	79.12
374.287	92.12
374.513	85.12
374.739	96.12
374.965	81.12
375.191	97.12
375.416	90.12
375.642	97.12
375.868	92.12
376.094	89.12
376.319	84.12
376.545	80.12
376.771	87.12
376.997	101.12
377.222	93.12
377.448	89.12
377.674	92.12
377.899	82.12
378.125	87.12
378.35	90.12
378.576	91.12
378.802	93.12
379.027	92.12
379.253	73.12
379.478	82.12
379.704	94.12
379.929	103.12
380.155	95.12
380.38	91.12
380.606	81.12
380.831	100.12
381.057	89.12
381.282	96.12
381.507	111.12
381.733	93.12
381.958	85.12
382.184	89.12
382.409	93.12
382.634	102.12
382.86	95.12
383.085	92.12
383.31	89.12
383.535	77.12
383.761	92.12
383.986	115.12
384.211	81.12
384.436	100.12
384.662	93.12
384.887	94.12
385.112	83.12
385.337	99.12
385.562	72.12
385.787	96.12
386.013	103.12
386.238	103.12
386.463	94.12
386.688	108.12
386.913	99.12
387.138	73.12
387.363	99.12
387.588	94.12
387.813	104.12
388.038	109.12
388.263	93.12
388.488	91.12
388.713	91.12
388.938	104.12
389.163	115.12
389.387	103.12
389.612	102.12
389.837	102.12
390.062	110.12
390.287	89.12
390.512	101.12
390.736	102.12
390.961	108.12
391.186	106.12
391.411	99.12
391.636	117.12
391.86	119.12
392.085	108.12
392.31	120.12
392.534	108.12
392.759	93.12
392.984	104.12
393.208	112.12
393.433	105.12
393.658	114.12
393.882	97.12
394.107	97.12
394.331	94.12
394.556	105.12
394.78	108.12
395.005	112.12
395.229	107.12
395.454	97.12
395.678	107.12
395.903	102.12
396.127	95.12
396.352	96.12
396.576	104.12
396.801	113.12
397.025	121.12
397.249	96.12
397.474	103.12
397.698	121.12
397.922	100.12
398.147	131.12
398.371	119.12
398.595	111.12
398.82	106.12
399.044	122.12
399.268	127.12
399.492	120.12
399.717	107.12
399.941	91.12
400.165	106.12
400.389	111.12
400.613	121.12
400.837	122.12
401.062	100.12
401.286	125.12
401.51	108.12
401.734	96.12
401.958	111.12
402.182	106.12
402.406	118.12
402.63	121.12
402.854	114.12
403.078	113.12
403.302	115.12
403.526	114.12
403.75	104.12
403.974	122.12
404.198	111.12
404.422	123.12
404.645	111.12
404.869	115.12
405.093	105.12
405.317	107.12
405.541	116.12
405.765	105.12
405.988	119.12
406.212	113.12
406.436	130.12
406.66	117.12
406.883	122.12
407.107	125.12
407.331	113.12
407.555	121.12
407.778	104.12
408.002	116.12
408.226	114.12
408.449	115.12
408.673	127.12
408.896	126.12
409.12	107.12
409.344	115.12
409.567	113.12
409.791	122.12
410.014	124.12
410.238	106.12
410.461	129.12
410.685	132.12
410.908	125.12
411.132	126.12
411.355	122.12
411.578	122.12
411.802	129.12
412.025	123.12
412.249	107.12
412.472	108.12
412.695	125.12
412.919	143.12
413.142	126.12
413.365	122.12
413.589	128.12
413.812	124.12
414.035	98.12
414.258	111.12
414.482	132.12
414.705	129.12
414.928	128.12
415.151	111.12
415.374	104.12
415.597	127.12
415.821	123.12
416.044	129.12
416.267	130.12
416.49	131.12
416.713	125.12
416.936	119.12
417.159	121.12
417.382	136.12
417.605	127.12
417.828	134.12
418.051	141.12
418.274	130.12
418.497	133.12
418.72	129.12
418.943	130.12
419.166	130.12
419.389	114.12
419.611	127.12
419.834	136.12
420.057	123.12
420.28	134.12
420.503	129.12
420.726	122.12
420.948	120.12
421.171	131.12
421.394	133.12
421.617	130.12
421.839	136.12
422.062	140.12
422.285	133.12
422.507	137.12
422.73	115.12
422.953	120.12
423.175	120.12
423.398	122.12
423.621	128.12
423.843	132.12
424.066	123.12
424.288	141.12
424.511	151.12
424.733	145.12
424.956	134.12
425.178	140.12
425.401	135.12
425.623	135.12
425.846	142.12
426.068	129.12
426.291	137.12
426.513	133.12
426.735	136.12
426.958	121.12
427.18	123.12
427.402	136.12
427.625	147.12
427.847	147.12
428.069	113.12
428.292	128.12
428.514	129.12
428.736	119.12
428.958	141.12
429.181	117.12
429.403	144.12
429.625	131.12
429.847	140.12
430.069	122.12
430.292	125.12
430.514	130.12
430.736	113.12
430.958	127.12
431.18	123.12
431.402	113.12
431.624	123.12
431.846	118.12
432.068	100.12
432.29	101.12
432.512	104.12
432.734	118.12
432.956	131.12
433.178	122.12
433.4	141.12
433.622	131.12
433.844	133.12
434.066	133.12
434.287	106.12
434.509	85.12
434.731	93.12
434.953	122.12
435.175	125.12
435.397	127.12
435.618	118.12
435.84	116.12
436.062	120.12
436.284	120.12
436.505	128.12
436.727	136.12
436.949	131.12
437.17	132.12
437.392	121.12
437.614	122.12
437.835	119.12
438.057	99.12
438.278	96.12
438.5	135.12
438.721	133.12
438.943	126.12
439.165	136.12
439.386	141.12
439.608	158.12
439.829	138.12
440.05	141.12
440.272	147.12
440.493	155.12
440.715	146.12
440.936	164.12
441.158	161.12
441.379	139.12
441.6	141.12
441.822	149.12
442.043	140.12
442.264	148.12
442.486	141.12
442.707	146.12
442.928	140.12
443.149	142.12
443.371	134.12
443.592	136.12
443.813	133.12
444.034	148.12
444.255	153.12
444.476	146.12
444.698	148.12
444.919	155.12
445.14	252.12
445.361	190.12
445.582	155.12
445.803	130.12
446.024	139.12
446.245	155.12
446.466	153.12
446.687	132.12
446.908	152.12
447.129	157.12
447.35	157.12
447.571	157.12
447.792	159.12
448.013	145.12
448.234	145.12
448.455	128.12
448.675	135.12
448.896	133.12
449.117	135.12
449.338	126.12
449.559	143.12
449.779	142.12
450	136.12
450.221	140.12
450.442	137.12
450.662	153.12
450.883	139.12
451.104	144.12
451.324	145.12
451.545	117.12
451.766	118.12
451.986	126.12
452.207	126.12
452.428	131.12
452.648	112.12
452.869	120.12
453.089	118.12
453.31	114.12
453.53	97.12
453.751	112.12
453.971	105.12
454.192	113.12
454.412	113.12
454.633	113.12
454.853	111.12
455.073	133.12
455.294	145.12
455.514	120.12
455.734	107.12
455.955	114.12
456.175	121.12
456.395	104.12
456.616	100.12
456.836	100.12
457.056	120.12
457.276	109.12
457.497	91.12
457.717	99.12
457.937	103.12
458.157	114.12
458.377	116.12
458.598	75.12
458.818	105.12
459.038	98.12
459.258	99.12
459.478	87.12
459.698	82.12
459.918	108.12
460.138	109.12
460.358	116.12
460.578	115.12
460.798	116.12
461.018	112.12
461.238	99.12
461.458	103.12
461.678	101.12
461.898	110.12
462.118	113.12
462.338	104.12
462.558	96.12
462.777	109.12
462.997	105.12
463.217	115.12
463.437	110.12
463.657	116.12
463.876	121.12
464.096	117.12
464.316	105.12
464.536	118.12
464.755	93.12
464.975	103.12
465.195	112.12
465.414	127.12
465.634	122.12
465.854	120.12
466.073	127.12
466.293	103.12
466.512	135.12
466.732	127.12
466.951	140.12
467.171	147.12
467.391	132.12
467.61	134.12
467.829	129.12
468.049	140.12
468.268	133.12
468.488	146.12
468.707	136.12
468.927	128.12
469.146	130.12
469.365	139.12
469.585	144.12
469.804	139.12
470.023	142.12
470.243	140.12
470.462	151.12
470.681	144.12
470.901	139.12
471.12	147.12
471.339	147.12
471.558	134.12
471.777	147.12
471.997	144.12
472.216	133.12
472.435	108.12
472.654	116.12
472.873	109.12
473.092	113.12
473.311	116.12
473.53	121.12
473.749	108.12
473.968	116.12
474.187	123.12
474.406	116.12
474.625	141.12
474.844	127.12
475.063	120.12
475.282	121.12
475.501	137.12
475.72	139.12
475.939	122.12
476.158	132.12
476.377	140.12
476.596	121.12
476.814	120.12
477.033	111.12
477.252	107.12
477.471	120.12
477.69	120.12
477.908	122.12
478.127	139.12
478.346	133.12
478.564	147.12
478.783	127.12
479.002	135.12
479.22	127.12
479.439	142.12
479.658	121.12
479.876	93.12
480.095	102.12
480.313	118.12
480.532	113.12
480.751	101.12
480.969	111.12
481.188	87.12
481.406	101.12
481.624	88.12
481.843	74.12
482.061	92.12
482.28	107.12
482.498	109.12
482.717	96.12
482.935	120.12
483.153	135.12
483.372	135.12
483.59	161.12
483.808	124.12
484.027	136.12
484.245	134.12
484.463	138.12
484.681	155.12
484.9	140.12
485.118	137.12
485.336	124.12
485.554	108.12
485.772	115.12
485.99	102.12
486.209	108.12
486.427	115.12
486.645	125.12
486.863	128.12
487.081	131.12
487.299	129.12
487.517	141.12
487.735	158.12
487.953	167.12
488.171	190.12
488.389	162.12
488.607	154.12
488.825	139.12
489.043	123.12
489.261	119.12
489.479	129.12
489.696	145.12
489.914	142.12
490.132	144.12
490.35	154.12
490.568	164.12
490.786	173.12
491.003	163.12
491.221	161.12
491.439	190.12
491.657	182.12
491.874	217.12
492.092	233.12
492.31	243.12
492.527	225.12
492.745	202.12
492.963	185.12
493.18	175.12
493.398	170.12
493.615	166.12
493.833	161.12
494.05	164.12
494.268	171.12
494.485	179.12
494.703	191.12
494.92	170.12
495.138	177.12
495.355	169.12
495.573	173.12
495.79	182.12
496.008	190.12
496.225	168.12
496.442	165.12
496.66	149.12
496.877	159.12
497.094	164.12
497.312	167.12
497.529	142.12
497.746	153.12
497.963	133.12
498.181	138.12
498.398	127.12
498.615	113.12
498.832	119.12
499.049	112.12
499.267	123.12
499.484	131.12
499.701	130.12
499.918	112.12
500.135	133.12
500.352	145.12
500.569	159.12
500.786	145.12
501.003	139.12
501.22	149.12
501.437	141.12
501.654	141.12
501.871	125.12
502.088	136.12
502.305	130.12
502.522	125.12
502.739	125.12
502.956	132.12
503.172	123.12
503.389	117.12
503.606	120.12
503.823	110.12
504.04	115.12
504.256	121.12
504.473	135.12
504.69	124.12
504.907	134.12
505.123	128.12
505.34	117.12
505.557	119.12
505.773	119.12
505.99	126.12
506.207	134.12
506.423	116.12
506.64	100.12
506.856	128.12
507.073	121.12
507.289	128.12
507.506	97.12
507.722	116.12
507.939	117.12
508.155	136.12
508.372	119.12
508.588	116.12
508.805	111.12
509.021	108.12
509.238	119.12
509.454	104.12
509.67	107.12
509.887	94.12
510.103	82.12
510.319	97.12
510.536	95.12
510.752	94.12
510.968	101.12
511.184	87.12
511.401	86.12
511.617	93.12
511.833	79.12
