Data from Location2.07152019.Energy5.Lamp.07192019.3%Agarose_HRD10591_14-57-15-358.txt Node
Date: Fri Jul 19 14:57:15 EDT 2019
User: cochatt
Spectrometer: HR+D1059
Trigger mode: 1
Integration Time (sec): 1.000000E-1
Scans to average: 1
Electric dark correction enabled: true
Nonlinearity correction enabled: false
Boxcar width: 0
XAxis mode: Wavelengths
Number of Pixels in Spectrum: 2048
>>>>>Begin Spectral Data<<<<<
223.165	-12.69
223.4	-12.69
223.635	-12.69
223.869	-27.69
224.104	-28.69
224.338	-9.69
224.573	-1.69
224.808	-15.69
225.042	-7.69
225.277	-13.69
225.511	8.31
225.746	4.31
225.98	13.31
226.215	8.31
226.449	16.31
226.683	11.31
226.918	30.31
227.152	25.31
227.387	26.31
227.621	34.31
227.856	39.31
228.09	34.31
228.324	48.31
228.559	48.31
228.793	67.31
229.027	71.31
229.262	66.31
229.496	84.31
229.73	68.31
229.964	64.31
230.199	67.31
230.433	65.31
230.667	77.31
230.901	72.31
231.136	70.31
231.37	74.31
231.604	75.31
231.838	72.31
232.072	75.31
232.306	74.31
232.541	72.31
232.775	85.31
233.009	86.31
233.243	74.31
233.477	77.31
233.711	77.31
233.945	76.31
234.179	88.31
234.413	86.31
234.647	81.31
234.881	74.31
235.115	90.31
235.349	105.31
235.583	85.31
235.817	91.31
236.051	79.31
236.285	73.31
236.519	77.31
236.753	64.31
236.987	77.31
237.221	77.31
237.455	90.31
237.689	75.31
237.922	84.31
238.156	73.31
238.39	89.31
238.624	75.31
238.858	79.31
239.091	76.31
239.325	81.31
239.559	72.31
239.793	73.31
240.027	81.31
240.26	79.31
240.494	88.31
240.728	88.31
240.961	73.31
241.195	84.31
241.429	68.31
241.662	82.31
241.896	78.31
242.13	85.31
242.363	86.31
242.597	73.31
242.83	81.31
243.064	93.31
243.298	83.31
243.531	85.31
243.765	71.31
243.998	75.31
244.232	83.31
244.465	87.31
244.699	83.31
244.932	84.31
245.166	83.31
245.399	83.31
245.633	85.31
245.866	82.31
246.099	75.31
246.333	75.31
246.566	76.31
246.8	65.31
247.033	92.31
247.266	83.31
247.5	76.31
247.733	82.31
247.966	78.31
248.2	92.31
248.433	79.31
248.666	75.31
248.899	78.31
249.133	81.31
249.366	72.31
249.599	68.31
249.832	78.31
250.066	96.31
250.299	72.31
250.532	80.31
250.765	76.31
250.998	82.31
251.231	85.31
251.465	84.31
251.698	81.31
251.931	73.31
252.164	82.31
252.397	76.31
252.63	81.31
252.863	71.31
253.096	80.31
253.329	70.31
253.562	98.31
253.795	95.31
254.028	83.31
254.261	89.31
254.494	67.31
254.727	68.31
254.96	99.31
255.193	68.31
255.426	78.31
255.659	64.31
255.892	85.31
256.124	77.31
256.357	82.31
256.59	82.31
256.823	76.31
257.056	83.31
257.289	74.31
257.521	84.31
257.754	80.31
257.987	81.31
258.22	88.31
258.452	84.31
258.685	89.31
258.918	81.31
259.151	62.31
259.383	73.31
259.616	72.31
259.849	75.31
260.081	69.31
260.314	77.31
260.547	80.31
260.779	91.31
261.012	92.31
261.244	73.31
261.477	75.31
261.71	94.31
261.942	89.31
262.175	88.31
262.407	74.31
262.64	78.31
262.872	84.31
263.105	78.31
263.337	78.31
263.57	78.31
263.802	90.31
264.035	66.31
264.267	84.31
264.499	75.31
264.732	91.31
264.964	94.31
265.197	79.31
265.429	76.31
265.661	86.31
265.894	73.31
266.126	83.31
266.358	93.31
266.591	72.31
266.823	67.31
267.055	82.31
267.287	83.31
267.52	81.31
267.752	83.31
267.984	88.31
268.216	85.31
268.448	82.31
268.681	81.31
268.913	88.31
269.145	89.31
269.377	70.31
269.609	83.31
269.841	94.31
270.073	74.31
270.306	75.31
270.538	78.31
270.77	79.31
271.002	81.31
271.234	90.31
271.466	83.31
271.698	82.31
271.93	82.31
272.162	80.31
272.394	87.31
272.626	80.31
272.858	87.31
273.09	87.31
273.322	77.31
273.553	94.31
273.785	80.31
274.017	84.31
274.249	81.31
274.481	84.31
274.713	74.31
274.945	78.31
275.176	72.31
275.408	92.31
275.64	84.31
275.872	80.31
276.104	82.31
276.335	79.31
276.567	72.31
276.799	88.31
277.031	74.31
277.262	81.31
277.494	77.31
277.726	84.31
277.957	84.31
278.189	83.31
278.421	74.31
278.652	77.31
278.884	79.31
279.115	78.31
279.347	78.31
279.579	87.31
279.81	88.31
280.042	74.31
280.273	84.31
280.505	81.31
280.736	87.31
280.968	70.31
281.199	87.31
281.431	80.31
281.662	89.31
281.894	90.31
282.125	80.31
282.356	93.31
282.588	74.31
282.819	87.31
283.051	94.31
283.282	86.31
283.513	87.31
283.745	85.31
283.976	79.31
284.207	82.31
284.439	83.31
284.67	76.31
284.901	93.31
285.132	89.31
285.364	64.31
285.595	81.31
285.826	94.31
286.057	84.31
286.288	81.31
286.52	71.31
286.751	92.31
286.982	81.31
287.213	83.31
287.444	90.31
287.675	82.31
287.906	98.31
288.138	90.31
288.369	93.31
288.6	83.31
288.831	72.31
289.062	79.31
289.293	86.31
289.524	72.31
289.755	74.31
289.986	82.31
290.217	81.31
290.448	94.31
290.679	101.31
290.91	89.31
291.141	96.31
291.371	78.31
291.602	87.31
291.833	92.31
292.064	86.31
292.295	103.31
292.526	85.31
292.757	76.31
292.987	97.31
293.218	83.31
293.449	89.31
293.68	97.31
293.91	79.31
294.141	85.31
294.372	84.31
294.603	100.31
294.833	78.31
295.064	66.31
295.295	96.31
295.525	97.31
295.756	96.31
295.987	100.31
296.217	86.31
296.448	92.31
296.679	89.31
296.909	78.31
297.14	84.31
297.37	80.31
297.601	72.31
297.831	69.31
298.062	94.31
298.292	98.31
298.523	86.31
298.753	81.31
298.984	78.31
299.214	77.31
299.445	100.31
299.675	94.31
299.905	87.31
300.136	91.31
300.366	91.31
300.597	80.31
300.827	90.31
301.057	82.31
301.288	83.31
301.518	98.31
301.748	86.31
301.979	80.31
302.209	78.31
302.439	80.31
302.669	82.31
302.9	98.31
303.13	80.31
303.36	82.31
303.59	88.31
303.82	81.31
304.051	92.31
304.281	91.31
304.511	76.31
304.741	82.31
304.971	88.31
305.201	80.31
305.431	67.31
305.661	78.31
305.891	88.31
306.121	80.31
306.352	84.31
306.582	68.31
306.812	85.31
307.042	81.31
307.272	84.31
307.502	91.31
307.731	90.31
307.961	78.31
308.191	82.31
308.421	80.31
308.651	71.31
308.881	76.31
309.111	84.31
309.341	76.31
309.571	91.31
309.8	77.31
310.03	76.31
310.26	82.31
310.49	84.31
310.72	92.31
310.949	95.31
311.179	84.31
311.409	76.31
311.639	69.31
311.868	77.31
312.098	102.31
312.328	75.31
312.557	91.31
312.787	86.31
313.017	97.31
313.246	81.31
313.476	84.31
313.706	81.31
313.935	93.31
314.165	90.31
314.394	70.31
314.624	80.31
314.853	93.31
315.083	80.31
315.312	80.31
315.542	95.31
315.771	83.31
316.001	86.31
316.23	95.31
316.46	85.31
316.689	89.31
316.919	87.31
317.148	89.31
317.377	90.31
317.607	77.31
317.836	91.31
318.065	81.31
318.295	72.31
318.524	80.31
318.753	89.31
318.983	95.31
319.212	74.31
319.441	85.31
319.67	76.31
319.9	93.31
320.129	80.31
320.358	81.31
320.587	82.31
320.816	79.31
321.046	93.31
321.275	83.31
321.504	75.31
321.733	89.31
321.962	92.31
322.191	84.31
322.42	85.31
322.649	89.31
322.878	81.31
323.108	85.31
323.337	92.31
323.566	72.31
323.795	65.31
324.024	88.31
324.253	80.31
324.482	89.31
324.71	86.31
324.939	84.31
325.168	77.31
325.397	99.31
325.626	82.31
325.855	95.31
326.084	82.31
326.313	84.31
326.542	97.31
326.77	72.31
326.999	82.31
327.228	93.31
327.457	82.31
327.686	96.31
327.914	86.31
328.143	88.31
328.372	83.31
328.6	86.31
328.829	69.31
329.058	82.31
329.287	91.31
329.515	75.31
329.744	96.31
329.972	92.31
330.201	93.31
330.43	73.31
330.658	90.31
330.887	83.31
331.115	80.31
331.344	77.31
331.572	92.31
331.801	95.31
332.03	91.31
332.258	78.31
332.486	88.31
332.715	88.31
332.943	92.31
333.172	79.31
333.4	85.31
333.629	91.31
333.857	74.31
334.085	80.31
334.314	74.31
334.542	67.31
334.771	87.31
334.999	81.31
335.227	84.31
335.455	78.31
335.684	92.31
335.912	77.31
336.14	87.31
336.369	76.31
336.597	95.31
336.825	84.31
337.053	89.31
337.281	88.31
337.51	88.31
337.738	87.31
337.966	68.31
338.194	100.31
338.422	87.31
338.65	76.31
338.878	85.31
339.106	90.31
339.334	84.31
339.562	93.31
339.79	87.31
340.018	91.31
340.246	78.31
340.474	93.31
340.702	80.31
340.93	84.31
341.158	82.31
341.386	77.31
341.614	77.31
341.842	79.31
342.07	70.31
342.298	83.31
342.526	79.31
342.754	78.31
342.981	82.31
343.209	88.31
343.437	92.31
343.665	81.31
343.893	85.31
344.12	84.31
344.348	85.31
344.576	88.31
344.804	83.31
345.031	92.31
345.259	89.31
345.487	88.31
345.714	84.31
345.942	71.31
346.17	83.31
346.397	82.31
346.625	74.31
346.853	76.31
347.08	86.31
347.308	68.31
347.535	82.31
347.763	89.31
347.99	75.31
348.218	80.31
348.445	82.31
348.673	91.31
348.9	88.31
349.128	67.31
349.355	82.31
349.583	85.31
349.81	75.31
350.037	92.31
350.265	98.31
350.492	91.31
350.72	80.31
350.947	93.31
351.174	90.31
351.402	65.31
351.629	92.31
351.856	93.31
352.083	91.31
352.311	75.31
352.538	84.31
352.765	89.31
352.992	80.31
353.22	85.31
353.447	89.31
353.674	86.31
353.901	74.31
354.128	71.31
354.355	89.31
354.583	80.31
354.81	85.31
355.037	87.31
355.264	88.31
355.491	82.31
355.718	83.31
355.945	88.31
356.172	86.31
356.399	82.31
356.626	82.31
356.853	91.31
357.08	87.31
357.307	97.31
357.534	85.31
357.761	90.31
357.988	86.31
358.215	90.31
358.441	78.31
358.668	77.31
358.895	92.31
359.122	88.31
359.349	88.31
359.576	75.31
359.802	88.31
360.029	97.31
360.256	94.31
360.483	86.31
360.709	89.31
360.936	87.31
361.163	104.31
361.39	93.31
361.616	75.31
361.843	85.31
362.07	88.31
362.296	90.31
362.523	82.31
362.749	88.31
362.976	83.31
363.203	93.31
363.429	87.31
363.656	90.31
363.882	88.31
364.109	86.31
364.335	84.31
364.562	98.31
364.788	98.31
365.015	101.31
365.241	89.31
365.468	81.31
365.694	86.31
365.92	92.31
366.147	84.31
366.373	90.31
366.599	102.31
366.826	87.31
367.052	89.31
367.278	82.31
367.505	96.31
367.731	84.31
367.957	93.31
368.184	91.31
368.41	93.31
368.636	91.31
368.862	82.31
369.089	86.31
369.315	91.31
369.541	91.31
369.767	90.31
369.993	90.31
370.219	91.31
370.445	96.31
370.672	93.31
370.898	92.31
371.124	87.31
371.35	86.31
371.576	89.31
371.802	103.31
372.028	83.31
372.254	88.31
372.48	91.31
372.706	88.31
372.932	93.31
373.158	88.31
373.384	99.31
373.61	105.31
373.835	97.31
374.061	85.31
374.287	96.31
374.513	102.31
374.739	89.31
374.965	81.31
375.191	93.31
375.416	92.31
375.642	101.31
375.868	104.31
376.094	108.31
376.319	96.31
376.545	97.31
376.771	81.31
376.997	93.31
377.222	84.31
377.448	99.31
377.674	92.31
377.899	99.31
378.125	86.31
378.35	94.31
378.576	105.31
378.802	84.31
379.027	90.31
379.253	107.31
379.478	104.31
379.704	93.31
379.929	101.31
380.155	82.31
380.38	85.31
380.606	96.31
380.831	85.31
381.057	97.31
381.282	102.31
381.507	88.31
381.733	92.31
381.958	89.31
382.184	92.31
382.409	85.31
382.634	88.31
382.86	103.31
383.085	109.31
383.31	104.31
383.535	97.31
383.761	97.31
383.986	113.31
384.211	76.31
384.436	101.31
384.662	105.31
384.887	98.31
385.112	101.31
385.337	85.31
385.562	103.31
385.787	102.31
386.013	117.31
386.238	88.31
386.463	95.31
386.688	110.31
386.913	100.31
387.138	91.31
387.363	105.31
387.588	109.31
387.813	94.31
388.038	99.31
388.263	94.31
388.488	113.31
388.713	100.31
388.938	102.31
389.163	113.31
389.387	107.31
389.612	106.31
389.837	104.31
390.062	99.31
390.287	99.31
390.512	99.31
390.736	114.31
390.961	98.31
391.186	121.31
391.411	97.31
391.636	100.31
391.86	110.31
392.085	103.31
392.31	104.31
392.534	107.31
392.759	93.31
392.984	99.31
393.208	110.31
393.433	89.31
393.658	114.31
393.882	112.31
394.107	94.31
394.331	103.31
394.556	125.31
394.78	106.31
395.005	106.31
395.229	110.31
395.454	96.31
395.678	108.31
395.903	107.31
396.127	128.31
396.352	104.31
396.576	112.31
396.801	109.31
397.025	118.31
397.249	111.31
397.474	114.31
397.698	115.31
397.922	100.31
398.147	116.31
398.371	106.31
398.595	115.31
398.82	116.31
399.044	129.31
399.268	104.31
399.492	117.31
399.717	109.31
399.941	102.31
400.165	102.31
400.389	116.31
400.613	115.31
400.837	105.31
401.062	109.31
401.286	123.31
401.51	118.31
401.734	128.31
401.958	123.31
402.182	116.31
402.406	128.31
402.63	113.31
402.854	117.31
403.078	116.31
403.302	114.31
403.526	108.31
403.75	106.31
403.974	125.31
404.198	118.31
404.422	117.31
404.645	125.31
404.869	128.31
405.093	129.31
405.317	109.31
405.541	131.31
405.765	124.31
405.988	124.31
406.212	123.31
406.436	118.31
406.66	122.31
406.883	114.31
407.107	118.31
407.331	129.31
407.555	120.31
407.778	105.31
408.002	120.31
408.226	124.31
408.449	129.31
408.673	116.31
408.896	124.31
409.12	131.31
409.344	112.31
409.567	112.31
409.791	126.31
410.014	122.31
410.238	130.31
410.461	141.31
410.685	118.31
410.908	118.31
411.132	140.31
411.355	120.31
411.578	114.31
411.802	118.31
412.025	124.31
412.249	119.31
412.472	117.31
412.695	116.31
412.919	125.31
413.142	120.31
413.365	100.31
413.589	125.31
413.812	128.31
414.035	106.31
414.258	132.31
414.482	123.31
414.705	121.31
414.928	134.31
415.151	124.31
415.374	112.31
415.597	132.31
415.821	129.31
416.044	122.31
416.267	132.31
416.49	126.31
416.713	125.31
416.936	135.31
417.159	107.31
417.382	112.31
417.605	128.31
417.828	128.31
418.051	122.31
418.274	132.31
418.497	125.31
418.72	140.31
418.943	129.31
419.166	127.31
419.389	139.31
419.611	139.31
419.834	126.31
420.057	139.31
420.28	148.31
420.503	124.31
420.726	118.31
420.948	131.31
421.171	122.31
421.394	118.31
421.617	140.31
421.839	137.31
422.062	134.31
422.285	132.31
422.507	124.31
422.73	136.31
422.953	132.31
423.175	133.31
423.398	135.31
423.621	126.31
423.843	124.31
424.066	135.31
424.288	138.31
424.511	141.31
424.733	149.31
424.956	135.31
425.178	130.31
425.401	126.31
425.623	140.31
425.846	145.31
426.068	128.31
426.291	119.31
426.513	144.31
426.735	132.31
426.958	137.31
427.18	152.31
427.402	137.31
427.625	135.31
427.847	153.31
428.069	127.31
428.292	134.31
428.514	142.31
428.736	125.31
428.958	134.31
429.181	126.31
429.403	140.31
429.625	119.31
429.847	132.31
430.069	132.31
430.292	123.31
430.514	121.31
430.736	135.31
430.958	127.31
431.18	124.31
431.402	124.31
431.624	131.31
431.846	109.31
432.068	105.31
432.29	90.31
432.512	117.31
432.734	128.31
432.956	132.31
433.178	152.31
433.4	128.31
433.622	130.31
433.844	129.31
434.066	127.31
434.287	117.31
434.509	103.31
434.731	101.31
434.953	103.31
435.175	119.31
435.397	130.31
435.618	128.31
435.84	119.31
436.062	122.31
436.284	128.31
436.505	120.31
436.727	125.31
436.949	136.31
437.17	142.31
437.392	138.31
437.614	118.31
437.835	120.31
438.057	94.31
438.278	107.31
438.5	127.31
438.721	128.31
438.943	122.31
439.165	149.31
439.386	134.31
439.608	146.31
439.829	151.31
440.05	139.31
440.272	128.31
440.493	156.31
440.715	142.31
440.936	148.31
441.158	159.31
441.379	141.31
441.6	144.31
441.822	148.31
442.043	147.31
442.264	145.31
442.486	129.31
442.707	155.31
442.928	149.31
443.149	142.31
443.371	130.31
443.592	153.31
443.813	144.31
444.034	148.31
444.255	152.31
444.476	148.31
444.698	130.31
444.919	148.31
445.14	284.31
445.361	211.31
445.582	155.31
445.803	149.31
446.024	149.31
446.245	156.31
446.466	153.31
446.687	156.31
446.908	150.31
447.129	151.31
447.35	146.31
447.571	153.31
447.792	136.31
448.013	140.31
448.234	127.31
448.455	133.31
448.675	130.31
448.896	147.31
449.117	124.31
449.338	144.31
449.559	151.31
449.779	132.31
450	136.31
450.221	134.31
450.442	132.31
450.662	145.31
450.883	152.31
451.104	123.31
451.324	139.31
451.545	128.31
451.766	134.31
451.986	131.31
452.207	134.31
452.428	122.31
452.648	122.31
452.869	112.31
453.089	119.31
453.31	104.31
453.53	108.31
453.751	115.31
453.971	105.31
454.192	105.31
454.412	113.31
454.633	133.31
454.853	120.31
455.073	130.31
455.294	112.31
455.514	123.31
455.734	114.31
455.955	115.31
456.175	100.31
456.395	104.31
456.616	120.31
456.836	107.31
457.056	115.31
457.276	121.31
457.497	99.31
457.717	116.31
457.937	123.31
458.157	122.31
458.377	101.31
458.598	105.31
458.818	112.31
459.038	97.31
459.258	80.31
459.478	85.31
459.698	88.31
459.918	101.31
460.138	89.31
460.358	116.31
460.578	106.31
460.798	108.31
461.018	100.31
461.238	117.31
461.458	120.31
461.678	109.31
461.898	116.31
462.118	122.31
462.338	112.31
462.558	117.31
462.777	108.31
462.997	113.31
463.217	118.31
463.437	104.31
463.657	104.31
463.876	114.31
464.096	121.31
464.316	97.31
464.536	108.31
464.755	118.31
464.975	88.31
465.195	112.31
465.414	132.31
465.634	114.31
465.854	117.31
466.073	121.31
466.293	125.31
466.512	133.31
466.732	126.31
466.951	136.31
467.171	129.31
467.391	143.31
467.61	126.31
467.829	126.31
468.049	126.31
468.268	136.31
468.488	141.31
468.707	126.31
468.927	134.31
469.146	129.31
469.365	138.31
469.585	157.31
469.804	145.31
470.023	156.31
470.243	153.31
470.462	143.31
470.681	148.31
470.901	154.31
471.12	134.31
471.339	142.31
471.558	158.31
471.777	143.31
471.997	139.31
472.216	140.31
472.435	111.31
472.654	108.31
472.873	116.31
473.092	96.31
473.311	131.31
473.53	122.31
473.749	128.31
473.968	138.31
474.187	128.31
474.406	106.31
474.625	122.31
474.844	134.31
475.063	137.31
475.282	120.31
475.501	122.31
475.72	114.31
475.939	131.31
476.158	135.31
476.377	126.31
476.596	125.31
476.814	110.31
477.033	125.31
477.252	105.31
477.471	127.31
477.69	148.31
477.908	141.31
478.127	134.31
478.346	114.31
478.564	121.31
478.783	124.31
479.002	146.31
479.22	149.31
479.439	121.31
479.658	109.31
479.876	116.31
480.095	116.31
480.313	117.31
480.532	126.31
480.751	117.31
480.969	105.31
481.188	91.31
481.406	90.31
481.624	94.31
481.843	85.31
482.061	112.31
482.28	114.31
482.498	113.31
482.717	104.31
482.935	109.31
483.153	141.31
483.372	157.31
483.59	152.31
483.808	144.31
484.027	141.31
484.245	140.31
484.463	145.31
484.681	145.31
484.9	145.31
485.118	129.31
485.336	139.31
485.554	127.31
485.772	105.31
485.99	108.31
486.209	112.31
486.427	112.31
486.645	121.31
486.863	141.31
487.081	128.31
487.299	135.31
487.517	144.31
487.735	156.31
487.953	173.31
488.171	157.31
488.389	171.31
488.607	148.31
488.825	141.31
489.043	125.31
489.261	133.31
489.479	122.31
489.696	155.31
489.914	147.31
490.132	134.31
490.35	144.31
490.568	160.31
490.786	181.31
491.003	198.31
491.221	181.31
491.439	181.31
491.657	186.31
491.874	197.31
492.092	210.31
492.31	232.31
492.527	223.31
492.745	208.31
492.963	192.31
493.18	187.31
493.398	194.31
493.615	171.31
493.833	170.31
494.05	176.31
494.268	172.31
494.485	168.31
494.703	171.31
494.92	183.31
495.138	191.31
495.355	185.31
495.573	176.31
495.79	166.31
496.008	171.31
496.225	161.31
496.442	183.31
496.66	162.31
496.877	162.31
497.094	160.31
497.312	157.31
497.529	140.31
497.746	158.31
497.963	140.31
498.181	128.31
498.398	134.31
498.615	125.31
498.832	138.31
499.049	122.31
499.267	123.31
499.484	128.31
499.701	140.31
499.918	138.31
500.135	133.31
500.352	146.31
500.569	155.31
500.786	150.31
501.003	152.31
501.22	139.31
501.437	140.31
501.654	143.31
501.871	136.31
502.088	128.31
502.305	134.31
502.522	128.31
502.739	140.31
502.956	122.31
503.172	121.31
503.389	130.31
503.606	125.31
503.823	116.31
504.04	109.31
504.256	142.31
504.473	121.31
504.69	126.31
504.907	141.31
505.123	117.31
505.34	126.31
505.557	132.31
505.773	121.31
505.99	125.31
506.207	115.31
506.423	116.31
506.64	121.31
506.856	125.31
507.073	109.31
507.289	119.31
507.506	131.31
507.722	114.31
507.939	118.31
508.155	117.31
508.372	115.31
508.588	108.31
508.805	108.31
509.021	104.31
509.238	93.31
509.454	97.31
509.67	108.31
509.887	94.31
510.103	88.31
510.319	86.31
510.536	98.31
510.752	86.31
510.968	88.31
511.184	83.31
511.401	82.31
