Data from Location2.07152019.Energy5.Lamp.07192019.3%Agarose_HRD10591_14-55-43-358.txt Node
Date: Fri Jul 19 14:55:43 EDT 2019
User: cochatt
Spectrometer: HR+D1059
Trigger mode: 1
Integration Time (sec): 1.000000E-1
Scans to average: 1
Electric dark correction enabled: true
Nonlinearity correction enabled: false
Boxcar width: 0
XAxis mode: Wavelengths
Number of Pixels in Spectrum: 2048
>>>>>Begin Spectral Data<<<<<
223.165	-5.25
223.4	-5.25
223.635	-5.25
223.869	-19.25
224.104	-27.25
224.338	-22.25
224.573	-9.25
224.808	-7.25
225.042	-12.25
225.277	6.75
225.511	-9.25
225.746	-2.25
225.98	13.75
226.215	10.75
226.449	5.75
226.683	14.75
226.918	24.75
227.152	37.75
227.387	46.75
227.621	50.75
227.856	47.75
228.09	49.75
228.324	39.75
228.559	60.75
228.793	61.75
229.027	75.75
229.262	74.75
229.496	73.75
229.73	67.75
229.964	78.75
230.199	75.75
230.433	79.75
230.667	75.75
230.901	78.75
231.136	85.75
231.37	70.75
231.604	83.75
231.838	95.75
232.072	83.75
232.306	78.75
232.541	88.75
232.775	90.75
233.009	68.75
233.243	85.75
233.477	83.75
233.711	76.75
233.945	89.75
234.179	85.75
234.413	103.75
234.647	86.75
234.881	66.75
235.115	81.75
235.349	76.75
235.583	66.75
235.817	76.75
236.051	70.75
236.285	85.75
236.519	94.75
236.753	90.75
236.987	86.75
237.221	89.75
237.455	77.75
237.689	80.75
237.922	74.75
238.156	70.75
238.39	88.75
238.624	75.75
238.858	69.75
239.091	85.75
239.325	75.75
239.559	78.75
239.793	71.75
240.027	75.75
240.26	80.75
240.494	83.75
240.728	83.75
240.961	88.75
241.195	75.75
241.429	75.75
241.662	66.75
241.896	79.75
242.13	77.75
242.363	83.75
242.597	71.75
242.83	81.75
243.064	77.75
243.298	77.75
243.531	73.75
243.765	77.75
243.998	72.75
244.232	75.75
244.465	62.75
244.699	71.75
244.932	83.75
245.166	78.75
245.399	89.75
245.633	91.75
245.866	82.75
246.099	83.75
246.333	83.75
246.566	77.75
246.8	65.75
247.033	77.75
247.266	78.75
247.5	71.75
247.733	80.75
247.966	79.75
248.2	91.75
248.433	78.75
248.666	84.75
248.899	85.75
249.133	83.75
249.366	99.75
249.599	83.75
249.832	90.75
250.066	93.75
250.299	82.75
250.532	81.75
250.765	78.75
250.998	78.75
251.231	88.75
251.465	90.75
251.698	78.75
251.931	83.75
252.164	87.75
252.397	78.75
252.63	69.75
252.863	85.75
253.096	81.75
253.329	64.75
253.562	85.75
253.795	60.75
254.028	96.75
254.261	74.75
254.494	76.75
254.727	97.75
254.96	81.75
255.193	82.75
255.426	81.75
255.659	88.75
255.892	59.75
256.124	83.75
256.357	77.75
256.59	79.75
256.823	89.75
257.056	83.75
257.289	85.75
257.521	86.75
257.754	87.75
257.987	92.75
258.22	92.75
258.452	78.75
258.685	82.75
258.918	85.75
259.151	73.75
259.383	70.75
259.616	89.75
259.849	73.75
260.081	76.75
260.314	87.75
260.547	87.75
260.779	89.75
261.012	87.75
261.244	90.75
261.477	75.75
261.71	77.75
261.942	98.75
262.175	85.75
262.407	78.75
262.64	78.75
262.872	89.75
263.105	88.75
263.337	83.75
263.57	79.75
263.802	84.75
264.035	79.75
264.267	92.75
264.499	83.75
264.732	78.75
264.964	91.75
265.197	79.75
265.429	91.75
265.661	92.75
265.894	85.75
266.126	95.75
266.358	78.75
266.591	62.75
266.823	79.75
267.055	82.75
267.287	86.75
267.52	77.75
267.752	85.75
267.984	65.75
268.216	77.75
268.448	72.75
268.681	88.75
268.913	86.75
269.145	91.75
269.377	82.75
269.609	83.75
269.841	93.75
270.073	86.75
270.306	85.75
270.538	83.75
270.77	87.75
271.002	77.75
271.234	87.75
271.466	91.75
271.698	81.75
271.93	92.75
272.162	82.75
272.394	96.75
272.626	68.75
272.858	89.75
273.09	66.75
273.322	84.75
273.553	79.75
273.785	78.75
274.017	90.75
274.249	91.75
274.481	94.75
274.713	95.75
274.945	85.75
275.176	79.75
275.408	77.75
275.64	72.75
275.872	86.75
276.104	89.75
276.335	85.75
276.567	79.75
276.799	89.75
277.031	73.75
277.262	89.75
277.494	92.75
277.726	88.75
277.957	79.75
278.189	101.75
278.421	79.75
278.652	91.75
278.884	99.75
279.115	69.75
279.347	75.75
279.579	86.75
279.81	90.75
280.042	89.75
280.273	102.75
280.505	80.75
280.736	90.75
280.968	82.75
281.199	94.75
281.431	76.75
281.662	89.75
281.894	89.75
282.125	84.75
282.356	82.75
282.588	80.75
282.819	81.75
283.051	81.75
283.282	83.75
283.513	90.75
283.745	84.75
283.976	87.75
284.207	100.75
284.439	75.75
284.67	85.75
284.901	90.75
285.132	74.75
285.364	86.75
285.595	93.75
285.826	89.75
286.057	98.75
286.288	82.75
286.52	84.75
286.751	82.75
286.982	98.75
287.213	95.75
287.444	90.75
287.675	82.75
287.906	79.75
288.138	82.75
288.369	81.75
288.6	74.75
288.831	85.75
289.062	81.75
289.293	79.75
289.524	92.75
289.755	78.75
289.986	81.75
290.217	78.75
290.448	68.75
290.679	74.75
290.91	86.75
291.141	91.75
291.371	92.75
291.602	79.75
291.833	96.75
292.064	84.75
292.295	89.75
292.526	75.75
292.757	86.75
292.987	93.75
293.218	100.75
293.449	103.75
293.68	106.75
293.91	76.75
294.141	72.75
294.372	83.75
294.603	80.75
294.833	85.75
295.064	72.75
295.295	97.75
295.525	87.75
295.756	97.75
295.987	76.75
296.217	82.75
296.448	76.75
296.679	89.75
296.909	94.75
297.14	80.75
297.37	98.75
297.601	92.75
297.831	90.75
298.062	84.75
298.292	80.75
298.523	89.75
298.753	87.75
298.984	86.75
299.214	87.75
299.445	90.75
299.675	79.75
299.905	81.75
300.136	87.75
300.366	82.75
300.597	77.75
300.827	81.75
301.057	90.75
301.288	89.75
301.518	89.75
301.748	80.75
301.979	78.75
302.209	89.75
302.439	83.75
302.669	77.75
302.9	89.75
303.13	78.75
303.36	85.75
303.59	93.75
303.82	88.75
304.051	83.75
304.281	77.75
304.511	91.75
304.741	81.75
304.971	75.75
305.201	77.75
305.431	90.75
305.661	87.75
305.891	82.75
306.121	95.75
306.352	81.75
306.582	91.75
306.812	80.75
307.042	86.75
307.272	78.75
307.502	95.75
307.731	88.75
307.961	89.75
308.191	93.75
308.421	85.75
308.651	86.75
308.881	90.75
309.111	102.75
309.341	79.75
309.571	79.75
309.8	76.75
310.03	82.75
310.26	104.75
310.49	83.75
310.72	88.75
310.949	87.75
311.179	83.75
311.409	94.75
311.639	83.75
311.868	87.75
312.098	76.75
312.328	85.75
312.557	86.75
312.787	96.75
313.017	84.75
313.246	88.75
313.476	96.75
313.706	100.75
313.935	93.75
314.165	95.75
314.394	82.75
314.624	81.75
314.853	73.75
315.083	82.75
315.312	88.75
315.542	76.75
315.771	79.75
316.001	75.75
316.23	90.75
316.46	86.75
316.689	86.75
316.919	68.75
317.148	93.75
317.377	93.75
317.607	85.75
317.836	90.75
318.065	72.75
318.295	95.75
318.524	89.75
318.753	88.75
318.983	80.75
319.212	91.75
319.441	71.75
319.67	94.75
319.9	85.75
320.129	76.75
320.358	104.75
320.587	92.75
320.816	96.75
321.046	98.75
321.275	91.75
321.504	94.75
321.733	85.75
321.962	69.75
322.191	84.75
322.42	77.75
322.649	82.75
322.878	79.75
323.108	85.75
323.337	87.75
323.566	77.75
323.795	95.75
324.024	100.75
324.253	93.75
324.482	86.75
324.71	92.75
324.939	91.75
325.168	91.75
325.397	85.75
325.626	85.75
325.855	87.75
326.084	79.75
326.313	85.75
326.542	88.75
326.77	90.75
326.999	88.75
327.228	83.75
327.457	93.75
327.686	81.75
327.914	91.75
328.143	92.75
328.372	98.75
328.6	81.75
328.829	69.75
329.058	73.75
329.287	63.75
329.515	72.75
329.744	92.75
329.972	94.75
330.201	86.75
330.43	90.75
330.658	87.75
330.887	85.75
331.115	88.75
331.344	98.75
331.572	95.75
331.801	80.75
332.03	75.75
332.258	93.75
332.486	87.75
332.715	96.75
332.943	75.75
333.172	100.75
333.4	79.75
333.629	87.75
333.857	86.75
334.085	89.75
334.314	86.75
334.542	74.75
334.771	81.75
334.999	87.75
335.227	83.75
335.455	89.75
335.684	81.75
335.912	87.75
336.14	95.75
336.369	97.75
336.597	92.75
336.825	103.75
337.053	81.75
337.281	103.75
337.51	81.75
337.738	86.75
337.966	85.75
338.194	94.75
338.422	78.75
338.65	97.75
338.878	80.75
339.106	86.75
339.334	91.75
339.562	104.75
339.79	72.75
340.018	83.75
340.246	82.75
340.474	88.75
340.702	80.75
340.93	87.75
341.158	77.75
341.386	76.75
341.614	85.75
341.842	97.75
342.07	85.75
342.298	76.75
342.526	77.75
342.754	94.75
342.981	87.75
343.209	96.75
343.437	88.75
343.665	78.75
343.893	91.75
344.12	96.75
344.348	101.75
344.576	82.75
344.804	86.75
345.031	74.75
345.259	81.75
345.487	87.75
345.714	84.75
345.942	84.75
346.17	96.75
346.397	87.75
346.625	90.75
346.853	97.75
347.08	81.75
347.308	91.75
347.535	77.75
347.763	84.75
347.99	73.75
348.218	78.75
348.445	90.75
348.673	86.75
348.9	97.75
349.128	83.75
349.355	90.75
349.583	80.75
349.81	86.75
350.037	87.75
350.265	90.75
350.492	93.75
350.72	96.75
350.947	92.75
351.174	83.75
351.402	83.75
351.629	94.75
351.856	85.75
352.083	79.75
352.311	85.75
352.538	87.75
352.765	99.75
352.992	83.75
353.22	92.75
353.447	93.75
353.674	82.75
353.901	100.75
354.128	89.75
354.355	83.75
354.583	89.75
354.81	87.75
355.037	90.75
355.264	98.75
355.491	83.75
355.718	69.75
355.945	87.75
356.172	83.75
356.399	100.75
356.626	80.75
356.853	89.75
357.08	89.75
357.307	80.75
357.534	91.75
357.761	92.75
357.988	78.75
358.215	87.75
358.441	94.75
358.668	81.75
358.895	82.75
359.122	87.75
359.349	76.75
359.576	75.75
359.802	87.75
360.029	78.75
360.256	74.75
360.483	99.75
360.709	89.75
360.936	99.75
361.163	96.75
361.39	95.75
361.616	103.75
361.843	89.75
362.07	79.75
362.296	85.75
362.523	97.75
362.749	84.75
362.976	77.75
363.203	90.75
363.429	79.75
363.656	99.75
363.882	91.75
364.109	89.75
364.335	87.75
364.562	71.75
364.788	85.75
365.015	90.75
365.241	90.75
365.468	89.75
365.694	90.75
365.92	101.75
366.147	102.75
366.373	99.75
366.599	87.75
366.826	81.75
367.052	84.75
367.278	93.75
367.505	89.75
367.731	97.75
367.957	86.75
368.184	95.75
368.41	89.75
368.636	86.75
368.862	89.75
369.089	91.75
369.315	99.75
369.541	93.75
369.767	94.75
369.993	98.75
370.219	93.75
370.445	87.75
370.672	100.75
370.898	87.75
371.124	91.75
371.35	97.75
371.576	90.75
371.802	90.75
372.028	93.75
372.254	75.75
372.48	90.75
372.706	88.75
372.932	89.75
373.158	101.75
373.384	79.75
373.61	100.75
373.835	103.75
374.061	95.75
374.287	102.75
374.513	97.75
374.739	101.75
374.965	114.75
375.191	102.75
375.416	97.75
375.642	94.75
375.868	91.75
376.094	97.75
376.319	83.75
376.545	91.75
376.771	100.75
376.997	90.75
377.222	86.75
377.448	107.75
377.674	89.75
377.899	86.75
378.125	93.75
378.35	106.75
378.576	92.75
378.802	114.75
379.027	98.75
379.253	102.75
379.478	102.75
379.704	93.75
379.929	97.75
380.155	109.75
380.38	107.75
380.606	98.75
380.831	86.75
381.057	94.75
381.282	83.75
381.507	87.75
381.733	103.75
381.958	94.75
382.184	93.75
382.409	95.75
382.634	102.75
382.86	107.75
383.085	99.75
383.31	101.75
383.535	100.75
383.761	101.75
383.986	113.75
384.211	96.75
384.436	99.75
384.662	101.75
384.887	95.75
385.112	96.75
385.337	109.75
385.562	83.75
385.787	110.75
386.013	117.75
386.238	108.75
386.463	120.75
386.688	91.75
386.913	98.75
387.138	105.75
387.363	103.75
387.588	108.75
387.813	107.75
388.038	108.75
388.263	106.75
388.488	110.75
388.713	104.75
388.938	101.75
389.163	105.75
389.387	87.75
389.612	105.75
389.837	120.75
390.062	99.75
390.287	107.75
390.512	119.75
390.736	108.75
390.961	115.75
391.186	113.75
391.411	107.75
391.636	115.75
391.86	110.75
392.085	106.75
392.31	126.75
392.534	101.75
392.759	110.75
392.984	114.75
393.208	115.75
393.433	93.75
393.658	99.75
393.882	89.75
394.107	111.75
394.331	106.75
394.556	104.75
394.78	107.75
395.005	124.75
395.229	112.75
395.454	111.75
395.678	101.75
395.903	108.75
396.127	98.75
396.352	107.75
396.576	127.75
396.801	112.75
397.025	104.75
397.249	95.75
397.474	118.75
397.698	85.75
397.922	113.75
398.147	102.75
398.371	90.75
398.595	105.75
398.82	115.75
399.044	106.75
399.268	106.75
399.492	105.75
399.717	115.75
399.941	105.75
400.165	96.75
400.389	111.75
400.613	123.75
400.837	103.75
401.062	115.75
401.286	115.75
401.51	108.75
401.734	105.75
401.958	107.75
402.182	114.75
402.406	121.75
402.63	112.75
402.854	116.75
403.078	105.75
403.302	127.75
403.526	125.75
403.75	119.75
403.974	132.75
404.198	115.75
404.422	124.75
404.645	119.75
404.869	111.75
405.093	115.75
405.317	123.75
405.541	125.75
405.765	123.75
405.988	126.75
406.212	126.75
406.436	134.75
406.66	126.75
406.883	119.75
407.107	129.75
407.331	122.75
407.555	139.75
407.778	122.75
408.002	123.75
408.226	114.75
408.449	130.75
408.673	120.75
408.896	120.75
409.12	110.75
409.344	102.75
409.567	119.75
409.791	113.75
410.014	118.75
410.238	136.75
410.461	136.75
410.685	139.75
410.908	144.75
411.132	124.75
411.355	118.75
411.578	124.75
411.802	135.75
412.025	137.75
412.249	124.75
412.472	126.75
412.695	120.75
412.919	130.75
413.142	129.75
413.365	117.75
413.589	134.75
413.812	107.75
414.035	144.75
414.258	119.75
414.482	127.75
414.705	139.75
414.928	131.75
415.151	130.75
415.374	123.75
415.597	117.75
415.821	138.75
416.044	137.75
416.267	137.75
416.49	129.75
416.713	116.75
416.936	133.75
417.159	117.75
417.382	131.75
417.605	111.75
417.828	121.75
418.051	143.75
418.274	118.75
418.497	126.75
418.72	121.75
418.943	130.75
419.166	136.75
419.389	122.75
419.611	141.75
419.834	141.75
420.057	126.75
420.28	127.75
420.503	137.75
420.726	131.75
420.948	138.75
421.171	134.75
421.394	122.75
421.617	133.75
421.839	133.75
422.062	138.75
422.285	129.75
422.507	146.75
422.73	137.75
422.953	127.75
423.175	129.75
423.398	141.75
423.621	137.75
423.843	133.75
424.066	139.75
424.288	139.75
424.511	137.75
424.733	142.75
424.956	146.75
425.178	137.75
425.401	127.75
425.623	135.75
425.846	125.75
426.068	135.75
426.291	137.75
426.513	139.75
426.735	142.75
426.958	138.75
427.18	129.75
427.402	136.75
427.625	148.75
427.847	130.75
428.069	129.75
428.292	133.75
428.514	131.75
428.736	130.75
428.958	123.75
429.181	124.75
429.403	124.75
429.625	139.75
429.847	137.75
430.069	131.75
430.292	130.75
430.514	118.75
430.736	135.75
430.958	134.75
431.18	134.75
431.402	134.75
431.624	122.75
431.846	111.75
432.068	104.75
432.29	91.75
432.512	100.75
432.734	130.75
432.956	127.75
433.178	129.75
433.4	135.75
433.622	134.75
433.844	127.75
434.066	126.75
434.287	108.75
434.509	103.75
434.731	108.75
434.953	119.75
435.175	133.75
435.397	145.75
435.618	136.75
435.84	125.75
436.062	119.75
436.284	127.75
436.505	126.75
436.727	133.75
436.949	121.75
437.17	127.75
437.392	140.75
437.614	133.75
437.835	109.75
438.057	123.75
438.278	116.75
438.5	114.75
438.721	131.75
438.943	148.75
439.165	143.75
439.386	139.75
439.608	151.75
439.829	155.75
440.05	153.75
440.272	153.75
440.493	156.75
440.715	149.75
440.936	159.75
441.158	134.75
441.379	145.75
441.6	151.75
441.822	141.75
442.043	136.75
442.264	140.75
442.486	146.75
442.707	131.75
442.928	149.75
443.149	135.75
443.371	138.75
443.592	148.75
443.813	161.75
444.034	121.75
444.255	154.75
444.476	143.75
444.698	141.75
444.919	140.75
445.14	262.75
445.361	208.75
445.582	155.75
445.803	149.75
446.024	129.75
446.245	134.75
446.466	146.75
446.687	158.75
446.908	161.75
447.129	146.75
447.35	157.75
447.571	166.75
447.792	140.75
448.013	135.75
448.234	129.75
448.455	134.75
448.675	154.75
448.896	147.75
449.117	136.75
449.338	146.75
449.559	133.75
449.779	133.75
450	144.75
450.221	132.75
450.442	131.75
450.662	142.75
450.883	128.75
451.104	139.75
451.324	132.75
451.545	137.75
451.766	145.75
451.986	128.75
452.207	131.75
452.428	131.75
452.648	131.75
452.869	138.75
453.089	114.75
453.31	114.75
453.53	115.75
453.751	93.75
453.971	98.75
454.192	117.75
454.412	129.75
454.633	121.75
454.853	131.75
455.073	122.75
455.294	120.75
455.514	132.75
455.734	115.75
455.955	125.75
456.175	125.75
456.395	107.75
456.616	101.75
456.836	114.75
457.056	107.75
457.276	102.75
457.497	94.75
457.717	115.75
457.937	115.75
458.157	100.75
458.377	120.75
458.598	108.75
458.818	90.75
459.038	91.75
459.258	94.75
459.478	89.75
459.698	99.75
459.918	106.75
460.138	109.75
460.358	113.75
460.578	122.75
460.798	123.75
461.018	117.75
461.238	103.75
461.458	106.75
461.678	108.75
461.898	120.75
462.118	119.75
462.338	106.75
462.558	114.75
462.777	131.75
462.997	119.75
463.217	116.75
463.437	113.75
463.657	111.75
463.876	97.75
464.096	123.75
464.316	115.75
464.536	113.75
464.755	103.75
464.975	115.75
465.195	125.75
465.414	114.75
465.634	123.75
465.854	127.75
466.073	118.75
466.293	116.75
466.512	126.75
466.732	144.75
466.951	131.75
467.171	141.75
467.391	129.75
467.61	134.75
467.829	118.75
468.049	140.75
468.268	142.75
468.488	132.75
468.707	131.75
468.927	122.75
469.146	141.75
469.365	145.75
469.585	141.75
469.804	130.75
470.023	155.75
470.243	145.75
470.462	141.75
470.681	148.75
470.901	139.75
471.12	145.75
471.339	151.75
471.558	132.75
471.777	133.75
471.997	153.75
472.216	145.75
472.435	121.75
472.654	96.75
472.873	117.75
473.092	117.75
473.311	123.75
473.53	135.75
473.749	119.75
473.968	140.75
474.187	122.75
474.406	114.75
474.625	129.75
474.844	125.75
475.063	115.75
475.282	135.75
475.501	119.75
475.72	120.75
475.939	123.75
476.158	131.75
476.377	137.75
476.596	129.75
476.814	117.75
477.033	106.75
477.252	122.75
477.471	116.75
477.69	157.75
477.908	139.75
478.127	147.75
478.346	159.75
478.564	151.75
478.783	153.75
479.002	152.75
479.22	139.75
479.439	151.75
479.658	122.75
479.876	109.75
480.095	111.75
480.313	130.75
480.532	119.75
480.751	110.75
480.969	81.75
481.188	90.75
481.406	95.75
481.624	79.75
481.843	95.75
482.061	105.75
482.28	109.75
482.498	117.75
482.717	113.75
482.935	109.75
483.153	138.75
483.372	157.75
483.59	139.75
483.808	149.75
484.027	135.75
484.245	151.75
484.463	145.75
484.681	150.75
484.9	150.75
485.118	138.75
485.336	131.75
485.554	112.75
485.772	99.75
485.99	122.75
486.209	113.75
486.427	124.75
486.645	125.75
486.863	136.75
487.081	150.75
487.299	139.75
487.517	134.75
487.735	168.75
487.953	177.75
488.171	183.75
488.389	174.75
488.607	156.75
488.825	126.75
489.043	144.75
489.261	142.75
489.479	129.75
489.696	136.75
489.914	133.75
490.132	151.75
490.35	149.75
490.568	161.75
490.786	179.75
491.003	189.75
491.221	178.75
491.439	187.75
491.657	187.75
491.874	200.75
492.092	224.75
492.31	244.75
492.527	232.75
492.745	218.75
492.963	197.75
493.18	201.75
493.398	193.75
493.615	181.75
493.833	184.75
494.05	174.75
494.268	163.75
494.485	183.75
494.703	180.75
494.92	171.75
495.138	171.75
495.355	171.75
495.573	170.75
495.79	170.75
496.008	176.75
496.225	175.75
496.442	169.75
496.66	180.75
496.877	162.75
497.094	164.75
497.312	178.75
497.529	152.75
497.746	157.75
497.963	148.75
498.181	143.75
498.398	141.75
498.615	129.75
498.832	101.75
499.049	131.75
499.267	115.75
499.484	126.75
499.701	138.75
499.918	127.75
500.135	161.75
500.352	157.75
500.569	142.75
500.786	151.75
501.003	144.75
501.22	146.75
501.437	136.75
501.654	142.75
501.871	147.75
502.088	133.75
502.305	118.75
502.522	101.75
502.739	121.75
502.956	126.75
503.172	134.75
503.389	108.75
503.606	111.75
503.823	132.75
504.04	137.75
504.256	125.75
504.473	120.75
504.69	119.75
504.907	119.75
505.123	125.75
505.34	115.75
505.557	135.75
505.773	134.75
505.99	122.75
506.207	116.75
506.423	140.75
506.64	138.75
506.856	105.75
507.073	124.75
507.289	113.75
507.506	107.75
507.722	116.75
507.939	129.75
508.155	127.75
508.372	121.75
508.588	115.75
508.805	99.75
509.021	106.75
509.238	97.75
509.454	104.75
509.67	96.75
509.887	88.75
510.103	92.75
510.319	101.75
510.536	113.75
510.752	103.75
510.968	83.75
511.184	82.75
