Data from Location2.07152019.Energy5.Lamp.07192019.3%Agarose_HRD10591_14-57-28-358.txt Node
Date: Fri Jul 19 14:57:28 EDT 2019
User: cochatt
Spectrometer: HR+D1059
Trigger mode: 1
Integration Time (sec): 1.000000E-1
Scans to average: 1
Electric dark correction enabled: true
Nonlinearity correction enabled: false
Boxcar width: 0
XAxis mode: Wavelengths
Number of Pixels in Spectrum: 2048
>>>>>Begin Spectral Data<<<<<
223.165	-22.5
223.4	-22.5
223.635	-22.5
223.869	-14.5
224.104	-19.5
224.338	-13.5
224.573	-10.5
224.808	-15.5
225.042	-12.5
225.277	-3.5
225.511	-2.5
225.746	2.5
225.98	3.5
226.215	16.5
226.449	5.5
226.683	25.5
226.918	25.5
227.152	35.5
227.387	34.5
227.621	35.5
227.856	51.5
228.09	41.5
228.324	42.5
228.559	44.5
228.793	54.5
229.027	70.5
229.262	66.5
229.496	61.5
229.73	55.5
229.964	71.5
230.199	81.5
230.433	83.5
230.667	86.5
230.901	83.5
231.136	81.5
231.37	65.5
231.604	74.5
231.838	91.5
232.072	66.5
232.306	92.5
232.541	72.5
232.775	89.5
233.009	81.5
233.243	73.5
233.477	76.5
233.711	89.5
233.945	83.5
234.179	81.5
234.413	71.5
234.647	92.5
234.881	77.5
235.115	72.5
235.349	85.5
235.583	82.5
235.817	73.5
236.051	78.5
236.285	70.5
236.519	76.5
236.753	80.5
236.987	83.5
237.221	83.5
237.455	88.5
237.689	74.5
237.922	65.5
238.156	69.5
238.39	70.5
238.624	83.5
238.858	75.5
239.091	72.5
239.325	81.5
239.559	85.5
239.793	79.5
240.027	71.5
240.26	72.5
240.494	67.5
240.728	90.5
240.961	61.5
241.195	64.5
241.429	81.5
241.662	77.5
241.896	70.5
242.13	73.5
242.363	82.5
242.597	74.5
242.83	81.5
243.064	71.5
243.298	76.5
243.531	76.5
243.765	77.5
243.998	73.5
244.232	69.5
244.465	74.5
244.699	77.5
244.932	75.5
245.166	84.5
245.399	80.5
245.633	72.5
245.866	86.5
246.099	82.5
246.333	75.5
246.566	74.5
246.8	73.5
247.033	79.5
247.266	75.5
247.5	80.5
247.733	75.5
247.966	90.5
248.2	102.5
248.433	87.5
248.666	74.5
248.899	74.5
249.133	73.5
249.366	86.5
249.599	88.5
249.832	81.5
250.066	86.5
250.299	85.5
250.532	79.5
250.765	80.5
250.998	76.5
251.231	80.5
251.465	79.5
251.698	72.5
251.931	69.5
252.164	84.5
252.397	64.5
252.63	80.5
252.863	86.5
253.096	93.5
253.329	74.5
253.562	88.5
253.795	71.5
254.028	90.5
254.261	85.5
254.494	73.5
254.727	71.5
254.96	74.5
255.193	77.5
255.426	81.5
255.659	89.5
255.892	83.5
256.124	73.5
256.357	68.5
256.59	77.5
256.823	90.5
257.056	73.5
257.289	75.5
257.521	85.5
257.754	85.5
257.987	90.5
258.22	84.5
258.452	96.5
258.685	81.5
258.918	87.5
259.151	75.5
259.383	80.5
259.616	96.5
259.849	87.5
260.081	73.5
260.314	88.5
260.547	79.5
260.779	74.5
261.012	70.5
261.244	71.5
261.477	81.5
261.71	87.5
261.942	90.5
262.175	87.5
262.407	83.5
262.64	85.5
262.872	74.5
263.105	67.5
263.337	87.5
263.57	68.5
263.802	79.5
264.035	77.5
264.267	85.5
264.499	87.5
264.732	104.5
264.964	71.5
265.197	81.5
265.429	82.5
265.661	80.5
265.894	90.5
266.126	79.5
266.358	79.5
266.591	98.5
266.823	82.5
267.055	76.5
267.287	86.5
267.52	79.5
267.752	83.5
267.984	65.5
268.216	90.5
268.448	67.5
268.681	86.5
268.913	94.5
269.145	69.5
269.377	82.5
269.609	77.5
269.841	92.5
270.073	77.5
270.306	85.5
270.538	84.5
270.77	81.5
271.002	69.5
271.234	63.5
271.466	85.5
271.698	84.5
271.93	82.5
272.162	81.5
272.394	80.5
272.626	87.5
272.858	85.5
273.09	85.5
273.322	76.5
273.553	84.5
273.785	69.5
274.017	81.5
274.249	87.5
274.481	80.5
274.713	87.5
274.945	77.5
275.176	81.5
275.408	91.5
275.64	89.5
275.872	89.5
276.104	98.5
276.335	70.5
276.567	80.5
276.799	72.5
277.031	87.5
277.262	78.5
277.494	88.5
277.726	84.5
277.957	86.5
278.189	77.5
278.421	84.5
278.652	96.5
278.884	81.5
279.115	71.5
279.347	84.5
279.579	69.5
279.81	85.5
280.042	83.5
280.273	98.5
280.505	79.5
280.736	83.5
280.968	82.5
281.199	69.5
281.431	84.5
281.662	78.5
281.894	86.5
282.125	84.5
282.356	84.5
282.588	92.5
282.819	90.5
283.051	81.5
283.282	68.5
283.513	88.5
283.745	92.5
283.976	77.5
284.207	76.5
284.439	77.5
284.67	76.5
284.901	81.5
285.132	88.5
285.364	76.5
285.595	76.5
285.826	82.5
286.057	90.5
286.288	66.5
286.52	79.5
286.751	76.5
286.982	81.5
287.213	78.5
287.444	74.5
287.675	83.5
287.906	82.5
288.138	88.5
288.369	83.5
288.6	72.5
288.831	78.5
289.062	87.5
289.293	85.5
289.524	93.5
289.755	89.5
289.986	83.5
290.217	88.5
290.448	75.5
290.679	77.5
290.91	82.5
291.141	75.5
291.371	89.5
291.602	87.5
291.833	92.5
292.064	89.5
292.295	73.5
292.526	78.5
292.757	80.5
292.987	93.5
293.218	76.5
293.449	82.5
293.68	84.5
293.91	82.5
294.141	84.5
294.372	98.5
294.603	87.5
294.833	83.5
295.064	73.5
295.295	83.5
295.525	77.5
295.756	88.5
295.987	87.5
296.217	105.5
296.448	74.5
296.679	98.5
296.909	86.5
297.14	88.5
297.37	98.5
297.601	87.5
297.831	83.5
298.062	93.5
298.292	83.5
298.523	88.5
298.753	79.5
298.984	81.5
299.214	88.5
299.445	85.5
299.675	78.5
299.905	80.5
300.136	89.5
300.366	85.5
300.597	87.5
300.827	76.5
301.057	76.5
301.288	88.5
301.518	67.5
301.748	83.5
301.979	85.5
302.209	76.5
302.439	75.5
302.669	90.5
302.9	89.5
303.13	85.5
303.36	95.5
303.59	84.5
303.82	80.5
304.051	97.5
304.281	88.5
304.511	91.5
304.741	79.5
304.971	83.5
305.201	86.5
305.431	85.5
305.661	78.5
305.891	89.5
306.121	87.5
306.352	85.5
306.582	97.5
306.812	75.5
307.042	76.5
307.272	82.5
307.502	91.5
307.731	86.5
307.961	81.5
308.191	84.5
308.421	81.5
308.651	82.5
308.881	79.5
309.111	80.5
309.341	85.5
309.571	80.5
309.8	82.5
310.03	86.5
310.26	80.5
310.49	74.5
310.72	87.5
310.949	72.5
311.179	83.5
311.409	87.5
311.639	84.5
311.868	97.5
312.098	72.5
312.328	87.5
312.557	95.5
312.787	86.5
313.017	83.5
313.246	83.5
313.476	77.5
313.706	91.5
313.935	82.5
314.165	91.5
314.394	87.5
314.624	89.5
314.853	84.5
315.083	84.5
315.312	92.5
315.542	90.5
315.771	93.5
316.001	76.5
316.23	71.5
316.46	81.5
316.689	76.5
316.919	97.5
317.148	87.5
317.377	88.5
317.607	76.5
317.836	84.5
318.065	94.5
318.295	72.5
318.524	72.5
318.753	90.5
318.983	80.5
319.212	85.5
319.441	85.5
319.67	80.5
319.9	81.5
320.129	74.5
320.358	88.5
320.587	75.5
320.816	92.5
321.046	84.5
321.275	92.5
321.504	75.5
321.733	80.5
321.962	99.5
322.191	85.5
322.42	82.5
322.649	85.5
322.878	84.5
323.108	80.5
323.337	83.5
323.566	69.5
323.795	105.5
324.024	85.5
324.253	80.5
324.482	98.5
324.71	85.5
324.939	90.5
325.168	88.5
325.397	79.5
325.626	95.5
325.855	96.5
326.084	77.5
326.313	92.5
326.542	89.5
326.77	72.5
326.999	90.5
327.228	72.5
327.457	81.5
327.686	88.5
327.914	87.5
328.143	82.5
328.372	84.5
328.6	86.5
328.829	95.5
329.058	78.5
329.287	82.5
329.515	72.5
329.744	92.5
329.972	100.5
330.201	96.5
330.43	86.5
330.658	77.5
330.887	82.5
331.115	88.5
331.344	74.5
331.572	94.5
331.801	90.5
332.03	71.5
332.258	98.5
332.486	83.5
332.715	90.5
332.943	89.5
333.172	83.5
333.4	74.5
333.629	85.5
333.857	85.5
334.085	95.5
334.314	95.5
334.542	88.5
334.771	64.5
334.999	70.5
335.227	90.5
335.455	81.5
335.684	106.5
335.912	81.5
336.14	96.5
336.369	82.5
336.597	81.5
336.825	88.5
337.053	74.5
337.281	90.5
337.51	87.5
337.738	76.5
337.966	88.5
338.194	91.5
338.422	96.5
338.65	74.5
338.878	83.5
339.106	89.5
339.334	97.5
339.562	84.5
339.79	76.5
340.018	79.5
340.246	87.5
340.474	85.5
340.702	76.5
340.93	88.5
341.158	79.5
341.386	83.5
341.614	84.5
341.842	84.5
342.07	92.5
342.298	95.5
342.526	81.5
342.754	102.5
342.981	83.5
343.209	69.5
343.437	84.5
343.665	84.5
343.893	77.5
344.12	80.5
344.348	79.5
344.576	89.5
344.804	83.5
345.031	90.5
345.259	88.5
345.487	75.5
345.714	83.5
345.942	76.5
346.17	85.5
346.397	92.5
346.625	88.5
346.853	96.5
347.08	87.5
347.308	87.5
347.535	94.5
347.763	89.5
347.99	92.5
348.218	91.5
348.445	90.5
348.673	75.5
348.9	86.5
349.128	99.5
349.355	90.5
349.583	85.5
349.81	76.5
350.037	89.5
350.265	86.5
350.492	72.5
350.72	86.5
350.947	89.5
351.174	70.5
351.402	76.5
351.629	74.5
351.856	90.5
352.083	72.5
352.311	84.5
352.538	83.5
352.765	82.5
352.992	93.5
353.22	86.5
353.447	92.5
353.674	88.5
353.901	88.5
354.128	83.5
354.355	96.5
354.583	80.5
354.81	84.5
355.037	84.5
355.264	85.5
355.491	74.5
355.718	77.5
355.945	89.5
356.172	82.5
356.399	87.5
356.626	82.5
356.853	72.5
357.08	87.5
357.307	82.5
357.534	96.5
357.761	96.5
357.988	94.5
358.215	90.5
358.441	82.5
358.668	91.5
358.895	87.5
359.122	83.5
359.349	95.5
359.576	69.5
359.802	90.5
360.029	89.5
360.256	87.5
360.483	92.5
360.709	75.5
360.936	81.5
361.163	82.5
361.39	77.5
361.616	87.5
361.843	82.5
362.07	83.5
362.296	90.5
362.523	90.5
362.749	82.5
362.976	83.5
363.203	85.5
363.429	89.5
363.656	97.5
363.882	87.5
364.109	90.5
364.335	81.5
364.562	79.5
364.788	91.5
365.015	94.5
365.241	83.5
365.468	83.5
365.694	80.5
365.92	91.5
366.147	73.5
366.373	80.5
366.599	95.5
366.826	74.5
367.052	101.5
367.278	70.5
367.505	90.5
367.731	85.5
367.957	86.5
368.184	97.5
368.41	101.5
368.636	88.5
368.862	96.5
369.089	84.5
369.315	82.5
369.541	88.5
369.767	87.5
369.993	94.5
370.219	80.5
370.445	84.5
370.672	92.5
370.898	89.5
371.124	107.5
371.35	82.5
371.576	91.5
371.802	99.5
372.028	92.5
372.254	89.5
372.48	87.5
372.706	88.5
372.932	83.5
373.158	96.5
373.384	94.5
373.61	105.5
373.835	94.5
374.061	88.5
374.287	92.5
374.513	102.5
374.739	83.5
374.965	83.5
375.191	87.5
375.416	91.5
375.642	111.5
375.868	104.5
376.094	98.5
376.319	93.5
376.545	98.5
376.771	79.5
376.997	100.5
377.222	98.5
377.448	102.5
377.674	90.5
377.899	97.5
378.125	87.5
378.35	98.5
378.576	101.5
378.802	91.5
379.027	94.5
379.253	92.5
379.478	89.5
379.704	102.5
379.929	105.5
380.155	95.5
380.38	101.5
380.606	102.5
380.831	106.5
381.057	103.5
381.282	96.5
381.507	89.5
381.733	99.5
381.958	102.5
382.184	92.5
382.409	83.5
382.634	93.5
382.86	70.5
383.085	82.5
383.31	91.5
383.535	99.5
383.761	95.5
383.986	101.5
384.211	100.5
384.436	71.5
384.662	93.5
384.887	91.5
385.112	103.5
385.337	104.5
385.562	101.5
385.787	107.5
386.013	94.5
386.238	100.5
386.463	101.5
386.688	116.5
386.913	107.5
387.138	87.5
387.363	89.5
387.588	108.5
387.813	100.5
388.038	106.5
388.263	88.5
388.488	121.5
388.713	94.5
388.938	102.5
389.163	107.5
389.387	82.5
389.612	111.5
389.837	91.5
390.062	105.5
390.287	100.5
390.512	88.5
390.736	87.5
390.961	113.5
391.186	101.5
391.411	105.5
391.636	99.5
391.86	96.5
392.085	103.5
392.31	98.5
392.534	111.5
392.759	109.5
392.984	118.5
393.208	95.5
393.433	94.5
393.658	102.5
393.882	110.5
394.107	116.5
394.331	111.5
394.556	95.5
394.78	107.5
395.005	103.5
395.229	106.5
395.454	114.5
395.678	99.5
395.903	105.5
396.127	107.5
396.352	105.5
396.576	99.5
396.801	104.5
397.025	105.5
397.249	91.5
397.474	112.5
397.698	119.5
397.922	117.5
398.147	109.5
398.371	89.5
398.595	115.5
398.82	118.5
399.044	115.5
399.268	106.5
399.492	116.5
399.717	106.5
399.941	103.5
400.165	137.5
400.389	114.5
400.613	124.5
400.837	117.5
401.062	115.5
401.286	102.5
401.51	120.5
401.734	107.5
401.958	107.5
402.182	101.5
402.406	129.5
402.63	109.5
402.854	112.5
403.078	107.5
403.302	106.5
403.526	120.5
403.75	124.5
403.974	117.5
404.198	107.5
404.422	119.5
404.645	119.5
404.869	118.5
405.093	119.5
405.317	110.5
405.541	113.5
405.765	116.5
405.988	101.5
406.212	120.5
406.436	127.5
406.66	121.5
406.883	126.5
407.107	111.5
407.331	102.5
407.555	121.5
407.778	139.5
408.002	128.5
408.226	115.5
408.449	122.5
408.673	103.5
408.896	121.5
409.12	106.5
409.344	127.5
409.567	112.5
409.791	129.5
410.014	115.5
410.238	118.5
410.461	125.5
410.685	104.5
410.908	133.5
411.132	129.5
411.355	122.5
411.578	133.5
411.802	118.5
412.025	122.5
412.249	127.5
412.472	127.5
412.695	134.5
412.919	118.5
413.142	121.5
413.365	120.5
413.589	126.5
413.812	118.5
414.035	124.5
414.258	117.5
414.482	118.5
414.705	108.5
414.928	127.5
415.151	117.5
415.374	123.5
415.597	133.5
415.821	129.5
416.044	127.5
416.267	147.5
416.49	119.5
416.713	129.5
416.936	132.5
417.159	126.5
417.382	129.5
417.605	122.5
417.828	109.5
418.051	141.5
418.274	126.5
418.497	131.5
418.72	127.5
418.943	141.5
419.166	140.5
419.389	123.5
419.611	136.5
419.834	134.5
420.057	134.5
420.28	125.5
420.503	142.5
420.726	128.5
420.948	128.5
421.171	132.5
421.394	126.5
421.617	137.5
421.839	149.5
422.062	148.5
422.285	129.5
422.507	109.5
422.73	136.5
422.953	120.5
423.175	124.5
423.398	130.5
423.621	128.5
423.843	141.5
424.066	124.5
424.288	131.5
424.511	137.5
424.733	147.5
424.956	141.5
425.178	129.5
425.401	122.5
425.623	139.5
425.846	141.5
426.068	132.5
426.291	129.5
426.513	131.5
426.735	122.5
426.958	133.5
427.18	118.5
427.402	140.5
427.625	127.5
427.847	133.5
428.069	136.5
428.292	139.5
428.514	135.5
428.736	140.5
428.958	126.5
429.181	119.5
429.403	133.5
429.625	127.5
429.847	137.5
430.069	118.5
430.292	122.5
430.514	114.5
430.736	140.5
430.958	136.5
431.18	117.5
431.402	141.5
431.624	120.5
431.846	108.5
432.068	91.5
432.29	88.5
432.512	114.5
432.734	125.5
432.956	122.5
433.178	134.5
433.4	131.5
433.622	131.5
433.844	130.5
434.066	126.5
434.287	117.5
434.509	100.5
434.731	96.5
434.953	111.5
435.175	126.5
435.397	120.5
435.618	108.5
435.84	113.5
436.062	109.5
436.284	112.5
436.505	124.5
436.727	129.5
436.949	134.5
437.17	128.5
437.392	133.5
437.614	118.5
437.835	103.5
438.057	95.5
438.278	122.5
438.5	117.5
438.721	143.5
438.943	136.5
439.165	144.5
439.386	113.5
439.608	141.5
439.829	150.5
440.05	163.5
440.272	135.5
440.493	136.5
440.715	144.5
440.936	152.5
441.158	146.5
441.379	151.5
441.6	152.5
441.822	154.5
442.043	141.5
442.264	141.5
442.486	129.5
442.707	125.5
442.928	149.5
443.149	124.5
443.371	139.5
443.592	139.5
443.813	116.5
444.034	131.5
444.255	123.5
444.476	150.5
444.698	150.5
444.919	148.5
445.14	235.5
445.361	188.5
445.582	139.5
445.803	149.5
446.024	151.5
446.245	145.5
446.466	140.5
446.687	157.5
446.908	151.5
447.129	157.5
447.35	141.5
447.571	155.5
447.792	152.5
448.013	152.5
448.234	148.5
448.455	140.5
448.675	129.5
448.896	135.5
449.117	140.5
449.338	138.5
449.559	152.5
449.779	131.5
450	133.5
450.221	125.5
450.442	129.5
450.662	123.5
450.883	125.5
451.104	135.5
451.324	142.5
451.545	124.5
451.766	120.5
451.986	122.5
452.207	127.5
452.428	121.5
452.648	113.5
452.869	135.5
453.089	122.5
453.31	115.5
453.53	105.5
453.751	103.5
453.971	114.5
454.192	101.5
454.412	99.5
454.633	122.5
454.853	117.5
455.073	98.5
455.294	117.5
455.514	119.5
455.734	119.5
455.955	100.5
456.175	111.5
456.395	102.5
456.616	106.5
456.836	113.5
457.056	103.5
457.276	111.5
457.497	101.5
457.717	111.5
457.937	99.5
458.157	114.5
458.377	115.5
458.598	104.5
458.818	97.5
459.038	82.5
459.258	83.5
459.478	95.5
459.698	74.5
459.918	96.5
460.138	111.5
460.358	112.5
460.578	121.5
460.798	107.5
461.018	101.5
461.238	102.5
461.458	115.5
461.678	97.5
461.898	123.5
462.118	111.5
462.338	113.5
462.558	122.5
462.777	136.5
462.997	122.5
463.217	98.5
463.437	105.5
463.657	103.5
463.876	108.5
464.096	113.5
464.316	106.5
464.536	111.5
464.755	115.5
464.975	124.5
465.195	100.5
465.414	113.5
465.634	114.5
465.854	115.5
466.073	116.5
466.293	124.5
466.512	108.5
466.732	134.5
466.951	141.5
467.171	127.5
467.391	134.5
467.61	119.5
467.829	119.5
468.049	145.5
468.268	138.5
468.488	115.5
468.707	123.5
468.927	129.5
469.146	133.5
469.365	154.5
469.585	137.5
469.804	135.5
470.023	138.5
470.243	127.5
470.462	137.5
470.681	160.5
470.901	133.5
471.12	134.5
471.339	133.5
471.558	142.5
471.777	143.5
471.997	136.5
472.216	132.5
472.435	132.5
472.654	109.5
472.873	119.5
473.092	111.5
473.311	131.5
473.53	115.5
473.749	126.5
473.968	120.5
474.187	117.5
474.406	113.5
474.625	120.5
474.844	139.5
475.063	123.5
475.282	113.5
475.501	115.5
475.72	120.5
475.939	111.5
476.158	127.5
476.377	136.5
476.596	132.5
476.814	123.5
477.033	109.5
477.252	106.5
477.471	111.5
477.69	121.5
477.908	140.5
478.127	139.5
478.346	140.5
478.564	139.5
478.783	128.5
479.002	126.5
479.22	132.5
479.439	142.5
479.658	123.5
479.876	118.5
480.095	106.5
480.313	108.5
480.532	126.5
480.751	106.5
480.969	111.5
481.188	92.5
481.406	97.5
481.624	80.5
481.843	87.5
482.061	91.5
482.28	114.5
482.498	105.5
482.717	102.5
482.935	116.5
483.153	145.5
483.372	143.5
483.59	138.5
483.808	133.5
484.027	123.5
484.245	144.5
484.463	135.5
484.681	145.5
484.9	147.5
485.118	129.5
485.336	130.5
485.554	109.5
485.772	107.5
485.99	101.5
486.209	111.5
486.427	114.5
486.645	102.5
486.863	147.5
487.081	139.5
487.299	130.5
487.517	129.5
487.735	162.5
487.953	169.5
488.171	180.5
488.389	171.5
488.607	167.5
488.825	147.5
489.043	132.5
489.261	131.5
489.479	152.5
489.696	148.5
489.914	135.5
490.132	139.5
490.35	153.5
490.568	170.5
490.786	174.5
491.003	175.5
491.221	181.5
491.439	177.5
491.657	196.5
491.874	200.5
492.092	215.5
492.31	227.5
492.527	242.5
492.745	210.5
492.963	197.5
493.18	181.5
493.398	186.5
493.615	168.5
493.833	172.5
494.05	155.5
494.268	176.5
494.485	172.5
494.703	168.5
494.92	175.5
495.138	157.5
495.355	149.5
495.573	169.5
495.79	167.5
496.008	172.5
496.225	154.5
496.442	172.5
496.66	173.5
496.877	185.5
497.094	159.5
497.312	160.5
497.529	152.5
497.746	152.5
497.963	141.5
498.181	133.5
498.398	120.5
498.615	112.5
498.832	119.5
499.049	124.5
499.267	118.5
499.484	125.5
499.701	124.5
499.918	131.5
500.135	125.5
500.352	158.5
500.569	146.5
500.786	141.5
501.003	138.5
501.22	139.5
501.437	134.5
501.654	113.5
501.871	127.5
502.088	127.5
502.305	149.5
502.522	116.5
502.739	118.5
502.956	119.5
503.172	133.5
503.389	125.5
503.606	106.5
503.823	127.5
504.04	119.5
504.256	114.5
504.473	123.5
504.69	122.5
504.907	135.5
505.123	121.5
505.34	112.5
505.557	125.5
505.773	121.5
505.99	122.5
506.207	130.5
506.423	124.5
506.64	113.5
506.856	111.5
507.073	117.5
507.289	100.5
507.506	117.5
507.722	111.5
507.939	123.5
508.155	122.5
508.372	112.5
508.588	113.5
508.805	115.5
509.021	104.5
509.238	95.5
509.454	99.5
509.67	91.5
509.887	108.5
510.103	102.5
510.319	81.5
510.536	103.5
510.752	83.5
510.968	84.5
511.184	88.5
511.401	81.5
511.617	86.5
511.833	81.5
512.049	87.5
512.265	96.5
512.481	119.5
512.698	96.5
512.914	101.5
513.13	105.5
513.346	96.5
513.562	88.5
513.778	101.5
513.994	90.5
514.21	76.5
514.426	92.5
514.642	91.5
514.858	77.5
515.074	96.5
515.29	92.5
515.506	75.5
515.721	84.5
515.937	88.5
516.153	83.5
516.369	84.5
516.585	87.5
516.801	82.5
517.016	103.5
517.232	86.5
517.448	99.5
517.664	105.5
517.879	109.5
518.095	104.5
518.311	85.5
518.527	97.5
518.742	91.5
518.958	102.5
519.173	103.5
519.389	115.5
519.605	102.5
519.82	105.5
520.036	99.5
520.251	108.5
520.467	89.5
520.682	98.5
520.898	80.5
521.113	89.5
521.329	93.5
521.544	103.5
521.76	88.5
521.975	99.5
522.19	77.5
522.406	103.5
522.621	95.5
522.836	104.5
523.052	114.5
523.267	107.5
523.482	106.5
523.698	127.5
523.913	103.5
524.128	119.5
524.343	115.5
524.559	116.5
524.774	125.5
524.989	125.5
525.204	138.5
525.419	121.5
525.634	111.5
525.849	103.5
526.064	109.5
526.28	97.5
526.495	101.5
526.71	89.5
526.925	85.5
527.14	80.5
527.355	89.5
527.57	83.5
527.785	100.5
527.999	105.5
528.214	111.5
528.429	100.5
528.644	103.5
528.859	143.5
529.074	143.5
529.289	154.5
529.503	147.5
529.718	128.5
529.933	119.5
530.148	108.5
530.363	109.5
530.577	88.5
