Data from Location2.07152019.Energy5.Lamp.07192019.3%Agarose_HRD10591_14-58-06-358.txt Node
Date: Fri Jul 19 14:58:06 EDT 2019
User: cochatt
Spectrometer: HR+D1059
Trigger mode: 1
Integration Time (sec): 1.000000E-1
Scans to average: 1
Electric dark correction enabled: true
Nonlinearity correction enabled: false
Boxcar width: 0
XAxis mode: Wavelengths
Number of Pixels in Spectrum: 2048
>>>>>Begin Spectral Data<<<<<
223.165	-16.38
223.4	-16.38
223.635	-16.38
223.869	-1.38
224.104	-23.38
224.338	2.62
224.573	-12.38
224.808	-21.38
225.042	-13.38
225.277	-11.38
225.511	-9.38
225.746	3.62
225.98	3.62
226.215	11.62
226.449	13.62
226.683	19.62
226.918	31.62
227.152	22.62
227.387	22.62
227.621	47.62
227.856	43.62
228.09	41.62
228.324	51.62
228.559	39.62
228.793	63.62
229.027	55.62
229.262	67.62
229.496	63.62
229.73	76.62
229.964	69.62
230.199	72.62
230.433	81.62
230.667	77.62
230.901	76.62
231.136	81.62
231.37	77.62
231.604	85.62
231.838	85.62
232.072	76.62
232.306	87.62
232.541	79.62
232.775	80.62
233.009	81.62
233.243	82.62
233.477	90.62
233.711	81.62
233.945	77.62
234.179	68.62
234.413	83.62
234.647	94.62
234.881	88.62
235.115	88.62
235.349	76.62
235.583	71.62
235.817	87.62
236.051	91.62
236.285	84.62
236.519	93.62
236.753	72.62
236.987	73.62
237.221	76.62
237.455	79.62
237.689	82.62
237.922	73.62
238.156	79.62
238.39	68.62
238.624	69.62
238.858	77.62
239.091	74.62
239.325	67.62
239.559	75.62
239.793	83.62
240.027	74.62
240.26	84.62
240.494	85.62
240.728	77.62
240.961	79.62
241.195	82.62
241.429	89.62
241.662	70.62
241.896	89.62
242.13	70.62
242.363	84.62
242.597	70.62
242.83	74.62
243.064	74.62
243.298	80.62
243.531	69.62
243.765	79.62
243.998	82.62
244.232	85.62
244.465	77.62
244.699	78.62
244.932	80.62
245.166	75.62
245.399	93.62
245.633	74.62
245.866	87.62
246.099	64.62
246.333	71.62
246.566	80.62
246.8	77.62
247.033	71.62
247.266	73.62
247.5	76.62
247.733	69.62
247.966	78.62
248.2	75.62
248.433	71.62
248.666	88.62
248.899	76.62
249.133	88.62
249.366	90.62
249.599	90.62
249.832	81.62
250.066	82.62
250.299	74.62
250.532	80.62
250.765	68.62
250.998	82.62
251.231	72.62
251.465	82.62
251.698	75.62
251.931	72.62
252.164	85.62
252.397	75.62
252.63	90.62
252.863	73.62
253.096	77.62
253.329	76.62
253.562	68.62
253.795	83.62
254.028	74.62
254.261	76.62
254.494	73.62
254.727	90.62
254.96	88.62
255.193	90.62
255.426	68.62
255.659	95.62
255.892	90.62
256.124	64.62
256.357	72.62
256.59	90.62
256.823	78.62
257.056	85.62
257.289	90.62
257.521	81.62
257.754	73.62
257.987	75.62
258.22	90.62
258.452	92.62
258.685	87.62
258.918	78.62
259.151	76.62
259.383	83.62
259.616	83.62
259.849	81.62
260.081	75.62
260.314	64.62
260.547	82.62
260.779	85.62
261.012	85.62
261.244	80.62
261.477	80.62
261.71	81.62
261.942	87.62
262.175	74.62
262.407	83.62
262.64	92.62
262.872	83.62
263.105	96.62
263.337	87.62
263.57	93.62
263.802	78.62
264.035	92.62
264.267	88.62
264.499	75.62
264.732	75.62
264.964	63.62
265.197	76.62
265.429	79.62
265.661	81.62
265.894	85.62
266.126	88.62
266.358	79.62
266.591	84.62
266.823	97.62
267.055	81.62
267.287	90.62
267.52	76.62
267.752	92.62
267.984	84.62
268.216	81.62
268.448	98.62
268.681	81.62
268.913	83.62
269.145	78.62
269.377	85.62
269.609	88.62
269.841	80.62
270.073	80.62
270.306	85.62
270.538	93.62
270.77	92.62
271.002	82.62
271.234	92.62
271.466	81.62
271.698	76.62
271.93	83.62
272.162	82.62
272.394	86.62
272.626	77.62
272.858	77.62
273.09	79.62
273.322	81.62
273.553	72.62
273.785	79.62
274.017	79.62
274.249	85.62
274.481	96.62
274.713	89.62
274.945	83.62
275.176	87.62
275.408	104.62
275.64	71.62
275.872	91.62
276.104	85.62
276.335	88.62
276.567	86.62
276.799	83.62
277.031	89.62
277.262	75.62
277.494	74.62
277.726	91.62
277.957	90.62
278.189	87.62
278.421	73.62
278.652	86.62
278.884	85.62
279.115	76.62
279.347	74.62
279.579	91.62
279.81	90.62
280.042	90.62
280.273	79.62
280.505	90.62
280.736	89.62
280.968	77.62
281.199	87.62
281.431	87.62
281.662	85.62
281.894	88.62
282.125	76.62
282.356	74.62
282.588	83.62
282.819	95.62
283.051	81.62
283.282	90.62
283.513	90.62
283.745	72.62
283.976	79.62
284.207	70.62
284.439	85.62
284.67	78.62
284.901	74.62
285.132	85.62
285.364	82.62
285.595	84.62
285.826	103.62
286.057	91.62
286.288	92.62
286.52	83.62
286.751	86.62
286.982	92.62
287.213	98.62
287.444	85.62
287.675	85.62
287.906	89.62
288.138	95.62
288.369	87.62
288.6	91.62
288.831	86.62
289.062	80.62
289.293	83.62
289.524	75.62
289.755	90.62
289.986	78.62
290.217	67.62
290.448	89.62
290.679	86.62
290.91	93.62
291.141	81.62
291.371	81.62
291.602	84.62
291.833	87.62
292.064	93.62
292.295	75.62
292.526	86.62
292.757	97.62
292.987	81.62
293.218	89.62
293.449	81.62
293.68	88.62
293.91	75.62
294.141	80.62
294.372	71.62
294.603	80.62
294.833	69.62
295.064	89.62
295.295	77.62
295.525	84.62
295.756	69.62
295.987	81.62
296.217	85.62
296.448	90.62
296.679	69.62
296.909	71.62
297.14	93.62
297.37	83.62
297.601	88.62
297.831	87.62
298.062	88.62
298.292	81.62
298.523	91.62
298.753	94.62
298.984	90.62
299.214	93.62
299.445	88.62
299.675	72.62
299.905	77.62
300.136	76.62
300.366	71.62
300.597	95.62
300.827	91.62
301.057	76.62
301.288	83.62
301.518	81.62
301.748	101.62
301.979	100.62
302.209	89.62
302.439	87.62
302.669	95.62
302.9	81.62
303.13	90.62
303.36	85.62
303.59	79.62
303.82	97.62
304.051	85.62
304.281	87.62
304.511	87.62
304.741	86.62
304.971	82.62
305.201	90.62
305.431	90.62
305.661	81.62
305.891	77.62
306.121	71.62
306.352	95.62
306.582	87.62
306.812	72.62
307.042	93.62
307.272	82.62
307.502	75.62
307.731	95.62
307.961	95.62
308.191	88.62
308.421	85.62
308.651	92.62
308.881	93.62
309.111	73.62
309.341	77.62
309.571	98.62
309.8	84.62
310.03	79.62
310.26	95.62
310.49	83.62
310.72	77.62
310.949	82.62
311.179	96.62
311.409	93.62
311.639	93.62
311.868	90.62
312.098	81.62
312.328	70.62
312.557	89.62
312.787	79.62
313.017	99.62
313.246	84.62
313.476	83.62
313.706	81.62
313.935	80.62
314.165	77.62
314.394	93.62
314.624	80.62
314.853	86.62
315.083	74.62
315.312	90.62
315.542	75.62
315.771	84.62
316.001	82.62
316.23	87.62
316.46	93.62
316.689	78.62
316.919	85.62
317.148	91.62
317.377	75.62
317.607	91.62
317.836	93.62
318.065	87.62
318.295	97.62
318.524	79.62
318.753	96.62
318.983	85.62
319.212	80.62
319.441	74.62
319.67	76.62
319.9	86.62
320.129	76.62
320.358	77.62
320.587	74.62
320.816	81.62
321.046	84.62
321.275	108.62
321.504	76.62
321.733	94.62
321.962	86.62
322.191	87.62
322.42	89.62
322.649	80.62
322.878	73.62
323.108	89.62
323.337	93.62
323.566	88.62
323.795	97.62
324.024	85.62
324.253	82.62
324.482	74.62
324.71	70.62
324.939	89.62
325.168	87.62
325.397	90.62
325.626	90.62
325.855	85.62
326.084	90.62
326.313	99.62
326.542	85.62
326.77	81.62
326.999	92.62
327.228	70.62
327.457	83.62
327.686	99.62
327.914	83.62
328.143	95.62
328.372	77.62
328.6	77.62
328.829	78.62
329.058	85.62
329.287	80.62
329.515	86.62
329.744	75.62
329.972	93.62
330.201	86.62
330.43	78.62
330.658	97.62
330.887	79.62
331.115	76.62
331.344	87.62
331.572	94.62
331.801	81.62
332.03	86.62
332.258	84.62
332.486	70.62
332.715	90.62
332.943	81.62
333.172	91.62
333.4	80.62
333.629	101.62
333.857	72.62
334.085	77.62
334.314	83.62
334.542	84.62
334.771	99.62
334.999	90.62
335.227	83.62
335.455	98.62
335.684	90.62
335.912	91.62
336.14	89.62
336.369	77.62
336.597	88.62
336.825	86.62
337.053	96.62
337.281	101.62
337.51	76.62
337.738	83.62
337.966	71.62
338.194	94.62
338.422	96.62
338.65	85.62
338.878	89.62
339.106	83.62
339.334	74.62
339.562	77.62
339.79	96.62
340.018	81.62
340.246	64.62
340.474	89.62
340.702	77.62
340.93	79.62
341.158	82.62
341.386	90.62
341.614	89.62
341.842	83.62
342.07	75.62
342.298	89.62
342.526	96.62
342.754	89.62
342.981	92.62
343.209	89.62
343.437	83.62
343.665	84.62
343.893	86.62
344.12	96.62
344.348	89.62
344.576	81.62
344.804	84.62
345.031	64.62
345.259	73.62
345.487	85.62
345.714	75.62
345.942	79.62
346.17	104.62
346.397	69.62
346.625	87.62
346.853	69.62
347.08	77.62
347.308	104.62
347.535	88.62
347.763	75.62
347.99	91.62
348.218	69.62
348.445	88.62
348.673	91.62
348.9	86.62
349.128	95.62
349.355	75.62
349.583	92.62
349.81	83.62
350.037	89.62
350.265	73.62
350.492	91.62
350.72	82.62
350.947	93.62
351.174	77.62
351.402	70.62
351.629	77.62
351.856	79.62
352.083	92.62
352.311	93.62
352.538	83.62
352.765	72.62
352.992	87.62
353.22	76.62
353.447	73.62
353.674	76.62
353.901	88.62
354.128	81.62
354.355	73.62
354.583	81.62
354.81	75.62
355.037	84.62
355.264	78.62
355.491	91.62
355.718	78.62
355.945	79.62
356.172	70.62
356.399	66.62
356.626	73.62
356.853	94.62
357.08	86.62
357.307	82.62
357.534	79.62
357.761	71.62
357.988	89.62
358.215	85.62
358.441	74.62
358.668	84.62
358.895	101.62
359.122	86.62
359.349	77.62
359.576	84.62
359.802	92.62
360.029	79.62
360.256	85.62
360.483	87.62
360.709	90.62
360.936	90.62
361.163	87.62
361.39	93.62
361.616	91.62
361.843	91.62
362.07	85.62
362.296	76.62
362.523	73.62
362.749	72.62
362.976	81.62
363.203	87.62
363.429	87.62
363.656	89.62
363.882	91.62
364.109	76.62
364.335	79.62
364.562	76.62
364.788	89.62
365.015	90.62
365.241	97.62
365.468	87.62
365.694	91.62
365.92	90.62
366.147	80.62
366.373	82.62
366.599	87.62
366.826	86.62
367.052	72.62
367.278	89.62
367.505	94.62
367.731	81.62
367.957	88.62
368.184	86.62
368.41	83.62
368.636	84.62
368.862	98.62
369.089	73.62
369.315	90.62
369.541	89.62
369.767	92.62
369.993	80.62
370.219	83.62
370.445	89.62
370.672	96.62
370.898	87.62
371.124	85.62
371.35	93.62
371.576	92.62
371.802	97.62
372.028	88.62
372.254	107.62
372.48	95.62
372.706	96.62
372.932	92.62
373.158	89.62
373.384	104.62
373.61	90.62
373.835	102.62
374.061	89.62
374.287	87.62
374.513	92.62
374.739	96.62
374.965	118.62
375.191	93.62
375.416	85.62
375.642	84.62
375.868	98.62
376.094	89.62
376.319	96.62
376.545	83.62
376.771	78.62
376.997	92.62
377.222	91.62
377.448	91.62
377.674	97.62
377.899	84.62
378.125	93.62
378.35	96.62
378.576	101.62
378.802	93.62
379.027	98.62
379.253	93.62
379.478	81.62
379.704	104.62
379.929	84.62
380.155	84.62
380.38	98.62
380.606	88.62
380.831	105.62
381.057	93.62
381.282	92.62
381.507	95.62
381.733	104.62
381.958	98.62
382.184	105.62
382.409	80.62
382.634	108.62
382.86	108.62
383.085	104.62
383.31	91.62
383.535	98.62
383.761	96.62
383.986	97.62
384.211	102.62
384.436	91.62
384.662	95.62
384.887	97.62
385.112	94.62
385.337	106.62
385.562	96.62
385.787	102.62
386.013	119.62
386.238	104.62
386.463	107.62
386.688	95.62
386.913	99.62
387.138	98.62
387.363	93.62
387.588	104.62
387.813	94.62
388.038	104.62
388.263	105.62
388.488	88.62
388.713	103.62
388.938	97.62
389.163	90.62
389.387	103.62
389.612	96.62
389.837	100.62
390.062	103.62
390.287	98.62
390.512	97.62
390.736	96.62
390.961	108.62
391.186	97.62
391.411	115.62
391.636	95.62
391.86	108.62
392.085	103.62
392.31	97.62
392.534	109.62
392.759	121.62
392.984	96.62
393.208	97.62
393.433	107.62
393.658	76.62
393.882	91.62
394.107	99.62
394.331	110.62
394.556	103.62
394.78	96.62
395.005	108.62
395.229	116.62
395.454	111.62
395.678	113.62
395.903	105.62
396.127	99.62
396.352	104.62
396.576	98.62
396.801	101.62
397.025	96.62
397.249	90.62
397.474	104.62
397.698	112.62
397.922	99.62
398.147	120.62
398.371	125.62
398.595	113.62
398.82	107.62
399.044	103.62
399.268	113.62
399.492	97.62
399.717	117.62
399.941	105.62
400.165	97.62
400.389	113.62
400.613	107.62
400.837	115.62
401.062	104.62
401.286	122.62
401.51	101.62
401.734	103.62
401.958	115.62
402.182	99.62
402.406	101.62
402.63	89.62
402.854	97.62
403.078	127.62
403.302	105.62
403.526	113.62
403.75	111.62
403.974	120.62
404.198	122.62
404.422	126.62
404.645	106.62
404.869	116.62
405.093	119.62
405.317	111.62
405.541	119.62
405.765	105.62
405.988	129.62
406.212	123.62
406.436	125.62
406.66	117.62
406.883	137.62
407.107	120.62
407.331	116.62
407.555	123.62
407.778	117.62
408.002	108.62
408.226	125.62
408.449	112.62
408.673	109.62
408.896	115.62
409.12	112.62
409.344	129.62
409.567	102.62
409.791	106.62
410.014	132.62
410.238	114.62
410.461	111.62
410.685	123.62
410.908	124.62
411.132	127.62
411.355	139.62
411.578	115.62
411.802	102.62
412.025	120.62
412.249	121.62
412.472	119.62
412.695	121.62
412.919	136.62
413.142	140.62
413.365	126.62
413.589	111.62
413.812	114.62
414.035	119.62
414.258	134.62
414.482	142.62
414.705	113.62
414.928	133.62
415.151	129.62
415.374	117.62
415.597	121.62
415.821	123.62
416.044	118.62
416.267	115.62
416.49	131.62
416.713	117.62
416.936	128.62
417.159	128.62
417.382	115.62
417.605	127.62
417.828	128.62
418.051	119.62
418.274	114.62
418.497	134.62
418.72	126.62
418.943	140.62
419.166	130.62
419.389	129.62
419.611	124.62
419.834	133.62
420.057	130.62
420.28	132.62
420.503	123.62
420.726	127.62
420.948	131.62
421.171	126.62
421.394	154.62
421.617	141.62
421.839	137.62
422.062	149.62
422.285	133.62
422.507	120.62
422.73	138.62
422.953	138.62
423.175	122.62
423.398	130.62
423.621	135.62
423.843	136.62
424.066	141.62
424.288	135.62
424.511	145.62
424.733	130.62
424.956	147.62
425.178	125.62
425.401	145.62
425.623	132.62
425.846	136.62
426.068	137.62
426.291	132.62
426.513	120.62
426.735	121.62
426.958	121.62
427.18	121.62
427.402	130.62
427.625	139.62
427.847	134.62
428.069	137.62
428.292	126.62
428.514	137.62
428.736	124.62
428.958	116.62
429.181	139.62
429.403	133.62
429.625	124.62
429.847	123.62
430.069	141.62
430.292	147.62
430.514	125.62
430.736	118.62
430.958	131.62
431.18	127.62
431.402	136.62
431.624	121.62
431.846	106.62
432.068	95.62
432.29	99.62
432.512	113.62
432.734	136.62
432.956	139.62
433.178	127.62
433.4	123.62
433.622	139.62
433.844	128.62
434.066	105.62
434.287	105.62
434.509	99.62
434.731	100.62
434.953	114.62
435.175	133.62
435.397	123.62
435.618	122.62
435.84	121.62
436.062	109.62
436.284	90.62
436.505	117.62
436.727	133.62
436.949	123.62
437.17	127.62
437.392	119.62
437.614	125.62
437.835	114.62
438.057	105.62
438.278	120.62
438.5	114.62
438.721	141.62
438.943	156.62
439.165	131.62
439.386	134.62
439.608	140.62
439.829	132.62
440.05	153.62
440.272	139.62
440.493	145.62
440.715	153.62
440.936	149.62
441.158	151.62
441.379	143.62
441.6	153.62
441.822	135.62
442.043	131.62
442.264	142.62
442.486	133.62
442.707	132.62
442.928	144.62
443.149	135.62
443.371	141.62
443.592	136.62
443.813	141.62
444.034	127.62
444.255	138.62
444.476	144.62
444.698	135.62
444.919	162.62
445.14	293.62
445.361	183.62
445.582	153.62
445.803	139.62
446.024	155.62
446.245	159.62
446.466	140.62
446.687	143.62
446.908	141.62
447.129	161.62
447.35	142.62
447.571	171.62
447.792	158.62
448.013	126.62
448.234	147.62
448.455	135.62
448.675	139.62
448.896	135.62
449.117	132.62
449.338	129.62
449.559	115.62
449.779	123.62
450	131.62
450.221	129.62
450.442	161.62
450.662	137.62
450.883	142.62
451.104	122.62
451.324	136.62
451.545	132.62
451.766	136.62
451.986	138.62
452.207	137.62
452.428	117.62
452.648	121.62
452.869	119.62
453.089	101.62
453.31	101.62
453.53	110.62
453.751	98.62
453.971	119.62
454.192	116.62
454.412	101.62
454.633	129.62
454.853	131.62
455.073	120.62
455.294	138.62
455.514	124.62
455.734	123.62
455.955	127.62
456.175	114.62
456.395	102.62
456.616	105.62
456.836	120.62
457.056	101.62
457.276	113.62
457.497	111.62
457.717	122.62
457.937	107.62
458.157	112.62
458.377	110.62
458.598	99.62
458.818	103.62
459.038	78.62
459.258	98.62
459.478	76.62
459.698	92.62
459.918	97.62
460.138	114.62
460.358	111.62
460.578	104.62
460.798	125.62
461.018	117.62
461.238	104.62
461.458	115.62
461.678	115.62
461.898	107.62
462.118	117.62
462.338	125.62
462.558	115.62
462.777	103.62
462.997	119.62
463.217	113.62
463.437	97.62
463.657	115.62
463.876	106.62
464.096	117.62
464.316	115.62
464.536	128.62
464.755	122.62
464.975	120.62
465.195	104.62
465.414	111.62
465.634	112.62
465.854	126.62
466.073	124.62
466.293	123.62
466.512	117.62
466.732	123.62
466.951	131.62
467.171	145.62
467.391	140.62
467.61	123.62
467.829	120.62
468.049	145.62
468.268	125.62
468.488	133.62
468.707	134.62
468.927	133.62
469.146	124.62
469.365	143.62
469.585	146.62
469.804	135.62
470.023	135.62
470.243	127.62
470.462	133.62
470.681	148.62
470.901	146.62
471.12	148.62
471.339	143.62
471.558	138.62
471.777	140.62
471.997	127.62
472.216	142.62
472.435	128.62
472.654	113.62
472.873	111.62
473.092	117.62
473.311	115.62
473.53	145.62
473.749	132.62
473.968	124.62
474.187	116.62
474.406	105.62
474.625	129.62
474.844	124.62
475.063	146.62
475.282	127.62
475.501	123.62
475.72	110.62
475.939	116.62
476.158	134.62
476.377	131.62
476.596	124.62
476.814	113.62
477.033	106.62
477.252	118.62
477.471	129.62
477.69	117.62
477.908	126.62
478.127	145.62
478.346	139.62
478.564	137.62
478.783	125.62
479.002	120.62
479.22	137.62
479.439	124.62
479.658	128.62
479.876	118.62
480.095	109.62
480.313	105.62
480.532	113.62
480.751	127.62
480.969	94.62
481.188	101.62
481.406	84.62
481.624	85.62
481.843	91.62
482.061	98.62
482.28	105.62
482.498	107.62
482.717	101.62
482.935	115.62
483.153	142.62
483.372	142.62
483.59	137.62
483.808	135.62
484.027	132.62
484.245	128.62
484.463	145.62
484.681	164.62
484.9	127.62
485.118	141.62
485.336	140.62
485.554	112.62
485.772	100.62
485.99	106.62
486.209	115.62
486.427	115.62
486.645	127.62
486.863	123.62
487.081	133.62
487.299	126.62
487.517	136.62
487.735	161.62
487.953	168.62
488.171	166.62
488.389	175.62
488.607	159.62
488.825	145.62
489.043	129.62
489.261	132.62
489.479	137.62
489.696	143.62
489.914	137.62
490.132	155.62
490.35	151.62
490.568	175.62
490.786	161.62
491.003	193.62
491.221	163.62
491.439	185.62
491.657	202.62
491.874	198.62
492.092	222.62
492.31	226.62
492.527	223.62
492.745	200.62
492.963	196.62
493.18	195.62
493.398	183.62
493.615	182.62
493.833	184.62
494.05	169.62
494.268	184.62
494.485	165.62
494.703	188.62
494.92	165.62
495.138	171.62
495.355	176.62
495.573	168.62
495.79	163.62
496.008	176.62
496.225	185.62
496.442	144.62
496.66	174.62
496.877	153.62
497.094	160.62
497.312	180.62
497.529	165.62
497.746	153.62
497.963	150.62
498.181	144.62
498.398	125.62
498.615	115.62
498.832	123.62
499.049	107.62
499.267	115.62
499.484	120.62
499.701	135.62
499.918	145.62
500.135	136.62
500.352	141.62
500.569	137.62
500.786	140.62
501.003	123.62
501.22	141.62
501.437	135.62
501.654	139.62
501.871	121.62
502.088	135.62
502.305	127.62
502.522	140.62
502.739	127.62
502.956	125.62
503.172	135.62
503.389	113.62
503.606	121.62
503.823	114.62
504.04	125.62
504.256	115.62
504.473	119.62
504.69	109.62
504.907	121.62
505.123	113.62
505.34	118.62
505.557	114.62
505.773	138.62
505.99	120.62
506.207	115.62
506.423	120.62
506.64	121.62
506.856	117.62
507.073	123.62
507.289	114.62
507.506	124.62
507.722	123.62
507.939	122.62
508.155	121.62
508.372	111.62
508.588	118.62
508.805	125.62
509.021	106.62
509.238	117.62
509.454	99.62
509.67	90.62
509.887	100.62
510.103	104.62
510.319	90.62
510.536	93.62
510.752	89.62
510.968	92.62
511.184	87.62
511.401	91.62
511.617	85.62
511.833	85.62
