Data from Location2.07152019.Energy5.Lamp.07192019.3%Agarose_HRD10591_14-57-01-359.txt Node
Date: Fri Jul 19 14:57:01 EDT 2019
User: cochatt
Spectrometer: HR+D1059
Trigger mode: 1
Integration Time (sec): 1.000000E-1
Scans to average: 1
Electric dark correction enabled: true
Nonlinearity correction enabled: false
Boxcar width: 0
XAxis mode: Wavelengths
Number of Pixels in Spectrum: 2048
>>>>>Begin Spectral Data<<<<<
223.165	-30.38
223.4	-30.38
223.635	-30.38
223.869	-5.38
224.104	-8.38
224.338	-15.38
224.573	-9.38
224.808	-10.38
225.042	-12.38
225.277	5.62
225.511	-8.38
225.746	0.62
225.98	20.62
226.215	-9.38
226.449	5.62
226.683	20.62
226.918	26.62
227.152	29.62
227.387	46.62
227.621	41.62
227.856	26.62
228.09	37.62
228.324	46.62
228.559	70.62
228.793	67.62
229.027	55.62
229.262	58.62
229.496	65.62
229.73	81.62
229.964	85.62
230.199	78.62
230.433	79.62
230.667	90.62
230.901	75.62
231.136	66.62
231.37	76.62
231.604	85.62
231.838	84.62
232.072	83.62
232.306	73.62
232.541	98.62
232.775	75.62
233.009	81.62
233.243	93.62
233.477	97.62
233.711	92.62
233.945	93.62
234.179	69.62
234.413	80.62
234.647	85.62
234.881	100.62
235.115	79.62
235.349	77.62
235.583	68.62
235.817	77.62
236.051	78.62
236.285	76.62
236.519	83.62
236.753	84.62
236.987	80.62
237.221	81.62
237.455	79.62
237.689	74.62
237.922	79.62
238.156	81.62
238.39	77.62
238.624	106.62
238.858	76.62
239.091	72.62
239.325	79.62
239.559	64.62
239.793	78.62
240.027	69.62
240.26	76.62
240.494	67.62
240.728	69.62
240.961	71.62
241.195	78.62
241.429	75.62
241.662	86.62
241.896	82.62
242.13	83.62
242.363	70.62
242.597	81.62
242.83	85.62
243.064	87.62
243.298	70.62
243.531	78.62
243.765	75.62
243.998	86.62
244.232	81.62
244.465	79.62
244.699	79.62
244.932	65.62
245.166	77.62
245.399	76.62
245.633	78.62
245.866	83.62
246.099	71.62
246.333	77.62
246.566	78.62
246.8	92.62
247.033	77.62
247.266	72.62
247.5	78.62
247.733	83.62
247.966	64.62
248.2	84.62
248.433	76.62
248.666	74.62
248.899	83.62
249.133	72.62
249.366	79.62
249.599	74.62
249.832	62.62
250.066	90.62
250.299	92.62
250.532	82.62
250.765	69.62
250.998	76.62
251.231	78.62
251.465	84.62
251.698	73.62
251.931	78.62
252.164	77.62
252.397	78.62
252.63	88.62
252.863	84.62
253.096	86.62
253.329	81.62
253.562	90.62
253.795	89.62
254.028	74.62
254.261	97.62
254.494	86.62
254.727	99.62
254.96	89.62
255.193	69.62
255.426	73.62
255.659	84.62
255.892	76.62
256.124	86.62
256.357	73.62
256.59	78.62
256.823	93.62
257.056	68.62
257.289	92.62
257.521	79.62
257.754	75.62
257.987	99.62
258.22	94.62
258.452	83.62
258.685	77.62
258.918	67.62
259.151	78.62
259.383	86.62
259.616	90.62
259.849	96.62
260.081	77.62
260.314	86.62
260.547	85.62
260.779	80.62
261.012	76.62
261.244	83.62
261.477	81.62
261.71	91.62
261.942	90.62
262.175	101.62
262.407	85.62
262.64	92.62
262.872	88.62
263.105	80.62
263.337	82.62
263.57	78.62
263.802	80.62
264.035	67.62
264.267	84.62
264.499	81.62
264.732	89.62
264.964	86.62
265.197	76.62
265.429	86.62
265.661	85.62
265.894	72.62
266.126	89.62
266.358	93.62
266.591	87.62
266.823	92.62
267.055	101.62
267.287	78.62
267.52	79.62
267.752	81.62
267.984	81.62
268.216	78.62
268.448	72.62
268.681	81.62
268.913	81.62
269.145	83.62
269.377	89.62
269.609	83.62
269.841	90.62
270.073	85.62
270.306	85.62
270.538	91.62
270.77	79.62
271.002	87.62
271.234	103.62
271.466	79.62
271.698	93.62
271.93	90.62
272.162	93.62
272.394	90.62
272.626	86.62
272.858	98.62
273.09	76.62
273.322	90.62
273.553	85.62
273.785	80.62
274.017	74.62
274.249	83.62
274.481	91.62
274.713	84.62
274.945	89.62
275.176	91.62
275.408	75.62
275.64	84.62
275.872	85.62
276.104	88.62
276.335	94.62
276.567	81.62
276.799	78.62
277.031	82.62
277.262	89.62
277.494	95.62
277.726	80.62
277.957	84.62
278.189	96.62
278.421	87.62
278.652	90.62
278.884	86.62
279.115	85.62
279.347	94.62
279.579	84.62
279.81	83.62
280.042	73.62
280.273	83.62
280.505	78.62
280.736	87.62
280.968	79.62
281.199	74.62
281.431	82.62
281.662	77.62
281.894	81.62
282.125	92.62
282.356	92.62
282.588	89.62
282.819	72.62
283.051	90.62
283.282	78.62
283.513	100.62
283.745	93.62
283.976	86.62
284.207	85.62
284.439	98.62
284.67	95.62
284.901	80.62
285.132	80.62
285.364	84.62
285.595	87.62
285.826	77.62
286.057	84.62
286.288	81.62
286.52	86.62
286.751	90.62
286.982	87.62
287.213	86.62
287.444	96.62
287.675	83.62
287.906	87.62
288.138	88.62
288.369	82.62
288.6	87.62
288.831	74.62
289.062	96.62
289.293	79.62
289.524	87.62
289.755	85.62
289.986	88.62
290.217	86.62
290.448	83.62
290.679	90.62
290.91	91.62
291.141	78.62
291.371	81.62
291.602	93.62
291.833	71.62
292.064	87.62
292.295	74.62
292.526	89.62
292.757	89.62
292.987	83.62
293.218	88.62
293.449	90.62
293.68	80.62
293.91	80.62
294.141	85.62
294.372	88.62
294.603	102.62
294.833	83.62
295.064	97.62
295.295	78.62
295.525	88.62
295.756	89.62
295.987	89.62
296.217	79.62
296.448	85.62
296.679	76.62
296.909	96.62
297.14	99.62
297.37	94.62
297.601	83.62
297.831	92.62
298.062	89.62
298.292	99.62
298.523	92.62
298.753	90.62
298.984	86.62
299.214	69.62
299.445	84.62
299.675	87.62
299.905	93.62
300.136	97.62
300.366	96.62
300.597	77.62
300.827	75.62
301.057	80.62
301.288	76.62
301.518	80.62
301.748	78.62
301.979	87.62
302.209	88.62
302.439	84.62
302.669	86.62
302.9	82.62
303.13	89.62
303.36	82.62
303.59	86.62
303.82	99.62
304.051	75.62
304.281	97.62
304.511	85.62
304.741	90.62
304.971	97.62
305.201	91.62
305.431	66.62
305.661	91.62
305.891	87.62
306.121	85.62
306.352	82.62
306.582	76.62
306.812	85.62
307.042	95.62
307.272	90.62
307.502	79.62
307.731	82.62
307.961	94.62
308.191	91.62
308.421	80.62
308.651	90.62
308.881	88.62
309.111	81.62
309.341	92.62
309.571	99.62
309.8	96.62
310.03	81.62
310.26	81.62
310.49	91.62
310.72	86.62
310.949	82.62
311.179	85.62
311.409	77.62
311.639	88.62
311.868	99.62
312.098	93.62
312.328	89.62
312.557	91.62
312.787	87.62
313.017	88.62
313.246	92.62
313.476	90.62
313.706	92.62
313.935	80.62
314.165	88.62
314.394	88.62
314.624	82.62
314.853	84.62
315.083	73.62
315.312	75.62
315.542	73.62
315.771	81.62
316.001	93.62
316.23	90.62
316.46	91.62
316.689	96.62
316.919	95.62
317.148	78.62
317.377	81.62
317.607	87.62
317.836	83.62
318.065	79.62
318.295	93.62
318.524	90.62
318.753	74.62
318.983	88.62
319.212	85.62
319.441	78.62
319.67	112.62
319.9	85.62
320.129	81.62
320.358	87.62
320.587	91.62
320.816	83.62
321.046	91.62
321.275	73.62
321.504	85.62
321.733	89.62
321.962	88.62
322.191	64.62
322.42	80.62
322.649	81.62
322.878	84.62
323.108	75.62
323.337	85.62
323.566	78.62
323.795	101.62
324.024	75.62
324.253	93.62
324.482	73.62
324.71	92.62
324.939	85.62
325.168	89.62
325.397	78.62
325.626	92.62
325.855	96.62
326.084	81.62
326.313	68.62
326.542	84.62
326.77	91.62
326.999	74.62
327.228	92.62
327.457	79.62
327.686	93.62
327.914	90.62
328.143	93.62
328.372	91.62
328.6	84.62
328.829	83.62
329.058	84.62
329.287	74.62
329.515	73.62
329.744	85.62
329.972	80.62
330.201	82.62
330.43	78.62
330.658	79.62
330.887	71.62
331.115	82.62
331.344	84.62
331.572	93.62
331.801	95.62
332.03	94.62
332.258	83.62
332.486	85.62
332.715	89.62
332.943	91.62
333.172	85.62
333.4	84.62
333.629	94.62
333.857	79.62
334.085	83.62
334.314	89.62
334.542	63.62
334.771	85.62
334.999	80.62
335.227	85.62
335.455	87.62
335.684	82.62
335.912	85.62
336.14	98.62
336.369	83.62
336.597	88.62
336.825	107.62
337.053	81.62
337.281	83.62
337.51	88.62
337.738	82.62
337.966	92.62
338.194	85.62
338.422	90.62
338.65	81.62
338.878	90.62
339.106	99.62
339.334	89.62
339.562	84.62
339.79	84.62
340.018	99.62
340.246	97.62
340.474	96.62
340.702	98.62
340.93	83.62
341.158	91.62
341.386	84.62
341.614	101.62
341.842	90.62
342.07	82.62
342.298	76.62
342.526	91.62
342.754	85.62
342.981	70.62
343.209	83.62
343.437	102.62
343.665	87.62
343.893	98.62
344.12	98.62
344.348	95.62
344.576	82.62
344.804	77.62
345.031	87.62
345.259	79.62
345.487	92.62
345.714	85.62
345.942	93.62
346.17	113.62
346.397	76.62
346.625	57.62
346.853	83.62
347.08	78.62
347.308	81.62
347.535	94.62
347.763	89.62
347.99	80.62
348.218	91.62
348.445	74.62
348.673	85.62
348.9	90.62
349.128	81.62
349.355	94.62
349.583	100.62
349.81	95.62
350.037	83.62
350.265	95.62
350.492	93.62
350.72	80.62
350.947	96.62
351.174	85.62
351.402	90.62
351.629	90.62
351.856	89.62
352.083	82.62
352.311	86.62
352.538	69.62
352.765	87.62
352.992	82.62
353.22	85.62
353.447	73.62
353.674	86.62
353.901	100.62
354.128	79.62
354.355	74.62
354.583	94.62
354.81	80.62
355.037	88.62
355.264	85.62
355.491	86.62
355.718	88.62
355.945	78.62
356.172	84.62
356.399	89.62
356.626	78.62
356.853	88.62
357.08	96.62
357.307	90.62
357.534	81.62
357.761	87.62
357.988	92.62
358.215	102.62
358.441	84.62
358.668	84.62
358.895	87.62
359.122	81.62
359.349	89.62
359.576	78.62
359.802	83.62
360.029	74.62
360.256	89.62
360.483	94.62
360.709	92.62
360.936	84.62
361.163	87.62
361.39	82.62
361.616	76.62
361.843	94.62
362.07	92.62
362.296	86.62
362.523	89.62
362.749	86.62
362.976	73.62
363.203	92.62
363.429	74.62
363.656	111.62
363.882	97.62
364.109	86.62
364.335	93.62
364.562	73.62
364.788	84.62
365.015	87.62
365.241	98.62
365.468	76.62
365.694	84.62
365.92	91.62
366.147	83.62
366.373	89.62
366.599	90.62
366.826	81.62
367.052	94.62
367.278	87.62
367.505	94.62
367.731	102.62
367.957	100.62
368.184	80.62
368.41	83.62
368.636	89.62
368.862	82.62
369.089	87.62
369.315	79.62
369.541	93.62
369.767	89.62
369.993	97.62
370.219	82.62
370.445	86.62
370.672	92.62
370.898	105.62
371.124	98.62
371.35	97.62
371.576	85.62
371.802	85.62
372.028	84.62
372.254	84.62
372.48	85.62
372.706	106.62
372.932	99.62
373.158	81.62
373.384	93.62
373.61	82.62
373.835	95.62
374.061	80.62
374.287	105.62
374.513	105.62
374.739	101.62
374.965	99.62
375.191	76.62
375.416	97.62
375.642	91.62
375.868	90.62
376.094	112.62
376.319	93.62
376.545	87.62
376.771	92.62
376.997	90.62
377.222	107.62
377.448	100.62
377.674	86.62
377.899	86.62
378.125	78.62
378.35	86.62
378.576	91.62
378.802	90.62
379.027	101.62
379.253	94.62
379.478	92.62
379.704	93.62
379.929	108.62
380.155	92.62
380.38	96.62
380.606	93.62
380.831	92.62
381.057	94.62
381.282	95.62
381.507	101.62
381.733	114.62
381.958	99.62
382.184	91.62
382.409	101.62
382.634	97.62
382.86	96.62
383.085	102.62
383.31	114.62
383.535	98.62
383.761	94.62
383.986	108.62
384.211	106.62
384.436	94.62
384.662	94.62
384.887	79.62
385.112	100.62
385.337	84.62
385.562	108.62
385.787	109.62
386.013	102.62
386.238	101.62
386.463	106.62
386.688	98.62
386.913	83.62
387.138	103.62
387.363	92.62
387.588	95.62
387.813	103.62
388.038	94.62
388.263	84.62
388.488	100.62
388.713	89.62
388.938	115.62
389.163	105.62
389.387	107.62
389.612	103.62
389.837	109.62
390.062	106.62
390.287	117.62
390.512	100.62
390.736	103.62
390.961	93.62
391.186	100.62
391.411	105.62
391.636	101.62
391.86	101.62
392.085	109.62
392.31	117.62
392.534	116.62
392.759	115.62
392.984	97.62
393.208	101.62
393.433	114.62
393.658	115.62
393.882	101.62
394.107	117.62
394.331	101.62
394.556	106.62
394.78	117.62
395.005	97.62
395.229	97.62
395.454	110.62
395.678	114.62
395.903	102.62
396.127	101.62
396.352	100.62
396.576	101.62
396.801	104.62
397.025	107.62
397.249	101.62
397.474	113.62
397.698	114.62
397.922	109.62
398.147	102.62
398.371	106.62
398.595	104.62
398.82	109.62
399.044	97.62
399.268	107.62
399.492	102.62
399.717	105.62
399.941	125.62
400.165	103.62
400.389	101.62
400.613	114.62
400.837	103.62
401.062	130.62
401.286	105.62
401.51	115.62
401.734	113.62
401.958	122.62
402.182	122.62
402.406	113.62
402.63	109.62
402.854	107.62
403.078	117.62
403.302	123.62
403.526	120.62
403.75	115.62
403.974	113.62
404.198	120.62
404.422	117.62
404.645	125.62
404.869	107.62
405.093	117.62
405.317	117.62
405.541	118.62
405.765	126.62
405.988	132.62
406.212	110.62
406.436	113.62
406.66	138.62
406.883	122.62
407.107	123.62
407.331	113.62
407.555	122.62
407.778	109.62
408.002	114.62
408.226	113.62
408.449	125.62
408.673	122.62
408.896	137.62
409.12	130.62
409.344	103.62
409.567	129.62
409.791	108.62
410.014	121.62
410.238	119.62
410.461	111.62
410.685	121.62
410.908	122.62
411.132	124.62
411.355	124.62
411.578	130.62
411.802	120.62
412.025	104.62
412.249	123.62
412.472	124.62
412.695	127.62
412.919	124.62
413.142	122.62
413.365	117.62
413.589	132.62
413.812	144.62
414.035	117.62
414.258	106.62
414.482	115.62
414.705	127.62
414.928	137.62
415.151	131.62
415.374	125.62
415.597	141.62
415.821	124.62
416.044	120.62
416.267	131.62
416.49	136.62
416.713	120.62
416.936	113.62
417.159	119.62
417.382	122.62
417.605	136.62
417.828	123.62
418.051	109.62
418.274	127.62
418.497	137.62
418.72	139.62
418.943	135.62
419.166	149.62
419.389	121.62
419.611	137.62
419.834	127.62
420.057	137.62
420.28	127.62
420.503	133.62
420.726	122.62
420.948	121.62
421.171	140.62
421.394	146.62
421.617	142.62
421.839	147.62
422.062	140.62
422.285	140.62
422.507	134.62
422.73	135.62
422.953	118.62
423.175	125.62
423.398	118.62
423.621	121.62
423.843	116.62
424.066	144.62
424.288	147.62
424.511	138.62
424.733	147.62
424.956	133.62
425.178	134.62
425.401	142.62
425.623	140.62
425.846	137.62
426.068	129.62
426.291	122.62
426.513	132.62
426.735	122.62
426.958	143.62
427.18	120.62
427.402	135.62
427.625	127.62
427.847	130.62
428.069	149.62
428.292	120.62
428.514	130.62
428.736	131.62
428.958	135.62
429.181	123.62
429.403	142.62
429.625	126.62
429.847	142.62
430.069	149.62
430.292	126.62
430.514	111.62
430.736	126.62
430.958	127.62
431.18	118.62
431.402	126.62
431.624	127.62
431.846	121.62
432.068	97.62
432.29	100.62
432.512	93.62
432.734	126.62
432.956	138.62
433.178	131.62
433.4	143.62
433.622	140.62
433.844	128.62
434.066	128.62
434.287	110.62
434.509	98.62
434.731	110.62
434.953	117.62
435.175	119.62
435.397	122.62
435.618	118.62
435.84	107.62
436.062	121.62
436.284	117.62
436.505	127.62
436.727	137.62
436.949	132.62
437.17	119.62
437.392	134.62
437.614	132.62
437.835	118.62
438.057	117.62
438.278	121.62
438.5	128.62
438.721	127.62
438.943	149.62
439.165	129.62
439.386	151.62
439.608	141.62
439.829	154.62
440.05	156.62
440.272	143.62
440.493	142.62
440.715	139.62
440.936	151.62
441.158	126.62
441.379	148.62
441.6	148.62
441.822	136.62
442.043	142.62
442.264	128.62
442.486	127.62
442.707	144.62
442.928	145.62
443.149	138.62
443.371	143.62
443.592	147.62
443.813	139.62
444.034	133.62
444.255	148.62
444.476	142.62
444.698	155.62
444.919	143.62
445.14	273.62
445.361	206.62
445.582	151.62
445.803	151.62
446.024	153.62
446.245	143.62
446.466	151.62
446.687	155.62
446.908	150.62
447.129	153.62
447.35	138.62
447.571	148.62
447.792	135.62
448.013	141.62
448.234	128.62
448.455	133.62
448.675	138.62
448.896	146.62
449.117	132.62
449.338	137.62
449.559	145.62
449.779	131.62
450	128.62
450.221	129.62
450.442	137.62
450.662	137.62
450.883	136.62
451.104	127.62
451.324	133.62
451.545	149.62
451.766	130.62
451.986	133.62
452.207	129.62
452.428	118.62
452.648	121.62
452.869	113.62
453.089	116.62
453.31	94.62
453.53	106.62
453.751	97.62
453.971	96.62
454.192	95.62
454.412	111.62
454.633	120.62
454.853	123.62
455.073	130.62
455.294	131.62
455.514	114.62
455.734	125.62
455.955	129.62
456.175	127.62
456.395	102.62
456.616	117.62
456.836	102.62
457.056	118.62
457.276	113.62
457.497	115.62
457.717	106.62
457.937	116.62
458.157	102.62
458.377	108.62
458.598	103.62
458.818	85.62
459.038	94.62
459.258	93.62
459.478	85.62
459.698	86.62
459.918	91.62
460.138	115.62
460.358	111.62
460.578	107.62
460.798	111.62
461.018	110.62
461.238	124.62
461.458	125.62
461.678	120.62
461.898	117.62
462.118	115.62
462.338	118.62
462.558	113.62
462.777	108.62
462.997	113.62
463.217	100.62
463.437	110.62
463.657	90.62
463.876	109.62
464.096	105.62
464.316	118.62
464.536	110.62
464.755	108.62
464.975	98.62
465.195	122.62
465.414	125.62
465.634	133.62
465.854	126.62
466.073	124.62
466.293	123.62
466.512	118.62
466.732	131.62
466.951	132.62
467.171	140.62
467.391	134.62
467.61	126.62
467.829	132.62
468.049	139.62
468.268	138.62
468.488	138.62
468.707	153.62
468.927	135.62
469.146	131.62
469.365	131.62
469.585	139.62
469.804	140.62
470.023	142.62
470.243	133.62
470.462	145.62
470.681	138.62
470.901	142.62
471.12	133.62
471.339	147.62
471.558	138.62
471.777	146.62
471.997	140.62
472.216	143.62
472.435	112.62
472.654	132.62
472.873	107.62
473.092	113.62
473.311	115.62
473.53	125.62
473.749	115.62
473.968	125.62
474.187	118.62
474.406	116.62
474.625	123.62
474.844	138.62
475.063	131.62
475.282	136.62
475.501	141.62
475.72	126.62
475.939	137.62
476.158	134.62
476.377	129.62
476.596	126.62
476.814	119.62
477.033	111.62
477.252	113.62
477.471	130.62
477.69	133.62
477.908	149.62
478.127	145.62
478.346	129.62
478.564	130.62
478.783	141.62
479.002	129.62
479.22	141.62
479.439	131.62
479.658	135.62
479.876	119.62
480.095	108.62
480.313	121.62
480.532	106.62
480.751	105.62
480.969	104.62
481.188	91.62
481.406	94.62
481.624	88.62
481.843	95.62
482.061	105.62
482.28	125.62
482.498	125.62
482.717	94.62
482.935	128.62
483.153	136.62
483.372	138.62
483.59	129.62
483.808	128.62
484.027	131.62
484.245	140.62
484.463	165.62
484.681	154.62
484.9	152.62
485.118	140.62
485.336	129.62
485.554	123.62
485.772	105.62
485.99	100.62
486.209	110.62
486.427	126.62
486.645	121.62
486.863	115.62
487.081	135.62
487.299	147.62
487.517	137.62
487.735	171.62
487.953	169.62
488.171	173.62
488.389	172.62
488.607	150.62
488.825	142.62
489.043	127.62
489.261	144.62
489.479	137.62
489.696	135.62
489.914	147.62
490.132	157.62
490.35	161.62
490.568	169.62
490.786	181.62
491.003	186.62
491.221	179.62
491.439	197.62
491.657	190.62
491.874	194.62
492.092	202.62
492.31	244.62
492.527	227.62
492.745	193.62
492.963	177.62
493.18	182.62
493.398	169.62
493.615	167.62
493.833	175.62
494.05	187.62
494.268	168.62
494.485	177.62
494.703	180.62
494.92	198.62
495.138	177.62
495.355	168.62
495.573	161.62
495.79	181.62
496.008	189.62
496.225	164.62
496.442	171.62
496.66	164.62
496.877	161.62
497.094	174.62
497.312	153.62
497.529	138.62
497.746	152.62
497.963	133.62
498.181	153.62
498.398	126.62
498.615	122.62
498.832	125.62
499.049	108.62
499.267	121.62
499.484	139.62
499.701	141.62
499.918	137.62
500.135	147.62
500.352	149.62
500.569	137.62
500.786	152.62
501.003	148.62
501.22	136.62
501.437	132.62
501.654	127.62
501.871	112.62
502.088	138.62
502.305	126.62
502.522	116.62
502.739	123.62
502.956	124.62
503.172	121.62
503.389	123.62
503.606	125.62
503.823	125.62
504.04	129.62
504.256	111.62
504.473	122.62
504.69	123.62
504.907	117.62
505.123	127.62
505.34	126.62
505.557	129.62
505.773	136.62
505.99	130.62
506.207	134.62
506.423	109.62
506.64	137.62
506.856	127.62
507.073	124.62
507.289	119.62
507.506	119.62
507.722	131.62
507.939	112.62
508.155	121.62
508.372	133.62
508.588	128.62
508.805	96.62
509.021	105.62
509.238	92.62
509.454	106.62
509.67	108.62
509.887	109.62
510.103	93.62
510.319	84.62
510.536	77.62
510.752	93.62
510.968	80.62
511.184	81.62
511.401	100.62
