Data from Location2.07152019.Energy5.Lamp.07192019.3%Agarose_HRD10591_14-58-45-359.txt Node
Date: Fri Jul 19 14:58:45 EDT 2019
User: cochatt
Spectrometer: HR+D1059
Trigger mode: 1
Integration Time (sec): 1.000000E-1
Scans to average: 1
Electric dark correction enabled: true
Nonlinearity correction enabled: false
Boxcar width: 0
XAxis mode: Wavelengths
Number of Pixels in Spectrum: 2048
>>>>>Begin Spectral Data<<<<<
223.165	-8.25
223.4	-8.25
223.635	-8.25
223.869	-18.25
224.104	-14.25
224.338	-18.25
224.573	-13.25
224.808	-15.25
225.042	-19.25
225.277	-5.25
225.511	-11.25
225.746	-5.25
225.98	0.75
226.215	17.75
226.449	17.75
226.683	25.75
226.918	31.75
227.152	34.75
227.387	38.75
227.621	47.75
227.856	36.75
228.09	61.75
228.324	47.75
228.559	58.75
228.793	59.75
229.027	66.75
229.262	72.75
229.496	69.75
229.73	68.75
229.964	67.75
230.199	70.75
230.433	68.75
230.667	79.75
230.901	82.75
231.136	70.75
231.37	82.75
231.604	70.75
231.838	77.75
232.072	81.75
232.306	91.75
232.541	83.75
232.775	81.75
233.009	70.75
233.243	61.75
233.477	83.75
233.711	83.75
233.945	91.75
234.179	83.75
234.413	67.75
234.647	88.75
234.881	83.75
235.115	82.75
235.349	85.75
235.583	87.75
235.817	76.75
236.051	65.75
236.285	89.75
236.519	87.75
236.753	76.75
236.987	74.75
237.221	80.75
237.455	73.75
237.689	73.75
237.922	75.75
238.156	79.75
238.39	82.75
238.624	78.75
238.858	87.75
239.091	83.75
239.325	82.75
239.559	86.75
239.793	78.75
240.027	87.75
240.26	68.75
240.494	77.75
240.728	77.75
240.961	76.75
241.195	78.75
241.429	87.75
241.662	76.75
241.896	73.75
242.13	72.75
242.363	70.75
242.597	86.75
242.83	74.75
243.064	72.75
243.298	83.75
243.531	77.75
243.765	87.75
243.998	75.75
244.232	74.75
244.465	97.75
244.699	84.75
244.932	87.75
245.166	81.75
245.399	89.75
245.633	83.75
245.866	72.75
246.099	69.75
246.333	76.75
246.566	74.75
246.8	81.75
247.033	85.75
247.266	81.75
247.5	75.75
247.733	72.75
247.966	67.75
248.2	70.75
248.433	68.75
248.666	93.75
248.899	82.75
249.133	80.75
249.366	76.75
249.599	88.75
249.832	82.75
250.066	70.75
250.299	85.75
250.532	84.75
250.765	81.75
250.998	58.75
251.231	73.75
251.465	73.75
251.698	88.75
251.931	72.75
252.164	71.75
252.397	84.75
252.63	94.75
252.863	76.75
253.096	72.75
253.329	68.75
253.562	76.75
253.795	81.75
254.028	83.75
254.261	80.75
254.494	72.75
254.727	77.75
254.96	80.75
255.193	75.75
255.426	65.75
255.659	68.75
255.892	76.75
256.124	71.75
256.357	83.75
256.59	69.75
256.823	81.75
257.056	89.75
257.289	85.75
257.521	96.75
257.754	87.75
257.987	86.75
258.22	96.75
258.452	76.75
258.685	79.75
258.918	88.75
259.151	83.75
259.383	81.75
259.616	90.75
259.849	76.75
260.081	81.75
260.314	77.75
260.547	73.75
260.779	89.75
261.012	87.75
261.244	82.75
261.477	84.75
261.71	80.75
261.942	68.75
262.175	88.75
262.407	97.75
262.64	92.75
262.872	81.75
263.105	93.75
263.337	78.75
263.57	75.75
263.802	73.75
264.035	85.75
264.267	84.75
264.499	79.75
264.732	66.75
264.964	73.75
265.197	85.75
265.429	75.75
265.661	85.75
265.894	93.75
266.126	83.75
266.358	75.75
266.591	92.75
266.823	79.75
267.055	88.75
267.287	73.75
267.52	83.75
267.752	80.75
267.984	83.75
268.216	88.75
268.448	89.75
268.681	92.75
268.913	82.75
269.145	72.75
269.377	71.75
269.609	81.75
269.841	89.75
270.073	74.75
270.306	81.75
270.538	77.75
270.77	82.75
271.002	70.75
271.234	83.75
271.466	87.75
271.698	74.75
271.93	80.75
272.162	76.75
272.394	84.75
272.626	76.75
272.858	97.75
273.09	81.75
273.322	70.75
273.553	74.75
273.785	77.75
274.017	80.75
274.249	85.75
274.481	85.75
274.713	80.75
274.945	91.75
275.176	87.75
275.408	75.75
275.64	83.75
275.872	76.75
276.104	90.75
276.335	75.75
276.567	83.75
276.799	78.75
277.031	89.75
277.262	75.75
277.494	87.75
277.726	81.75
277.957	77.75
278.189	79.75
278.421	76.75
278.652	49.75
278.884	77.75
279.115	87.75
279.347	95.75
279.579	76.75
279.81	76.75
280.042	82.75
280.273	80.75
280.505	72.75
280.736	73.75
280.968	86.75
281.199	86.75
281.431	99.75
281.662	85.75
281.894	91.75
282.125	82.75
282.356	99.75
282.588	82.75
282.819	79.75
283.051	88.75
283.282	75.75
283.513	74.75
283.745	89.75
283.976	87.75
284.207	78.75
284.439	75.75
284.67	87.75
284.901	91.75
285.132	78.75
285.364	74.75
285.595	70.75
285.826	75.75
286.057	84.75
286.288	85.75
286.52	90.75
286.751	82.75
286.982	84.75
287.213	88.75
287.444	89.75
287.675	79.75
287.906	86.75
288.138	85.75
288.369	73.75
288.6	76.75
288.831	79.75
289.062	84.75
289.293	85.75
289.524	93.75
289.755	87.75
289.986	90.75
290.217	93.75
290.448	91.75
290.679	76.75
290.91	88.75
291.141	79.75
291.371	87.75
291.602	84.75
291.833	91.75
292.064	83.75
292.295	96.75
292.526	99.75
292.757	86.75
292.987	86.75
293.218	78.75
293.449	80.75
293.68	79.75
293.91	83.75
294.141	96.75
294.372	95.75
294.603	89.75
294.833	88.75
295.064	75.75
295.295	95.75
295.525	87.75
295.756	99.75
295.987	82.75
296.217	81.75
296.448	86.75
296.679	68.75
296.909	93.75
297.14	69.75
297.37	90.75
297.601	93.75
297.831	90.75
298.062	87.75
298.292	83.75
298.523	81.75
298.753	75.75
298.984	73.75
299.214	80.75
299.445	96.75
299.675	86.75
299.905	90.75
300.136	79.75
300.366	91.75
300.597	86.75
300.827	101.75
301.057	91.75
301.288	87.75
301.518	67.75
301.748	82.75
301.979	85.75
302.209	82.75
302.439	87.75
302.669	81.75
302.9	79.75
303.13	77.75
303.36	82.75
303.59	73.75
303.82	90.75
304.051	89.75
304.281	85.75
304.511	89.75
304.741	87.75
304.971	87.75
305.201	78.75
305.431	83.75
305.661	93.75
305.891	85.75
306.121	77.75
306.352	87.75
306.582	75.75
306.812	67.75
307.042	82.75
307.272	91.75
307.502	86.75
307.731	86.75
307.961	100.75
308.191	94.75
308.421	72.75
308.651	83.75
308.881	89.75
309.111	86.75
309.341	89.75
309.571	79.75
309.8	87.75
310.03	83.75
310.26	85.75
310.49	100.75
310.72	104.75
310.949	75.75
311.179	96.75
311.409	74.75
311.639	88.75
311.868	73.75
312.098	87.75
312.328	89.75
312.557	77.75
312.787	100.75
313.017	86.75
313.246	111.75
313.476	80.75
313.706	78.75
313.935	85.75
314.165	77.75
314.394	75.75
314.624	78.75
314.853	92.75
315.083	84.75
315.312	94.75
315.542	83.75
315.771	83.75
316.001	72.75
316.23	85.75
316.46	90.75
316.689	93.75
316.919	95.75
317.148	78.75
317.377	95.75
317.607	80.75
317.836	89.75
318.065	85.75
318.295	72.75
318.524	87.75
318.753	85.75
318.983	84.75
319.212	91.75
319.441	105.75
319.67	82.75
319.9	104.75
320.129	92.75
320.358	83.75
320.587	99.75
320.816	89.75
321.046	87.75
321.275	85.75
321.504	99.75
321.733	90.75
321.962	93.75
322.191	79.75
322.42	78.75
322.649	83.75
322.878	79.75
323.108	77.75
323.337	92.75
323.566	90.75
323.795	84.75
324.024	84.75
324.253	90.75
324.482	88.75
324.71	93.75
324.939	73.75
325.168	88.75
325.397	83.75
325.626	91.75
325.855	97.75
326.084	70.75
326.313	89.75
326.542	83.75
326.77	84.75
326.999	95.75
327.228	84.75
327.457	87.75
327.686	81.75
327.914	83.75
328.143	105.75
328.372	84.75
328.6	72.75
328.829	77.75
329.058	71.75
329.287	86.75
329.515	93.75
329.744	82.75
329.972	83.75
330.201	84.75
330.43	97.75
330.658	88.75
330.887	77.75
331.115	81.75
331.344	87.75
331.572	78.75
331.801	86.75
332.03	73.75
332.258	82.75
332.486	83.75
332.715	86.75
332.943	78.75
333.172	82.75
333.4	88.75
333.629	77.75
333.857	91.75
334.085	70.75
334.314	99.75
334.542	98.75
334.771	81.75
334.999	84.75
335.227	81.75
335.455	86.75
335.684	97.75
335.912	84.75
336.14	83.75
336.369	92.75
336.597	98.75
336.825	90.75
337.053	76.75
337.281	87.75
337.51	97.75
337.738	91.75
337.966	88.75
338.194	85.75
338.422	91.75
338.65	102.75
338.878	88.75
339.106	86.75
339.334	91.75
339.562	83.75
339.79	65.75
340.018	59.75
340.246	89.75
340.474	102.75
340.702	88.75
340.93	80.75
341.158	72.75
341.386	92.75
341.614	79.75
341.842	84.75
342.07	88.75
342.298	89.75
342.526	93.75
342.754	87.75
342.981	90.75
343.209	97.75
343.437	92.75
343.665	89.75
343.893	77.75
344.12	96.75
344.348	90.75
344.576	90.75
344.804	90.75
345.031	71.75
345.259	95.75
345.487	94.75
345.714	82.75
345.942	84.75
346.17	78.75
346.397	80.75
346.625	87.75
346.853	89.75
347.08	84.75
347.308	81.75
347.535	89.75
347.763	88.75
347.99	93.75
348.218	88.75
348.445	89.75
348.673	82.75
348.9	80.75
349.128	66.75
349.355	84.75
349.583	91.75
349.81	78.75
350.037	85.75
350.265	91.75
350.492	86.75
350.72	99.75
350.947	82.75
351.174	90.75
351.402	83.75
351.629	95.75
351.856	82.75
352.083	79.75
352.311	81.75
352.538	86.75
352.765	80.75
352.992	82.75
353.22	96.75
353.447	80.75
353.674	71.75
353.901	91.75
354.128	59.75
354.355	103.75
354.583	87.75
354.81	82.75
355.037	77.75
355.264	83.75
355.491	85.75
355.718	89.75
355.945	92.75
356.172	89.75
356.399	81.75
356.626	84.75
356.853	77.75
357.08	95.75
357.307	89.75
357.534	86.75
357.761	83.75
357.988	79.75
358.215	82.75
358.441	71.75
358.668	83.75
358.895	79.75
359.122	76.75
359.349	89.75
359.576	91.75
359.802	80.75
360.029	77.75
360.256	86.75
360.483	83.75
360.709	78.75
360.936	93.75
361.163	93.75
361.39	75.75
361.616	83.75
361.843	85.75
362.07	84.75
362.296	74.75
362.523	90.75
362.749	90.75
362.976	64.75
363.203	94.75
363.429	79.75
363.656	87.75
363.882	81.75
364.109	87.75
364.335	99.75
364.562	84.75
364.788	91.75
365.015	95.75
365.241	90.75
365.468	80.75
365.694	69.75
365.92	76.75
366.147	83.75
366.373	93.75
366.599	81.75
366.826	85.75
367.052	91.75
367.278	79.75
367.505	85.75
367.731	104.75
367.957	95.75
368.184	98.75
368.41	84.75
368.636	86.75
368.862	92.75
369.089	91.75
369.315	92.75
369.541	82.75
369.767	91.75
369.993	85.75
370.219	98.75
370.445	87.75
370.672	88.75
370.898	92.75
371.124	93.75
371.35	77.75
371.576	88.75
371.802	93.75
372.028	92.75
372.254	97.75
372.48	99.75
372.706	88.75
372.932	110.75
373.158	89.75
373.384	92.75
373.61	98.75
373.835	90.75
374.061	95.75
374.287	86.75
374.513	84.75
374.739	75.75
374.965	88.75
375.191	93.75
375.416	99.75
375.642	88.75
375.868	89.75
376.094	90.75
376.319	99.75
376.545	85.75
376.771	93.75
376.997	95.75
377.222	83.75
377.448	87.75
377.674	91.75
377.899	89.75
378.125	93.75
378.35	105.75
378.576	91.75
378.802	96.75
379.027	96.75
379.253	109.75
379.478	90.75
379.704	94.75
379.929	93.75
380.155	90.75
380.38	103.75
380.606	94.75
380.831	88.75
381.057	85.75
381.282	88.75
381.507	104.75
381.733	99.75
381.958	104.75
382.184	107.75
382.409	97.75
382.634	98.75
382.86	103.75
383.085	113.75
383.31	87.75
383.535	94.75
383.761	93.75
383.986	85.75
384.211	89.75
384.436	102.75
384.662	102.75
384.887	84.75
385.112	96.75
385.337	90.75
385.562	92.75
385.787	95.75
386.013	98.75
386.238	87.75
386.463	104.75
386.688	99.75
386.913	102.75
387.138	94.75
387.363	93.75
387.588	102.75
387.813	103.75
388.038	107.75
388.263	99.75
388.488	94.75
388.713	90.75
388.938	101.75
389.163	99.75
389.387	102.75
389.612	106.75
389.837	108.75
390.062	104.75
390.287	100.75
390.512	104.75
390.736	107.75
390.961	99.75
391.186	93.75
391.411	108.75
391.636	101.75
391.86	87.75
392.085	102.75
392.31	103.75
392.534	107.75
392.759	112.75
392.984	115.75
393.208	100.75
393.433	116.75
393.658	95.75
393.882	115.75
394.107	90.75
394.331	119.75
394.556	107.75
394.78	106.75
395.005	105.75
395.229	93.75
395.454	94.75
395.678	105.75
395.903	95.75
396.127	119.75
396.352	108.75
396.576	104.75
396.801	116.75
397.025	111.75
397.249	117.75
397.474	104.75
397.698	111.75
397.922	96.75
398.147	108.75
398.371	97.75
398.595	113.75
398.82	109.75
399.044	107.75
399.268	106.75
399.492	111.75
399.717	117.75
399.941	118.75
400.165	125.75
400.389	101.75
400.613	86.75
400.837	106.75
401.062	103.75
401.286	120.75
401.51	110.75
401.734	112.75
401.958	121.75
402.182	107.75
402.406	114.75
402.63	115.75
402.854	103.75
403.078	115.75
403.302	97.75
403.526	119.75
403.75	129.75
403.974	117.75
404.198	116.75
404.422	120.75
404.645	117.75
404.869	113.75
405.093	114.75
405.317	115.75
405.541	123.75
405.765	115.75
405.988	104.75
406.212	104.75
406.436	114.75
406.66	118.75
406.883	106.75
407.107	110.75
407.331	116.75
407.555	102.75
407.778	104.75
408.002	118.75
408.226	109.75
408.449	123.75
408.673	127.75
408.896	118.75
409.12	111.75
409.344	106.75
409.567	127.75
409.791	137.75
410.014	117.75
410.238	127.75
410.461	125.75
410.685	123.75
410.908	124.75
411.132	132.75
411.355	125.75
411.578	136.75
411.802	114.75
412.025	108.75
412.249	108.75
412.472	116.75
412.695	122.75
412.919	117.75
413.142	108.75
413.365	118.75
413.589	119.75
413.812	100.75
414.035	116.75
414.258	122.75
414.482	127.75
414.705	127.75
414.928	119.75
415.151	130.75
415.374	127.75
415.597	137.75
415.821	117.75
416.044	121.75
416.267	127.75
416.49	123.75
416.713	109.75
416.936	133.75
417.159	118.75
417.382	127.75
417.605	128.75
417.828	129.75
418.051	126.75
418.274	145.75
418.497	137.75
418.72	127.75
418.943	130.75
419.166	128.75
419.389	149.75
419.611	127.75
419.834	127.75
420.057	123.75
420.28	127.75
420.503	120.75
420.726	139.75
420.948	143.75
421.171	139.75
421.394	131.75
421.617	143.75
421.839	143.75
422.062	132.75
422.285	119.75
422.507	122.75
422.73	118.75
422.953	115.75
423.175	106.75
423.398	129.75
423.621	139.75
423.843	130.75
424.066	137.75
424.288	116.75
424.511	137.75
424.733	167.75
424.956	130.75
425.178	155.75
425.401	137.75
425.623	121.75
425.846	135.75
426.068	126.75
426.291	139.75
426.513	143.75
426.735	141.75
426.958	125.75
427.18	134.75
427.402	128.75
427.625	141.75
427.847	123.75
428.069	125.75
428.292	130.75
428.514	133.75
428.736	128.75
428.958	132.75
429.181	129.75
429.403	130.75
429.625	116.75
429.847	125.75
430.069	129.75
430.292	138.75
430.514	120.75
430.736	142.75
430.958	135.75
431.18	109.75
431.402	121.75
431.624	118.75
431.846	100.75
432.068	97.75
432.29	94.75
432.512	132.75
432.734	121.75
432.956	134.75
433.178	130.75
433.4	131.75
433.622	147.75
433.844	130.75
434.066	120.75
434.287	118.75
434.509	104.75
434.731	103.75
434.953	90.75
435.175	128.75
435.397	123.75
435.618	117.75
435.84	115.75
436.062	113.75
436.284	116.75
436.505	133.75
436.727	125.75
436.949	155.75
437.17	146.75
437.392	139.75
437.614	109.75
437.835	117.75
438.057	97.75
438.278	117.75
438.5	120.75
438.721	115.75
438.943	151.75
439.165	142.75
439.386	156.75
439.608	149.75
439.829	152.75
440.05	137.75
440.272	149.75
440.493	138.75
440.715	143.75
440.936	154.75
441.158	143.75
441.379	134.75
441.6	156.75
441.822	156.75
442.043	151.75
442.264	149.75
442.486	139.75
442.707	137.75
442.928	132.75
443.149	131.75
443.371	138.75
443.592	134.75
443.813	131.75
444.034	142.75
444.255	132.75
444.476	154.75
444.698	138.75
444.919	148.75
445.14	270.75
445.361	210.75
445.582	142.75
445.803	155.75
446.024	153.75
446.245	158.75
446.466	151.75
446.687	164.75
446.908	170.75
447.129	157.75
447.35	156.75
447.571	147.75
447.792	159.75
448.013	139.75
448.234	148.75
448.455	144.75
448.675	145.75
448.896	143.75
449.117	136.75
449.338	132.75
449.559	139.75
449.779	146.75
450	125.75
450.221	129.75
450.442	131.75
450.662	149.75
450.883	116.75
451.104	159.75
451.324	132.75
451.545	134.75
451.766	140.75
451.986	134.75
452.207	147.75
452.428	140.75
452.648	130.75
452.869	132.75
453.089	112.75
453.31	112.75
453.53	101.75
453.751	107.75
453.971	98.75
454.192	98.75
454.412	130.75
454.633	127.75
454.853	121.75
455.073	109.75
455.294	118.75
455.514	122.75
455.734	117.75
455.955	96.75
456.175	112.75
456.395	112.75
456.616	134.75
456.836	115.75
457.056	98.75
457.276	104.75
457.497	116.75
457.717	111.75
457.937	123.75
458.157	105.75
458.377	109.75
458.598	108.75
458.818	83.75
459.038	92.75
459.258	99.75
459.478	95.75
459.698	91.75
459.918	99.75
460.138	103.75
460.358	112.75
460.578	110.75
460.798	113.75
461.018	111.75
461.238	129.75
461.458	115.75
461.678	113.75
461.898	108.75
462.118	101.75
462.338	113.75
462.558	113.75
462.777	101.75
462.997	107.75
463.217	113.75
463.437	115.75
463.657	114.75
463.876	120.75
464.096	112.75
464.316	105.75
464.536	92.75
464.755	119.75
464.975	122.75
465.195	117.75
465.414	125.75
465.634	122.75
465.854	125.75
466.073	120.75
466.293	120.75
466.512	135.75
466.732	126.75
466.951	138.75
467.171	139.75
467.391	125.75
467.61	136.75
467.829	128.75
468.049	130.75
468.268	133.75
468.488	140.75
468.707	141.75
468.927	138.75
469.146	131.75
469.365	129.75
469.585	136.75
469.804	133.75
470.023	159.75
470.243	155.75
470.462	137.75
470.681	145.75
470.901	131.75
471.12	142.75
471.339	149.75
471.558	137.75
471.777	137.75
471.997	133.75
472.216	131.75
472.435	119.75
472.654	102.75
472.873	120.75
473.092	106.75
473.311	113.75
473.53	105.75
473.749	129.75
473.968	144.75
474.187	118.75
474.406	113.75
474.625	131.75
474.844	131.75
475.063	125.75
475.282	131.75
475.501	127.75
475.72	113.75
475.939	120.75
476.158	138.75
476.377	135.75
476.596	126.75
476.814	116.75
477.033	115.75
477.252	113.75
477.471	115.75
477.69	119.75
477.908	143.75
478.127	149.75
478.346	118.75
478.564	147.75
478.783	149.75
479.002	130.75
479.22	144.75
479.439	125.75
479.658	127.75
479.876	125.75
480.095	92.75
480.313	119.75
480.532	113.75
480.751	104.75
480.969	83.75
481.188	86.75
481.406	91.75
481.624	96.75
481.843	89.75
482.061	103.75
482.28	128.75
482.498	106.75
482.717	112.75
482.935	141.75
483.153	138.75
483.372	151.75
483.59	164.75
483.808	135.75
484.027	131.75
484.245	117.75
484.463	131.75
484.681	153.75
484.9	154.75
485.118	135.75
485.336	151.75
485.554	117.75
485.772	92.75
485.99	98.75
486.209	110.75
486.427	119.75
486.645	120.75
486.863	122.75
487.081	130.75
487.299	149.75
487.517	133.75
487.735	156.75
487.953	192.75
488.171	170.75
488.389	159.75
488.607	160.75
488.825	138.75
489.043	132.75
489.261	126.75
489.479	142.75
489.696	140.75
489.914	145.75
490.132	143.75
490.35	148.75
490.568	162.75
490.786	194.75
491.003	188.75
491.221	183.75
491.439	181.75
491.657	202.75
491.874	211.75
492.092	217.75
492.31	234.75
492.527	227.75
492.745	199.75
492.963	189.75
493.18	180.75
493.398	190.75
493.615	161.75
493.833	174.75
494.05	161.75
494.268	155.75
494.485	175.75
494.703	172.75
494.92	172.75
495.138	185.75
495.355	163.75
495.573	172.75
495.79	159.75
496.008	168.75
496.225	155.75
496.442	173.75
496.66	184.75
496.877	179.75
497.094	164.75
497.312	151.75
497.529	151.75
497.746	155.75
497.963	135.75
498.181	135.75
498.398	132.75
498.615	100.75
498.832	115.75
499.049	111.75
499.267	119.75
499.484	127.75
499.701	131.75
499.918	135.75
500.135	135.75
500.352	127.75
500.569	134.75
500.786	141.75
501.003	139.75
501.22	144.75
501.437	135.75
501.654	134.75
501.871	141.75
502.088	136.75
502.305	143.75
502.522	123.75
502.739	121.75
502.956	126.75
503.172	131.75
503.389	117.75
503.606	126.75
503.823	117.75
504.04	129.75
504.256	130.75
504.473	107.75
504.69	117.75
504.907	124.75
505.123	102.75
505.34	127.75
505.557	121.75
505.773	110.75
505.99	116.75
506.207	127.75
506.423	122.75
506.64	122.75
506.856	117.75
507.073	131.75
507.289	128.75
507.506	125.75
507.722	109.75
507.939	120.75
508.155	100.75
508.372	118.75
508.588	122.75
508.805	123.75
509.021	95.75
509.238	97.75
509.454	107.75
509.67	99.75
509.887	97.75
510.103	89.75
510.319	85.75
510.536	95.75
510.752	85.75
510.968	73.75
511.184	86.75
511.401	86.75
511.617	105.75
511.833	90.75
