Data from Location2.07152019.Energy5.Lamp.07192019.3%Agarose_HRD10591_14-57-24-360.txt Node
Date: Fri Jul 19 14:57:24 EDT 2019
User: cochatt
Spectrometer: HR+D1059
Trigger mode: 1
Integration Time (sec): 1.000000E-1
Scans to average: 1
Electric dark correction enabled: true
Nonlinearity correction enabled: false
Boxcar width: 0
XAxis mode: Wavelengths
Number of Pixels in Spectrum: 2048
>>>>>Begin Spectral Data<<<<<
223.165	-1.06
223.4	-1.06
223.635	-1.06
223.869	-16.06
224.104	-16.06
224.338	-15.06
224.573	-16.06
224.808	-6.06
225.042	-9.06
225.277	-14.06
225.511	0.94
225.746	9.94
225.98	6.94
226.215	11.94
226.449	2.94
226.683	12.94
226.918	17.94
227.152	29.94
227.387	53.94
227.621	29.94
227.856	33.94
228.09	41.94
228.324	45.94
228.559	45.94
228.793	59.94
229.027	60.94
229.262	57.94
229.496	67.94
229.73	60.94
229.964	69.94
230.199	82.94
230.433	59.94
230.667	88.94
230.901	80.94
231.136	69.94
231.37	81.94
231.604	88.94
231.838	77.94
232.072	77.94
232.306	74.94
232.541	80.94
232.775	89.94
233.009	93.94
233.243	83.94
233.477	81.94
233.711	102.94
233.945	62.94
234.179	81.94
234.413	80.94
234.647	81.94
234.881	81.94
235.115	77.94
235.349	78.94
235.583	67.94
235.817	70.94
236.051	97.94
236.285	78.94
236.519	79.94
236.753	75.94
236.987	68.94
237.221	90.94
237.455	74.94
237.689	79.94
237.922	67.94
238.156	76.94
238.39	75.94
238.624	77.94
238.858	77.94
239.091	73.94
239.325	82.94
239.559	83.94
239.793	94.94
240.027	85.94
240.26	77.94
240.494	81.94
240.728	76.94
240.961	88.94
241.195	73.94
241.429	86.94
241.662	74.94
241.896	65.94
242.13	79.94
242.363	93.94
242.597	79.94
242.83	76.94
243.064	69.94
243.298	73.94
243.531	91.94
243.765	85.94
243.998	79.94
244.232	81.94
244.465	68.94
244.699	74.94
244.932	85.94
245.166	68.94
245.399	81.94
245.633	76.94
245.866	78.94
246.099	73.94
246.333	90.94
246.566	79.94
246.8	88.94
247.033	77.94
247.266	66.94
247.5	81.94
247.733	74.94
247.966	82.94
248.2	75.94
248.433	82.94
248.666	73.94
248.899	84.94
249.133	83.94
249.366	95.94
249.599	75.94
249.832	86.94
250.066	86.94
250.299	71.94
250.532	93.94
250.765	69.94
250.998	82.94
251.231	68.94
251.465	99.94
251.698	73.94
251.931	70.94
252.164	82.94
252.397	75.94
252.63	70.94
252.863	83.94
253.096	86.94
253.329	84.94
253.562	78.94
253.795	87.94
254.028	72.94
254.261	88.94
254.494	93.94
254.727	90.94
254.96	89.94
255.193	78.94
255.426	69.94
255.659	87.94
255.892	83.94
256.124	80.94
256.357	77.94
256.59	93.94
256.823	87.94
257.056	68.94
257.289	90.94
257.521	95.94
257.754	90.94
257.987	83.94
258.22	90.94
258.452	81.94
258.685	78.94
258.918	81.94
259.151	87.94
259.383	85.94
259.616	90.94
259.849	90.94
260.081	75.94
260.314	88.94
260.547	72.94
260.779	72.94
261.012	84.94
261.244	84.94
261.477	88.94
261.71	89.94
261.942	79.94
262.175	91.94
262.407	89.94
262.64	93.94
262.872	84.94
263.105	90.94
263.337	69.94
263.57	87.94
263.802	74.94
264.035	91.94
264.267	84.94
264.499	77.94
264.732	81.94
264.964	82.94
265.197	100.94
265.429	94.94
265.661	89.94
265.894	79.94
266.126	88.94
266.358	78.94
266.591	82.94
266.823	85.94
267.055	85.94
267.287	84.94
267.52	76.94
267.752	68.94
267.984	95.94
268.216	84.94
268.448	92.94
268.681	85.94
268.913	91.94
269.145	87.94
269.377	80.94
269.609	85.94
269.841	79.94
270.073	82.94
270.306	79.94
270.538	76.94
270.77	86.94
271.002	88.94
271.234	91.94
271.466	90.94
271.698	78.94
271.93	78.94
272.162	97.94
272.394	83.94
272.626	90.94
272.858	91.94
273.09	89.94
273.322	90.94
273.553	78.94
273.785	86.94
274.017	87.94
274.249	89.94
274.481	80.94
274.713	78.94
274.945	88.94
275.176	75.94
275.408	97.94
275.64	83.94
275.872	78.94
276.104	76.94
276.335	76.94
276.567	84.94
276.799	75.94
277.031	78.94
277.262	90.94
277.494	80.94
277.726	88.94
277.957	83.94
278.189	91.94
278.421	80.94
278.652	70.94
278.884	87.94
279.115	86.94
279.347	63.94
279.579	78.94
279.81	100.94
280.042	97.94
280.273	82.94
280.505	101.94
280.736	92.94
280.968	90.94
281.199	89.94
281.431	85.94
281.662	91.94
281.894	98.94
282.125	77.94
282.356	87.94
282.588	90.94
282.819	96.94
283.051	99.94
283.282	83.94
283.513	93.94
283.745	70.94
283.976	75.94
284.207	83.94
284.439	89.94
284.67	97.94
284.901	94.94
285.132	91.94
285.364	88.94
285.595	85.94
285.826	88.94
286.057	85.94
286.288	73.94
286.52	97.94
286.751	94.94
286.982	89.94
287.213	82.94
287.444	90.94
287.675	82.94
287.906	94.94
288.138	83.94
288.369	86.94
288.6	87.94
288.831	94.94
289.062	77.94
289.293	88.94
289.524	91.94
289.755	79.94
289.986	97.94
290.217	89.94
290.448	90.94
290.679	98.94
290.91	87.94
291.141	75.94
291.371	87.94
291.602	79.94
291.833	94.94
292.064	74.94
292.295	84.94
292.526	93.94
292.757	81.94
292.987	89.94
293.218	84.94
293.449	79.94
293.68	93.94
293.91	96.94
294.141	85.94
294.372	90.94
294.603	83.94
294.833	85.94
295.064	94.94
295.295	75.94
295.525	89.94
295.756	101.94
295.987	86.94
296.217	92.94
296.448	89.94
296.679	87.94
296.909	75.94
297.14	99.94
297.37	93.94
297.601	99.94
297.831	78.94
298.062	81.94
298.292	91.94
298.523	85.94
298.753	94.94
298.984	80.94
299.214	82.94
299.445	105.94
299.675	84.94
299.905	81.94
300.136	90.94
300.366	87.94
300.597	88.94
300.827	106.94
301.057	92.94
301.288	101.94
301.518	87.94
301.748	78.94
301.979	78.94
302.209	89.94
302.439	84.94
302.669	92.94
302.9	84.94
303.13	96.94
303.36	82.94
303.59	83.94
303.82	82.94
304.051	87.94
304.281	94.94
304.511	77.94
304.741	85.94
304.971	79.94
305.201	84.94
305.431	87.94
305.661	97.94
305.891	88.94
306.121	102.94
306.352	87.94
306.582	98.94
306.812	104.94
307.042	84.94
307.272	88.94
307.502	85.94
307.731	109.94
307.961	83.94
308.191	79.94
308.421	82.94
308.651	87.94
308.881	97.94
309.111	105.94
309.341	83.94
309.571	91.94
309.8	81.94
310.03	77.94
310.26	87.94
310.49	77.94
310.72	97.94
310.949	90.94
311.179	78.94
311.409	80.94
311.639	86.94
311.868	103.94
312.098	87.94
312.328	82.94
312.557	92.94
312.787	96.94
313.017	106.94
313.246	91.94
313.476	78.94
313.706	75.94
313.935	84.94
314.165	89.94
314.394	98.94
314.624	78.94
314.853	85.94
315.083	84.94
315.312	85.94
315.542	99.94
315.771	111.94
316.001	94.94
316.23	81.94
316.46	65.94
316.689	73.94
316.919	89.94
317.148	97.94
317.377	99.94
317.607	86.94
317.836	74.94
318.065	80.94
318.295	91.94
318.524	89.94
318.753	90.94
318.983	92.94
319.212	92.94
319.441	76.94
319.67	101.94
319.9	91.94
320.129	96.94
320.358	100.94
320.587	91.94
320.816	90.94
321.046	90.94
321.275	83.94
321.504	81.94
321.733	92.94
321.962	90.94
322.191	80.94
322.42	98.94
322.649	85.94
322.878	92.94
323.108	98.94
323.337	86.94
323.566	90.94
323.795	93.94
324.024	94.94
324.253	78.94
324.482	91.94
324.71	80.94
324.939	76.94
325.168	83.94
325.397	86.94
325.626	81.94
325.855	81.94
326.084	81.94
326.313	99.94
326.542	95.94
326.77	84.94
326.999	79.94
327.228	79.94
327.457	77.94
327.686	100.94
327.914	89.94
328.143	81.94
328.372	93.94
328.6	86.94
328.829	106.94
329.058	95.94
329.287	85.94
329.515	81.94
329.744	98.94
329.972	87.94
330.201	82.94
330.43	93.94
330.658	94.94
330.887	89.94
331.115	95.94
331.344	95.94
331.572	99.94
331.801	85.94
332.03	78.94
332.258	77.94
332.486	80.94
332.715	88.94
332.943	82.94
333.172	79.94
333.4	77.94
333.629	91.94
333.857	96.94
334.085	89.94
334.314	75.94
334.542	78.94
334.771	95.94
334.999	78.94
335.227	95.94
335.455	92.94
335.684	72.94
335.912	89.94
336.14	62.94
336.369	89.94
336.597	97.94
336.825	95.94
337.053	92.94
337.281	101.94
337.51	92.94
337.738	82.94
337.966	79.94
338.194	88.94
338.422	94.94
338.65	84.94
338.878	103.94
339.106	87.94
339.334	77.94
339.562	86.94
339.79	93.94
340.018	85.94
340.246	94.94
340.474	80.94
340.702	94.94
340.93	94.94
341.158	91.94
341.386	94.94
341.614	90.94
341.842	97.94
342.07	86.94
342.298	79.94
342.526	85.94
342.754	84.94
342.981	85.94
343.209	79.94
343.437	82.94
343.665	82.94
343.893	84.94
344.12	91.94
344.348	82.94
344.576	87.94
344.804	92.94
345.031	83.94
345.259	97.94
345.487	97.94
345.714	79.94
345.942	79.94
346.17	93.94
346.397	86.94
346.625	96.94
346.853	87.94
347.08	81.94
347.308	74.94
347.535	86.94
347.763	86.94
347.99	98.94
348.218	96.94
348.445	92.94
348.673	86.94
348.9	93.94
349.128	77.94
349.355	86.94
349.583	101.94
349.81	86.94
350.037	92.94
350.265	98.94
350.492	83.94
350.72	68.94
350.947	76.94
351.174	105.94
351.402	86.94
351.629	91.94
351.856	83.94
352.083	83.94
352.311	95.94
352.538	100.94
352.765	79.94
352.992	75.94
353.22	72.94
353.447	93.94
353.674	92.94
353.901	81.94
354.128	87.94
354.355	90.94
354.583	83.94
354.81	92.94
355.037	87.94
355.264	94.94
355.491	95.94
355.718	78.94
355.945	75.94
356.172	91.94
356.399	79.94
356.626	82.94
356.853	86.94
357.08	95.94
357.307	94.94
357.534	95.94
357.761	80.94
357.988	88.94
358.215	85.94
358.441	78.94
358.668	80.94
358.895	85.94
359.122	91.94
359.349	103.94
359.576	90.94
359.802	79.94
360.029	74.94
360.256	66.94
360.483	78.94
360.709	91.94
360.936	91.94
361.163	87.94
361.39	90.94
361.616	85.94
361.843	83.94
362.07	91.94
362.296	82.94
362.523	85.94
362.749	78.94
362.976	85.94
363.203	87.94
363.429	75.94
363.656	94.94
363.882	92.94
364.109	94.94
364.335	103.94
364.562	86.94
364.788	81.94
365.015	92.94
365.241	81.94
365.468	84.94
365.694	82.94
365.92	91.94
366.147	91.94
366.373	82.94
366.599	73.94
366.826	80.94
367.052	89.94
367.278	77.94
367.505	84.94
367.731	83.94
367.957	88.94
368.184	76.94
368.41	90.94
368.636	97.94
368.862	89.94
369.089	89.94
369.315	90.94
369.541	78.94
369.767	94.94
369.993	75.94
370.219	87.94
370.445	78.94
370.672	81.94
370.898	108.94
371.124	90.94
371.35	87.94
371.576	91.94
371.802	96.94
372.028	94.94
372.254	87.94
372.48	104.94
372.706	104.94
372.932	90.94
373.158	101.94
373.384	90.94
373.61	107.94
373.835	85.94
374.061	82.94
374.287	95.94
374.513	92.94
374.739	87.94
374.965	80.94
375.191	101.94
375.416	85.94
375.642	109.94
375.868	93.94
376.094	99.94
376.319	97.94
376.545	88.94
376.771	89.94
376.997	87.94
377.222	100.94
377.448	103.94
377.674	90.94
377.899	99.94
378.125	95.94
378.35	97.94
378.576	90.94
378.802	94.94
379.027	95.94
379.253	102.94
379.478	102.94
379.704	87.94
379.929	88.94
380.155	81.94
380.38	86.94
380.606	88.94
380.831	100.94
381.057	91.94
381.282	100.94
381.507	99.94
381.733	117.94
381.958	97.94
382.184	97.94
382.409	95.94
382.634	105.94
382.86	99.94
383.085	93.94
383.31	94.94
383.535	86.94
383.761	117.94
383.986	119.94
384.211	95.94
384.436	101.94
384.662	109.94
384.887	89.94
385.112	86.94
385.337	85.94
385.562	82.94
385.787	85.94
386.013	107.94
386.238	106.94
386.463	122.94
386.688	99.94
386.913	86.94
387.138	97.94
387.363	104.94
387.588	105.94
387.813	100.94
388.038	116.94
388.263	104.94
388.488	108.94
388.713	101.94
388.938	123.94
389.163	97.94
389.387	100.94
389.612	102.94
389.837	110.94
390.062	102.94
390.287	99.94
390.512	116.94
390.736	100.94
390.961	86.94
391.186	109.94
391.411	108.94
391.636	114.94
391.86	108.94
392.085	90.94
392.31	102.94
392.534	100.94
392.759	97.94
392.984	93.94
393.208	101.94
393.433	102.94
393.658	100.94
393.882	105.94
394.107	113.94
394.331	115.94
394.556	110.94
394.78	117.94
395.005	116.94
395.229	109.94
395.454	113.94
395.678	100.94
395.903	98.94
396.127	105.94
396.352	118.94
396.576	115.94
396.801	102.94
397.025	102.94
397.249	107.94
397.474	120.94
397.698	117.94
397.922	106.94
398.147	108.94
398.371	110.94
398.595	101.94
398.82	99.94
399.044	94.94
399.268	113.94
399.492	116.94
399.717	121.94
399.941	122.94
400.165	122.94
400.389	117.94
400.613	118.94
400.837	97.94
401.062	98.94
401.286	115.94
401.51	118.94
401.734	118.94
401.958	108.94
402.182	110.94
402.406	116.94
402.63	115.94
402.854	108.94
403.078	113.94
403.302	117.94
403.526	120.94
403.75	114.94
403.974	124.94
404.198	124.94
404.422	106.94
404.645	117.94
404.869	103.94
405.093	121.94
405.317	128.94
405.541	122.94
405.765	106.94
405.988	111.94
406.212	114.94
406.436	115.94
406.66	119.94
406.883	111.94
407.107	109.94
407.331	121.94
407.555	133.94
407.778	101.94
408.002	129.94
408.226	121.94
408.449	119.94
408.673	123.94
408.896	126.94
409.12	133.94
409.344	118.94
409.567	121.94
409.791	133.94
410.014	126.94
410.238	111.94
410.461	110.94
410.685	107.94
410.908	129.94
411.132	123.94
411.355	118.94
411.578	116.94
411.802	116.94
412.025	122.94
412.249	121.94
412.472	113.94
412.695	130.94
412.919	141.94
413.142	127.94
413.365	135.94
413.589	127.94
413.812	120.94
414.035	131.94
414.258	123.94
414.482	117.94
414.705	126.94
414.928	123.94
415.151	133.94
415.374	138.94
415.597	135.94
415.821	122.94
416.044	123.94
416.267	127.94
416.49	138.94
416.713	130.94
416.936	124.94
417.159	126.94
417.382	122.94
417.605	135.94
417.828	122.94
418.051	127.94
418.274	133.94
418.497	144.94
418.72	150.94
418.943	137.94
419.166	137.94
419.389	142.94
419.611	143.94
419.834	135.94
420.057	124.94
420.28	123.94
420.503	122.94
420.726	133.94
420.948	133.94
421.171	118.94
421.394	137.94
421.617	125.94
421.839	137.94
422.062	129.94
422.285	134.94
422.507	132.94
422.73	121.94
422.953	110.94
423.175	119.94
423.398	127.94
423.621	124.94
423.843	134.94
424.066	139.94
424.288	139.94
424.511	142.94
424.733	128.94
424.956	136.94
425.178	138.94
425.401	121.94
425.623	136.94
425.846	125.94
426.068	129.94
426.291	140.94
426.513	133.94
426.735	139.94
426.958	129.94
427.18	127.94
427.402	124.94
427.625	125.94
427.847	123.94
428.069	128.94
428.292	131.94
428.514	144.94
428.736	152.94
428.958	126.94
429.181	134.94
429.403	133.94
429.625	142.94
429.847	148.94
430.069	126.94
430.292	125.94
430.514	137.94
430.736	139.94
430.958	134.94
431.18	135.94
431.402	133.94
431.624	130.94
431.846	115.94
432.068	117.94
432.29	96.94
432.512	108.94
432.734	118.94
432.956	123.94
433.178	143.94
433.4	143.94
433.622	136.94
433.844	140.94
434.066	147.94
434.287	94.94
434.509	102.94
434.731	102.94
434.953	131.94
435.175	122.94
435.397	127.94
435.618	110.94
435.84	111.94
436.062	120.94
436.284	113.94
436.505	123.94
436.727	129.94
436.949	124.94
437.17	130.94
437.392	125.94
437.614	125.94
437.835	116.94
438.057	105.94
438.278	121.94
438.5	110.94
438.721	131.94
438.943	133.94
439.165	131.94
439.386	124.94
439.608	140.94
439.829	145.94
440.05	149.94
440.272	141.94
440.493	133.94
440.715	125.94
440.936	139.94
441.158	133.94
441.379	142.94
441.6	143.94
441.822	126.94
442.043	134.94
442.264	146.94
442.486	137.94
442.707	133.94
442.928	132.94
443.149	131.94
443.371	148.94
443.592	134.94
443.813	135.94
444.034	147.94
444.255	152.94
444.476	123.94
444.698	147.94
444.919	146.94
445.14	255.94
445.361	214.94
445.582	144.94
445.803	142.94
446.024	143.94
446.245	143.94
446.466	154.94
446.687	159.94
446.908	144.94
447.129	163.94
447.35	153.94
447.571	144.94
447.792	141.94
448.013	140.94
448.234	142.94
448.455	133.94
448.675	131.94
448.896	131.94
449.117	135.94
449.338	133.94
449.559	146.94
449.779	141.94
450	126.94
450.221	129.94
450.442	125.94
450.662	148.94
450.883	150.94
451.104	161.94
451.324	130.94
451.545	149.94
451.766	135.94
451.986	127.94
452.207	119.94
452.428	142.94
452.648	128.94
452.869	127.94
453.089	119.94
453.31	107.94
453.53	104.94
453.751	115.94
453.971	112.94
454.192	109.94
454.412	103.94
454.633	117.94
454.853	118.94
455.073	115.94
455.294	123.94
455.514	125.94
455.734	129.94
455.955	117.94
456.175	119.94
456.395	114.94
456.616	109.94
456.836	115.94
457.056	119.94
457.276	117.94
457.497	122.94
457.717	97.94
457.937	110.94
458.157	109.94
458.377	91.94
458.598	103.94
458.818	103.94
459.038	84.94
459.258	89.94
459.478	88.94
459.698	84.94
459.918	90.94
460.138	97.94
460.358	107.94
460.578	102.94
460.798	108.94
461.018	115.94
461.238	115.94
461.458	126.94
461.678	125.94
461.898	110.94
462.118	110.94
462.338	110.94
462.558	114.94
462.777	104.94
462.997	117.94
463.217	107.94
463.437	103.94
463.657	100.94
463.876	113.94
464.096	109.94
464.316	99.94
464.536	100.94
464.755	109.94
464.975	109.94
465.195	108.94
465.414	116.94
465.634	117.94
465.854	122.94
466.073	113.94
466.293	130.94
466.512	111.94
466.732	133.94
466.951	125.94
467.171	126.94
467.391	131.94
467.61	121.94
467.829	130.94
468.049	133.94
468.268	143.94
468.488	147.94
468.707	139.94
468.927	121.94
469.146	128.94
469.365	148.94
469.585	141.94
469.804	140.94
470.023	135.94
470.243	133.94
470.462	134.94
470.681	146.94
470.901	149.94
471.12	139.94
471.339	146.94
471.558	137.94
471.777	145.94
471.997	127.94
472.216	133.94
472.435	107.94
472.654	106.94
472.873	115.94
473.092	111.94
473.311	123.94
473.53	123.94
473.749	116.94
473.968	144.94
474.187	118.94
474.406	117.94
474.625	123.94
474.844	127.94
475.063	135.94
475.282	117.94
475.501	110.94
475.72	122.94
475.939	129.94
476.158	133.94
476.377	130.94
476.596	109.94
476.814	129.94
477.033	111.94
477.252	94.94
477.471	126.94
477.69	133.94
477.908	139.94
478.127	152.94
478.346	137.94
478.564	149.94
478.783	143.94
479.002	147.94
479.22	136.94
479.439	135.94
479.658	131.94
479.876	114.94
480.095	105.94
480.313	98.94
480.532	123.94
480.751	104.94
480.969	98.94
481.188	84.94
481.406	96.94
481.624	100.94
481.843	97.94
482.061	113.94
482.28	109.94
482.498	107.94
482.717	123.94
482.935	128.94
483.153	140.94
483.372	149.94
483.59	155.94
483.808	134.94
484.027	121.94
484.245	126.94
484.463	146.94
484.681	161.94
484.9	150.94
485.118	151.94
485.336	130.94
485.554	116.94
485.772	114.94
485.99	106.94
486.209	116.94
486.427	129.94
486.645	127.94
486.863	130.94
487.081	133.94
487.299	124.94
487.517	132.94
487.735	164.94
487.953	191.94
488.171	191.94
488.389	177.94
488.607	153.94
488.825	117.94
489.043	132.94
489.261	143.94
489.479	136.94
489.696	141.94
489.914	143.94
490.132	147.94
490.35	150.94
490.568	146.94
490.786	175.94
491.003	174.94
491.221	179.94
491.439	203.94
491.657	193.94
491.874	199.94
492.092	238.94
492.31	211.94
492.527	224.94
492.745	204.94
492.963	193.94
493.18	186.94
493.398	177.94
493.615	166.94
493.833	182.94
494.05	185.94
494.268	165.94
494.485	172.94
494.703	185.94
494.92	148.94
495.138	175.94
495.355	179.94
495.573	183.94
495.79	158.94
496.008	169.94
496.225	177.94
496.442	140.94
496.66	162.94
496.877	158.94
497.094	169.94
497.312	154.94
497.529	141.94
497.746	150.94
497.963	142.94
498.181	123.94
498.398	137.94
498.615	116.94
498.832	105.94
499.049	109.94
499.267	122.94
499.484	145.94
499.701	133.94
499.918	139.94
500.135	131.94
500.352	150.94
500.569	143.94
500.786	137.94
501.003	144.94
501.22	136.94
501.437	145.94
501.654	138.94
501.871	115.94
502.088	121.94
502.305	139.94
502.522	136.94
502.739	147.94
502.956	134.94
503.172	116.94
503.389	123.94
503.606	118.94
503.823	115.94
504.04	124.94
504.256	123.94
504.473	113.94
504.69	122.94
504.907	122.94
505.123	117.94
505.34	125.94
505.557	123.94
505.773	127.94
505.99	127.94
506.207	115.94
506.423	122.94
506.64	113.94
506.856	128.94
507.073	110.94
507.289	103.94
507.506	114.94
507.722	129.94
507.939	117.94
508.155	108.94
508.372	115.94
508.588	125.94
508.805	123.94
509.021	102.94
509.238	115.94
509.454	103.94
509.67	91.94
509.887	85.94
510.103	100.94
510.319	98.94
510.536	82.94
510.752	99.94
510.968	86.94
511.184	71.94
