Data from Location2.07152019.Energy5.Lamp.07192019.3%Agarose_HRD10591_14-56-36-358.txt Node
Date: Fri Jul 19 14:56:36 EDT 2019
User: cochatt
Spectrometer: HR+D1059
Trigger mode: 1
Integration Time (sec): 1.000000E-1
Scans to average: 1
Electric dark correction enabled: true
Nonlinearity correction enabled: false
Boxcar width: 0
XAxis mode: Wavelengths
Number of Pixels in Spectrum: 2048
>>>>>Begin Spectral Data<<<<<
223.165	-10.06
223.4	-10.06
223.635	-10.06
223.869	-22.06
224.104	-15.06
224.338	-14.06
224.573	-7.06
224.808	-21.06
225.042	-5.06
225.277	-3.06
225.511	-0.06
225.746	1.94
225.98	0.94
226.215	11.94
226.449	17.94
226.683	10.94
226.918	26.94
227.152	26.94
227.387	30.94
227.621	26.94
227.856	34.94
228.09	47.94
228.324	41.94
228.559	66.94
228.793	68.94
229.027	55.94
229.262	56.94
229.496	52.94
229.73	62.94
229.964	67.94
230.199	59.94
230.433	68.94
230.667	61.94
230.901	77.94
231.136	94.94
231.37	79.94
231.604	87.94
231.838	79.94
232.072	82.94
232.306	74.94
232.541	72.94
232.775	65.94
233.009	73.94
233.243	92.94
233.477	76.94
233.711	69.94
233.945	67.94
234.179	80.94
234.413	75.94
234.647	79.94
234.881	77.94
235.115	88.94
235.349	64.94
235.583	99.94
235.817	76.94
236.051	78.94
236.285	69.94
236.519	82.94
236.753	71.94
236.987	89.94
237.221	73.94
237.455	74.94
237.689	89.94
237.922	55.94
238.156	71.94
238.39	88.94
238.624	86.94
238.858	79.94
239.091	92.94
239.325	79.94
239.559	62.94
239.793	74.94
240.027	71.94
240.26	75.94
240.494	75.94
240.728	75.94
240.961	73.94
241.195	72.94
241.429	76.94
241.662	72.94
241.896	74.94
242.13	74.94
242.363	61.94
242.597	79.94
242.83	87.94
243.064	77.94
243.298	86.94
243.531	83.94
243.765	98.94
243.998	74.94
244.232	60.94
244.465	75.94
244.699	83.94
244.932	77.94
245.166	71.94
245.399	64.94
245.633	73.94
245.866	72.94
246.099	64.94
246.333	87.94
246.566	72.94
246.8	79.94
247.033	80.94
247.266	74.94
247.5	78.94
247.733	85.94
247.966	85.94
248.2	72.94
248.433	73.94
248.666	76.94
248.899	60.94
249.133	72.94
249.366	65.94
249.599	68.94
249.832	75.94
250.066	80.94
250.299	70.94
250.532	77.94
250.765	87.94
250.998	69.94
251.231	81.94
251.465	86.94
251.698	72.94
251.931	84.94
252.164	78.94
252.397	70.94
252.63	67.94
252.863	77.94
253.096	85.94
253.329	86.94
253.562	83.94
253.795	80.94
254.028	81.94
254.261	82.94
254.494	81.94
254.727	71.94
254.96	88.94
255.193	71.94
255.426	79.94
255.659	77.94
255.892	85.94
256.124	75.94
256.357	82.94
256.59	62.94
256.823	75.94
257.056	82.94
257.289	78.94
257.521	86.94
257.754	72.94
257.987	99.94
258.22	84.94
258.452	93.94
258.685	75.94
258.918	74.94
259.151	80.94
259.383	70.94
259.616	73.94
259.849	78.94
260.081	93.94
260.314	88.94
260.547	86.94
260.779	71.94
261.012	81.94
261.244	82.94
261.477	84.94
261.71	65.94
261.942	77.94
262.175	87.94
262.407	96.94
262.64	82.94
262.872	88.94
263.105	65.94
263.337	83.94
263.57	77.94
263.802	78.94
264.035	72.94
264.267	96.94
264.499	69.94
264.732	87.94
264.964	81.94
265.197	79.94
265.429	74.94
265.661	95.94
265.894	76.94
266.126	70.94
266.358	80.94
266.591	74.94
266.823	83.94
267.055	86.94
267.287	83.94
267.52	92.94
267.752	71.94
267.984	91.94
268.216	78.94
268.448	70.94
268.681	78.94
268.913	81.94
269.145	90.94
269.377	87.94
269.609	74.94
269.841	90.94
270.073	91.94
270.306	70.94
270.538	75.94
270.77	73.94
271.002	85.94
271.234	87.94
271.466	84.94
271.698	80.94
271.93	92.94
272.162	81.94
272.394	92.94
272.626	89.94
272.858	65.94
273.09	74.94
273.322	70.94
273.553	82.94
273.785	82.94
274.017	87.94
274.249	85.94
274.481	85.94
274.713	84.94
274.945	88.94
275.176	81.94
275.408	78.94
275.64	70.94
275.872	84.94
276.104	80.94
276.335	90.94
276.567	87.94
276.799	83.94
277.031	67.94
277.262	79.94
277.494	88.94
277.726	83.94
277.957	76.94
278.189	78.94
278.421	76.94
278.652	82.94
278.884	84.94
279.115	76.94
279.347	79.94
279.579	77.94
279.81	91.94
280.042	74.94
280.273	75.94
280.505	81.94
280.736	75.94
280.968	86.94
281.199	96.94
281.431	63.94
281.662	81.94
281.894	73.94
282.125	78.94
282.356	79.94
282.588	73.94
282.819	83.94
283.051	79.94
283.282	82.94
283.513	78.94
283.745	74.94
283.976	77.94
284.207	96.94
284.439	91.94
284.67	82.94
284.901	63.94
285.132	84.94
285.364	69.94
285.595	90.94
285.826	80.94
286.057	77.94
286.288	96.94
286.52	71.94
286.751	77.94
286.982	86.94
287.213	84.94
287.444	77.94
287.675	74.94
287.906	70.94
288.138	81.94
288.369	78.94
288.6	76.94
288.831	68.94
289.062	74.94
289.293	71.94
289.524	76.94
289.755	84.94
289.986	78.94
290.217	73.94
290.448	76.94
290.679	74.94
290.91	87.94
291.141	87.94
291.371	79.94
291.602	89.94
291.833	80.94
292.064	81.94
292.295	74.94
292.526	83.94
292.757	77.94
292.987	77.94
293.218	71.94
293.449	83.94
293.68	74.94
293.91	84.94
294.141	71.94
294.372	71.94
294.603	88.94
294.833	73.94
295.064	85.94
295.295	82.94
295.525	88.94
295.756	85.94
295.987	84.94
296.217	90.94
296.448	73.94
296.679	78.94
296.909	73.94
297.14	84.94
297.37	82.94
297.601	78.94
297.831	86.94
298.062	66.94
298.292	91.94
298.523	83.94
298.753	89.94
298.984	81.94
299.214	70.94
299.445	82.94
299.675	75.94
299.905	79.94
300.136	82.94
300.366	71.94
300.597	84.94
300.827	79.94
301.057	67.94
301.288	90.94
301.518	86.94
301.748	80.94
301.979	82.94
302.209	73.94
302.439	86.94
302.669	80.94
302.9	81.94
303.13	85.94
303.36	66.94
303.59	74.94
303.82	84.94
304.051	73.94
304.281	81.94
304.511	92.94
304.741	74.94
304.971	90.94
305.201	80.94
305.431	80.94
305.661	87.94
305.891	92.94
306.121	86.94
306.352	73.94
306.582	92.94
306.812	88.94
307.042	84.94
307.272	79.94
307.502	70.94
307.731	77.94
307.961	78.94
308.191	66.94
308.421	89.94
308.651	93.94
308.881	83.94
309.111	66.94
309.341	98.94
309.571	93.94
309.8	87.94
310.03	82.94
310.26	75.94
310.49	86.94
310.72	81.94
310.949	73.94
311.179	85.94
311.409	89.94
311.639	85.94
311.868	85.94
312.098	83.94
312.328	90.94
312.557	78.94
312.787	84.94
313.017	85.94
313.246	67.94
313.476	84.94
313.706	82.94
313.935	93.94
314.165	88.94
314.394	85.94
314.624	85.94
314.853	73.94
315.083	93.94
315.312	86.94
315.542	89.94
315.771	95.94
316.001	89.94
316.23	86.94
316.46	86.94
316.689	93.94
316.919	89.94
317.148	86.94
317.377	98.94
317.607	92.94
317.836	86.94
318.065	96.94
318.295	91.94
318.524	80.94
318.753	92.94
318.983	71.94
319.212	84.94
319.441	78.94
319.67	83.94
319.9	76.94
320.129	82.94
320.358	92.94
320.587	85.94
320.816	80.94
321.046	80.94
321.275	77.94
321.504	84.94
321.733	76.94
321.962	64.94
322.191	84.94
322.42	93.94
322.649	91.94
322.878	89.94
323.108	82.94
323.337	83.94
323.566	83.94
323.795	76.94
324.024	92.94
324.253	84.94
324.482	67.94
324.71	86.94
324.939	73.94
325.168	85.94
325.397	82.94
325.626	82.94
325.855	83.94
326.084	82.94
326.313	75.94
326.542	76.94
326.77	76.94
326.999	97.94
327.228	87.94
327.457	66.94
327.686	102.94
327.914	84.94
328.143	84.94
328.372	80.94
328.6	86.94
328.829	82.94
329.058	79.94
329.287	77.94
329.515	87.94
329.744	84.94
329.972	87.94
330.201	89.94
330.43	81.94
330.658	81.94
330.887	79.94
331.115	79.94
331.344	89.94
331.572	100.94
331.801	83.94
332.03	87.94
332.258	84.94
332.486	89.94
332.715	80.94
332.943	83.94
333.172	73.94
333.4	74.94
333.629	91.94
333.857	83.94
334.085	94.94
334.314	92.94
334.542	82.94
334.771	72.94
334.999	87.94
335.227	86.94
335.455	76.94
335.684	66.94
335.912	96.94
336.14	81.94
336.369	74.94
336.597	82.94
336.825	84.94
337.053	69.94
337.281	81.94
337.51	67.94
337.738	79.94
337.966	73.94
338.194	85.94
338.422	91.94
338.65	94.94
338.878	90.94
339.106	93.94
339.334	85.94
339.562	70.94
339.79	83.94
340.018	84.94
340.246	88.94
340.474	90.94
340.702	79.94
340.93	105.94
341.158	85.94
341.386	86.94
341.614	78.94
341.842	89.94
342.07	76.94
342.298	86.94
342.526	73.94
342.754	69.94
342.981	69.94
343.209	79.94
343.437	84.94
343.665	101.94
343.893	89.94
344.12	74.94
344.348	95.94
344.576	81.94
344.804	83.94
345.031	69.94
345.259	75.94
345.487	72.94
345.714	84.94
345.942	67.94
346.17	71.94
346.397	91.94
346.625	86.94
346.853	73.94
347.08	79.94
347.308	82.94
347.535	77.94
347.763	91.94
347.99	82.94
348.218	79.94
348.445	91.94
348.673	74.94
348.9	85.94
349.128	78.94
349.355	74.94
349.583	88.94
349.81	85.94
350.037	90.94
350.265	83.94
350.492	89.94
350.72	89.94
350.947	79.94
351.174	87.94
351.402	71.94
351.629	92.94
351.856	83.94
352.083	72.94
352.311	83.94
352.538	74.94
352.765	76.94
352.992	81.94
353.22	96.94
353.447	70.94
353.674	83.94
353.901	86.94
354.128	89.94
354.355	78.94
354.583	90.94
354.81	81.94
355.037	87.94
355.264	78.94
355.491	86.94
355.718	81.94
355.945	87.94
356.172	85.94
356.399	81.94
356.626	78.94
356.853	76.94
357.08	87.94
357.307	83.94
357.534	77.94
357.761	96.94
357.988	76.94
358.215	72.94
358.441	84.94
358.668	79.94
358.895	64.94
359.122	81.94
359.349	69.94
359.576	86.94
359.802	76.94
360.029	69.94
360.256	78.94
360.483	79.94
360.709	95.94
360.936	88.94
361.163	88.94
361.39	67.94
361.616	85.94
361.843	85.94
362.07	88.94
362.296	72.94
362.523	67.94
362.749	69.94
362.976	77.94
363.203	89.94
363.429	78.94
363.656	76.94
363.882	85.94
364.109	92.94
364.335	89.94
364.562	83.94
364.788	80.94
365.015	84.94
365.241	78.94
365.468	79.94
365.694	73.94
365.92	81.94
366.147	81.94
366.373	89.94
366.599	92.94
366.826	89.94
367.052	72.94
367.278	71.94
367.505	87.94
367.731	104.94
367.957	79.94
368.184	86.94
368.41	83.94
368.636	89.94
368.862	81.94
369.089	87.94
369.315	81.94
369.541	92.94
369.767	89.94
369.993	74.94
370.219	85.94
370.445	83.94
370.672	78.94
370.898	89.94
371.124	74.94
371.35	89.94
371.576	100.94
371.802	94.94
372.028	81.94
372.254	88.94
372.48	80.94
372.706	82.94
372.932	88.94
373.158	79.94
373.384	102.94
373.61	87.94
373.835	89.94
374.061	94.94
374.287	87.94
374.513	91.94
374.739	87.94
374.965	100.94
375.191	97.94
375.416	75.94
375.642	85.94
375.868	93.94
376.094	88.94
376.319	108.94
376.545	78.94
376.771	93.94
376.997	94.94
377.222	89.94
377.448	96.94
377.674	94.94
377.899	74.94
378.125	75.94
378.35	88.94
378.576	85.94
378.802	98.94
379.027	92.94
379.253	87.94
379.478	88.94
379.704	108.94
379.929	105.94
380.155	76.94
380.38	86.94
380.606	90.94
380.831	79.94
381.057	94.94
381.282	94.94
381.507	101.94
381.733	96.94
381.958	93.94
382.184	97.94
382.409	92.94
382.634	89.94
382.86	105.94
383.085	104.94
383.31	83.94
383.535	87.94
383.761	86.94
383.986	96.94
384.211	96.94
384.436	91.94
384.662	87.94
384.887	84.94
385.112	91.94
385.337	95.94
385.562	88.94
385.787	96.94
386.013	97.94
386.238	88.94
386.463	101.94
386.688	97.94
386.913	89.94
387.138	97.94
387.363	105.94
387.588	99.94
387.813	100.94
388.038	96.94
388.263	115.94
388.488	89.94
388.713	82.94
388.938	102.94
389.163	96.94
389.387	93.94
389.612	109.94
389.837	95.94
390.062	98.94
390.287	98.94
390.512	109.94
390.736	97.94
390.961	111.94
391.186	101.94
391.411	101.94
391.636	95.94
391.86	104.94
392.085	104.94
392.31	107.94
392.534	112.94
392.759	100.94
392.984	108.94
393.208	106.94
393.433	108.94
393.658	101.94
393.882	105.94
394.107	89.94
394.331	98.94
394.556	99.94
394.78	121.94
395.005	103.94
395.229	94.94
395.454	105.94
395.678	98.94
395.903	102.94
396.127	110.94
396.352	94.94
396.576	100.94
396.801	108.94
397.025	90.94
397.249	101.94
397.474	101.94
397.698	101.94
397.922	114.94
398.147	96.94
398.371	98.94
398.595	108.94
398.82	101.94
399.044	101.94
399.268	101.94
399.492	120.94
399.717	104.94
399.941	109.94
400.165	103.94
400.389	112.94
400.613	106.94
400.837	118.94
401.062	120.94
401.286	118.94
401.51	102.94
401.734	118.94
401.958	110.94
402.182	114.94
402.406	111.94
402.63	111.94
402.854	116.94
403.078	106.94
403.302	103.94
403.526	129.94
403.75	103.94
403.974	102.94
404.198	105.94
404.422	101.94
404.645	109.94
404.869	118.94
405.093	103.94
405.317	115.94
405.541	114.94
405.765	116.94
405.988	119.94
406.212	119.94
406.436	102.94
406.66	105.94
406.883	109.94
407.107	100.94
407.331	128.94
407.555	131.94
407.778	98.94
408.002	102.94
408.226	111.94
408.449	104.94
408.673	128.94
408.896	132.94
409.12	104.94
409.344	118.94
409.567	112.94
409.791	109.94
410.014	127.94
410.238	120.94
410.461	108.94
410.685	117.94
410.908	112.94
411.132	117.94
411.355	124.94
411.578	117.94
411.802	112.94
412.025	122.94
412.249	132.94
412.472	124.94
412.695	117.94
412.919	122.94
413.142	126.94
413.365	114.94
413.589	112.94
413.812	116.94
414.035	119.94
414.258	133.94
414.482	121.94
414.705	119.94
414.928	125.94
415.151	110.94
415.374	120.94
415.597	102.94
415.821	109.94
416.044	133.94
416.267	141.94
416.49	119.94
416.713	114.94
416.936	117.94
417.159	127.94
417.382	136.94
417.605	125.94
417.828	124.94
418.051	126.94
418.274	119.94
418.497	120.94
418.72	109.94
418.943	121.94
419.166	137.94
419.389	125.94
419.611	120.94
419.834	136.94
420.057	150.94
420.28	126.94
420.503	129.94
420.726	139.94
420.948	144.94
421.171	132.94
421.394	130.94
421.617	147.94
421.839	132.94
422.062	138.94
422.285	130.94
422.507	117.94
422.73	128.94
422.953	142.94
423.175	116.94
423.398	118.94
423.621	108.94
423.843	128.94
424.066	129.94
424.288	120.94
424.511	131.94
424.733	143.94
424.956	124.94
425.178	142.94
425.401	136.94
425.623	130.94
425.846	126.94
426.068	119.94
426.291	126.94
426.513	121.94
426.735	132.94
426.958	118.94
427.18	133.94
427.402	112.94
427.625	136.94
427.847	126.94
428.069	139.94
428.292	120.94
428.514	136.94
428.736	119.94
428.958	128.94
429.181	128.94
429.403	122.94
429.625	126.94
429.847	128.94
430.069	133.94
430.292	134.94
430.514	128.94
430.736	124.94
430.958	128.94
431.18	122.94
431.402	120.94
431.624	119.94
431.846	109.94
432.068	86.94
432.29	95.94
432.512	104.94
432.734	135.94
432.956	120.94
433.178	134.94
433.4	115.94
433.622	129.94
433.844	132.94
434.066	126.94
434.287	104.94
434.509	109.94
434.731	101.94
434.953	120.94
435.175	124.94
435.397	135.94
435.618	128.94
435.84	113.94
436.062	111.94
436.284	118.94
436.505	130.94
436.727	122.94
436.949	130.94
437.17	123.94
437.392	135.94
437.614	112.94
437.835	98.94
438.057	106.94
438.278	114.94
438.5	128.94
438.721	135.94
438.943	136.94
439.165	115.94
439.386	133.94
439.608	126.94
439.829	130.94
440.05	157.94
440.272	148.94
440.493	135.94
440.715	142.94
440.936	134.94
441.158	136.94
441.379	143.94
441.6	137.94
441.822	148.94
442.043	145.94
442.264	137.94
442.486	145.94
442.707	137.94
442.928	128.94
443.149	134.94
443.371	135.94
443.592	130.94
443.813	132.94
444.034	142.94
444.255	131.94
444.476	126.94
444.698	138.94
444.919	152.94
445.14	278.94
445.361	216.94
445.582	147.94
445.803	149.94
446.024	139.94
446.245	159.94
446.466	150.94
446.687	147.94
446.908	134.94
447.129	160.94
447.35	145.94
447.571	141.94
447.792	147.94
448.013	146.94
448.234	150.94
448.455	146.94
448.675	145.94
448.896	136.94
449.117	134.94
449.338	131.94
449.559	134.94
449.779	138.94
450	123.94
450.221	128.94
450.442	136.94
450.662	125.94
450.883	125.94
451.104	156.94
451.324	114.94
451.545	125.94
451.766	127.94
451.986	121.94
452.207	137.94
452.428	135.94
452.648	118.94
452.869	131.94
453.089	120.94
453.31	97.94
453.53	117.94
453.751	102.94
453.971	93.94
454.192	112.94
454.412	116.94
454.633	111.94
454.853	120.94
455.073	114.94
455.294	120.94
455.514	105.94
455.734	125.94
455.955	108.94
456.175	110.94
456.395	112.94
456.616	113.94
456.836	111.94
457.056	111.94
457.276	111.94
457.497	93.94
457.717	114.94
457.937	100.94
458.157	108.94
458.377	98.94
458.598	102.94
458.818	98.94
459.038	92.94
459.258	82.94
459.478	95.94
459.698	95.94
459.918	109.94
460.138	86.94
460.358	111.94
460.578	112.94
460.798	92.94
461.018	113.94
461.238	104.94
461.458	98.94
461.678	113.94
461.898	130.94
462.118	103.94
462.338	108.94
462.558	114.94
462.777	113.94
462.997	116.94
463.217	112.94
463.437	96.94
463.657	109.94
463.876	97.94
464.096	117.94
464.316	101.94
464.536	104.94
464.755	103.94
464.975	111.94
465.195	90.94
465.414	104.94
465.634	116.94
465.854	110.94
466.073	113.94
466.293	107.94
466.512	108.94
466.732	128.94
466.951	127.94
467.171	131.94
467.391	136.94
467.61	125.94
467.829	132.94
468.049	135.94
468.268	140.94
468.488	143.94
468.707	136.94
468.927	146.94
469.146	134.94
469.365	126.94
469.585	136.94
469.804	134.94
470.023	153.94
470.243	132.94
470.462	144.94
470.681	136.94
470.901	146.94
471.12	148.94
471.339	130.94
471.558	129.94
471.777	125.94
471.997	132.94
472.216	132.94
472.435	116.94
472.654	90.94
472.873	98.94
473.092	119.94
473.311	123.94
473.53	120.94
473.749	126.94
473.968	121.94
474.187	120.94
474.406	118.94
474.625	121.94
474.844	134.94
475.063	119.94
475.282	119.94
475.501	100.94
475.72	115.94
475.939	128.94
476.158	125.94
476.377	123.94
476.596	127.94
476.814	108.94
477.033	100.94
477.252	116.94
477.471	124.94
477.69	121.94
477.908	131.94
478.127	135.94
478.346	138.94
478.564	121.94
478.783	139.94
479.002	138.94
479.22	124.94
479.439	136.94
479.658	122.94
479.876	104.94
480.095	117.94
480.313	106.94
480.532	119.94
480.751	92.94
480.969	95.94
481.188	88.94
481.406	86.94
481.624	87.94
481.843	87.94
482.061	83.94
482.28	115.94
482.498	123.94
482.717	102.94
482.935	117.94
483.153	148.94
483.372	158.94
483.59	147.94
483.808	148.94
484.027	121.94
484.245	140.94
484.463	131.94
484.681	150.94
484.9	142.94
485.118	136.94
485.336	119.94
485.554	111.94
485.772	118.94
485.99	88.94
486.209	106.94
486.427	115.94
486.645	119.94
486.863	127.94
487.081	138.94
487.299	136.94
487.517	128.94
487.735	156.94
487.953	182.94
488.171	180.94
488.389	154.94
488.607	152.94
488.825	128.94
489.043	112.94
489.261	130.94
489.479	133.94
489.696	134.94
489.914	147.94
490.132	138.94
490.35	144.94
490.568	142.94
490.786	162.94
491.003	179.94
491.221	180.94
491.439	179.94
491.657	180.94
491.874	189.94
492.092	214.94
492.31	250.94
492.527	223.94
492.745	206.94
492.963	188.94
493.18	187.94
493.398	190.94
493.615	187.94
493.833	176.94
494.05	190.94
494.268	177.94
494.485	188.94
494.703	174.94
494.92	171.94
495.138	162.94
495.355	160.94
495.573	178.94
495.79	172.94
496.008	166.94
496.225	161.94
496.442	178.94
496.66	164.94
496.877	163.94
497.094	175.94
497.312	158.94
497.529	162.94
497.746	144.94
497.963	147.94
498.181	124.94
498.398	124.94
498.615	123.94
498.832	117.94
499.049	112.94
499.267	133.94
499.484	128.94
499.701	130.94
499.918	136.94
500.135	137.94
500.352	149.94
500.569	150.94
500.786	145.94
501.003	136.94
501.22	135.94
501.437	116.94
501.654	145.94
501.871	138.94
502.088	118.94
502.305	131.94
502.522	130.94
502.739	120.94
502.956	136.94
503.172	114.94
503.389	117.94
503.606	131.94
503.823	107.94
504.04	120.94
504.256	126.94
504.473	103.94
504.69	109.94
504.907	126.94
505.123	122.94
505.34	109.94
505.557	124.94
505.773	131.94
505.99	115.94
506.207	130.94
506.423	128.94
506.64	122.94
506.856	111.94
507.073	120.94
507.289	122.94
507.506	110.94
507.722	114.94
507.939	114.94
508.155	122.94
508.372	117.94
508.588	114.94
508.805	101.94
509.021	117.94
509.238	89.94
509.454	112.94
509.67	102.94
509.887	95.94
510.103	104.94
510.319	92.94
510.536	91.94
510.752	90.94
510.968	90.94
511.184	79.94
511.401	85.94
511.617	84.94
511.833	79.94
512.049	86.94
