Data from Location2.07152019.Energy5.Lamp.07192019.3%Agarose_HRD10591_14-58-09-359.txt Node
Date: Fri Jul 19 14:58:09 EDT 2019
User: cochatt
Spectrometer: HR+D1059
Trigger mode: 1
Integration Time (sec): 1.000000E-1
Scans to average: 1
Electric dark correction enabled: true
Nonlinearity correction enabled: false
Boxcar width: 0
XAxis mode: Wavelengths
Number of Pixels in Spectrum: 2048
>>>>>Begin Spectral Data<<<<<
223.165	-6.44
223.4	-6.44
223.635	-6.44
223.869	-9.44
224.104	-20.44
224.338	-5.44
224.573	-25.44
224.808	-26.44
225.042	4.56
225.277	-2.44
225.511	-6.44
225.746	-9.44
225.98	2.56
226.215	13.56
226.449	17.56
226.683	22.56
226.918	24.56
227.152	26.56
227.387	15.56
227.621	33.56
227.856	28.56
228.09	39.56
228.324	47.56
228.559	48.56
228.793	58.56
229.027	67.56
229.262	64.56
229.496	68.56
229.73	75.56
229.964	62.56
230.199	72.56
230.433	64.56
230.667	69.56
230.901	87.56
231.136	75.56
231.37	78.56
231.604	78.56
231.838	71.56
232.072	82.56
232.306	77.56
232.541	79.56
232.775	90.56
233.009	95.56
233.243	79.56
233.477	71.56
233.711	85.56
233.945	73.56
234.179	71.56
234.413	75.56
234.647	84.56
234.881	78.56
235.115	73.56
235.349	79.56
235.583	79.56
235.817	80.56
236.051	74.56
236.285	80.56
236.519	73.56
236.753	61.56
236.987	78.56
237.221	76.56
237.455	72.56
237.689	76.56
237.922	62.56
238.156	73.56
238.39	73.56
238.624	71.56
238.858	74.56
239.091	80.56
239.325	68.56
239.559	88.56
239.793	76.56
240.027	76.56
240.26	84.56
240.494	75.56
240.728	73.56
240.961	68.56
241.195	65.56
241.429	73.56
241.662	68.56
241.896	89.56
242.13	81.56
242.363	67.56
242.597	92.56
242.83	79.56
243.064	82.56
243.298	78.56
243.531	72.56
243.765	64.56
243.998	62.56
244.232	75.56
244.465	86.56
244.699	77.56
244.932	79.56
245.166	71.56
245.399	74.56
245.633	70.56
245.866	80.56
246.099	86.56
246.333	79.56
246.566	73.56
246.8	70.56
247.033	83.56
247.266	79.56
247.5	68.56
247.733	75.56
247.966	80.56
248.2	71.56
248.433	65.56
248.666	69.56
248.899	74.56
249.133	82.56
249.366	81.56
249.599	83.56
249.832	78.56
250.066	73.56
250.299	73.56
250.532	69.56
250.765	77.56
250.998	79.56
251.231	73.56
251.465	85.56
251.698	75.56
251.931	91.56
252.164	90.56
252.397	80.56
252.63	72.56
252.863	61.56
253.096	65.56
253.329	78.56
253.562	83.56
253.795	80.56
254.028	83.56
254.261	79.56
254.494	85.56
254.727	83.56
254.96	73.56
255.193	75.56
255.426	74.56
255.659	80.56
255.892	65.56
256.124	66.56
256.357	91.56
256.59	72.56
256.823	79.56
257.056	77.56
257.289	85.56
257.521	85.56
257.754	82.56
257.987	106.56
258.22	99.56
258.452	79.56
258.685	72.56
258.918	77.56
259.151	94.56
259.383	79.56
259.616	77.56
259.849	55.56
260.081	79.56
260.314	93.56
260.547	72.56
260.779	71.56
261.012	82.56
261.244	79.56
261.477	68.56
261.71	73.56
261.942	82.56
262.175	74.56
262.407	79.56
262.64	87.56
262.872	78.56
263.105	72.56
263.337	80.56
263.57	63.56
263.802	79.56
264.035	98.56
264.267	89.56
264.499	88.56
264.732	80.56
264.964	86.56
265.197	78.56
265.429	85.56
265.661	71.56
265.894	80.56
266.126	82.56
266.358	70.56
266.591	78.56
266.823	88.56
267.055	85.56
267.287	89.56
267.52	73.56
267.752	86.56
267.984	85.56
268.216	77.56
268.448	73.56
268.681	78.56
268.913	66.56
269.145	76.56
269.377	77.56
269.609	76.56
269.841	81.56
270.073	66.56
270.306	79.56
270.538	83.56
270.77	72.56
271.002	92.56
271.234	96.56
271.466	79.56
271.698	62.56
271.93	69.56
272.162	89.56
272.394	90.56
272.626	95.56
272.858	83.56
273.09	82.56
273.322	94.56
273.553	84.56
273.785	78.56
274.017	87.56
274.249	79.56
274.481	86.56
274.713	89.56
274.945	75.56
275.176	75.56
275.408	74.56
275.64	83.56
275.872	79.56
276.104	66.56
276.335	70.56
276.567	88.56
276.799	80.56
277.031	81.56
277.262	71.56
277.494	83.56
277.726	83.56
277.957	90.56
278.189	75.56
278.421	77.56
278.652	72.56
278.884	70.56
279.115	83.56
279.347	82.56
279.579	83.56
279.81	75.56
280.042	89.56
280.273	68.56
280.505	82.56
280.736	81.56
280.968	82.56
281.199	89.56
281.431	95.56
281.662	88.56
281.894	74.56
282.125	73.56
282.356	73.56
282.588	74.56
282.819	85.56
283.051	92.56
283.282	80.56
283.513	88.56
283.745	75.56
283.976	81.56
284.207	79.56
284.439	72.56
284.67	83.56
284.901	75.56
285.132	66.56
285.364	75.56
285.595	86.56
285.826	88.56
286.057	80.56
286.288	70.56
286.52	79.56
286.751	76.56
286.982	81.56
287.213	86.56
287.444	79.56
287.675	77.56
287.906	74.56
288.138	71.56
288.369	89.56
288.6	93.56
288.831	75.56
289.062	77.56
289.293	87.56
289.524	70.56
289.755	89.56
289.986	69.56
290.217	79.56
290.448	85.56
290.679	76.56
290.91	82.56
291.141	78.56
291.371	84.56
291.602	70.56
291.833	81.56
292.064	76.56
292.295	88.56
292.526	85.56
292.757	80.56
292.987	78.56
293.218	75.56
293.449	79.56
293.68	75.56
293.91	83.56
294.141	86.56
294.372	83.56
294.603	80.56
294.833	66.56
295.064	81.56
295.295	86.56
295.525	88.56
295.756	85.56
295.987	90.56
296.217	82.56
296.448	81.56
296.679	77.56
296.909	82.56
297.14	90.56
297.37	70.56
297.601	85.56
297.831	102.56
298.062	70.56
298.292	86.56
298.523	86.56
298.753	74.56
298.984	97.56
299.214	90.56
299.445	75.56
299.675	78.56
299.905	80.56
300.136	81.56
300.366	83.56
300.597	85.56
300.827	70.56
301.057	72.56
301.288	78.56
301.518	73.56
301.748	78.56
301.979	84.56
302.209	89.56
302.439	100.56
302.669	88.56
302.9	84.56
303.13	80.56
303.36	76.56
303.59	75.56
303.82	74.56
304.051	87.56
304.281	94.56
304.511	83.56
304.741	79.56
304.971	78.56
305.201	97.56
305.431	79.56
305.661	91.56
305.891	86.56
306.121	68.56
306.352	82.56
306.582	77.56
306.812	85.56
307.042	74.56
307.272	85.56
307.502	93.56
307.731	88.56
307.961	90.56
308.191	85.56
308.421	77.56
308.651	82.56
308.881	75.56
309.111	85.56
309.341	88.56
309.571	82.56
309.8	84.56
310.03	78.56
310.26	74.56
310.49	73.56
310.72	76.56
310.949	87.56
311.179	96.56
311.409	91.56
311.639	82.56
311.868	89.56
312.098	102.56
312.328	83.56
312.557	78.56
312.787	90.56
313.017	85.56
313.246	88.56
313.476	74.56
313.706	80.56
313.935	79.56
314.165	90.56
314.394	78.56
314.624	95.56
314.853	74.56
315.083	82.56
315.312	101.56
315.542	83.56
315.771	75.56
316.001	72.56
316.23	73.56
316.46	80.56
316.689	87.56
316.919	90.56
317.148	60.56
317.377	102.56
317.607	77.56
317.836	93.56
318.065	84.56
318.295	73.56
318.524	73.56
318.753	82.56
318.983	79.56
319.212	73.56
319.441	80.56
319.67	82.56
319.9	86.56
320.129	74.56
320.358	81.56
320.587	88.56
320.816	87.56
321.046	74.56
321.275	78.56
321.504	77.56
321.733	85.56
321.962	97.56
322.191	84.56
322.42	86.56
322.649	89.56
322.878	82.56
323.108	81.56
323.337	72.56
323.566	89.56
323.795	82.56
324.024	86.56
324.253	94.56
324.482	91.56
324.71	80.56
324.939	88.56
325.168	71.56
325.397	80.56
325.626	86.56
325.855	75.56
326.084	86.56
326.313	87.56
326.542	78.56
326.77	86.56
326.999	85.56
327.228	78.56
327.457	85.56
327.686	79.56
327.914	83.56
328.143	86.56
328.372	81.56
328.6	87.56
328.829	86.56
329.058	78.56
329.287	75.56
329.515	89.56
329.744	90.56
329.972	78.56
330.201	80.56
330.43	80.56
330.658	90.56
330.887	85.56
331.115	65.56
331.344	82.56
331.572	87.56
331.801	84.56
332.03	88.56
332.258	80.56
332.486	80.56
332.715	92.56
332.943	86.56
333.172	75.56
333.4	79.56
333.629	89.56
333.857	76.56
334.085	96.56
334.314	97.56
334.542	86.56
334.771	88.56
334.999	84.56
335.227	75.56
335.455	80.56
335.684	97.56
335.912	92.56
336.14	88.56
336.369	90.56
336.597	85.56
336.825	85.56
337.053	83.56
337.281	87.56
337.51	80.56
337.738	86.56
337.966	94.56
338.194	76.56
338.422	99.56
338.65	91.56
338.878	87.56
339.106	67.56
339.334	77.56
339.562	82.56
339.79	77.56
340.018	84.56
340.246	89.56
340.474	91.56
340.702	89.56
340.93	83.56
341.158	83.56
341.386	95.56
341.614	86.56
341.842	84.56
342.07	75.56
342.298	74.56
342.526	88.56
342.754	80.56
342.981	72.56
343.209	85.56
343.437	74.56
343.665	89.56
343.893	93.56
344.12	72.56
344.348	80.56
344.576	85.56
344.804	80.56
345.031	90.56
345.259	82.56
345.487	85.56
345.714	99.56
345.942	87.56
346.17	71.56
346.397	86.56
346.625	98.56
346.853	96.56
347.08	83.56
347.308	80.56
347.535	81.56
347.763	87.56
347.99	94.56
348.218	77.56
348.445	77.56
348.673	87.56
348.9	90.56
349.128	89.56
349.355	81.56
349.583	88.56
349.81	72.56
350.037	82.56
350.265	93.56
350.492	87.56
350.72	71.56
350.947	69.56
351.174	84.56
351.402	89.56
351.629	78.56
351.856	77.56
352.083	86.56
352.311	74.56
352.538	77.56
352.765	83.56
352.992	85.56
353.22	90.56
353.447	85.56
353.674	77.56
353.901	88.56
354.128	76.56
354.355	73.56
354.583	73.56
354.81	83.56
355.037	78.56
355.264	72.56
355.491	80.56
355.718	79.56
355.945	96.56
356.172	89.56
356.399	89.56
356.626	103.56
356.853	79.56
357.08	82.56
357.307	77.56
357.534	78.56
357.761	80.56
357.988	75.56
358.215	89.56
358.441	79.56
358.668	72.56
358.895	81.56
359.122	95.56
359.349	74.56
359.576	82.56
359.802	68.56
360.029	76.56
360.256	92.56
360.483	94.56
360.709	84.56
360.936	79.56
361.163	78.56
361.39	75.56
361.616	83.56
361.843	87.56
362.07	67.56
362.296	75.56
362.523	80.56
362.749	76.56
362.976	86.56
363.203	80.56
363.429	81.56
363.656	79.56
363.882	82.56
364.109	86.56
364.335	78.56
364.562	86.56
364.788	87.56
365.015	89.56
365.241	93.56
365.468	85.56
365.694	77.56
365.92	81.56
366.147	97.56
366.373	88.56
366.599	82.56
366.826	69.56
367.052	78.56
367.278	85.56
367.505	109.56
367.731	87.56
367.957	94.56
368.184	87.56
368.41	80.56
368.636	77.56
368.862	94.56
369.089	86.56
369.315	100.56
369.541	93.56
369.767	72.56
369.993	81.56
370.219	79.56
370.445	93.56
370.672	94.56
370.898	82.56
371.124	94.56
371.35	80.56
371.576	78.56
371.802	79.56
372.028	98.56
372.254	90.56
372.48	99.56
372.706	87.56
372.932	82.56
373.158	96.56
373.384	89.56
373.61	94.56
373.835	82.56
374.061	78.56
374.287	86.56
374.513	93.56
374.739	109.56
374.965	98.56
375.191	77.56
375.416	100.56
375.642	90.56
375.868	82.56
376.094	86.56
376.319	89.56
376.545	81.56
376.771	88.56
376.997	96.56
377.222	83.56
377.448	94.56
377.674	109.56
377.899	98.56
378.125	109.56
378.35	77.56
378.576	93.56
378.802	82.56
379.027	97.56
379.253	96.56
379.478	87.56
379.704	87.56
379.929	89.56
380.155	91.56
380.38	88.56
380.606	102.56
380.831	102.56
381.057	96.56
381.282	94.56
381.507	86.56
381.733	97.56
381.958	90.56
382.184	94.56
382.409	96.56
382.634	99.56
382.86	107.56
383.085	97.56
383.31	93.56
383.535	89.56
383.761	98.56
383.986	87.56
384.211	103.56
384.436	83.56
384.662	90.56
384.887	101.56
385.112	92.56
385.337	99.56
385.562	102.56
385.787	98.56
386.013	102.56
386.238	99.56
386.463	79.56
386.688	101.56
386.913	101.56
387.138	82.56
387.363	85.56
387.588	95.56
387.813	91.56
388.038	86.56
388.263	96.56
388.488	94.56
388.713	93.56
388.938	97.56
389.163	101.56
389.387	98.56
389.612	105.56
389.837	96.56
390.062	99.56
390.287	92.56
390.512	92.56
390.736	95.56
390.961	91.56
391.186	117.56
391.411	105.56
391.636	103.56
391.86	102.56
392.085	94.56
392.31	94.56
392.534	96.56
392.759	83.56
392.984	101.56
393.208	102.56
393.433	94.56
393.658	104.56
393.882	119.56
394.107	92.56
394.331	109.56
394.556	111.56
394.78	96.56
395.005	88.56
395.229	109.56
395.454	105.56
395.678	106.56
395.903	90.56
396.127	109.56
396.352	99.56
396.576	108.56
396.801	98.56
397.025	93.56
397.249	102.56
397.474	106.56
397.698	106.56
397.922	97.56
398.147	104.56
398.371	109.56
398.595	100.56
398.82	112.56
399.044	107.56
399.268	110.56
399.492	107.56
399.717	90.56
399.941	114.56
400.165	109.56
400.389	106.56
400.613	119.56
400.837	118.56
401.062	105.56
401.286	109.56
401.51	113.56
401.734	100.56
401.958	104.56
402.182	107.56
402.406	98.56
402.63	94.56
402.854	119.56
403.078	110.56
403.302	120.56
403.526	94.56
403.75	120.56
403.974	113.56
404.198	122.56
404.422	118.56
404.645	111.56
404.869	112.56
405.093	118.56
405.317	111.56
405.541	104.56
405.765	123.56
405.988	103.56
406.212	115.56
406.436	125.56
406.66	118.56
406.883	107.56
407.107	117.56
407.331	119.56
407.555	121.56
407.778	118.56
408.002	133.56
408.226	103.56
408.449	96.56
408.673	103.56
408.896	116.56
409.12	121.56
409.344	119.56
409.567	116.56
409.791	121.56
410.014	115.56
410.238	122.56
410.461	126.56
410.685	105.56
410.908	106.56
411.132	121.56
411.355	117.56
411.578	126.56
411.802	115.56
412.025	123.56
412.249	125.56
412.472	125.56
412.695	116.56
412.919	114.56
413.142	115.56
413.365	111.56
413.589	125.56
413.812	118.56
414.035	124.56
414.258	122.56
414.482	125.56
414.705	127.56
414.928	128.56
415.151	133.56
415.374	114.56
415.597	110.56
415.821	123.56
416.044	118.56
416.267	129.56
416.49	125.56
416.713	118.56
416.936	130.56
417.159	117.56
417.382	115.56
417.605	135.56
417.828	125.56
418.051	125.56
418.274	138.56
418.497	128.56
418.72	132.56
418.943	137.56
419.166	119.56
419.389	125.56
419.611	148.56
419.834	137.56
420.057	121.56
420.28	130.56
420.503	141.56
420.726	125.56
420.948	126.56
421.171	130.56
421.394	129.56
421.617	140.56
421.839	129.56
422.062	127.56
422.285	127.56
422.507	142.56
422.73	145.56
422.953	124.56
423.175	123.56
423.398	129.56
423.621	122.56
423.843	130.56
424.066	130.56
424.288	134.56
424.511	139.56
424.733	132.56
424.956	143.56
425.178	141.56
425.401	158.56
425.623	140.56
425.846	110.56
426.068	130.56
426.291	123.56
426.513	143.56
426.735	140.56
426.958	149.56
427.18	138.56
427.402	129.56
427.625	131.56
427.847	125.56
428.069	133.56
428.292	119.56
428.514	125.56
428.736	124.56
428.958	130.56
429.181	132.56
429.403	121.56
429.625	140.56
429.847	125.56
430.069	120.56
430.292	115.56
430.514	124.56
430.736	125.56
430.958	142.56
431.18	124.56
431.402	123.56
431.624	127.56
431.846	111.56
432.068	102.56
432.29	88.56
432.512	103.56
432.734	117.56
432.956	138.56
433.178	135.56
433.4	130.56
433.622	148.56
433.844	135.56
434.066	109.56
434.287	110.56
434.509	86.56
434.731	86.56
434.953	104.56
435.175	107.56
435.397	125.56
435.618	114.56
435.84	91.56
436.062	106.56
436.284	112.56
436.505	123.56
436.727	131.56
436.949	132.56
437.17	143.56
437.392	135.56
437.614	127.56
437.835	117.56
438.057	113.56
438.278	113.56
438.5	115.56
438.721	129.56
438.943	140.56
439.165	129.56
439.386	135.56
439.608	163.56
439.829	125.56
440.05	144.56
440.272	142.56
440.493	159.56
440.715	147.56
440.936	143.56
441.158	145.56
441.379	158.56
441.6	149.56
441.822	153.56
442.043	144.56
442.264	155.56
442.486	132.56
442.707	152.56
442.928	131.56
443.149	146.56
443.371	130.56
443.592	128.56
443.813	130.56
444.034	137.56
444.255	134.56
444.476	115.56
444.698	130.56
444.919	133.56
445.14	249.56
445.361	198.56
445.582	153.56
445.803	155.56
446.024	137.56
446.245	142.56
446.466	143.56
446.687	151.56
446.908	140.56
447.129	154.56
447.35	135.56
447.571	162.56
447.792	150.56
448.013	135.56
448.234	120.56
448.455	146.56
448.675	140.56
448.896	129.56
449.117	138.56
449.338	151.56
449.559	132.56
449.779	127.56
450	133.56
450.221	137.56
450.442	126.56
450.662	128.56
450.883	113.56
451.104	136.56
451.324	122.56
451.545	128.56
451.766	127.56
451.986	123.56
452.207	125.56
452.428	122.56
452.648	123.56
452.869	110.56
453.089	112.56
453.31	91.56
453.53	101.56
453.751	97.56
453.971	98.56
454.192	102.56
454.412	118.56
454.633	125.56
454.853	125.56
455.073	118.56
455.294	118.56
455.514	118.56
455.734	113.56
455.955	115.56
456.175	101.56
456.395	107.56
456.616	97.56
456.836	103.56
457.056	110.56
457.276	88.56
457.497	106.56
457.717	111.56
457.937	109.56
458.157	117.56
458.377	101.56
458.598	100.56
458.818	94.56
459.038	81.56
459.258	97.56
459.478	79.56
459.698	91.56
459.918	90.56
460.138	105.56
460.358	119.56
460.578	112.56
460.798	104.56
461.018	120.56
461.238	109.56
461.458	109.56
461.678	118.56
461.898	118.56
462.118	115.56
462.338	122.56
462.558	87.56
462.777	102.56
462.997	110.56
463.217	114.56
463.437	105.56
463.657	111.56
463.876	101.56
464.096	111.56
464.316	116.56
464.536	106.56
464.755	116.56
464.975	121.56
465.195	126.56
465.414	115.56
465.634	111.56
465.854	107.56
466.073	127.56
466.293	119.56
466.512	118.56
466.732	119.56
466.951	133.56
467.171	136.56
467.391	122.56
467.61	116.56
467.829	142.56
468.049	133.56
468.268	129.56
468.488	140.56
468.707	128.56
468.927	115.56
469.146	141.56
469.365	141.56
469.585	145.56
469.804	136.56
470.023	133.56
470.243	139.56
470.462	139.56
470.681	128.56
470.901	135.56
471.12	131.56
471.339	134.56
471.558	142.56
471.777	151.56
471.997	137.56
472.216	122.56
472.435	123.56
472.654	100.56
472.873	99.56
473.092	104.56
473.311	119.56
473.53	129.56
473.749	125.56
473.968	128.56
474.187	111.56
474.406	109.56
474.625	134.56
474.844	127.56
475.063	125.56
475.282	120.56
475.501	141.56
475.72	123.56
475.939	128.56
476.158	117.56
476.377	127.56
476.596	122.56
476.814	128.56
477.033	109.56
477.252	100.56
477.471	123.56
477.69	119.56
477.908	134.56
478.127	150.56
478.346	132.56
478.564	132.56
478.783	127.56
479.002	144.56
479.22	139.56
479.439	118.56
479.658	134.56
479.876	116.56
480.095	102.56
480.313	126.56
480.532	121.56
480.751	108.56
480.969	86.56
481.188	83.56
481.406	95.56
481.624	64.56
481.843	92.56
482.061	93.56
482.28	118.56
482.498	113.56
482.717	114.56
482.935	119.56
483.153	135.56
483.372	128.56
483.59	149.56
483.808	130.56
484.027	122.56
484.245	129.56
484.463	117.56
484.681	150.56
484.9	137.56
485.118	150.56
485.336	117.56
485.554	122.56
485.772	95.56
485.99	109.56
486.209	116.56
486.427	99.56
486.645	127.56
486.863	133.56
487.081	132.56
487.299	143.56
487.517	142.56
487.735	153.56
487.953	178.56
488.171	189.56
488.389	173.56
488.607	144.56
488.825	132.56
489.043	117.56
489.261	129.56
489.479	141.56
489.696	153.56
489.914	118.56
490.132	141.56
490.35	146.56
490.568	161.56
490.786	167.56
491.003	177.56
491.221	189.56
491.439	186.56
491.657	191.56
491.874	183.56
492.092	216.56
492.31	255.56
492.527	237.56
492.745	200.56
492.963	197.56
493.18	201.56
493.398	168.56
493.615	185.56
493.833	190.56
494.05	169.56
494.268	173.56
494.485	187.56
494.703	166.56
494.92	188.56
495.138	175.56
495.355	151.56
495.573	161.56
495.79	173.56
496.008	167.56
496.225	187.56
496.442	177.56
496.66	168.56
496.877	151.56
497.094	166.56
497.312	170.56
497.529	156.56
497.746	151.56
497.963	128.56
498.181	117.56
498.398	138.56
498.615	115.56
498.832	119.56
499.049	128.56
499.267	117.56
499.484	110.56
499.701	132.56
499.918	135.56
500.135	124.56
500.352	121.56
500.569	146.56
500.786	143.56
501.003	140.56
501.22	143.56
501.437	142.56
501.654	130.56
501.871	124.56
502.088	138.56
502.305	111.56
502.522	129.56
502.739	130.56
502.956	129.56
503.172	121.56
503.389	126.56
503.606	117.56
503.823	112.56
504.04	113.56
504.256	110.56
504.473	116.56
504.69	115.56
504.907	122.56
505.123	116.56
505.34	122.56
505.557	123.56
505.773	120.56
505.99	122.56
506.207	121.56
506.423	127.56
506.64	112.56
506.856	121.56
507.073	128.56
507.289	124.56
507.506	124.56
507.722	105.56
507.939	117.56
508.155	119.56
508.372	99.56
508.588	116.56
508.805	100.56
509.021	99.56
509.238	119.56
509.454	93.56
509.67	115.56
509.887	104.56
510.103	96.56
510.319	81.56
510.536	86.56
510.752	90.56
510.968	98.56
511.184	87.56
511.401	84.56
511.617	73.56
511.833	93.56
512.049	96.56
