Data from Location2.07152019.Energy5.Lamp.07192019.3%Agarose_HRD10591_14-58-43-360.txt Node
Date: Fri Jul 19 14:58:43 EDT 2019
User: cochatt
Spectrometer: HR+D1059
Trigger mode: 1
Integration Time (sec): 1.000000E-1
Scans to average: 1
Electric dark correction enabled: true
Nonlinearity correction enabled: false
Boxcar width: 0
XAxis mode: Wavelengths
Number of Pixels in Spectrum: 2048
>>>>>Begin Spectral Data<<<<<
223.165	-20.69
223.4	-20.69
223.635	-20.69
223.869	-33.69
224.104	-7.69
224.338	-24.69
224.573	-14.69
224.808	8.31
225.042	-14.69
225.277	0.31
225.511	3.31
225.746	0.31
225.98	3.31
226.215	19.31
226.449	20.31
226.683	11.31
226.918	21.31
227.152	28.31
227.387	44.31
227.621	21.31
227.856	23.31
228.09	41.31
228.324	55.31
228.559	42.31
228.793	64.31
229.027	69.31
229.262	70.31
229.496	66.31
229.73	60.31
229.964	59.31
230.199	81.31
230.433	69.31
230.667	62.31
230.901	81.31
231.136	84.31
231.37	67.31
231.604	68.31
231.838	87.31
232.072	76.31
232.306	65.31
232.541	78.31
232.775	94.31
233.009	74.31
233.243	80.31
233.477	77.31
233.711	79.31
233.945	84.31
234.179	62.31
234.413	80.31
234.647	73.31
234.881	83.31
235.115	75.31
235.349	73.31
235.583	93.31
235.817	72.31
236.051	72.31
236.285	89.31
236.519	79.31
236.753	82.31
236.987	69.31
237.221	65.31
237.455	65.31
237.689	79.31
237.922	56.31
238.156	74.31
238.39	84.31
238.624	69.31
238.858	79.31
239.091	59.31
239.325	73.31
239.559	69.31
239.793	77.31
240.027	98.31
240.26	75.31
240.494	63.31
240.728	77.31
240.961	71.31
241.195	66.31
241.429	81.31
241.662	75.31
241.896	71.31
242.13	83.31
242.363	72.31
242.597	65.31
242.83	74.31
243.064	67.31
243.298	80.31
243.531	71.31
243.765	72.31
243.998	74.31
244.232	61.31
244.465	66.31
244.699	76.31
244.932	70.31
245.166	69.31
245.399	75.31
245.633	90.31
245.866	74.31
246.099	80.31
246.333	73.31
246.566	64.31
246.8	69.31
247.033	79.31
247.266	85.31
247.5	76.31
247.733	73.31
247.966	86.31
248.2	64.31
248.433	79.31
248.666	82.31
248.899	92.31
249.133	55.31
249.366	78.31
249.599	80.31
249.832	75.31
250.066	88.31
250.299	75.31
250.532	82.31
250.765	83.31
250.998	88.31
251.231	72.31
251.465	86.31
251.698	68.31
251.931	71.31
252.164	80.31
252.397	67.31
252.63	74.31
252.863	81.31
253.096	59.31
253.329	89.31
253.562	83.31
253.795	70.31
254.028	73.31
254.261	78.31
254.494	82.31
254.727	84.31
254.96	72.31
255.193	69.31
255.426	76.31
255.659	75.31
255.892	84.31
256.124	74.31
256.357	74.31
256.59	89.31
256.823	74.31
257.056	83.31
257.289	73.31
257.521	77.31
257.754	67.31
257.987	83.31
258.22	75.31
258.452	88.31
258.685	80.31
258.918	74.31
259.151	72.31
259.383	76.31
259.616	74.31
259.849	64.31
260.081	78.31
260.314	73.31
260.547	74.31
260.779	78.31
261.012	78.31
261.244	70.31
261.477	76.31
261.71	75.31
261.942	73.31
262.175	89.31
262.407	76.31
262.64	87.31
262.872	80.31
263.105	81.31
263.337	78.31
263.57	88.31
263.802	76.31
264.035	89.31
264.267	87.31
264.499	86.31
264.732	94.31
264.964	95.31
265.197	74.31
265.429	87.31
265.661	73.31
265.894	84.31
266.126	78.31
266.358	86.31
266.591	72.31
266.823	75.31
267.055	69.31
267.287	75.31
267.52	85.31
267.752	75.31
267.984	86.31
268.216	73.31
268.448	83.31
268.681	88.31
268.913	81.31
269.145	83.31
269.377	68.31
269.609	89.31
269.841	77.31
270.073	86.31
270.306	75.31
270.538	78.31
270.77	87.31
271.002	67.31
271.234	82.31
271.466	78.31
271.698	83.31
271.93	70.31
272.162	82.31
272.394	88.31
272.626	78.31
272.858	93.31
273.09	85.31
273.322	79.31
273.553	84.31
273.785	75.31
274.017	90.31
274.249	75.31
274.481	87.31
274.713	81.31
274.945	86.31
275.176	74.31
275.408	77.31
275.64	82.31
275.872	81.31
276.104	91.31
276.335	82.31
276.567	78.31
276.799	75.31
277.031	68.31
277.262	82.31
277.494	84.31
277.726	87.31
277.957	88.31
278.189	75.31
278.421	72.31
278.652	67.31
278.884	67.31
279.115	83.31
279.347	85.31
279.579	87.31
279.81	86.31
280.042	80.31
280.273	88.31
280.505	88.31
280.736	83.31
280.968	75.31
281.199	90.31
281.431	91.31
281.662	91.31
281.894	75.31
282.125	90.31
282.356	89.31
282.588	93.31
282.819	83.31
283.051	77.31
283.282	91.31
283.513	91.31
283.745	75.31
283.976	88.31
284.207	85.31
284.439	75.31
284.67	78.31
284.901	61.31
285.132	58.31
285.364	75.31
285.595	76.31
285.826	77.31
286.057	83.31
286.288	78.31
286.52	69.31
286.751	73.31
286.982	86.31
287.213	83.31
287.444	83.31
287.675	100.31
287.906	84.31
288.138	80.31
288.369	73.31
288.6	80.31
288.831	81.31
289.062	82.31
289.293	74.31
289.524	78.31
289.755	82.31
289.986	87.31
290.217	83.31
290.448	78.31
290.679	85.31
290.91	84.31
291.141	81.31
291.371	76.31
291.602	79.31
291.833	70.31
292.064	81.31
292.295	75.31
292.526	77.31
292.757	73.31
292.987	85.31
293.218	76.31
293.449	79.31
293.68	75.31
293.91	90.31
294.141	77.31
294.372	89.31
294.603	78.31
294.833	65.31
295.064	74.31
295.295	82.31
295.525	86.31
295.756	81.31
295.987	82.31
296.217	92.31
296.448	73.31
296.679	89.31
296.909	80.31
297.14	89.31
297.37	80.31
297.601	71.31
297.831	85.31
298.062	80.31
298.292	82.31
298.523	81.31
298.753	73.31
298.984	82.31
299.214	75.31
299.445	61.31
299.675	71.31
299.905	82.31
300.136	78.31
300.366	78.31
300.597	77.31
300.827	87.31
301.057	80.31
301.288	80.31
301.518	72.31
301.748	80.31
301.979	86.31
302.209	79.31
302.439	76.31
302.669	75.31
302.9	78.31
303.13	80.31
303.36	85.31
303.59	93.31
303.82	70.31
304.051	91.31
304.281	83.31
304.511	94.31
304.741	94.31
304.971	79.31
305.201	87.31
305.431	63.31
305.661	78.31
305.891	91.31
306.121	94.31
306.352	76.31
306.582	80.31
306.812	87.31
307.042	80.31
307.272	84.31
307.502	66.31
307.731	79.31
307.961	84.31
308.191	67.31
308.421	89.31
308.651	92.31
308.881	82.31
309.111	97.31
309.341	79.31
309.571	88.31
309.8	76.31
310.03	54.31
310.26	69.31
310.49	82.31
310.72	65.31
310.949	72.31
311.179	90.31
311.409	74.31
311.639	86.31
311.868	80.31
312.098	85.31
312.328	84.31
312.557	86.31
312.787	93.31
313.017	78.31
313.246	69.31
313.476	85.31
313.706	83.31
313.935	82.31
314.165	73.31
314.394	75.31
314.624	93.31
314.853	78.31
315.083	68.31
315.312	78.31
315.542	81.31
315.771	78.31
316.001	83.31
316.23	77.31
316.46	73.31
316.689	74.31
316.919	76.31
317.148	91.31
317.377	80.31
317.607	76.31
317.836	85.31
318.065	91.31
318.295	84.31
318.524	91.31
318.753	80.31
318.983	90.31
319.212	90.31
319.441	75.31
319.67	79.31
319.9	89.31
320.129	84.31
320.358	67.31
320.587	82.31
320.816	78.31
321.046	79.31
321.275	97.31
321.504	75.31
321.733	82.31
321.962	83.31
322.191	87.31
322.42	88.31
322.649	83.31
322.878	73.31
323.108	77.31
323.337	73.31
323.566	71.31
323.795	64.31
324.024	88.31
324.253	96.31
324.482	93.31
324.71	80.31
324.939	84.31
325.168	72.31
325.397	57.31
325.626	74.31
325.855	75.31
326.084	62.31
326.313	98.31
326.542	79.31
326.77	83.31
326.999	72.31
327.228	75.31
327.457	78.31
327.686	79.31
327.914	89.31
328.143	72.31
328.372	84.31
328.6	73.31
328.829	75.31
329.058	74.31
329.287	81.31
329.515	78.31
329.744	76.31
329.972	84.31
330.201	66.31
330.43	69.31
330.658	75.31
330.887	67.31
331.115	77.31
331.344	85.31
331.572	73.31
331.801	76.31
332.03	81.31
332.258	80.31
332.486	79.31
332.715	78.31
332.943	85.31
333.172	84.31
333.4	76.31
333.629	80.31
333.857	85.31
334.085	70.31
334.314	79.31
334.542	90.31
334.771	90.31
334.999	69.31
335.227	74.31
335.455	85.31
335.684	89.31
335.912	85.31
336.14	69.31
336.369	85.31
336.597	78.31
336.825	86.31
337.053	75.31
337.281	62.31
337.51	74.31
337.738	83.31
337.966	70.31
338.194	75.31
338.422	86.31
338.65	91.31
338.878	85.31
339.106	91.31
339.334	90.31
339.562	89.31
339.79	85.31
340.018	73.31
340.246	84.31
340.474	81.31
340.702	74.31
340.93	82.31
341.158	75.31
341.386	79.31
341.614	85.31
341.842	68.31
342.07	85.31
342.298	73.31
342.526	63.31
342.754	80.31
342.981	75.31
343.209	75.31
343.437	87.31
343.665	87.31
343.893	95.31
344.12	84.31
344.348	85.31
344.576	78.31
344.804	78.31
345.031	80.31
345.259	82.31
345.487	68.31
345.714	76.31
345.942	76.31
346.17	88.31
346.397	84.31
346.625	63.31
346.853	84.31
347.08	82.31
347.308	74.31
347.535	63.31
347.763	86.31
347.99	88.31
348.218	78.31
348.445	78.31
348.673	75.31
348.9	93.31
349.128	87.31
349.355	103.31
349.583	91.31
349.81	79.31
350.037	84.31
350.265	90.31
350.492	71.31
350.72	75.31
350.947	82.31
351.174	81.31
351.402	77.31
351.629	82.31
351.856	78.31
352.083	78.31
352.311	79.31
352.538	70.31
352.765	102.31
352.992	87.31
353.22	84.31
353.447	79.31
353.674	89.31
353.901	85.31
354.128	84.31
354.355	73.31
354.583	89.31
354.81	73.31
355.037	78.31
355.264	63.31
355.491	81.31
355.718	84.31
355.945	87.31
356.172	87.31
356.399	73.31
356.626	89.31
356.853	75.31
357.08	84.31
357.307	78.31
357.534	63.31
357.761	90.31
357.988	85.31
358.215	84.31
358.441	63.31
358.668	65.31
358.895	93.31
359.122	85.31
359.349	89.31
359.576	86.31
359.802	78.31
360.029	87.31
360.256	96.31
360.483	89.31
360.709	78.31
360.936	91.31
361.163	78.31
361.39	80.31
361.616	82.31
361.843	78.31
362.07	91.31
362.296	89.31
362.523	74.31
362.749	85.31
362.976	87.31
363.203	74.31
363.429	94.31
363.656	80.31
363.882	75.31
364.109	102.31
364.335	76.31
364.562	74.31
364.788	77.31
365.015	82.31
365.241	91.31
365.468	83.31
365.694	91.31
365.92	84.31
366.147	89.31
366.373	89.31
366.599	88.31
366.826	90.31
367.052	74.31
367.278	90.31
367.505	85.31
367.731	95.31
367.957	99.31
368.184	85.31
368.41	89.31
368.636	84.31
368.862	85.31
369.089	78.31
369.315	76.31
369.541	88.31
369.767	82.31
369.993	95.31
370.219	81.31
370.445	99.31
370.672	87.31
370.898	86.31
371.124	79.31
371.35	88.31
371.576	92.31
371.802	85.31
372.028	97.31
372.254	86.31
372.48	84.31
372.706	70.31
372.932	72.31
373.158	67.31
373.384	96.31
373.61	93.31
373.835	85.31
374.061	93.31
374.287	92.31
374.513	68.31
374.739	91.31
374.965	77.31
375.191	86.31
375.416	86.31
375.642	86.31
375.868	90.31
376.094	85.31
376.319	82.31
376.545	75.31
376.771	82.31
376.997	80.31
377.222	102.31
377.448	96.31
377.674	83.31
377.899	87.31
378.125	73.31
378.35	107.31
378.576	94.31
378.802	87.31
379.027	85.31
379.253	95.31
379.478	75.31
379.704	95.31
379.929	87.31
380.155	79.31
380.38	93.31
380.606	105.31
380.831	91.31
381.057	100.31
381.282	91.31
381.507	102.31
381.733	82.31
381.958	81.31
382.184	72.31
382.409	79.31
382.634	101.31
382.86	88.31
383.085	95.31
383.31	101.31
383.535	91.31
383.761	95.31
383.986	105.31
384.211	77.31
384.436	103.31
384.662	83.31
384.887	100.31
385.112	82.31
385.337	100.31
385.562	94.31
385.787	92.31
386.013	96.31
386.238	102.31
386.463	96.31
386.688	94.31
386.913	93.31
387.138	87.31
387.363	111.31
387.588	101.31
387.813	113.31
388.038	93.31
388.263	117.31
388.488	103.31
388.713	100.31
388.938	87.31
389.163	98.31
389.387	96.31
389.612	94.31
389.837	97.31
390.062	88.31
390.287	106.31
390.512	105.31
390.736	89.31
390.961	92.31
391.186	89.31
391.411	103.31
391.636	105.31
391.86	97.31
392.085	108.31
392.31	96.31
392.534	96.31
392.759	101.31
392.984	93.31
393.208	104.31
393.433	105.31
393.658	105.31
393.882	111.31
394.107	109.31
394.331	101.31
394.556	106.31
394.78	103.31
395.005	106.31
395.229	101.31
395.454	112.31
395.678	113.31
395.903	106.31
396.127	108.31
396.352	104.31
396.576	103.31
396.801	105.31
397.025	98.31
397.249	114.31
397.474	117.31
397.698	94.31
397.922	101.31
398.147	112.31
398.371	93.31
398.595	104.31
398.82	91.31
399.044	90.31
399.268	105.31
399.492	106.31
399.717	101.31
399.941	106.31
400.165	100.31
400.389	113.31
400.613	93.31
400.837	103.31
401.062	102.31
401.286	112.31
401.51	109.31
401.734	109.31
401.958	117.31
402.182	123.31
402.406	126.31
402.63	120.31
402.854	113.31
403.078	104.31
403.302	109.31
403.526	107.31
403.75	106.31
403.974	117.31
404.198	100.31
404.422	113.31
404.645	101.31
404.869	106.31
405.093	114.31
405.317	125.31
405.541	100.31
405.765	121.31
405.988	114.31
406.212	126.31
406.436	118.31
406.66	109.31
406.883	125.31
407.107	112.31
407.331	108.31
407.555	121.31
407.778	114.31
408.002	105.31
408.226	109.31
408.449	111.31
408.673	105.31
408.896	102.31
409.12	126.31
409.344	125.31
409.567	121.31
409.791	121.31
410.014	112.31
410.238	112.31
410.461	120.31
410.685	116.31
410.908	121.31
411.132	117.31
411.355	120.31
411.578	110.31
411.802	121.31
412.025	106.31
412.249	110.31
412.472	108.31
412.695	118.31
412.919	117.31
413.142	123.31
413.365	124.31
413.589	121.31
413.812	119.31
414.035	120.31
414.258	130.31
414.482	113.31
414.705	122.31
414.928	117.31
415.151	116.31
415.374	131.31
415.597	118.31
415.821	117.31
416.044	131.31
416.267	119.31
416.49	119.31
416.713	113.31
416.936	125.31
417.159	118.31
417.382	129.31
417.605	120.31
417.828	122.31
418.051	126.31
418.274	129.31
418.497	137.31
418.72	134.31
418.943	134.31
419.166	147.31
419.389	143.31
419.611	138.31
419.834	125.31
420.057	135.31
420.28	132.31
420.503	122.31
420.726	129.31
420.948	133.31
421.171	135.31
421.394	132.31
421.617	129.31
421.839	145.31
422.062	121.31
422.285	145.31
422.507	122.31
422.73	127.31
422.953	129.31
423.175	123.31
423.398	133.31
423.621	137.31
423.843	145.31
424.066	139.31
424.288	134.31
424.511	131.31
424.733	130.31
424.956	129.31
425.178	136.31
425.401	128.31
425.623	135.31
425.846	120.31
426.068	120.31
426.291	130.31
426.513	127.31
426.735	122.31
426.958	127.31
427.18	127.31
427.402	129.31
427.625	131.31
427.847	120.31
428.069	135.31
428.292	132.31
428.514	139.31
428.736	130.31
428.958	131.31
429.181	130.31
429.403	130.31
429.625	112.31
429.847	112.31
430.069	146.31
430.292	151.31
430.514	124.31
430.736	106.31
430.958	126.31
431.18	126.31
431.402	122.31
431.624	110.31
431.846	111.31
432.068	89.31
432.29	104.31
432.512	119.31
432.734	114.31
432.956	123.31
433.178	129.31
433.4	124.31
433.622	132.31
433.844	135.31
434.066	120.31
434.287	98.31
434.509	118.31
434.731	107.31
434.953	117.31
435.175	117.31
435.397	99.31
435.618	117.31
435.84	111.31
436.062	117.31
436.284	124.31
436.505	121.31
436.727	129.31
436.949	130.31
437.17	133.31
437.392	119.31
437.614	111.31
437.835	102.31
438.057	97.31
438.278	113.31
438.5	114.31
438.721	123.31
438.943	133.31
439.165	124.31
439.386	133.31
439.608	119.31
439.829	134.31
440.05	148.31
440.272	165.31
440.493	139.31
440.715	143.31
440.936	147.31
441.158	142.31
441.379	145.31
441.6	158.31
441.822	129.31
442.043	138.31
442.264	135.31
442.486	131.31
442.707	127.31
442.928	126.31
443.149	143.31
443.371	145.31
443.592	117.31
443.813	127.31
444.034	131.31
444.255	145.31
444.476	138.31
444.698	143.31
444.919	128.31
445.14	249.31
445.361	192.31
445.582	143.31
445.803	141.31
446.024	141.31
446.245	149.31
446.466	150.31
446.687	155.31
446.908	168.31
447.129	158.31
447.35	154.31
447.571	142.31
447.792	147.31
448.013	151.31
448.234	161.31
448.455	146.31
448.675	141.31
448.896	119.31
449.117	131.31
449.338	121.31
449.559	131.31
449.779	125.31
450	133.31
450.221	144.31
450.442	138.31
450.662	123.31
450.883	122.31
451.104	127.31
451.324	125.31
451.545	136.31
451.766	125.31
451.986	127.31
452.207	131.31
452.428	120.31
452.648	129.31
452.869	129.31
453.089	120.31
453.31	104.31
453.53	111.31
453.751	111.31
453.971	105.31
454.192	95.31
454.412	117.31
454.633	111.31
454.853	122.31
455.073	125.31
455.294	120.31
455.514	127.31
455.734	111.31
455.955	109.31
456.175	116.31
456.395	112.31
456.616	103.31
456.836	114.31
457.056	111.31
457.276	113.31
457.497	90.31
457.717	97.31
457.937	110.31
458.157	96.31
458.377	103.31
458.598	99.31
458.818	104.31
459.038	90.31
459.258	89.31
459.478	72.31
459.698	83.31
459.918	104.31
460.138	112.31
460.358	106.31
460.578	122.31
460.798	133.31
461.018	119.31
461.238	112.31
461.458	97.31
461.678	117.31
461.898	115.31
462.118	105.31
462.338	109.31
462.558	121.31
462.777	105.31
462.997	105.31
463.217	121.31
463.437	110.31
463.657	118.31
463.876	114.31
464.096	120.31
464.316	94.31
464.536	101.31
464.755	114.31
464.975	114.31
465.195	110.31
465.414	126.31
465.634	117.31
465.854	92.31
466.073	122.31
466.293	132.31
466.512	122.31
466.732	137.31
466.951	138.31
467.171	130.31
467.391	120.31
467.61	113.31
467.829	114.31
468.049	122.31
468.268	131.31
468.488	133.31
468.707	132.31
468.927	139.31
469.146	121.31
469.365	135.31
469.585	139.31
469.804	142.31
470.023	149.31
470.243	155.31
470.462	150.31
470.681	164.31
470.901	150.31
471.12	150.31
471.339	155.31
471.558	139.31
471.777	123.31
471.997	126.31
472.216	117.31
472.435	116.31
472.654	117.31
472.873	109.31
473.092	137.31
473.311	123.31
473.53	131.31
473.749	129.31
473.968	131.31
474.187	120.31
474.406	119.31
474.625	119.31
474.844	135.31
475.063	123.31
475.282	120.31
475.501	111.31
475.72	116.31
475.939	123.31
476.158	124.31
476.377	122.31
476.596	129.31
476.814	110.31
477.033	110.31
477.252	109.31
477.471	122.31
477.69	130.31
477.908	136.31
478.127	139.31
478.346	137.31
478.564	134.31
478.783	131.31
479.002	143.31
479.22	141.31
479.439	150.31
479.658	122.31
479.876	120.31
480.095	104.31
480.313	115.31
480.532	122.31
480.751	109.31
480.969	80.31
481.188	87.31
481.406	89.31
481.624	90.31
481.843	85.31
482.061	99.31
482.28	106.31
482.498	120.31
482.717	122.31
482.935	117.31
483.153	130.31
483.372	149.31
483.59	142.31
483.808	152.31
484.027	125.31
484.245	124.31
484.463	142.31
484.681	167.31
484.9	135.31
485.118	137.31
485.336	126.31
485.554	122.31
485.772	111.31
485.99	101.31
486.209	113.31
486.427	114.31
486.645	117.31
486.863	143.31
487.081	134.31
487.299	129.31
487.517	149.31
487.735	167.31
487.953	173.31
488.171	181.31
488.389	168.31
488.607	158.31
488.825	136.31
489.043	133.31
489.261	129.31
489.479	129.31
489.696	139.31
489.914	143.31
490.132	134.31
490.35	151.31
490.568	162.31
490.786	149.31
491.003	165.31
491.221	185.31
491.439	187.31
491.657	189.31
491.874	192.31
492.092	199.31
492.31	208.31
492.527	228.31
492.745	186.31
492.963	193.31
493.18	197.31
493.398	182.31
493.615	179.31
493.833	166.31
494.05	177.31
494.268	179.31
494.485	179.31
494.703	190.31
494.92	176.31
495.138	171.31
495.355	166.31
495.573	160.31
495.79	154.31
496.008	163.31
496.225	159.31
496.442	165.31
496.66	171.31
496.877	150.31
497.094	167.31
497.312	164.31
497.529	147.31
497.746	144.31
497.963	130.31
498.181	135.31
498.398	127.31
498.615	123.31
498.832	125.31
499.049	106.31
499.267	120.31
499.484	145.31
499.701	121.31
499.918	133.31
500.135	136.31
500.352	132.31
500.569	142.31
500.786	157.31
501.003	133.31
501.22	117.31
501.437	141.31
501.654	139.31
501.871	136.31
502.088	136.31
502.305	137.31
502.522	125.31
502.739	122.31
502.956	124.31
503.172	125.31
503.389	120.31
503.606	106.31
503.823	123.31
504.04	117.31
504.256	122.31
504.473	110.31
504.69	118.31
504.907	122.31
505.123	115.31
505.34	114.31
505.557	123.31
505.773	127.31
505.99	111.31
506.207	123.31
506.423	140.31
506.64	116.31
506.856	122.31
507.073	106.31
507.289	121.31
507.506	132.31
507.722	119.31
507.939	107.31
508.155	128.31
508.372	94.31
508.588	111.31
508.805	126.31
509.021	113.31
509.238	106.31
509.454	95.31
509.67	89.31
509.887	98.31
510.103	95.31
510.319	104.31
510.536	86.31
510.752	93.31
510.968	87.31
511.184	77.31
511.401	86.31
511.617	95.31
511.833	83.31
512.049	94.31
