Data from Location2.07152019.Energy5.Lamp.07192019.3%Agarose_HRD10591_14-56-56-358.txt Node
Date: Fri Jul 19 14:56:56 EDT 2019
User: cochatt
Spectrometer: HR+D1059
Trigger mode: 1
Integration Time (sec): 1.000000E-1
Scans to average: 1
Electric dark correction enabled: true
Nonlinearity correction enabled: false
Boxcar width: 0
XAxis mode: Wavelengths
Number of Pixels in Spectrum: 2048
>>>>>Begin Spectral Data<<<<<
223.165	-14.81
223.4	-14.81
223.635	-14.81
223.869	-19.81
224.104	-18.81
224.338	-20.81
224.573	-18.81
224.808	-1.81
225.042	-8.81
225.277	0.19
225.511	-2.81
225.746	15.19
225.98	17.19
226.215	7.19
226.449	7.19
226.683	17.19
226.918	19.19
227.152	23.19
227.387	37.19
227.621	32.19
227.856	33.19
228.09	47.19
228.324	52.19
228.559	56.19
228.793	57.19
229.027	56.19
229.262	78.19
229.496	77.19
229.73	74.19
229.964	65.19
230.199	83.19
230.433	68.19
230.667	70.19
230.901	70.19
231.136	70.19
231.37	72.19
231.604	80.19
231.838	86.19
232.072	84.19
232.306	68.19
232.541	86.19
232.775	73.19
233.009	72.19
233.243	75.19
233.477	91.19
233.711	82.19
233.945	74.19
234.179	79.19
234.413	88.19
234.647	81.19
234.881	92.19
235.115	83.19
235.349	72.19
235.583	76.19
235.817	80.19
236.051	76.19
236.285	74.19
236.519	67.19
236.753	96.19
236.987	64.19
237.221	78.19
237.455	75.19
237.689	72.19
237.922	74.19
238.156	79.19
238.39	85.19
238.624	72.19
238.858	73.19
239.091	73.19
239.325	73.19
239.559	75.19
239.793	79.19
240.027	58.19
240.26	70.19
240.494	79.19
240.728	57.19
240.961	64.19
241.195	75.19
241.429	65.19
241.662	75.19
241.896	75.19
242.13	78.19
242.363	83.19
242.597	78.19
242.83	85.19
243.064	89.19
243.298	61.19
243.531	82.19
243.765	86.19
243.998	70.19
244.232	83.19
244.465	77.19
244.699	76.19
244.932	73.19
245.166	89.19
245.399	81.19
245.633	83.19
245.866	81.19
246.099	80.19
246.333	77.19
246.566	92.19
246.8	69.19
247.033	79.19
247.266	84.19
247.5	69.19
247.733	70.19
247.966	76.19
248.2	73.19
248.433	76.19
248.666	68.19
248.899	88.19
249.133	83.19
249.366	70.19
249.599	94.19
249.832	94.19
250.066	82.19
250.299	82.19
250.532	68.19
250.765	85.19
250.998	71.19
251.231	83.19
251.465	79.19
251.698	76.19
251.931	73.19
252.164	75.19
252.397	76.19
252.63	73.19
252.863	79.19
253.096	88.19
253.329	71.19
253.562	83.19
253.795	89.19
254.028	75.19
254.261	84.19
254.494	81.19
254.727	74.19
254.96	77.19
255.193	77.19
255.426	73.19
255.659	81.19
255.892	74.19
256.124	88.19
256.357	77.19
256.59	84.19
256.823	81.19
257.056	95.19
257.289	68.19
257.521	89.19
257.754	83.19
257.987	67.19
258.22	74.19
258.452	71.19
258.685	93.19
258.918	80.19
259.151	70.19
259.383	81.19
259.616	71.19
259.849	79.19
260.081	78.19
260.314	79.19
260.547	78.19
260.779	85.19
261.012	83.19
261.244	76.19
261.477	96.19
261.71	82.19
261.942	74.19
262.175	86.19
262.407	80.19
262.64	79.19
262.872	79.19
263.105	73.19
263.337	83.19
263.57	74.19
263.802	86.19
264.035	75.19
264.267	91.19
264.499	66.19
264.732	75.19
264.964	73.19
265.197	95.19
265.429	87.19
265.661	98.19
265.894	91.19
266.126	92.19
266.358	92.19
266.591	82.19
266.823	92.19
267.055	95.19
267.287	82.19
267.52	81.19
267.752	85.19
267.984	82.19
268.216	71.19
268.448	91.19
268.681	76.19
268.913	86.19
269.145	85.19
269.377	90.19
269.609	88.19
269.841	77.19
270.073	73.19
270.306	96.19
270.538	80.19
270.77	92.19
271.002	92.19
271.234	74.19
271.466	72.19
271.698	84.19
271.93	85.19
272.162	87.19
272.394	78.19
272.626	82.19
272.858	81.19
273.09	86.19
273.322	76.19
273.553	82.19
273.785	90.19
274.017	80.19
274.249	89.19
274.481	89.19
274.713	76.19
274.945	89.19
275.176	85.19
275.408	71.19
275.64	90.19
275.872	85.19
276.104	99.19
276.335	81.19
276.567	88.19
276.799	89.19
277.031	78.19
277.262	81.19
277.494	87.19
277.726	84.19
277.957	95.19
278.189	89.19
278.421	75.19
278.652	97.19
278.884	78.19
279.115	98.19
279.347	75.19
279.579	82.19
279.81	67.19
280.042	90.19
280.273	82.19
280.505	89.19
280.736	76.19
280.968	75.19
281.199	83.19
281.431	93.19
281.662	95.19
281.894	84.19
282.125	87.19
282.356	84.19
282.588	81.19
282.819	77.19
283.051	76.19
283.282	74.19
283.513	85.19
283.745	89.19
283.976	92.19
284.207	88.19
284.439	68.19
284.67	79.19
284.901	91.19
285.132	78.19
285.364	74.19
285.595	107.19
285.826	78.19
286.057	88.19
286.288	82.19
286.52	90.19
286.751	90.19
286.982	89.19
287.213	89.19
287.444	72.19
287.675	83.19
287.906	96.19
288.138	74.19
288.369	92.19
288.6	79.19
288.831	70.19
289.062	89.19
289.293	73.19
289.524	84.19
289.755	85.19
289.986	84.19
290.217	90.19
290.448	74.19
290.679	81.19
290.91	87.19
291.141	87.19
291.371	77.19
291.602	79.19
291.833	72.19
292.064	91.19
292.295	87.19
292.526	90.19
292.757	73.19
292.987	90.19
293.218	102.19
293.449	93.19
293.68	93.19
293.91	81.19
294.141	81.19
294.372	74.19
294.603	91.19
294.833	97.19
295.064	83.19
295.295	80.19
295.525	79.19
295.756	95.19
295.987	76.19
296.217	91.19
296.448	86.19
296.679	86.19
296.909	77.19
297.14	69.19
297.37	92.19
297.601	100.19
297.831	75.19
298.062	77.19
298.292	89.19
298.523	84.19
298.753	97.19
298.984	89.19
299.214	79.19
299.445	89.19
299.675	86.19
299.905	78.19
300.136	82.19
300.366	76.19
300.597	71.19
300.827	85.19
301.057	85.19
301.288	80.19
301.518	91.19
301.748	72.19
301.979	82.19
302.209	87.19
302.439	90.19
302.669	85.19
302.9	89.19
303.13	89.19
303.36	81.19
303.59	96.19
303.82	83.19
304.051	92.19
304.281	83.19
304.511	84.19
304.741	81.19
304.971	100.19
305.201	77.19
305.431	81.19
305.661	89.19
305.891	95.19
306.121	77.19
306.352	99.19
306.582	85.19
306.812	97.19
307.042	82.19
307.272	89.19
307.502	86.19
307.731	75.19
307.961	91.19
308.191	92.19
308.421	75.19
308.651	94.19
308.881	103.19
309.111	78.19
309.341	88.19
309.571	90.19
309.8	75.19
310.03	76.19
310.26	80.19
310.49	85.19
310.72	80.19
310.949	85.19
311.179	75.19
311.409	88.19
311.639	81.19
311.868	86.19
312.098	96.19
312.328	101.19
312.557	91.19
312.787	88.19
313.017	78.19
313.246	77.19
313.476	88.19
313.706	85.19
313.935	81.19
314.165	91.19
314.394	77.19
314.624	83.19
314.853	88.19
315.083	81.19
315.312	93.19
315.542	81.19
315.771	74.19
316.001	88.19
316.23	76.19
316.46	81.19
316.689	78.19
316.919	81.19
317.148	80.19
317.377	92.19
317.607	87.19
317.836	86.19
318.065	98.19
318.295	88.19
318.524	74.19
318.753	67.19
318.983	78.19
319.212	89.19
319.441	88.19
319.67	73.19
319.9	94.19
320.129	77.19
320.358	91.19
320.587	78.19
320.816	99.19
321.046	89.19
321.275	100.19
321.504	89.19
321.733	91.19
321.962	85.19
322.191	81.19
322.42	87.19
322.649	83.19
322.878	91.19
323.108	90.19
323.337	92.19
323.566	80.19
323.795	89.19
324.024	85.19
324.253	79.19
324.482	77.19
324.71	76.19
324.939	100.19
325.168	81.19
325.397	85.19
325.626	80.19
325.855	79.19
326.084	82.19
326.313	90.19
326.542	96.19
326.77	91.19
326.999	76.19
327.228	71.19
327.457	92.19
327.686	82.19
327.914	83.19
328.143	92.19
328.372	88.19
328.6	85.19
328.829	82.19
329.058	86.19
329.287	82.19
329.515	77.19
329.744	78.19
329.972	81.19
330.201	95.19
330.43	88.19
330.658	89.19
330.887	85.19
331.115	96.19
331.344	94.19
331.572	91.19
331.801	83.19
332.03	83.19
332.258	87.19
332.486	91.19
332.715	89.19
332.943	85.19
333.172	73.19
333.4	88.19
333.629	80.19
333.857	71.19
334.085	80.19
334.314	84.19
334.542	82.19
334.771	84.19
334.999	89.19
335.227	88.19
335.455	86.19
335.684	87.19
335.912	85.19
336.14	75.19
336.369	90.19
336.597	92.19
336.825	83.19
337.053	88.19
337.281	85.19
337.51	79.19
337.738	88.19
337.966	83.19
338.194	85.19
338.422	90.19
338.65	93.19
338.878	89.19
339.106	100.19
339.334	92.19
339.562	85.19
339.79	75.19
340.018	79.19
340.246	78.19
340.474	88.19
340.702	100.19
340.93	88.19
341.158	79.19
341.386	69.19
341.614	74.19
341.842	75.19
342.07	93.19
342.298	95.19
342.526	77.19
342.754	92.19
342.981	96.19
343.209	88.19
343.437	90.19
343.665	89.19
343.893	87.19
344.12	84.19
344.348	70.19
344.576	84.19
344.804	84.19
345.031	94.19
345.259	100.19
345.487	80.19
345.714	91.19
345.942	75.19
346.17	101.19
346.397	73.19
346.625	82.19
346.853	77.19
347.08	88.19
347.308	92.19
347.535	76.19
347.763	75.19
347.99	68.19
348.218	71.19
348.445	80.19
348.673	96.19
348.9	90.19
349.128	77.19
349.355	75.19
349.583	88.19
349.81	92.19
350.037	90.19
350.265	82.19
350.492	73.19
350.72	92.19
350.947	83.19
351.174	82.19
351.402	88.19
351.629	94.19
351.856	76.19
352.083	90.19
352.311	91.19
352.538	87.19
352.765	86.19
352.992	82.19
353.22	75.19
353.447	95.19
353.674	95.19
353.901	94.19
354.128	76.19
354.355	72.19
354.583	84.19
354.81	89.19
355.037	79.19
355.264	87.19
355.491	77.19
355.718	80.19
355.945	98.19
356.172	96.19
356.399	73.19
356.626	88.19
356.853	80.19
357.08	72.19
357.307	97.19
357.534	82.19
357.761	85.19
357.988	79.19
358.215	83.19
358.441	73.19
358.668	81.19
358.895	76.19
359.122	84.19
359.349	95.19
359.576	74.19
359.802	83.19
360.029	82.19
360.256	97.19
360.483	71.19
360.709	75.19
360.936	80.19
361.163	83.19
361.39	89.19
361.616	76.19
361.843	87.19
362.07	91.19
362.296	97.19
362.523	77.19
362.749	90.19
362.976	87.19
363.203	92.19
363.429	77.19
363.656	84.19
363.882	84.19
364.109	72.19
364.335	91.19
364.562	90.19
364.788	93.19
365.015	94.19
365.241	88.19
365.468	70.19
365.694	74.19
365.92	81.19
366.147	74.19
366.373	84.19
366.599	76.19
366.826	98.19
367.052	102.19
367.278	83.19
367.505	98.19
367.731	91.19
367.957	72.19
368.184	87.19
368.41	85.19
368.636	86.19
368.862	88.19
369.089	87.19
369.315	100.19
369.541	101.19
369.767	97.19
369.993	91.19
370.219	76.19
370.445	79.19
370.672	96.19
370.898	101.19
371.124	94.19
371.35	96.19
371.576	97.19
371.802	91.19
372.028	91.19
372.254	95.19
372.48	78.19
372.706	63.19
372.932	78.19
373.158	99.19
373.384	102.19
373.61	89.19
373.835	87.19
374.061	79.19
374.287	89.19
374.513	83.19
374.739	110.19
374.965	96.19
375.191	92.19
375.416	90.19
375.642	86.19
375.868	114.19
376.094	90.19
376.319	77.19
376.545	91.19
376.771	102.19
376.997	97.19
377.222	83.19
377.448	82.19
377.674	100.19
377.899	91.19
378.125	81.19
378.35	100.19
378.576	87.19
378.802	93.19
379.027	87.19
379.253	89.19
379.478	84.19
379.704	91.19
379.929	94.19
380.155	103.19
380.38	97.19
380.606	96.19
380.831	99.19
381.057	100.19
381.282	92.19
381.507	89.19
381.733	80.19
381.958	88.19
382.184	98.19
382.409	95.19
382.634	92.19
382.86	100.19
383.085	82.19
383.31	100.19
383.535	92.19
383.761	80.19
383.986	97.19
384.211	104.19
384.436	95.19
384.662	97.19
384.887	93.19
385.112	86.19
385.337	99.19
385.562	96.19
385.787	96.19
386.013	95.19
386.238	107.19
386.463	97.19
386.688	109.19
386.913	95.19
387.138	81.19
387.363	105.19
387.588	106.19
387.813	112.19
388.038	97.19
388.263	106.19
388.488	95.19
388.713	101.19
388.938	90.19
389.163	97.19
389.387	100.19
389.612	93.19
389.837	94.19
390.062	102.19
390.287	100.19
390.512	102.19
390.736	109.19
390.961	103.19
391.186	88.19
391.411	100.19
391.636	102.19
391.86	101.19
392.085	89.19
392.31	91.19
392.534	117.19
392.759	105.19
392.984	117.19
393.208	115.19
393.433	109.19
393.658	111.19
393.882	99.19
394.107	99.19
394.331	112.19
394.556	96.19
394.78	101.19
395.005	109.19
395.229	111.19
395.454	108.19
395.678	100.19
395.903	106.19
396.127	97.19
396.352	91.19
396.576	105.19
396.801	108.19
397.025	113.19
397.249	113.19
397.474	106.19
397.698	117.19
397.922	122.19
398.147	117.19
398.371	92.19
398.595	95.19
398.82	105.19
399.044	117.19
399.268	115.19
399.492	114.19
399.717	118.19
399.941	99.19
400.165	115.19
400.389	104.19
400.613	121.19
400.837	111.19
401.062	99.19
401.286	108.19
401.51	104.19
401.734	113.19
401.958	107.19
402.182	119.19
402.406	118.19
402.63	105.19
402.854	132.19
403.078	114.19
403.302	119.19
403.526	107.19
403.75	114.19
403.974	119.19
404.198	117.19
404.422	118.19
404.645	111.19
404.869	106.19
405.093	98.19
405.317	121.19
405.541	115.19
405.765	114.19
405.988	129.19
406.212	124.19
406.436	105.19
406.66	117.19
406.883	105.19
407.107	105.19
407.331	117.19
407.555	113.19
407.778	125.19
408.002	115.19
408.226	109.19
408.449	122.19
408.673	104.19
408.896	112.19
409.12	124.19
409.344	104.19
409.567	115.19
409.791	123.19
410.014	130.19
410.238	131.19
410.461	131.19
410.685	123.19
410.908	118.19
411.132	121.19
411.355	121.19
411.578	115.19
411.802	121.19
412.025	123.19
412.249	122.19
412.472	117.19
412.695	111.19
412.919	122.19
413.142	118.19
413.365	111.19
413.589	130.19
413.812	125.19
414.035	118.19
414.258	125.19
414.482	125.19
414.705	136.19
414.928	117.19
415.151	121.19
415.374	131.19
415.597	119.19
415.821	131.19
416.044	123.19
416.267	133.19
416.49	116.19
416.713	135.19
416.936	131.19
417.159	113.19
417.382	130.19
417.605	127.19
417.828	120.19
418.051	115.19
418.274	133.19
418.497	123.19
418.72	137.19
418.943	124.19
419.166	134.19
419.389	141.19
419.611	129.19
419.834	109.19
420.057	132.19
420.28	135.19
420.503	133.19
420.726	130.19
420.948	146.19
421.171	124.19
421.394	127.19
421.617	137.19
421.839	139.19
422.062	120.19
422.285	129.19
422.507	119.19
422.73	133.19
422.953	112.19
423.175	122.19
423.398	130.19
423.621	120.19
423.843	130.19
424.066	138.19
424.288	140.19
424.511	131.19
424.733	137.19
424.956	149.19
425.178	142.19
425.401	124.19
425.623	127.19
425.846	131.19
426.068	148.19
426.291	133.19
426.513	123.19
426.735	132.19
426.958	153.19
427.18	129.19
427.402	131.19
427.625	138.19
427.847	120.19
428.069	139.19
428.292	129.19
428.514	127.19
428.736	125.19
428.958	137.19
429.181	125.19
429.403	141.19
429.625	119.19
429.847	125.19
430.069	114.19
430.292	143.19
430.514	125.19
430.736	128.19
430.958	117.19
431.18	129.19
431.402	118.19
431.624	122.19
431.846	99.19
432.068	86.19
432.29	93.19
432.512	118.19
432.734	119.19
432.956	145.19
433.178	136.19
433.4	123.19
433.622	135.19
433.844	138.19
434.066	134.19
434.287	104.19
434.509	95.19
434.731	106.19
434.953	106.19
435.175	126.19
435.397	122.19
435.618	120.19
435.84	112.19
436.062	116.19
436.284	120.19
436.505	125.19
436.727	132.19
436.949	140.19
437.17	128.19
437.392	123.19
437.614	127.19
437.835	114.19
438.057	104.19
438.278	101.19
438.5	113.19
438.721	124.19
438.943	133.19
439.165	133.19
439.386	133.19
439.608	147.19
439.829	138.19
440.05	147.19
440.272	136.19
440.493	145.19
440.715	141.19
440.936	135.19
441.158	130.19
441.379	160.19
441.6	153.19
441.822	151.19
442.043	156.19
442.264	147.19
442.486	136.19
442.707	149.19
442.928	132.19
443.149	138.19
443.371	130.19
443.592	133.19
443.813	147.19
444.034	152.19
444.255	140.19
444.476	142.19
444.698	140.19
444.919	131.19
445.14	289.19
445.361	218.19
445.582	159.19
445.803	141.19
446.024	173.19
446.245	147.19
446.466	149.19
446.687	148.19
446.908	147.19
447.129	164.19
447.35	147.19
447.571	146.19
447.792	138.19
448.013	141.19
448.234	147.19
448.455	145.19
448.675	136.19
448.896	149.19
449.117	140.19
449.338	145.19
449.559	121.19
449.779	124.19
450	141.19
450.221	125.19
450.442	115.19
450.662	125.19
450.883	140.19
451.104	131.19
451.324	138.19
451.545	127.19
451.766	125.19
451.986	121.19
452.207	123.19
452.428	117.19
452.648	119.19
452.869	129.19
453.089	113.19
453.31	112.19
453.53	119.19
453.751	100.19
453.971	102.19
454.192	111.19
454.412	100.19
454.633	115.19
454.853	114.19
455.073	141.19
455.294	123.19
455.514	124.19
455.734	126.19
455.955	120.19
456.175	112.19
456.395	108.19
456.616	111.19
456.836	101.19
457.056	119.19
457.276	91.19
457.497	82.19
457.717	105.19
457.937	104.19
458.157	101.19
458.377	101.19
458.598	92.19
458.818	96.19
459.038	97.19
459.258	100.19
459.478	101.19
459.698	98.19
459.918	103.19
460.138	106.19
460.358	112.19
460.578	111.19
460.798	112.19
461.018	113.19
461.238	106.19
461.458	117.19
461.678	104.19
461.898	111.19
462.118	129.19
462.338	125.19
462.558	123.19
462.777	118.19
462.997	121.19
463.217	119.19
463.437	114.19
463.657	101.19
463.876	109.19
464.096	112.19
464.316	117.19
464.536	124.19
464.755	127.19
464.975	118.19
465.195	109.19
465.414	101.19
465.634	119.19
465.854	117.19
466.073	103.19
466.293	113.19
466.512	119.19
466.732	123.19
466.951	138.19
467.171	123.19
467.391	121.19
467.61	136.19
467.829	141.19
468.049	154.19
468.268	133.19
468.488	138.19
468.707	127.19
468.927	134.19
469.146	135.19
469.365	131.19
469.585	141.19
469.804	145.19
470.023	135.19
470.243	157.19
470.462	151.19
470.681	129.19
470.901	129.19
471.12	124.19
471.339	152.19
471.558	128.19
471.777	155.19
471.997	139.19
472.216	144.19
472.435	123.19
472.654	115.19
472.873	123.19
473.092	124.19
473.311	131.19
473.53	124.19
473.749	112.19
473.968	120.19
474.187	123.19
474.406	123.19
474.625	125.19
474.844	136.19
475.063	134.19
475.282	136.19
475.501	121.19
475.72	113.19
475.939	125.19
476.158	130.19
476.377	120.19
476.596	136.19
476.814	112.19
477.033	116.19
477.252	122.19
477.471	119.19
477.69	132.19
477.908	134.19
478.127	138.19
478.346	139.19
478.564	144.19
478.783	142.19
479.002	137.19
479.22	134.19
479.439	141.19
479.658	115.19
479.876	124.19
480.095	96.19
480.313	92.19
480.532	130.19
480.751	120.19
480.969	84.19
481.188	106.19
481.406	89.19
481.624	96.19
481.843	90.19
482.061	95.19
482.28	125.19
482.498	113.19
482.717	112.19
482.935	123.19
483.153	147.19
483.372	127.19
483.59	147.19
483.808	134.19
484.027	147.19
484.245	141.19
484.463	135.19
484.681	158.19
484.9	156.19
485.118	131.19
485.336	134.19
485.554	106.19
485.772	100.19
485.99	111.19
486.209	112.19
486.427	112.19
486.645	115.19
486.863	145.19
487.081	124.19
487.299	121.19
487.517	122.19
487.735	168.19
487.953	172.19
488.171	178.19
488.389	171.19
488.607	159.19
488.825	141.19
489.043	121.19
489.261	144.19
489.479	141.19
489.696	154.19
489.914	141.19
490.132	138.19
490.35	157.19
490.568	147.19
490.786	166.19
491.003	177.19
491.221	187.19
491.439	181.19
491.657	172.19
491.874	201.19
492.092	239.19
492.31	230.19
492.527	223.19
492.745	201.19
492.963	190.19
493.18	188.19
493.398	191.19
493.615	182.19
493.833	179.19
494.05	157.19
494.268	163.19
494.485	174.19
494.703	184.19
494.92	168.19
495.138	164.19
495.355	180.19
495.573	168.19
495.79	152.19
496.008	161.19
496.225	149.19
496.442	157.19
496.66	168.19
496.877	163.19
497.094	153.19
497.312	167.19
497.529	163.19
497.746	160.19
497.963	132.19
498.181	146.19
498.398	141.19
498.615	122.19
498.832	108.19
499.049	119.19
499.267	125.19
499.484	117.19
499.701	145.19
499.918	127.19
500.135	145.19
500.352	158.19
500.569	131.19
500.786	140.19
501.003	147.19
501.22	128.19
501.437	131.19
501.654	141.19
501.871	133.19
502.088	125.19
502.305	119.19
502.522	131.19
502.739	114.19
502.956	135.19
503.172	122.19
503.389	121.19
503.606	120.19
503.823	121.19
504.04	121.19
504.256	136.19
504.473	122.19
504.69	129.19
504.907	123.19
505.123	119.19
505.34	127.19
505.557	112.19
505.773	124.19
505.99	114.19
506.207	116.19
506.423	106.19
506.64	129.19
506.856	127.19
507.073	119.19
507.289	121.19
507.506	126.19
507.722	115.19
507.939	117.19
508.155	129.19
508.372	111.19
508.588	103.19
508.805	116.19
509.021	111.19
509.238	117.19
509.454	98.19
509.67	116.19
509.887	92.19
510.103	96.19
510.319	92.19
510.536	88.19
510.752	92.19
510.968	75.19
511.184	80.19
511.401	91.19
511.617	85.19
