Data from Location2.07152019.Energy5.Lamp.07192019.3%Agarose_HRD10591_14-58-55-359.txt Node
Date: Fri Jul 19 14:58:55 EDT 2019
User: cochatt
Spectrometer: HR+D1059
Trigger mode: 1
Integration Time (sec): 1.000000E-1
Scans to average: 1
Electric dark correction enabled: true
Nonlinearity correction enabled: false
Boxcar width: 0
XAxis mode: Wavelengths
Number of Pixels in Spectrum: 2048
>>>>>Begin Spectral Data<<<<<
223.165	-0.38
223.4	-0.38
223.635	-0.38
223.869	-19.38
224.104	-6.38
224.338	-24.38
224.573	-8.38
224.808	-17.38
225.042	-28.38
225.277	-8.38
225.511	4.62
225.746	-5.38
225.98	21.62
226.215	4.62
226.449	16.62
226.683	27.62
226.918	11.62
227.152	31.62
227.387	35.62
227.621	49.62
227.856	51.62
228.09	45.62
228.324	52.62
228.559	49.62
228.793	62.62
229.027	62.62
229.262	78.62
229.496	62.62
229.73	82.62
229.964	73.62
230.199	81.62
230.433	84.62
230.667	76.62
230.901	80.62
231.136	91.62
231.37	69.62
231.604	89.62
231.838	108.62
232.072	81.62
232.306	87.62
232.541	90.62
232.775	88.62
233.009	80.62
233.243	90.62
233.477	81.62
233.711	78.62
233.945	86.62
234.179	86.62
234.413	88.62
234.647	92.62
234.881	86.62
235.115	85.62
235.349	87.62
235.583	79.62
235.817	83.62
236.051	86.62
236.285	91.62
236.519	85.62
236.753	90.62
236.987	67.62
237.221	87.62
237.455	85.62
237.689	76.62
237.922	89.62
238.156	67.62
238.39	87.62
238.624	82.62
238.858	71.62
239.091	83.62
239.325	96.62
239.559	79.62
239.793	77.62
240.027	74.62
240.26	73.62
240.494	88.62
240.728	86.62
240.961	76.62
241.195	91.62
241.429	75.62
241.662	76.62
241.896	77.62
242.13	78.62
242.363	85.62
242.597	90.62
242.83	73.62
243.064	75.62
243.298	77.62
243.531	87.62
243.765	94.62
243.998	85.62
244.232	83.62
244.465	102.62
244.699	86.62
244.932	94.62
245.166	92.62
245.399	83.62
245.633	78.62
245.866	83.62
246.099	92.62
246.333	78.62
246.566	86.62
246.8	90.62
247.033	75.62
247.266	92.62
247.5	80.62
247.733	97.62
247.966	92.62
248.2	71.62
248.433	67.62
248.666	90.62
248.899	92.62
249.133	95.62
249.366	86.62
249.599	78.62
249.832	95.62
250.066	83.62
250.299	92.62
250.532	88.62
250.765	74.62
250.998	77.62
251.231	95.62
251.465	95.62
251.698	75.62
251.931	74.62
252.164	78.62
252.397	81.62
252.63	88.62
252.863	74.62
253.096	90.62
253.329	85.62
253.562	74.62
253.795	76.62
254.028	76.62
254.261	80.62
254.494	88.62
254.727	84.62
254.96	82.62
255.193	96.62
255.426	81.62
255.659	110.62
255.892	82.62
256.124	83.62
256.357	85.62
256.59	67.62
256.823	79.62
257.056	85.62
257.289	89.62
257.521	84.62
257.754	71.62
257.987	91.62
258.22	92.62
258.452	74.62
258.685	94.62
258.918	94.62
259.151	93.62
259.383	91.62
259.616	82.62
259.849	83.62
260.081	86.62
260.314	70.62
260.547	76.62
260.779	84.62
261.012	85.62
261.244	93.62
261.477	97.62
261.71	96.62
261.942	75.62
262.175	88.62
262.407	92.62
262.64	86.62
262.872	75.62
263.105	74.62
263.337	78.62
263.57	80.62
263.802	94.62
264.035	82.62
264.267	83.62
264.499	93.62
264.732	82.62
264.964	79.62
265.197	83.62
265.429	96.62
265.661	89.62
265.894	100.62
266.126	85.62
266.358	77.62
266.591	95.62
266.823	87.62
267.055	81.62
267.287	96.62
267.52	87.62
267.752	86.62
267.984	90.62
268.216	84.62
268.448	87.62
268.681	85.62
268.913	84.62
269.145	91.62
269.377	88.62
269.609	90.62
269.841	95.62
270.073	81.62
270.306	77.62
270.538	90.62
270.77	81.62
271.002	96.62
271.234	74.62
271.466	93.62
271.698	88.62
271.93	79.62
272.162	73.62
272.394	87.62
272.626	91.62
272.858	86.62
273.09	72.62
273.322	99.62
273.553	90.62
273.785	91.62
274.017	93.62
274.249	88.62
274.481	77.62
274.713	78.62
274.945	83.62
275.176	82.62
275.408	84.62
275.64	90.62
275.872	83.62
276.104	98.62
276.335	79.62
276.567	98.62
276.799	102.62
277.031	89.62
277.262	80.62
277.494	92.62
277.726	85.62
277.957	87.62
278.189	99.62
278.421	80.62
278.652	67.62
278.884	84.62
279.115	96.62
279.347	93.62
279.579	89.62
279.81	73.62
280.042	91.62
280.273	77.62
280.505	90.62
280.736	76.62
280.968	94.62
281.199	90.62
281.431	84.62
281.662	87.62
281.894	97.62
282.125	95.62
282.356	95.62
282.588	97.62
282.819	90.62
283.051	98.62
283.282	85.62
283.513	91.62
283.745	80.62
283.976	89.62
284.207	78.62
284.439	102.62
284.67	88.62
284.901	92.62
285.132	95.62
285.364	88.62
285.595	87.62
285.826	92.62
286.057	75.62
286.288	100.62
286.52	85.62
286.751	83.62
286.982	82.62
287.213	110.62
287.444	91.62
287.675	84.62
287.906	91.62
288.138	81.62
288.369	81.62
288.6	87.62
288.831	87.62
289.062	84.62
289.293	77.62
289.524	92.62
289.755	87.62
289.986	96.62
290.217	82.62
290.448	93.62
290.679	86.62
290.91	96.62
291.141	71.62
291.371	101.62
291.602	81.62
291.833	87.62
292.064	94.62
292.295	84.62
292.526	90.62
292.757	93.62
292.987	93.62
293.218	76.62
293.449	91.62
293.68	90.62
293.91	78.62
294.141	89.62
294.372	84.62
294.603	85.62
294.833	85.62
295.064	95.62
295.295	92.62
295.525	94.62
295.756	97.62
295.987	93.62
296.217	90.62
296.448	86.62
296.679	93.62
296.909	93.62
297.14	104.62
297.37	86.62
297.601	77.62
297.831	86.62
298.062	84.62
298.292	88.62
298.523	88.62
298.753	94.62
298.984	95.62
299.214	101.62
299.445	83.62
299.675	91.62
299.905	101.62
300.136	103.62
300.366	98.62
300.597	86.62
300.827	91.62
301.057	82.62
301.288	85.62
301.518	104.62
301.748	84.62
301.979	92.62
302.209	95.62
302.439	93.62
302.669	79.62
302.9	89.62
303.13	85.62
303.36	86.62
303.59	88.62
303.82	85.62
304.051	79.62
304.281	95.62
304.511	103.62
304.741	81.62
304.971	84.62
305.201	91.62
305.431	89.62
305.661	102.62
305.891	81.62
306.121	88.62
306.352	85.62
306.582	86.62
306.812	93.62
307.042	90.62
307.272	79.62
307.502	95.62
307.731	108.62
307.961	85.62
308.191	94.62
308.421	102.62
308.651	102.62
308.881	70.62
309.111	94.62
309.341	83.62
309.571	87.62
309.8	84.62
310.03	90.62
310.26	85.62
310.49	88.62
310.72	82.62
310.949	97.62
311.179	104.62
311.409	93.62
311.639	94.62
311.868	90.62
312.098	94.62
312.328	99.62
312.557	85.62
312.787	82.62
313.017	88.62
313.246	89.62
313.476	102.62
313.706	86.62
313.935	92.62
314.165	93.62
314.394	80.62
314.624	99.62
314.853	79.62
315.083	87.62
315.312	103.62
315.542	91.62
315.771	88.62
316.001	71.62
316.23	85.62
316.46	76.62
316.689	94.62
316.919	85.62
317.148	95.62
317.377	85.62
317.607	85.62
317.836	79.62
318.065	82.62
318.295	79.62
318.524	83.62
318.753	87.62
318.983	88.62
319.212	90.62
319.441	90.62
319.67	85.62
319.9	77.62
320.129	93.62
320.358	91.62
320.587	83.62
320.816	91.62
321.046	97.62
321.275	85.62
321.504	94.62
321.733	96.62
321.962	76.62
322.191	73.62
322.42	87.62
322.649	95.62
322.878	98.62
323.108	87.62
323.337	96.62
323.566	90.62
323.795	91.62
324.024	95.62
324.253	82.62
324.482	96.62
324.71	102.62
324.939	78.62
325.168	75.62
325.397	87.62
325.626	79.62
325.855	93.62
326.084	73.62
326.313	96.62
326.542	77.62
326.77	98.62
326.999	100.62
327.228	85.62
327.457	78.62
327.686	89.62
327.914	71.62
328.143	87.62
328.372	77.62
328.6	84.62
328.829	103.62
329.058	78.62
329.287	91.62
329.515	87.62
329.744	88.62
329.972	86.62
330.201	103.62
330.43	96.62
330.658	70.62
330.887	87.62
331.115	92.62
331.344	86.62
331.572	84.62
331.801	83.62
332.03	84.62
332.258	91.62
332.486	77.62
332.715	81.62
332.943	89.62
333.172	90.62
333.4	81.62
333.629	87.62
333.857	81.62
334.085	89.62
334.314	93.62
334.542	94.62
334.771	91.62
334.999	91.62
335.227	79.62
335.455	77.62
335.684	90.62
335.912	83.62
336.14	103.62
336.369	80.62
336.597	100.62
336.825	85.62
337.053	94.62
337.281	86.62
337.51	87.62
337.738	83.62
337.966	92.62
338.194	89.62
338.422	90.62
338.65	98.62
338.878	95.62
339.106	100.62
339.334	99.62
339.562	84.62
339.79	78.62
340.018	79.62
340.246	86.62
340.474	78.62
340.702	90.62
340.93	86.62
341.158	83.62
341.386	83.62
341.614	92.62
341.842	84.62
342.07	84.62
342.298	85.62
342.526	115.62
342.754	87.62
342.981	87.62
343.209	82.62
343.437	111.62
343.665	85.62
343.893	102.62
344.12	83.62
344.348	95.62
344.576	89.62
344.804	99.62
345.031	85.62
345.259	89.62
345.487	89.62
345.714	97.62
345.942	87.62
346.17	81.62
346.397	99.62
346.625	94.62
346.853	92.62
347.08	84.62
347.308	81.62
347.535	75.62
347.763	84.62
347.99	83.62
348.218	90.62
348.445	86.62
348.673	84.62
348.9	86.62
349.128	94.62
349.355	93.62
349.583	82.62
349.81	79.62
350.037	88.62
350.265	88.62
350.492	80.62
350.72	81.62
350.947	71.62
351.174	94.62
351.402	86.62
351.629	80.62
351.856	84.62
352.083	99.62
352.311	86.62
352.538	101.62
352.765	89.62
352.992	97.62
353.22	89.62
353.447	90.62
353.674	79.62
353.901	84.62
354.128	90.62
354.355	78.62
354.583	85.62
354.81	80.62
355.037	107.62
355.264	62.62
355.491	81.62
355.718	91.62
355.945	81.62
356.172	79.62
356.399	88.62
356.626	72.62
356.853	66.62
357.08	96.62
357.307	91.62
357.534	81.62
357.761	80.62
357.988	84.62
358.215	98.62
358.441	86.62
358.668	88.62
358.895	93.62
359.122	82.62
359.349	91.62
359.576	88.62
359.802	100.62
360.029	87.62
360.256	89.62
360.483	88.62
360.709	68.62
360.936	87.62
361.163	81.62
361.39	99.62
361.616	80.62
361.843	87.62
362.07	91.62
362.296	79.62
362.523	94.62
362.749	88.62
362.976	81.62
363.203	93.62
363.429	82.62
363.656	91.62
363.882	92.62
364.109	102.62
364.335	92.62
364.562	96.62
364.788	96.62
365.015	108.62
365.241	89.62
365.468	92.62
365.694	89.62
365.92	98.62
366.147	90.62
366.373	91.62
366.599	79.62
366.826	91.62
367.052	81.62
367.278	103.62
367.505	90.62
367.731	87.62
367.957	105.62
368.184	94.62
368.41	88.62
368.636	88.62
368.862	92.62
369.089	110.62
369.315	99.62
369.541	102.62
369.767	91.62
369.993	106.62
370.219	97.62
370.445	89.62
370.672	95.62
370.898	85.62
371.124	100.62
371.35	108.62
371.576	95.62
371.802	89.62
372.028	90.62
372.254	103.62
372.48	86.62
372.706	88.62
372.932	98.62
373.158	107.62
373.384	117.62
373.61	100.62
373.835	97.62
374.061	94.62
374.287	95.62
374.513	91.62
374.739	79.62
374.965	89.62
375.191	84.62
375.416	89.62
375.642	112.62
375.868	101.62
376.094	99.62
376.319	93.62
376.545	87.62
376.771	101.62
376.997	82.62
377.222	88.62
377.448	101.62
377.674	103.62
377.899	102.62
378.125	102.62
378.35	94.62
378.576	99.62
378.802	94.62
379.027	92.62
379.253	107.62
379.478	105.62
379.704	93.62
379.929	95.62
380.155	91.62
380.38	97.62
380.606	98.62
380.831	105.62
381.057	89.62
381.282	100.62
381.507	110.62
381.733	104.62
381.958	93.62
382.184	117.62
382.409	93.62
382.634	104.62
382.86	103.62
383.085	95.62
383.31	105.62
383.535	108.62
383.761	95.62
383.986	78.62
384.211	103.62
384.436	104.62
384.662	115.62
384.887	95.62
385.112	106.62
385.337	104.62
385.562	89.62
385.787	95.62
386.013	106.62
386.238	102.62
386.463	97.62
386.688	115.62
386.913	91.62
387.138	88.62
387.363	101.62
387.588	107.62
387.813	115.62
388.038	105.62
388.263	104.62
388.488	108.62
388.713	104.62
388.938	102.62
389.163	101.62
389.387	109.62
389.612	89.62
389.837	104.62
390.062	99.62
390.287	120.62
390.512	100.62
390.736	95.62
390.961	113.62
391.186	107.62
391.411	118.62
391.636	111.62
391.86	112.62
392.085	96.62
392.31	115.62
392.534	109.62
392.759	100.62
392.984	105.62
393.208	105.62
393.433	103.62
393.658	101.62
393.882	111.62
394.107	98.62
394.331	111.62
394.556	116.62
394.78	106.62
395.005	119.62
395.229	109.62
395.454	112.62
395.678	111.62
395.903	116.62
396.127	108.62
396.352	112.62
396.576	104.62
396.801	109.62
397.025	98.62
397.249	118.62
397.474	115.62
397.698	104.62
397.922	109.62
398.147	100.62
398.371	92.62
398.595	122.62
398.82	112.62
399.044	112.62
399.268	110.62
399.492	126.62
399.717	117.62
399.941	102.62
400.165	128.62
400.389	133.62
400.613	115.62
400.837	107.62
401.062	107.62
401.286	119.62
401.51	108.62
401.734	112.62
401.958	111.62
402.182	106.62
402.406	103.62
402.63	121.62
402.854	109.62
403.078	99.62
403.302	108.62
403.526	113.62
403.75	128.62
403.974	104.62
404.198	125.62
404.422	121.62
404.645	121.62
404.869	128.62
405.093	104.62
405.317	118.62
405.541	128.62
405.765	110.62
405.988	115.62
406.212	115.62
406.436	126.62
406.66	123.62
406.883	122.62
407.107	109.62
407.331	118.62
407.555	107.62
407.778	109.62
408.002	110.62
408.226	121.62
408.449	126.62
408.673	129.62
408.896	127.62
409.12	118.62
409.344	122.62
409.567	116.62
409.791	127.62
410.014	127.62
410.238	127.62
410.461	128.62
410.685	136.62
410.908	127.62
411.132	129.62
411.355	120.62
411.578	144.62
411.802	137.62
412.025	123.62
412.249	111.62
412.472	101.62
412.695	121.62
412.919	123.62
413.142	123.62
413.365	135.62
413.589	131.62
413.812	126.62
414.035	106.62
414.258	117.62
414.482	115.62
414.705	119.62
414.928	128.62
415.151	109.62
415.374	118.62
415.597	136.62
415.821	117.62
416.044	117.62
416.267	137.62
416.49	134.62
416.713	128.62
416.936	135.62
417.159	132.62
417.382	120.62
417.605	130.62
417.828	143.62
418.051	128.62
418.274	136.62
418.497	123.62
418.72	125.62
418.943	134.62
419.166	123.62
419.389	131.62
419.611	132.62
419.834	129.62
420.057	126.62
420.28	126.62
420.503	136.62
420.726	140.62
420.948	135.62
421.171	139.62
421.394	145.62
421.617	142.62
421.839	143.62
422.062	156.62
422.285	133.62
422.507	127.62
422.73	125.62
422.953	138.62
423.175	133.62
423.398	137.62
423.621	124.62
423.843	134.62
424.066	141.62
424.288	129.62
424.511	139.62
424.733	146.62
424.956	135.62
425.178	151.62
425.401	143.62
425.623	142.62
425.846	134.62
426.068	136.62
426.291	131.62
426.513	135.62
426.735	136.62
426.958	123.62
427.18	139.62
427.402	124.62
427.625	127.62
427.847	133.62
428.069	120.62
428.292	123.62
428.514	130.62
428.736	131.62
428.958	126.62
429.181	138.62
429.403	123.62
429.625	131.62
429.847	136.62
430.069	114.62
430.292	133.62
430.514	127.62
430.736	113.62
430.958	138.62
431.18	115.62
431.402	127.62
431.624	132.62
431.846	112.62
432.068	104.62
432.29	97.62
432.512	102.62
432.734	127.62
432.956	133.62
433.178	146.62
433.4	147.62
433.622	155.62
433.844	131.62
434.066	127.62
434.287	112.62
434.509	94.62
434.731	111.62
434.953	124.62
435.175	123.62
435.397	131.62
435.618	126.62
435.84	121.62
436.062	108.62
436.284	126.62
436.505	136.62
436.727	125.62
436.949	123.62
437.17	137.62
437.392	135.62
437.614	121.62
437.835	111.62
438.057	100.62
438.278	108.62
438.5	116.62
438.721	126.62
438.943	120.62
439.165	133.62
439.386	112.62
439.608	137.62
439.829	147.62
440.05	152.62
440.272	136.62
440.493	140.62
440.715	159.62
440.936	159.62
441.158	155.62
441.379	142.62
441.6	141.62
441.822	151.62
442.043	149.62
442.264	132.62
442.486	135.62
442.707	137.62
442.928	139.62
443.149	137.62
443.371	144.62
443.592	136.62
443.813	148.62
444.034	133.62
444.255	129.62
444.476	139.62
444.698	126.62
444.919	137.62
445.14	288.62
445.361	193.62
445.582	150.62
445.803	147.62
446.024	155.62
446.245	154.62
446.466	155.62
446.687	150.62
446.908	152.62
447.129	138.62
447.35	153.62
447.571	168.62
447.792	140.62
448.013	147.62
448.234	140.62
448.455	149.62
448.675	132.62
448.896	143.62
449.117	127.62
449.338	128.62
449.559	134.62
449.779	138.62
450	142.62
450.221	142.62
450.442	155.62
450.662	122.62
450.883	150.62
451.104	143.62
451.324	135.62
451.545	130.62
451.766	128.62
451.986	140.62
452.207	126.62
452.428	129.62
452.648	129.62
452.869	120.62
453.089	116.62
453.31	111.62
453.53	116.62
453.751	111.62
453.971	106.62
454.192	112.62
454.412	125.62
454.633	121.62
454.853	124.62
455.073	122.62
455.294	124.62
455.514	133.62
455.734	123.62
455.955	112.62
456.175	126.62
456.395	118.62
456.616	109.62
456.836	122.62
457.056	112.62
457.276	121.62
457.497	107.62
457.717	105.62
457.937	103.62
458.157	111.62
458.377	98.62
458.598	97.62
458.818	97.62
459.038	98.62
459.258	94.62
459.478	86.62
459.698	99.62
459.918	102.62
460.138	103.62
460.358	117.62
460.578	106.62
460.798	121.62
461.018	125.62
461.238	119.62
461.458	115.62
461.678	112.62
461.898	111.62
462.118	120.62
462.338	104.62
462.558	116.62
462.777	112.62
462.997	107.62
463.217	100.62
463.437	105.62
463.657	97.62
463.876	111.62
464.096	109.62
464.316	103.62
464.536	110.62
464.755	124.62
464.975	104.62
465.195	123.62
465.414	123.62
465.634	122.62
465.854	125.62
466.073	123.62
466.293	134.62
466.512	118.62
466.732	128.62
466.951	126.62
467.171	141.62
467.391	147.62
467.61	140.62
467.829	139.62
468.049	132.62
468.268	134.62
468.488	133.62
468.707	149.62
468.927	142.62
469.146	127.62
469.365	145.62
469.585	145.62
469.804	128.62
470.023	134.62
470.243	149.62
470.462	135.62
470.681	135.62
470.901	145.62
471.12	143.62
471.339	138.62
471.558	158.62
471.777	135.62
471.997	130.62
472.216	124.62
472.435	127.62
472.654	106.62
472.873	121.62
473.092	126.62
473.311	121.62
473.53	143.62
473.749	126.62
473.968	132.62
474.187	126.62
474.406	105.62
474.625	121.62
474.844	136.62
475.063	127.62
475.282	134.62
475.501	123.62
475.72	138.62
475.939	136.62
476.158	146.62
476.377	137.62
476.596	131.62
476.814	113.62
477.033	115.62
477.252	116.62
477.471	130.62
477.69	138.62
477.908	153.62
478.127	146.62
478.346	143.62
478.564	136.62
478.783	150.62
479.002	137.62
479.22	136.62
479.439	127.62
479.658	129.62
479.876	133.62
480.095	120.62
480.313	109.62
480.532	103.62
480.751	113.62
480.969	80.62
481.188	94.62
481.406	90.62
481.624	91.62
481.843	87.62
482.061	100.62
482.28	119.62
482.498	112.62
482.717	112.62
482.935	129.62
483.153	135.62
483.372	174.62
483.59	148.62
483.808	140.62
484.027	123.62
484.245	123.62
484.463	141.62
484.681	150.62
484.9	151.62
485.118	144.62
485.336	139.62
485.554	135.62
485.772	104.62
485.99	108.62
486.209	107.62
486.427	122.62
486.645	110.62
486.863	129.62
487.081	135.62
487.299	132.62
487.517	137.62
487.735	176.62
487.953	191.62
488.171	185.62
488.389	182.62
488.607	172.62
488.825	146.62
489.043	135.62
489.261	138.62
489.479	143.62
489.696	157.62
489.914	153.62
490.132	154.62
490.35	164.62
490.568	157.62
490.786	173.62
491.003	165.62
491.221	190.62
491.439	183.62
491.657	188.62
491.874	192.62
492.092	201.62
492.31	252.62
492.527	225.62
492.745	211.62
492.963	207.62
493.18	187.62
493.398	191.62
493.615	212.62
493.833	177.62
494.05	183.62
494.268	159.62
494.485	180.62
494.703	181.62
494.92	177.62
495.138	174.62
495.355	176.62
495.573	175.62
495.79	168.62
496.008	173.62
496.225	167.62
496.442	169.62
496.66	172.62
496.877	161.62
497.094	179.62
497.312	175.62
497.529	167.62
497.746	153.62
497.963	148.62
498.181	142.62
498.398	151.62
498.615	132.62
498.832	127.62
499.049	117.62
499.267	131.62
499.484	139.62
499.701	125.62
499.918	119.62
500.135	133.62
500.352	151.62
500.569	155.62
500.786	148.62
501.003	157.62
501.22	156.62
501.437	138.62
501.654	133.62
501.871	115.62
502.088	131.62
502.305	131.62
502.522	136.62
502.739	145.62
502.956	129.62
503.172	134.62
503.389	117.62
503.606	118.62
503.823	124.62
504.04	108.62
504.256	115.62
504.473	117.62
504.69	123.62
504.907	132.62
505.123	119.62
505.34	119.62
505.557	108.62
505.773	127.62
505.99	137.62
506.207	141.62
506.423	123.62
506.64	127.62
506.856	118.62
507.073	121.62
507.289	126.62
507.506	119.62
507.722	128.62
507.939	110.62
508.155	123.62
508.372	110.62
508.588	103.62
508.805	109.62
509.021	117.62
509.238	109.62
509.454	91.62
509.67	124.62
509.887	104.62
510.103	105.62
510.319	103.62
510.536	99.62
510.752	99.62
