Data from Location2.07152019.Energy5.Lamp.07192019.3%Agarose_HRD10591_14-56-39-358.txt Node
Date: Fri Jul 19 14:56:39 EDT 2019
User: cochatt
Spectrometer: HR+D1059
Trigger mode: 1
Integration Time (sec): 1.000000E-1
Scans to average: 1
Electric dark correction enabled: true
Nonlinearity correction enabled: false
Boxcar width: 0
XAxis mode: Wavelengths
Number of Pixels in Spectrum: 2048
>>>>>Begin Spectral Data<<<<<
223.165	-12.94
223.4	-12.94
223.635	-12.94
223.869	-13.94
224.104	-16.94
224.338	-18.94
224.573	-19.94
224.808	-10.94
225.042	-2.94
225.277	2.06
225.511	-0.94
225.746	-13.94
225.98	14.06
226.215	18.06
226.449	6.06
226.683	18.06
226.918	14.06
227.152	39.06
227.387	28.06
227.621	46.06
227.856	56.06
228.09	50.06
228.324	48.06
228.559	63.06
228.793	51.06
229.027	51.06
229.262	70.06
229.496	62.06
229.73	79.06
229.964	76.06
230.199	78.06
230.433	64.06
230.667	79.06
230.901	88.06
231.136	71.06
231.37	81.06
231.604	77.06
231.838	81.06
232.072	96.06
232.306	74.06
232.541	89.06
232.775	89.06
233.009	82.06
233.243	89.06
233.477	82.06
233.711	89.06
233.945	89.06
234.179	86.06
234.413	81.06
234.647	88.06
234.881	80.06
235.115	78.06
235.349	80.06
235.583	79.06
235.817	77.06
236.051	80.06
236.285	74.06
236.519	88.06
236.753	88.06
236.987	89.06
237.221	80.06
237.455	76.06
237.689	96.06
237.922	82.06
238.156	79.06
238.39	69.06
238.624	69.06
238.858	85.06
239.091	75.06
239.325	72.06
239.559	91.06
239.793	79.06
240.027	82.06
240.26	94.06
240.494	68.06
240.728	81.06
240.961	83.06
241.195	76.06
241.429	83.06
241.662	86.06
241.896	79.06
242.13	90.06
242.363	74.06
242.597	68.06
242.83	68.06
243.064	77.06
243.298	79.06
243.531	88.06
243.765	84.06
243.998	71.06
244.232	96.06
244.465	84.06
244.699	82.06
244.932	82.06
245.166	80.06
245.399	94.06
245.633	84.06
245.866	74.06
246.099	85.06
246.333	75.06
246.566	75.06
246.8	73.06
247.033	94.06
247.266	83.06
247.5	91.06
247.733	74.06
247.966	79.06
248.2	70.06
248.433	85.06
248.666	60.06
248.899	82.06
249.133	87.06
249.366	96.06
249.599	84.06
249.832	73.06
250.066	83.06
250.299	76.06
250.532	71.06
250.765	80.06
250.998	86.06
251.231	84.06
251.465	85.06
251.698	61.06
251.931	82.06
252.164	89.06
252.397	82.06
252.63	89.06
252.863	85.06
253.096	77.06
253.329	86.06
253.562	98.06
253.795	82.06
254.028	90.06
254.261	84.06
254.494	84.06
254.727	96.06
254.96	79.06
255.193	78.06
255.426	91.06
255.659	80.06
255.892	77.06
256.124	88.06
256.357	81.06
256.59	78.06
256.823	87.06
257.056	83.06
257.289	76.06
257.521	96.06
257.754	80.06
257.987	83.06
258.22	76.06
258.452	90.06
258.685	89.06
258.918	86.06
259.151	70.06
259.383	92.06
259.616	91.06
259.849	82.06
260.081	88.06
260.314	74.06
260.547	76.06
260.779	80.06
261.012	90.06
261.244	86.06
261.477	88.06
261.71	98.06
261.942	82.06
262.175	84.06
262.407	80.06
262.64	75.06
262.872	91.06
263.105	91.06
263.337	91.06
263.57	95.06
263.802	66.06
264.035	88.06
264.267	104.06
264.499	84.06
264.732	80.06
264.964	86.06
265.197	97.06
265.429	72.06
265.661	84.06
265.894	87.06
266.126	79.06
266.358	91.06
266.591	71.06
266.823	92.06
267.055	86.06
267.287	90.06
267.52	78.06
267.752	87.06
267.984	89.06
268.216	96.06
268.448	74.06
268.681	84.06
268.913	76.06
269.145	79.06
269.377	86.06
269.609	82.06
269.841	80.06
270.073	78.06
270.306	84.06
270.538	89.06
270.77	71.06
271.002	96.06
271.234	89.06
271.466	91.06
271.698	93.06
271.93	103.06
272.162	74.06
272.394	77.06
272.626	89.06
272.858	96.06
273.09	86.06
273.322	69.06
273.553	82.06
273.785	92.06
274.017	86.06
274.249	94.06
274.481	92.06
274.713	92.06
274.945	78.06
275.176	78.06
275.408	76.06
275.64	88.06
275.872	96.06
276.104	94.06
276.335	85.06
276.567	86.06
276.799	81.06
277.031	92.06
277.262	90.06
277.494	99.06
277.726	72.06
277.957	78.06
278.189	83.06
278.421	94.06
278.652	81.06
278.884	79.06
279.115	72.06
279.347	87.06
279.579	88.06
279.81	84.06
280.042	85.06
280.273	84.06
280.505	86.06
280.736	99.06
280.968	84.06
281.199	93.06
281.431	77.06
281.662	76.06
281.894	83.06
282.125	76.06
282.356	90.06
282.588	91.06
282.819	87.06
283.051	90.06
283.282	83.06
283.513	78.06
283.745	85.06
283.976	85.06
284.207	82.06
284.439	72.06
284.67	90.06
284.901	84.06
285.132	83.06
285.364	82.06
285.595	93.06
285.826	90.06
286.057	90.06
286.288	79.06
286.52	95.06
286.751	100.06
286.982	78.06
287.213	80.06
287.444	94.06
287.675	77.06
287.906	90.06
288.138	88.06
288.369	73.06
288.6	86.06
288.831	90.06
289.062	83.06
289.293	83.06
289.524	98.06
289.755	87.06
289.986	77.06
290.217	77.06
290.448	91.06
290.679	97.06
290.91	108.06
291.141	74.06
291.371	83.06
291.602	81.06
291.833	87.06
292.064	95.06
292.295	87.06
292.526	99.06
292.757	90.06
292.987	87.06
293.218	76.06
293.449	84.06
293.68	76.06
293.91	79.06
294.141	98.06
294.372	90.06
294.603	101.06
294.833	83.06
295.064	91.06
295.295	70.06
295.525	86.06
295.756	66.06
295.987	93.06
296.217	102.06
296.448	87.06
296.679	94.06
296.909	83.06
297.14	90.06
297.37	99.06
297.601	93.06
297.831	74.06
298.062	89.06
298.292	83.06
298.523	103.06
298.753	83.06
298.984	74.06
299.214	83.06
299.445	74.06
299.675	78.06
299.905	89.06
300.136	89.06
300.366	64.06
300.597	79.06
300.827	98.06
301.057	77.06
301.288	70.06
301.518	83.06
301.748	80.06
301.979	78.06
302.209	106.06
302.439	89.06
302.669	96.06
302.9	86.06
303.13	102.06
303.36	92.06
303.59	86.06
303.82	86.06
304.051	104.06
304.281	73.06
304.511	100.06
304.741	96.06
304.971	79.06
305.201	84.06
305.431	100.06
305.661	71.06
305.891	83.06
306.121	79.06
306.352	92.06
306.582	103.06
306.812	90.06
307.042	84.06
307.272	91.06
307.502	75.06
307.731	91.06
307.961	94.06
308.191	91.06
308.421	85.06
308.651	101.06
308.881	78.06
309.111	96.06
309.341	89.06
309.571	85.06
309.8	92.06
310.03	90.06
310.26	86.06
310.49	103.06
310.72	82.06
310.949	93.06
311.179	86.06
311.409	93.06
311.639	102.06
311.868	93.06
312.098	92.06
312.328	84.06
312.557	89.06
312.787	91.06
313.017	92.06
313.246	95.06
313.476	91.06
313.706	86.06
313.935	80.06
314.165	90.06
314.394	94.06
314.624	85.06
314.853	83.06
315.083	94.06
315.312	86.06
315.542	92.06
315.771	86.06
316.001	90.06
316.23	78.06
316.46	80.06
316.689	94.06
316.919	94.06
317.148	87.06
317.377	102.06
317.607	92.06
317.836	87.06
318.065	94.06
318.295	97.06
318.524	87.06
318.753	78.06
318.983	86.06
319.212	83.06
319.441	83.06
319.67	87.06
319.9	90.06
320.129	85.06
320.358	97.06
320.587	97.06
320.816	86.06
321.046	76.06
321.275	87.06
321.504	82.06
321.733	95.06
321.962	108.06
322.191	102.06
322.42	95.06
322.649	85.06
322.878	87.06
323.108	95.06
323.337	83.06
323.566	82.06
323.795	86.06
324.024	84.06
324.253	99.06
324.482	94.06
324.71	74.06
324.939	101.06
325.168	94.06
325.397	77.06
325.626	91.06
325.855	81.06
326.084	87.06
326.313	64.06
326.542	91.06
326.77	76.06
326.999	78.06
327.228	90.06
327.457	93.06
327.686	98.06
327.914	84.06
328.143	89.06
328.372	94.06
328.6	80.06
328.829	66.06
329.058	91.06
329.287	84.06
329.515	95.06
329.744	89.06
329.972	73.06
330.201	91.06
330.43	77.06
330.658	87.06
330.887	99.06
331.115	85.06
331.344	84.06
331.572	100.06
331.801	84.06
332.03	72.06
332.258	77.06
332.486	80.06
332.715	85.06
332.943	83.06
333.172	97.06
333.4	89.06
333.629	96.06
333.857	74.06
334.085	79.06
334.314	103.06
334.542	83.06
334.771	97.06
334.999	91.06
335.227	74.06
335.455	86.06
335.684	94.06
335.912	87.06
336.14	84.06
336.369	88.06
336.597	94.06
336.825	80.06
337.053	80.06
337.281	75.06
337.51	89.06
337.738	75.06
337.966	79.06
338.194	88.06
338.422	102.06
338.65	91.06
338.878	85.06
339.106	92.06
339.334	86.06
339.562	95.06
339.79	86.06
340.018	84.06
340.246	90.06
340.474	89.06
340.702	95.06
340.93	91.06
341.158	72.06
341.386	75.06
341.614	82.06
341.842	88.06
342.07	93.06
342.298	76.06
342.526	78.06
342.754	100.06
342.981	86.06
343.209	91.06
343.437	98.06
343.665	78.06
343.893	91.06
344.12	96.06
344.348	87.06
344.576	79.06
344.804	91.06
345.031	78.06
345.259	78.06
345.487	81.06
345.714	91.06
345.942	92.06
346.17	96.06
346.397	87.06
346.625	85.06
346.853	85.06
347.08	88.06
347.308	88.06
347.535	86.06
347.763	92.06
347.99	91.06
348.218	88.06
348.445	90.06
348.673	78.06
348.9	93.06
349.128	88.06
349.355	84.06
349.583	78.06
349.81	100.06
350.037	98.06
350.265	93.06
350.492	94.06
350.72	77.06
350.947	70.06
351.174	83.06
351.402	85.06
351.629	79.06
351.856	86.06
352.083	91.06
352.311	89.06
352.538	76.06
352.765	89.06
352.992	95.06
353.22	91.06
353.447	82.06
353.674	82.06
353.901	94.06
354.128	74.06
354.355	66.06
354.583	83.06
354.81	96.06
355.037	91.06
355.264	92.06
355.491	90.06
355.718	85.06
355.945	90.06
356.172	83.06
356.399	75.06
356.626	92.06
356.853	66.06
357.08	81.06
357.307	84.06
357.534	84.06
357.761	85.06
357.988	87.06
358.215	100.06
358.441	75.06
358.668	90.06
358.895	79.06
359.122	90.06
359.349	85.06
359.576	94.06
359.802	92.06
360.029	78.06
360.256	86.06
360.483	88.06
360.709	89.06
360.936	87.06
361.163	79.06
361.39	81.06
361.616	94.06
361.843	80.06
362.07	87.06
362.296	78.06
362.523	82.06
362.749	90.06
362.976	76.06
363.203	107.06
363.429	79.06
363.656	86.06
363.882	92.06
364.109	95.06
364.335	82.06
364.562	71.06
364.788	83.06
365.015	88.06
365.241	94.06
365.468	85.06
365.694	87.06
365.92	88.06
366.147	76.06
366.373	84.06
366.599	82.06
366.826	92.06
367.052	84.06
367.278	94.06
367.505	108.06
367.731	95.06
367.957	79.06
368.184	82.06
368.41	85.06
368.636	89.06
368.862	92.06
369.089	87.06
369.315	108.06
369.541	98.06
369.767	88.06
369.993	93.06
370.219	86.06
370.445	93.06
370.672	89.06
370.898	95.06
371.124	101.06
371.35	75.06
371.576	100.06
371.802	90.06
372.028	79.06
372.254	104.06
372.48	79.06
372.706	97.06
372.932	100.06
373.158	100.06
373.384	95.06
373.61	107.06
373.835	88.06
374.061	98.06
374.287	102.06
374.513	84.06
374.739	86.06
374.965	104.06
375.191	93.06
375.416	116.06
375.642	85.06
375.868	101.06
376.094	90.06
376.319	94.06
376.545	93.06
376.771	99.06
376.997	95.06
377.222	91.06
377.448	98.06
377.674	93.06
377.899	106.06
378.125	95.06
378.35	90.06
378.576	107.06
378.802	86.06
379.027	88.06
379.253	95.06
379.478	93.06
379.704	86.06
379.929	92.06
380.155	105.06
380.38	86.06
380.606	110.06
380.831	96.06
381.057	101.06
381.282	91.06
381.507	95.06
381.733	78.06
381.958	100.06
382.184	93.06
382.409	100.06
382.634	115.06
382.86	98.06
383.085	100.06
383.31	93.06
383.535	93.06
383.761	99.06
383.986	100.06
384.211	99.06
384.436	107.06
384.662	104.06
384.887	91.06
385.112	115.06
385.337	107.06
385.562	112.06
385.787	99.06
386.013	106.06
386.238	108.06
386.463	105.06
386.688	92.06
386.913	108.06
387.138	94.06
387.363	91.06
387.588	120.06
387.813	112.06
388.038	82.06
388.263	91.06
388.488	95.06
388.713	104.06
388.938	95.06
389.163	105.06
389.387	101.06
389.612	100.06
389.837	95.06
390.062	101.06
390.287	103.06
390.512	125.06
390.736	95.06
390.961	106.06
391.186	102.06
391.411	108.06
391.636	104.06
391.86	104.06
392.085	110.06
392.31	110.06
392.534	104.06
392.759	116.06
392.984	111.06
393.208	119.06
393.433	116.06
393.658	101.06
393.882	98.06
394.107	120.06
394.331	108.06
394.556	102.06
394.78	106.06
395.005	106.06
395.229	106.06
395.454	103.06
395.678	101.06
395.903	119.06
396.127	118.06
396.352	108.06
396.576	116.06
396.801	92.06
397.025	102.06
397.249	130.06
397.474	114.06
397.698	111.06
397.922	122.06
398.147	106.06
398.371	106.06
398.595	115.06
398.82	102.06
399.044	117.06
399.268	110.06
399.492	119.06
399.717	109.06
399.941	117.06
400.165	119.06
400.389	125.06
400.613	112.06
400.837	114.06
401.062	122.06
401.286	132.06
401.51	119.06
401.734	99.06
401.958	111.06
402.182	108.06
402.406	120.06
402.63	120.06
402.854	121.06
403.078	103.06
403.302	103.06
403.526	120.06
403.75	116.06
403.974	99.06
404.198	114.06
404.422	116.06
404.645	124.06
404.869	126.06
405.093	134.06
405.317	121.06
405.541	137.06
405.765	123.06
405.988	118.06
406.212	128.06
406.436	118.06
406.66	122.06
406.883	118.06
407.107	124.06
407.331	111.06
407.555	126.06
407.778	124.06
408.002	124.06
408.226	123.06
408.449	115.06
408.673	115.06
408.896	116.06
409.12	132.06
409.344	116.06
409.567	102.06
409.791	115.06
410.014	108.06
410.238	106.06
410.461	98.06
410.685	117.06
410.908	131.06
411.132	125.06
411.355	108.06
411.578	128.06
411.802	128.06
412.025	110.06
412.249	104.06
412.472	116.06
412.695	130.06
412.919	119.06
413.142	124.06
413.365	138.06
413.589	132.06
413.812	126.06
414.035	138.06
414.258	124.06
414.482	126.06
414.705	124.06
414.928	123.06
415.151	135.06
415.374	134.06
415.597	127.06
415.821	124.06
416.044	134.06
416.267	135.06
416.49	123.06
416.713	120.06
416.936	124.06
417.159	124.06
417.382	127.06
417.605	121.06
417.828	134.06
418.051	131.06
418.274	142.06
418.497	125.06
418.72	126.06
418.943	131.06
419.166	122.06
419.389	126.06
419.611	118.06
419.834	150.06
420.057	120.06
420.28	140.06
420.503	151.06
420.726	131.06
420.948	133.06
421.171	120.06
421.394	134.06
421.617	144.06
421.839	139.06
422.062	127.06
422.285	138.06
422.507	153.06
422.73	126.06
422.953	127.06
423.175	122.06
423.398	115.06
423.621	117.06
423.843	124.06
424.066	148.06
424.288	126.06
424.511	145.06
424.733	139.06
424.956	152.06
425.178	155.06
425.401	123.06
425.623	143.06
425.846	136.06
426.068	138.06
426.291	140.06
426.513	130.06
426.735	139.06
426.958	130.06
427.18	132.06
427.402	126.06
427.625	118.06
427.847	128.06
428.069	137.06
428.292	119.06
428.514	128.06
428.736	127.06
428.958	126.06
429.181	120.06
429.403	137.06
429.625	139.06
429.847	121.06
430.069	137.06
430.292	127.06
430.514	135.06
430.736	134.06
430.958	134.06
431.18	135.06
431.402	134.06
431.624	123.06
431.846	107.06
432.068	106.06
432.29	92.06
432.512	106.06
432.734	111.06
432.956	126.06
433.178	143.06
433.4	130.06
433.622	116.06
433.844	122.06
434.066	125.06
434.287	123.06
434.509	97.06
434.731	107.06
434.953	110.06
435.175	114.06
435.397	128.06
435.618	125.06
435.84	120.06
436.062	117.06
436.284	110.06
436.505	130.06
436.727	133.06
436.949	137.06
437.17	131.06
437.392	138.06
437.614	124.06
437.835	122.06
438.057	112.06
438.278	110.06
438.5	120.06
438.721	139.06
438.943	142.06
439.165	141.06
439.386	154.06
439.608	146.06
439.829	138.06
440.05	153.06
440.272	141.06
440.493	134.06
440.715	149.06
440.936	151.06
441.158	149.06
441.379	147.06
441.6	152.06
441.822	140.06
442.043	123.06
442.264	143.06
442.486	145.06
442.707	150.06
442.928	150.06
443.149	138.06
443.371	138.06
443.592	134.06
443.813	144.06
444.034	147.06
444.255	144.06
444.476	150.06
444.698	160.06
444.919	138.06
445.14	268.06
445.361	206.06
445.582	163.06
445.803	148.06
446.024	153.06
446.245	148.06
446.466	157.06
446.687	169.06
446.908	156.06
447.129	147.06
447.35	160.06
447.571	163.06
447.792	156.06
448.013	131.06
448.234	161.06
448.455	127.06
448.675	146.06
448.896	132.06
449.117	131.06
449.338	148.06
449.559	123.06
449.779	152.06
450	138.06
450.221	147.06
450.442	154.06
450.662	141.06
450.883	132.06
451.104	126.06
451.324	127.06
451.545	133.06
451.766	131.06
451.986	130.06
452.207	134.06
452.428	138.06
452.648	124.06
452.869	130.06
453.089	131.06
453.31	112.06
453.53	112.06
453.751	107.06
453.971	109.06
454.192	102.06
454.412	106.06
454.633	118.06
454.853	127.06
455.073	136.06
455.294	138.06
455.514	131.06
455.734	122.06
455.955	121.06
456.175	111.06
456.395	116.06
456.616	120.06
456.836	100.06
457.056	105.06
457.276	117.06
457.497	105.06
457.717	98.06
457.937	114.06
458.157	107.06
458.377	106.06
458.598	98.06
458.818	104.06
459.038	93.06
459.258	94.06
459.478	101.06
459.698	94.06
459.918	102.06
460.138	95.06
460.358	110.06
460.578	112.06
460.798	120.06
461.018	115.06
461.238	134.06
461.458	100.06
461.678	110.06
461.898	115.06
462.118	114.06
462.338	123.06
462.558	111.06
462.777	105.06
462.997	131.06
463.217	115.06
463.437	107.06
463.657	114.06
463.876	119.06
464.096	115.06
464.316	112.06
464.536	111.06
464.755	89.06
464.975	126.06
465.195	114.06
465.414	116.06
465.634	126.06
465.854	118.06
466.073	96.06
466.293	109.06
466.512	110.06
466.732	130.06
466.951	146.06
467.171	139.06
467.391	126.06
467.61	138.06
467.829	130.06
468.049	141.06
468.268	139.06
468.488	140.06
468.707	152.06
468.927	144.06
469.146	143.06
469.365	137.06
469.585	126.06
469.804	147.06
470.023	138.06
470.243	149.06
470.462	142.06
470.681	148.06
470.901	150.06
471.12	135.06
471.339	151.06
471.558	134.06
471.777	146.06
471.997	133.06
472.216	141.06
472.435	133.06
472.654	114.06
472.873	112.06
473.092	127.06
473.311	115.06
473.53	126.06
473.749	131.06
473.968	123.06
474.187	131.06
474.406	130.06
474.625	143.06
474.844	135.06
475.063	143.06
475.282	135.06
475.501	134.06
475.72	133.06
475.939	130.06
476.158	130.06
476.377	147.06
476.596	126.06
476.814	128.06
477.033	117.06
477.252	116.06
477.471	118.06
477.69	128.06
477.908	140.06
478.127	147.06
478.346	134.06
478.564	112.06
478.783	134.06
479.002	150.06
479.22	133.06
479.439	138.06
479.658	135.06
479.876	112.06
480.095	114.06
480.313	111.06
480.532	127.06
480.751	118.06
480.969	92.06
481.188	101.06
481.406	94.06
481.624	94.06
481.843	82.06
482.061	98.06
482.28	110.06
482.498	123.06
482.717	104.06
482.935	130.06
483.153	143.06
483.372	168.06
483.59	142.06
483.808	151.06
484.027	139.06
484.245	131.06
484.463	151.06
484.681	153.06
484.9	151.06
485.118	132.06
485.336	130.06
485.554	102.06
485.772	107.06
485.99	103.06
486.209	104.06
486.427	128.06
486.645	124.06
486.863	137.06
487.081	157.06
487.299	138.06
487.517	146.06
487.735	163.06
487.953	186.06
488.171	194.06
488.389	167.06
488.607	148.06
488.825	149.06
489.043	131.06
489.261	140.06
489.479	143.06
489.696	145.06
489.914	150.06
490.132	143.06
490.35	154.06
490.568	164.06
490.786	176.06
491.003	186.06
491.221	186.06
491.439	202.06
491.657	199.06
491.874	204.06
492.092	226.06
492.31	223.06
492.527	232.06
492.745	192.06
492.963	180.06
493.18	193.06
493.398	185.06
493.615	176.06
493.833	170.06
494.05	188.06
494.268	182.06
494.485	174.06
494.703	189.06
494.92	163.06
495.138	175.06
495.355	162.06
495.573	158.06
495.79	167.06
496.008	171.06
496.225	183.06
496.442	171.06
496.66	175.06
496.877	164.06
497.094	172.06
497.312	182.06
497.529	166.06
497.746	159.06
497.963	152.06
498.181	138.06
498.398	126.06
498.615	124.06
498.832	124.06
499.049	122.06
499.267	112.06
499.484	138.06
499.701	126.06
499.918	139.06
500.135	141.06
500.352	153.06
500.569	139.06
500.786	152.06
501.003	150.06
501.22	138.06
501.437	148.06
501.654	146.06
501.871	132.06
502.088	136.06
502.305	132.06
502.522	139.06
502.739	132.06
502.956	136.06
503.172	131.06
503.389	120.06
503.606	122.06
503.823	113.06
504.04	134.06
504.256	118.06
504.473	120.06
504.69	134.06
504.907	121.06
505.123	122.06
505.34	104.06
505.557	122.06
505.773	128.06
505.99	120.06
506.207	125.06
506.423	123.06
506.64	117.06
506.856	136.06
507.073	124.06
507.289	125.06
507.506	119.06
507.722	117.06
507.939	117.06
508.155	119.06
508.372	130.06
508.588	112.06
508.805	104.06
509.021	122.06
509.238	118.06
509.454	102.06
509.67	104.06
509.887	93.06
510.103	98.06
510.319	93.06
510.536	101.06
510.752	85.06
510.968	97.06
