Data from Location2.07152019.Energy5.Lamp.07192019.3%Agarose_HRD10591_14-57-53-359.txt Node
Date: Fri Jul 19 14:57:53 EDT 2019
User: cochatt
Spectrometer: HR+D1059
Trigger mode: 1
Integration Time (sec): 1.000000E-1
Scans to average: 1
Electric dark correction enabled: true
Nonlinearity correction enabled: false
Boxcar width: 0
XAxis mode: Wavelengths
Number of Pixels in Spectrum: 2048
>>>>>Begin Spectral Data<<<<<
223.165	-27.38
223.4	-27.38
223.635	-27.38
223.869	-16.38
224.104	-15.38
224.338	-15.38
224.573	-14.38
224.808	-12.38
225.042	-12.38
225.277	-0.38
225.511	-6.38
225.746	4.62
225.98	23.62
226.215	-4.38
226.449	23.62
226.683	8.62
226.918	31.62
227.152	32.62
227.387	34.62
227.621	41.62
227.856	48.62
228.09	53.62
228.324	61.62
228.559	64.62
228.793	65.62
229.027	57.62
229.262	62.62
229.496	69.62
229.73	70.62
229.964	71.62
230.199	74.62
230.433	71.62
230.667	68.62
230.901	72.62
231.136	69.62
231.37	75.62
231.604	80.62
231.838	78.62
232.072	76.62
232.306	71.62
232.541	77.62
232.775	77.62
233.009	83.62
233.243	86.62
233.477	75.62
233.711	75.62
233.945	80.62
234.179	86.62
234.413	92.62
234.647	87.62
234.881	76.62
235.115	78.62
235.349	79.62
235.583	98.62
235.817	94.62
236.051	78.62
236.285	71.62
236.519	83.62
236.753	70.62
236.987	82.62
237.221	76.62
237.455	71.62
237.689	81.62
237.922	71.62
238.156	71.62
238.39	80.62
238.624	76.62
238.858	81.62
239.091	72.62
239.325	72.62
239.559	88.62
239.793	77.62
240.027	69.62
240.26	88.62
240.494	73.62
240.728	86.62
240.961	76.62
241.195	81.62
241.429	72.62
241.662	84.62
241.896	82.62
242.13	80.62
242.363	81.62
242.597	83.62
242.83	77.62
243.064	88.62
243.298	85.62
243.531	75.62
243.765	74.62
243.998	80.62
244.232	78.62
244.465	79.62
244.699	85.62
244.932	71.62
245.166	87.62
245.399	75.62
245.633	61.62
245.866	76.62
246.099	76.62
246.333	70.62
246.566	69.62
246.8	84.62
247.033	73.62
247.266	71.62
247.5	77.62
247.733	88.62
247.966	89.62
248.2	80.62
248.433	72.62
248.666	83.62
248.899	84.62
249.133	79.62
249.366	75.62
249.599	84.62
249.832	87.62
250.066	91.62
250.299	91.62
250.532	74.62
250.765	84.62
250.998	84.62
251.231	91.62
251.465	81.62
251.698	77.62
251.931	83.62
252.164	72.62
252.397	71.62
252.63	78.62
252.863	81.62
253.096	91.62
253.329	95.62
253.562	88.62
253.795	83.62
254.028	76.62
254.261	80.62
254.494	87.62
254.727	85.62
254.96	89.62
255.193	84.62
255.426	79.62
255.659	85.62
255.892	74.62
256.124	75.62
256.357	84.62
256.59	77.62
256.823	74.62
257.056	81.62
257.289	76.62
257.521	79.62
257.754	89.62
257.987	76.62
258.22	80.62
258.452	78.62
258.685	77.62
258.918	86.62
259.151	80.62
259.383	84.62
259.616	75.62
259.849	80.62
260.081	81.62
260.314	67.62
260.547	77.62
260.779	80.62
261.012	91.62
261.244	88.62
261.477	83.62
261.71	89.62
261.942	79.62
262.175	69.62
262.407	83.62
262.64	72.62
262.872	84.62
263.105	91.62
263.337	88.62
263.57	81.62
263.802	94.62
264.035	88.62
264.267	85.62
264.499	81.62
264.732	87.62
264.964	81.62
265.197	75.62
265.429	82.62
265.661	90.62
265.894	96.62
266.126	83.62
266.358	80.62
266.591	79.62
266.823	73.62
267.055	86.62
267.287	79.62
267.52	76.62
267.752	79.62
267.984	84.62
268.216	100.62
268.448	93.62
268.681	76.62
268.913	74.62
269.145	87.62
269.377	83.62
269.609	65.62
269.841	87.62
270.073	89.62
270.306	87.62
270.538	66.62
270.77	81.62
271.002	82.62
271.234	84.62
271.466	91.62
271.698	84.62
271.93	85.62
272.162	84.62
272.394	92.62
272.626	69.62
272.858	70.62
273.09	85.62
273.322	86.62
273.553	80.62
273.785	98.62
274.017	77.62
274.249	96.62
274.481	98.62
274.713	85.62
274.945	86.62
275.176	69.62
275.408	83.62
275.64	81.62
275.872	95.62
276.104	85.62
276.335	84.62
276.567	90.62
276.799	77.62
277.031	85.62
277.262	93.62
277.494	92.62
277.726	84.62
277.957	89.62
278.189	78.62
278.421	80.62
278.652	79.62
278.884	80.62
279.115	82.62
279.347	79.62
279.579	78.62
279.81	72.62
280.042	81.62
280.273	86.62
280.505	85.62
280.736	79.62
280.968	91.62
281.199	98.62
281.431	85.62
281.662	84.62
281.894	96.62
282.125	76.62
282.356	89.62
282.588	89.62
282.819	90.62
283.051	98.62
283.282	82.62
283.513	69.62
283.745	94.62
283.976	80.62
284.207	73.62
284.439	74.62
284.67	83.62
284.901	92.62
285.132	87.62
285.364	76.62
285.595	71.62
285.826	83.62
286.057	86.62
286.288	92.62
286.52	80.62
286.751	89.62
286.982	89.62
287.213	84.62
287.444	86.62
287.675	81.62
287.906	92.62
288.138	85.62
288.369	98.62
288.6	72.62
288.831	80.62
289.062	87.62
289.293	81.62
289.524	96.62
289.755	77.62
289.986	75.62
290.217	84.62
290.448	90.62
290.679	89.62
290.91	88.62
291.141	85.62
291.371	87.62
291.602	72.62
291.833	77.62
292.064	89.62
292.295	88.62
292.526	98.62
292.757	90.62
292.987	86.62
293.218	93.62
293.449	86.62
293.68	67.62
293.91	82.62
294.141	79.62
294.372	68.62
294.603	76.62
294.833	82.62
295.064	88.62
295.295	92.62
295.525	92.62
295.756	79.62
295.987	82.62
296.217	73.62
296.448	76.62
296.679	95.62
296.909	87.62
297.14	88.62
297.37	74.62
297.601	92.62
297.831	79.62
298.062	70.62
298.292	91.62
298.523	89.62
298.753	87.62
298.984	86.62
299.214	82.62
299.445	71.62
299.675	91.62
299.905	79.62
300.136	75.62
300.366	92.62
300.597	83.62
300.827	90.62
301.057	96.62
301.288	77.62
301.518	79.62
301.748	90.62
301.979	97.62
302.209	79.62
302.439	88.62
302.669	65.62
302.9	85.62
303.13	89.62
303.36	87.62
303.59	84.62
303.82	92.62
304.051	91.62
304.281	83.62
304.511	77.62
304.741	75.62
304.971	90.62
305.201	80.62
305.431	82.62
305.661	80.62
305.891	75.62
306.121	76.62
306.352	82.62
306.582	85.62
306.812	91.62
307.042	83.62
307.272	107.62
307.502	98.62
307.731	80.62
307.961	73.62
308.191	99.62
308.421	83.62
308.651	86.62
308.881	95.62
309.111	83.62
309.341	81.62
309.571	82.62
309.8	81.62
310.03	68.62
310.26	81.62
310.49	95.62
310.72	87.62
310.949	98.62
311.179	90.62
311.409	80.62
311.639	74.62
311.868	87.62
312.098	87.62
312.328	87.62
312.557	78.62
312.787	89.62
313.017	87.62
313.246	84.62
313.476	84.62
313.706	77.62
313.935	71.62
314.165	83.62
314.394	70.62
314.624	83.62
314.853	89.62
315.083	77.62
315.312	85.62
315.542	80.62
315.771	83.62
316.001	75.62
316.23	89.62
316.46	88.62
316.689	76.62
316.919	84.62
317.148	90.62
317.377	87.62
317.607	73.62
317.836	96.62
318.065	82.62
318.295	94.62
318.524	86.62
318.753	81.62
318.983	84.62
319.212	91.62
319.441	65.62
319.67	82.62
319.9	81.62
320.129	83.62
320.358	83.62
320.587	68.62
320.816	80.62
321.046	76.62
321.275	83.62
321.504	82.62
321.733	81.62
321.962	77.62
322.191	100.62
322.42	65.62
322.649	83.62
322.878	103.62
323.108	71.62
323.337	86.62
323.566	77.62
323.795	79.62
324.024	77.62
324.253	101.62
324.482	94.62
324.71	90.62
324.939	99.62
325.168	90.62
325.397	77.62
325.626	84.62
325.855	74.62
326.084	80.62
326.313	87.62
326.542	82.62
326.77	78.62
326.999	82.62
327.228	92.62
327.457	85.62
327.686	89.62
327.914	87.62
328.143	91.62
328.372	84.62
328.6	87.62
328.829	79.62
329.058	92.62
329.287	81.62
329.515	82.62
329.744	77.62
329.972	80.62
330.201	68.62
330.43	82.62
330.658	83.62
330.887	98.62
331.115	87.62
331.344	84.62
331.572	82.62
331.801	86.62
332.03	77.62
332.258	81.62
332.486	84.62
332.715	88.62
332.943	84.62
333.172	82.62
333.4	71.62
333.629	75.62
333.857	84.62
334.085	84.62
334.314	78.62
334.542	95.62
334.771	93.62
334.999	82.62
335.227	88.62
335.455	82.62
335.684	107.62
335.912	87.62
336.14	80.62
336.369	81.62
336.597	81.62
336.825	88.62
337.053	82.62
337.281	79.62
337.51	83.62
337.738	81.62
337.966	92.62
338.194	93.62
338.422	76.62
338.65	76.62
338.878	87.62
339.106	82.62
339.334	90.62
339.562	90.62
339.79	87.62
340.018	80.62
340.246	75.62
340.474	80.62
340.702	82.62
340.93	81.62
341.158	87.62
341.386	83.62
341.614	80.62
341.842	97.62
342.07	90.62
342.298	94.62
342.526	88.62
342.754	85.62
342.981	81.62
343.209	83.62
343.437	101.62
343.665	89.62
343.893	72.62
344.12	66.62
344.348	63.62
344.576	90.62
344.804	91.62
345.031	69.62
345.259	79.62
345.487	84.62
345.714	87.62
345.942	81.62
346.17	98.62
346.397	82.62
346.625	76.62
346.853	85.62
347.08	89.62
347.308	92.62
347.535	79.62
347.763	88.62
347.99	75.62
348.218	88.62
348.445	77.62
348.673	91.62
348.9	96.62
349.128	80.62
349.355	83.62
349.583	90.62
349.81	94.62
350.037	96.62
350.265	97.62
350.492	82.62
350.72	74.62
350.947	85.62
351.174	85.62
351.402	89.62
351.629	90.62
351.856	90.62
352.083	90.62
352.311	82.62
352.538	83.62
352.765	94.62
352.992	85.62
353.22	74.62
353.447	89.62
353.674	79.62
353.901	80.62
354.128	92.62
354.355	87.62
354.583	96.62
354.81	85.62
355.037	86.62
355.264	99.62
355.491	80.62
355.718	90.62
355.945	84.62
356.172	89.62
356.399	85.62
356.626	84.62
356.853	85.62
357.08	82.62
357.307	83.62
357.534	103.62
357.761	93.62
357.988	86.62
358.215	91.62
358.441	87.62
358.668	80.62
358.895	86.62
359.122	92.62
359.349	76.62
359.576	84.62
359.802	81.62
360.029	90.62
360.256	83.62
360.483	82.62
360.709	75.62
360.936	85.62
361.163	73.62
361.39	88.62
361.616	84.62
361.843	77.62
362.07	99.62
362.296	88.62
362.523	72.62
362.749	74.62
362.976	88.62
363.203	76.62
363.429	91.62
363.656	89.62
363.882	64.62
364.109	89.62
364.335	92.62
364.562	81.62
364.788	92.62
365.015	88.62
365.241	76.62
365.468	86.62
365.694	91.62
365.92	80.62
366.147	75.62
366.373	93.62
366.599	80.62
366.826	89.62
367.052	90.62
367.278	93.62
367.505	76.62
367.731	97.62
367.957	76.62
368.184	91.62
368.41	91.62
368.636	96.62
368.862	91.62
369.089	79.62
369.315	96.62
369.541	85.62
369.767	86.62
369.993	101.62
370.219	86.62
370.445	71.62
370.672	85.62
370.898	78.62
371.124	82.62
371.35	95.62
371.576	83.62
371.802	93.62
372.028	92.62
372.254	92.62
372.48	89.62
372.706	90.62
372.932	93.62
373.158	86.62
373.384	90.62
373.61	87.62
373.835	77.62
374.061	94.62
374.287	71.62
374.513	85.62
374.739	99.62
374.965	92.62
375.191	88.62
375.416	96.62
375.642	96.62
375.868	91.62
376.094	91.62
376.319	86.62
376.545	104.62
376.771	84.62
376.997	105.62
377.222	106.62
377.448	79.62
377.674	100.62
377.899	101.62
378.125	91.62
378.35	84.62
378.576	81.62
378.802	84.62
379.027	91.62
379.253	99.62
379.478	107.62
379.704	112.62
379.929	115.62
380.155	94.62
380.38	89.62
380.606	88.62
380.831	98.62
381.057	88.62
381.282	110.62
381.507	93.62
381.733	100.62
381.958	88.62
382.184	94.62
382.409	94.62
382.634	107.62
382.86	100.62
383.085	81.62
383.31	104.62
383.535	102.62
383.761	104.62
383.986	93.62
384.211	102.62
384.436	102.62
384.662	92.62
384.887	75.62
385.112	78.62
385.337	103.62
385.562	109.62
385.787	82.62
386.013	99.62
386.238	123.62
386.463	86.62
386.688	101.62
386.913	98.62
387.138	88.62
387.363	108.62
387.588	108.62
387.813	97.62
388.038	95.62
388.263	90.62
388.488	90.62
388.713	100.62
388.938	104.62
389.163	101.62
389.387	105.62
389.612	98.62
389.837	88.62
390.062	86.62
390.287	115.62
390.512	102.62
390.736	101.62
390.961	79.62
391.186	100.62
391.411	107.62
391.636	97.62
391.86	98.62
392.085	101.62
392.31	95.62
392.534	102.62
392.759	100.62
392.984	98.62
393.208	85.62
393.433	103.62
393.658	111.62
393.882	104.62
394.107	106.62
394.331	106.62
394.556	104.62
394.78	89.62
395.005	112.62
395.229	100.62
395.454	123.62
395.678	101.62
395.903	109.62
396.127	96.62
396.352	109.62
396.576	90.62
396.801	105.62
397.025	115.62
397.249	106.62
397.474	117.62
397.698	118.62
397.922	120.62
398.147	111.62
398.371	115.62
398.595	111.62
398.82	93.62
399.044	98.62
399.268	104.62
399.492	106.62
399.717	114.62
399.941	124.62
400.165	108.62
400.389	106.62
400.613	120.62
400.837	116.62
401.062	105.62
401.286	103.62
401.51	99.62
401.734	101.62
401.958	96.62
402.182	120.62
402.406	115.62
402.63	90.62
402.854	103.62
403.078	118.62
403.302	101.62
403.526	107.62
403.75	124.62
403.974	111.62
404.198	113.62
404.422	120.62
404.645	113.62
404.869	108.62
405.093	105.62
405.317	107.62
405.541	120.62
405.765	115.62
405.988	122.62
406.212	127.62
406.436	119.62
406.66	123.62
406.883	96.62
407.107	122.62
407.331	111.62
407.555	123.62
407.778	128.62
408.002	116.62
408.226	123.62
408.449	114.62
408.673	120.62
408.896	129.62
409.12	127.62
409.344	130.62
409.567	109.62
409.791	124.62
410.014	123.62
410.238	110.62
410.461	109.62
410.685	118.62
410.908	119.62
411.132	140.62
411.355	127.62
411.578	131.62
411.802	100.62
412.025	111.62
412.249	117.62
412.472	121.62
412.695	113.62
412.919	117.62
413.142	123.62
413.365	138.62
413.589	121.62
413.812	113.62
414.035	101.62
414.258	115.62
414.482	123.62
414.705	125.62
414.928	125.62
415.151	124.62
415.374	125.62
415.597	114.62
415.821	132.62
416.044	127.62
416.267	124.62
416.49	122.62
416.713	110.62
416.936	125.62
417.159	131.62
417.382	121.62
417.605	118.62
417.828	129.62
418.051	120.62
418.274	127.62
418.497	134.62
418.72	135.62
418.943	128.62
419.166	145.62
419.389	140.62
419.611	125.62
419.834	127.62
420.057	125.62
420.28	145.62
420.503	123.62
420.726	128.62
420.948	141.62
421.171	125.62
421.394	133.62
421.617	133.62
421.839	146.62
422.062	140.62
422.285	131.62
422.507	132.62
422.73	140.62
422.953	148.62
423.175	132.62
423.398	136.62
423.621	119.62
423.843	135.62
424.066	149.62
424.288	141.62
424.511	131.62
424.733	143.62
424.956	149.62
425.178	129.62
425.401	126.62
425.623	129.62
425.846	120.62
426.068	124.62
426.291	129.62
426.513	125.62
426.735	130.62
426.958	142.62
427.18	135.62
427.402	135.62
427.625	130.62
427.847	114.62
428.069	131.62
428.292	137.62
428.514	138.62
428.736	124.62
428.958	121.62
429.181	134.62
429.403	117.62
429.625	123.62
429.847	117.62
430.069	111.62
430.292	129.62
430.514	116.62
430.736	121.62
430.958	121.62
431.18	134.62
431.402	125.62
431.624	113.62
431.846	102.62
432.068	84.62
432.29	92.62
432.512	112.62
432.734	115.62
432.956	131.62
433.178	140.62
433.4	124.62
433.622	138.62
433.844	128.62
434.066	115.62
434.287	98.62
434.509	97.62
434.731	109.62
434.953	99.62
435.175	122.62
435.397	126.62
435.618	112.62
435.84	104.62
436.062	117.62
436.284	140.62
436.505	133.62
436.727	123.62
436.949	121.62
437.17	131.62
437.392	138.62
437.614	119.62
437.835	114.62
438.057	113.62
438.278	102.62
438.5	119.62
438.721	139.62
438.943	122.62
439.165	143.62
439.386	134.62
439.608	147.62
439.829	128.62
440.05	136.62
440.272	151.62
440.493	159.62
440.715	149.62
440.936	143.62
441.158	134.62
441.379	129.62
441.6	145.62
441.822	136.62
442.043	142.62
442.264	137.62
442.486	126.62
442.707	133.62
442.928	136.62
443.149	132.62
443.371	143.62
443.592	141.62
443.813	163.62
444.034	134.62
444.255	135.62
444.476	141.62
444.698	141.62
444.919	145.62
445.14	212.62
445.361	175.62
445.582	134.62
445.803	144.62
446.024	138.62
446.245	147.62
446.466	152.62
446.687	147.62
446.908	153.62
447.129	141.62
447.35	162.62
447.571	155.62
447.792	153.62
448.013	157.62
448.234	141.62
448.455	147.62
448.675	130.62
448.896	153.62
449.117	135.62
449.338	128.62
449.559	133.62
449.779	146.62
450	135.62
450.221	133.62
450.442	136.62
450.662	124.62
450.883	123.62
451.104	125.62
451.324	131.62
451.545	127.62
451.766	127.62
451.986	133.62
452.207	129.62
452.428	124.62
452.648	123.62
452.869	123.62
453.089	128.62
453.31	106.62
453.53	104.62
453.751	105.62
453.971	120.62
454.192	103.62
454.412	105.62
454.633	118.62
454.853	115.62
455.073	119.62
455.294	135.62
455.514	114.62
455.734	118.62
455.955	98.62
456.175	113.62
456.395	119.62
456.616	114.62
456.836	124.62
457.056	103.62
457.276	113.62
457.497	96.62
457.717	105.62
457.937	104.62
458.157	104.62
458.377	108.62
458.598	102.62
458.818	90.62
459.038	87.62
459.258	80.62
459.478	85.62
459.698	103.62
459.918	87.62
460.138	118.62
460.358	109.62
460.578	109.62
460.798	123.62
461.018	116.62
461.238	112.62
461.458	114.62
461.678	114.62
461.898	114.62
462.118	108.62
462.338	110.62
462.558	107.62
462.777	121.62
462.997	113.62
463.217	104.62
463.437	100.62
463.657	102.62
463.876	100.62
464.096	108.62
464.316	112.62
464.536	107.62
464.755	117.62
464.975	111.62
465.195	114.62
465.414	112.62
465.634	105.62
465.854	111.62
466.073	134.62
466.293	115.62
466.512	126.62
466.732	136.62
466.951	128.62
467.171	124.62
467.391	130.62
467.61	123.62
467.829	151.62
468.049	137.62
468.268	136.62
468.488	128.62
468.707	129.62
468.927	150.62
469.146	138.62
469.365	124.62
469.585	144.62
469.804	156.62
470.023	152.62
470.243	139.62
470.462	157.62
470.681	130.62
470.901	135.62
471.12	140.62
471.339	137.62
471.558	134.62
471.777	148.62
471.997	147.62
472.216	119.62
472.435	123.62
472.654	102.62
472.873	103.62
473.092	90.62
473.311	122.62
473.53	123.62
473.749	115.62
473.968	127.62
474.187	128.62
474.406	118.62
474.625	127.62
474.844	126.62
475.063	125.62
475.282	120.62
475.501	105.62
475.72	123.62
475.939	131.62
476.158	117.62
476.377	121.62
476.596	118.62
476.814	123.62
477.033	114.62
477.252	109.62
477.471	117.62
477.69	123.62
477.908	142.62
478.127	131.62
478.346	138.62
478.564	125.62
478.783	130.62
479.002	135.62
479.22	129.62
479.439	131.62
479.658	122.62
479.876	108.62
480.095	105.62
480.313	119.62
480.532	116.62
480.751	111.62
480.969	90.62
481.188	82.62
481.406	91.62
481.624	82.62
481.843	91.62
482.061	98.62
482.28	94.62
482.498	131.62
482.717	107.62
482.935	111.62
483.153	131.62
483.372	144.62
483.59	143.62
483.808	139.62
484.027	140.62
484.245	138.62
484.463	138.62
484.681	162.62
484.9	136.62
485.118	141.62
485.336	135.62
485.554	121.62
485.772	111.62
485.99	98.62
486.209	105.62
486.427	94.62
486.645	114.62
486.863	131.62
487.081	147.62
487.299	139.62
487.517	142.62
487.735	157.62
487.953	183.62
488.171	179.62
488.389	180.62
488.607	159.62
488.825	131.62
489.043	126.62
489.261	130.62
489.479	128.62
489.696	147.62
489.914	139.62
490.132	143.62
490.35	146.62
490.568	151.62
490.786	188.62
491.003	193.62
491.221	186.62
491.439	175.62
491.657	170.62
491.874	197.62
492.092	220.62
492.31	227.62
492.527	232.62
492.745	196.62
492.963	172.62
493.18	188.62
493.398	186.62
493.615	187.62
493.833	172.62
494.05	172.62
494.268	183.62
494.485	155.62
494.703	166.62
494.92	187.62
495.138	193.62
495.355	176.62
495.573	173.62
495.79	141.62
496.008	181.62
496.225	175.62
496.442	168.62
496.66	182.62
496.877	161.62
497.094	153.62
497.312	157.62
497.529	159.62
497.746	159.62
497.963	144.62
498.181	131.62
498.398	113.62
498.615	120.62
498.832	106.62
499.049	117.62
499.267	108.62
499.484	121.62
499.701	127.62
499.918	140.62
500.135	140.62
500.352	135.62
500.569	155.62
500.786	141.62
501.003	164.62
501.22	149.62
501.437	132.62
501.654	137.62
501.871	143.62
502.088	127.62
502.305	141.62
502.522	128.62
502.739	118.62
502.956	125.62
503.172	131.62
503.389	132.62
503.606	125.62
503.823	115.62
504.04	119.62
504.256	111.62
504.473	115.62
504.69	125.62
504.907	116.62
505.123	121.62
505.34	116.62
505.557	117.62
505.773	127.62
505.99	127.62
506.207	112.62
506.423	123.62
506.64	120.62
506.856	135.62
507.073	123.62
507.289	109.62
507.506	121.62
507.722	117.62
507.939	123.62
508.155	120.62
508.372	103.62
508.588	105.62
508.805	121.62
509.021	80.62
509.238	99.62
509.454	100.62
509.67	92.62
509.887	101.62
510.103	101.62
510.319	104.62
510.536	89.62
510.752	86.62
510.968	71.62
511.184	81.62
511.401	81.62
511.617	83.62
