Data from Location2.07152019.Energy5.Lamp.07192019.3%Agarose_HRD10591_14-57-33-358.txt Node
Date: Fri Jul 19 14:57:33 EDT 2019
User: cochatt
Spectrometer: HR+D1059
Trigger mode: 1
Integration Time (sec): 1.000000E-1
Scans to average: 1
Electric dark correction enabled: true
Nonlinearity correction enabled: false
Boxcar width: 0
XAxis mode: Wavelengths
Number of Pixels in Spectrum: 2048
>>>>>Begin Spectral Data<<<<<
223.165	-8.44
223.4	-8.44
223.635	-8.44
223.869	-26.44
224.104	-30.44
224.338	-14.44
224.573	8.56
224.808	-10.44
225.042	-11.44
225.277	-17.44
225.511	3.56
225.746	5.56
225.98	4.56
226.215	5.56
226.449	18.56
226.683	17.56
226.918	30.56
227.152	24.56
227.387	46.56
227.621	38.56
227.856	54.56
228.09	48.56
228.324	40.56
228.559	59.56
228.793	61.56
229.027	70.56
229.262	63.56
229.496	67.56
229.73	72.56
229.964	71.56
230.199	73.56
230.433	81.56
230.667	79.56
230.901	72.56
231.136	79.56
231.37	77.56
231.604	75.56
231.838	81.56
232.072	72.56
232.306	74.56
232.541	74.56
232.775	79.56
233.009	91.56
233.243	89.56
233.477	86.56
233.711	83.56
233.945	88.56
234.179	89.56
234.413	79.56
234.647	89.56
234.881	88.56
235.115	87.56
235.349	72.56
235.583	86.56
235.817	91.56
236.051	89.56
236.285	83.56
236.519	77.56
236.753	86.56
236.987	77.56
237.221	100.56
237.455	77.56
237.689	75.56
237.922	76.56
238.156	70.56
238.39	96.56
238.624	87.56
238.858	80.56
239.091	76.56
239.325	71.56
239.559	71.56
239.793	88.56
240.027	90.56
240.26	82.56
240.494	66.56
240.728	78.56
240.961	81.56
241.195	63.56
241.429	79.56
241.662	81.56
241.896	78.56
242.13	69.56
242.363	83.56
242.597	89.56
242.83	91.56
243.064	84.56
243.298	85.56
243.531	90.56
243.765	84.56
243.998	75.56
244.232	83.56
244.465	79.56
244.699	92.56
244.932	84.56
245.166	81.56
245.399	81.56
245.633	82.56
245.866	96.56
246.099	85.56
246.333	76.56
246.566	67.56
246.8	84.56
247.033	79.56
247.266	91.56
247.5	87.56
247.733	82.56
247.966	74.56
248.2	86.56
248.433	86.56
248.666	58.56
248.899	76.56
249.133	80.56
249.366	92.56
249.599	81.56
249.832	73.56
250.066	84.56
250.299	89.56
250.532	87.56
250.765	89.56
250.998	99.56
251.231	78.56
251.465	77.56
251.698	87.56
251.931	71.56
252.164	100.56
252.397	74.56
252.63	80.56
252.863	70.56
253.096	77.56
253.329	87.56
253.562	69.56
253.795	85.56
254.028	74.56
254.261	88.56
254.494	84.56
254.727	76.56
254.96	84.56
255.193	92.56
255.426	74.56
255.659	87.56
255.892	91.56
256.124	90.56
256.357	74.56
256.59	88.56
256.823	78.56
257.056	76.56
257.289	86.56
257.521	93.56
257.754	91.56
257.987	76.56
258.22	87.56
258.452	85.56
258.685	89.56
258.918	93.56
259.151	94.56
259.383	91.56
259.616	81.56
259.849	88.56
260.081	69.56
260.314	82.56
260.547	75.56
260.779	84.56
261.012	82.56
261.244	77.56
261.477	89.56
261.71	85.56
261.942	74.56
262.175	76.56
262.407	85.56
262.64	81.56
262.872	85.56
263.105	102.56
263.337	99.56
263.57	84.56
263.802	73.56
264.035	97.56
264.267	72.56
264.499	80.56
264.732	85.56
264.964	77.56
265.197	94.56
265.429	79.56
265.661	89.56
265.894	81.56
266.126	79.56
266.358	87.56
266.591	98.56
266.823	89.56
267.055	77.56
267.287	90.56
267.52	81.56
267.752	104.56
267.984	85.56
268.216	90.56
268.448	78.56
268.681	69.56
268.913	111.56
269.145	92.56
269.377	89.56
269.609	78.56
269.841	93.56
270.073	94.56
270.306	80.56
270.538	71.56
270.77	83.56
271.002	80.56
271.234	83.56
271.466	75.56
271.698	84.56
271.93	81.56
272.162	82.56
272.394	84.56
272.626	93.56
272.858	88.56
273.09	76.56
273.322	84.56
273.553	94.56
273.785	90.56
274.017	82.56
274.249	86.56
274.481	85.56
274.713	88.56
274.945	73.56
275.176	86.56
275.408	83.56
275.64	91.56
275.872	96.56
276.104	70.56
276.335	101.56
276.567	87.56
276.799	80.56
277.031	81.56
277.262	100.56
277.494	78.56
277.726	81.56
277.957	88.56
278.189	86.56
278.421	79.56
278.652	92.56
278.884	103.56
279.115	91.56
279.347	77.56
279.579	81.56
279.81	85.56
280.042	80.56
280.273	89.56
280.505	81.56
280.736	76.56
280.968	77.56
281.199	86.56
281.431	93.56
281.662	87.56
281.894	83.56
282.125	92.56
282.356	85.56
282.588	84.56
282.819	92.56
283.051	79.56
283.282	80.56
283.513	87.56
283.745	77.56
283.976	88.56
284.207	85.56
284.439	87.56
284.67	87.56
284.901	109.56
285.132	98.56
285.364	85.56
285.595	103.56
285.826	82.56
286.057	81.56
286.288	90.56
286.52	91.56
286.751	78.56
286.982	88.56
287.213	90.56
287.444	75.56
287.675	80.56
287.906	94.56
288.138	84.56
288.369	78.56
288.6	80.56
288.831	87.56
289.062	93.56
289.293	83.56
289.524	87.56
289.755	97.56
289.986	89.56
290.217	96.56
290.448	81.56
290.679	96.56
290.91	73.56
291.141	100.56
291.371	111.56
291.602	112.56
291.833	84.56
292.064	90.56
292.295	83.56
292.526	82.56
292.757	85.56
292.987	90.56
293.218	88.56
293.449	100.56
293.68	100.56
293.91	92.56
294.141	93.56
294.372	85.56
294.603	93.56
294.833	87.56
295.064	75.56
295.295	86.56
295.525	81.56
295.756	100.56
295.987	92.56
296.217	90.56
296.448	92.56
296.679	83.56
296.909	80.56
297.14	79.56
297.37	84.56
297.601	89.56
297.831	85.56
298.062	96.56
298.292	94.56
298.523	81.56
298.753	82.56
298.984	85.56
299.214	78.56
299.445	81.56
299.675	85.56
299.905	96.56
300.136	89.56
300.366	73.56
300.597	85.56
300.827	91.56
301.057	91.56
301.288	81.56
301.518	105.56
301.748	94.56
301.979	75.56
302.209	90.56
302.439	95.56
302.669	94.56
302.9	89.56
303.13	82.56
303.36	87.56
303.59	82.56
303.82	83.56
304.051	97.56
304.281	89.56
304.511	95.56
304.741	78.56
304.971	83.56
305.201	66.56
305.431	79.56
305.661	95.56
305.891	88.56
306.121	78.56
306.352	91.56
306.582	86.56
306.812	98.56
307.042	84.56
307.272	85.56
307.502	90.56
307.731	100.56
307.961	86.56
308.191	81.56
308.421	84.56
308.651	86.56
308.881	95.56
309.111	92.56
309.341	87.56
309.571	100.56
309.8	103.56
310.03	85.56
310.26	79.56
310.49	85.56
310.72	80.56
310.949	84.56
311.179	81.56
311.409	84.56
311.639	81.56
311.868	88.56
312.098	91.56
312.328	76.56
312.557	94.56
312.787	89.56
313.017	96.56
313.246	87.56
313.476	75.56
313.706	88.56
313.935	87.56
314.165	94.56
314.394	87.56
314.624	85.56
314.853	88.56
315.083	87.56
315.312	87.56
315.542	89.56
315.771	93.56
316.001	93.56
316.23	86.56
316.46	78.56
316.689	84.56
316.919	80.56
317.148	81.56
317.377	93.56
317.607	89.56
317.836	98.56
318.065	95.56
318.295	91.56
318.524	93.56
318.753	91.56
318.983	95.56
319.212	88.56
319.441	79.56
319.67	101.56
319.9	92.56
320.129	88.56
320.358	98.56
320.587	102.56
320.816	86.56
321.046	79.56
321.275	91.56
321.504	87.56
321.733	74.56
321.962	83.56
322.191	76.56
322.42	79.56
322.649	91.56
322.878	95.56
323.108	96.56
323.337	95.56
323.566	99.56
323.795	91.56
324.024	84.56
324.253	90.56
324.482	88.56
324.71	87.56
324.939	97.56
325.168	80.56
325.397	101.56
325.626	95.56
325.855	88.56
326.084	101.56
326.313	86.56
326.542	84.56
326.77	91.56
326.999	85.56
327.228	93.56
327.457	86.56
327.686	93.56
327.914	91.56
328.143	90.56
328.372	93.56
328.6	92.56
328.829	84.56
329.058	92.56
329.287	88.56
329.515	77.56
329.744	97.56
329.972	79.56
330.201	87.56
330.43	80.56
330.658	84.56
330.887	88.56
331.115	76.56
331.344	76.56
331.572	92.56
331.801	94.56
332.03	91.56
332.258	92.56
332.486	80.56
332.715	91.56
332.943	85.56
333.172	96.56
333.4	99.56
333.629	82.56
333.857	87.56
334.085	110.56
334.314	97.56
334.542	92.56
334.771	92.56
334.999	93.56
335.227	84.56
335.455	81.56
335.684	93.56
335.912	99.56
336.14	81.56
336.369	84.56
336.597	95.56
336.825	91.56
337.053	79.56
337.281	87.56
337.51	81.56
337.738	89.56
337.966	88.56
338.194	79.56
338.422	99.56
338.65	97.56
338.878	93.56
339.106	99.56
339.334	85.56
339.562	81.56
339.79	88.56
340.018	83.56
340.246	84.56
340.474	99.56
340.702	84.56
340.93	92.56
341.158	93.56
341.386	89.56
341.614	87.56
341.842	102.56
342.07	84.56
342.298	75.56
342.526	101.56
342.754	91.56
342.981	87.56
343.209	79.56
343.437	79.56
343.665	77.56
343.893	85.56
344.12	77.56
344.348	75.56
344.576	86.56
344.804	107.56
345.031	93.56
345.259	87.56
345.487	91.56
345.714	86.56
345.942	84.56
346.17	86.56
346.397	83.56
346.625	74.56
346.853	81.56
347.08	86.56
347.308	83.56
347.535	84.56
347.763	91.56
347.99	86.56
348.218	85.56
348.445	95.56
348.673	85.56
348.9	80.56
349.128	97.56
349.355	89.56
349.583	96.56
349.81	81.56
350.037	89.56
350.265	95.56
350.492	86.56
350.72	68.56
350.947	80.56
351.174	95.56
351.402	90.56
351.629	69.56
351.856	99.56
352.083	93.56
352.311	76.56
352.538	86.56
352.765	87.56
352.992	81.56
353.22	96.56
353.447	89.56
353.674	91.56
353.901	96.56
354.128	90.56
354.355	86.56
354.583	89.56
354.81	88.56
355.037	99.56
355.264	81.56
355.491	100.56
355.718	89.56
355.945	91.56
356.172	92.56
356.399	87.56
356.626	91.56
356.853	100.56
357.08	88.56
357.307	88.56
357.534	95.56
357.761	82.56
357.988	97.56
358.215	86.56
358.441	85.56
358.668	88.56
358.895	90.56
359.122	89.56
359.349	93.56
359.576	94.56
359.802	78.56
360.029	90.56
360.256	86.56
360.483	102.56
360.709	94.56
360.936	79.56
361.163	87.56
361.39	93.56
361.616	76.56
361.843	99.56
362.07	76.56
362.296	87.56
362.523	80.56
362.749	91.56
362.976	75.56
363.203	96.56
363.429	85.56
363.656	84.56
363.882	97.56
364.109	91.56
364.335	72.56
364.562	85.56
364.788	80.56
365.015	88.56
365.241	85.56
365.468	96.56
365.694	103.56
365.92	99.56
366.147	81.56
366.373	81.56
366.599	95.56
366.826	89.56
367.052	94.56
367.278	86.56
367.505	94.56
367.731	95.56
367.957	85.56
368.184	93.56
368.41	98.56
368.636	87.56
368.862	96.56
369.089	98.56
369.315	86.56
369.541	93.56
369.767	105.56
369.993	87.56
370.219	97.56
370.445	96.56
370.672	91.56
370.898	84.56
371.124	87.56
371.35	100.56
371.576	99.56
371.802	99.56
372.028	101.56
372.254	100.56
372.48	93.56
372.706	100.56
372.932	92.56
373.158	87.56
373.384	100.56
373.61	100.56
373.835	101.56
374.061	94.56
374.287	91.56
374.513	113.56
374.739	97.56
374.965	86.56
375.191	87.56
375.416	91.56
375.642	97.56
375.868	109.56
376.094	97.56
376.319	104.56
376.545	85.56
376.771	92.56
376.997	101.56
377.222	102.56
377.448	91.56
377.674	96.56
377.899	92.56
378.125	102.56
378.35	92.56
378.576	100.56
378.802	93.56
379.027	110.56
379.253	92.56
379.478	105.56
379.704	105.56
379.929	93.56
380.155	100.56
380.38	105.56
380.606	95.56
380.831	104.56
381.057	104.56
381.282	97.56
381.507	110.56
381.733	110.56
381.958	99.56
382.184	98.56
382.409	97.56
382.634	102.56
382.86	100.56
383.085	92.56
383.31	97.56
383.535	104.56
383.761	85.56
383.986	112.56
384.211	106.56
384.436	96.56
384.662	95.56
384.887	96.56
385.112	110.56
385.337	94.56
385.562	95.56
385.787	94.56
386.013	102.56
386.238	109.56
386.463	99.56
386.688	100.56
386.913	93.56
387.138	103.56
387.363	111.56
387.588	100.56
387.813	103.56
388.038	109.56
388.263	99.56
388.488	112.56
388.713	110.56
388.938	89.56
389.163	97.56
389.387	112.56
389.612	99.56
389.837	95.56
390.062	108.56
390.287	108.56
390.512	94.56
390.736	108.56
390.961	94.56
391.186	102.56
391.411	94.56
391.636	111.56
391.86	102.56
392.085	103.56
392.31	110.56
392.534	109.56
392.759	105.56
392.984	111.56
393.208	111.56
393.433	99.56
393.658	104.56
393.882	126.56
394.107	112.56
394.331	117.56
394.556	109.56
394.78	111.56
395.005	111.56
395.229	102.56
395.454	101.56
395.678	93.56
395.903	118.56
396.127	112.56
396.352	105.56
396.576	96.56
396.801	117.56
397.025	100.56
397.249	98.56
397.474	105.56
397.698	118.56
397.922	105.56
398.147	103.56
398.371	101.56
398.595	112.56
398.82	106.56
399.044	115.56
399.268	102.56
399.492	123.56
399.717	106.56
399.941	116.56
400.165	113.56
400.389	117.56
400.613	121.56
400.837	111.56
401.062	103.56
401.286	111.56
401.51	118.56
401.734	106.56
401.958	111.56
402.182	119.56
402.406	119.56
402.63	113.56
402.854	126.56
403.078	121.56
403.302	131.56
403.526	124.56
403.75	116.56
403.974	116.56
404.198	117.56
404.422	124.56
404.645	112.56
404.869	120.56
405.093	127.56
405.317	127.56
405.541	124.56
405.765	126.56
405.988	115.56
406.212	125.56
406.436	127.56
406.66	117.56
406.883	111.56
407.107	110.56
407.331	111.56
407.555	119.56
407.778	120.56
408.002	137.56
408.226	122.56
408.449	133.56
408.673	120.56
408.896	121.56
409.12	132.56
409.344	131.56
409.567	128.56
409.791	121.56
410.014	117.56
410.238	118.56
410.461	133.56
410.685	106.56
410.908	128.56
411.132	139.56
411.355	120.56
411.578	116.56
411.802	128.56
412.025	100.56
412.249	127.56
412.472	124.56
412.695	121.56
412.919	123.56
413.142	124.56
413.365	119.56
413.589	127.56
413.812	134.56
414.035	117.56
414.258	109.56
414.482	118.56
414.705	143.56
414.928	122.56
415.151	116.56
415.374	121.56
415.597	143.56
415.821	124.56
416.044	131.56
416.267	125.56
416.49	128.56
416.713	136.56
416.936	125.56
417.159	129.56
417.382	133.56
417.605	138.56
417.828	137.56
418.051	127.56
418.274	132.56
418.497	147.56
418.72	135.56
418.943	151.56
419.166	136.56
419.389	138.56
419.611	140.56
419.834	124.56
420.057	135.56
420.28	124.56
420.503	140.56
420.726	134.56
420.948	129.56
421.171	119.56
421.394	136.56
421.617	125.56
421.839	134.56
422.062	134.56
422.285	131.56
422.507	131.56
422.73	134.56
422.953	125.56
423.175	132.56
423.398	143.56
423.621	133.56
423.843	142.56
424.066	143.56
424.288	140.56
424.511	137.56
424.733	128.56
424.956	140.56
425.178	152.56
425.401	133.56
425.623	140.56
425.846	136.56
426.068	127.56
426.291	126.56
426.513	130.56
426.735	138.56
426.958	149.56
427.18	129.56
427.402	122.56
427.625	122.56
427.847	129.56
428.069	131.56
428.292	136.56
428.514	128.56
428.736	133.56
428.958	123.56
429.181	147.56
429.403	137.56
429.625	117.56
429.847	124.56
430.069	118.56
430.292	139.56
430.514	127.56
430.736	136.56
430.958	115.56
431.18	132.56
431.402	149.56
431.624	131.56
431.846	118.56
432.068	99.56
432.29	113.56
432.512	112.56
432.734	122.56
432.956	146.56
433.178	127.56
433.4	145.56
433.622	150.56
433.844	137.56
434.066	131.56
434.287	118.56
434.509	99.56
434.731	95.56
434.953	108.56
435.175	135.56
435.397	129.56
435.618	117.56
435.84	123.56
436.062	126.56
436.284	137.56
436.505	137.56
436.727	131.56
436.949	134.56
437.17	137.56
437.392	140.56
437.614	123.56
437.835	113.56
438.057	111.56
438.278	110.56
438.5	133.56
438.721	130.56
438.943	146.56
439.165	131.56
439.386	146.56
439.608	149.56
439.829	142.56
440.05	147.56
440.272	144.56
440.493	146.56
440.715	147.56
440.936	139.56
441.158	147.56
441.379	151.56
441.6	152.56
441.822	150.56
442.043	145.56
442.264	150.56
442.486	151.56
442.707	144.56
442.928	136.56
443.149	138.56
443.371	135.56
443.592	149.56
443.813	141.56
444.034	131.56
444.255	138.56
444.476	140.56
444.698	149.56
444.919	157.56
445.14	245.56
445.361	190.56
445.582	158.56
445.803	143.56
446.024	155.56
446.245	135.56
446.466	148.56
446.687	163.56
446.908	176.56
447.129	162.56
447.35	161.56
447.571	149.56
447.792	148.56
448.013	136.56
448.234	127.56
448.455	130.56
448.675	135.56
448.896	152.56
449.117	137.56
449.338	146.56
449.559	139.56
449.779	129.56
450	143.56
450.221	144.56
450.442	165.56
450.662	131.56
450.883	142.56
451.104	130.56
451.324	128.56
451.545	132.56
451.766	140.56
451.986	144.56
452.207	125.56
452.428	138.56
452.648	145.56
452.869	128.56
453.089	122.56
453.31	110.56
453.53	120.56
453.751	108.56
453.971	101.56
454.192	100.56
454.412	139.56
454.633	115.56
454.853	122.56
455.073	122.56
455.294	133.56
455.514	123.56
455.734	128.56
455.955	117.56
456.175	132.56
456.395	117.56
456.616	111.56
456.836	106.56
457.056	120.56
457.276	117.56
457.497	104.56
457.717	120.56
457.937	103.56
458.157	99.56
458.377	111.56
458.598	95.56
458.818	108.56
459.038	112.56
459.258	105.56
459.478	94.56
459.698	87.56
459.918	104.56
460.138	113.56
460.358	104.56
460.578	133.56
460.798	107.56
461.018	114.56
461.238	112.56
461.458	127.56
461.678	107.56
461.898	111.56
462.118	122.56
462.338	115.56
462.558	120.56
462.777	135.56
462.997	121.56
463.217	115.56
463.437	115.56
463.657	111.56
463.876	100.56
464.096	125.56
464.316	112.56
464.536	115.56
464.755	123.56
464.975	112.56
465.195	105.56
465.414	125.56
465.634	125.56
465.854	108.56
466.073	121.56
466.293	120.56
466.512	116.56
466.732	123.56
466.951	130.56
467.171	157.56
467.391	131.56
467.61	127.56
467.829	139.56
468.049	143.56
468.268	134.56
468.488	130.56
468.707	146.56
468.927	149.56
469.146	142.56
469.365	143.56
469.585	147.56
469.804	133.56
470.023	136.56
470.243	141.56
470.462	148.56
470.681	159.56
470.901	137.56
471.12	156.56
471.339	155.56
471.558	139.56
471.777	148.56
471.997	117.56
472.216	130.56
472.435	119.56
472.654	108.56
472.873	116.56
473.092	121.56
473.311	133.56
473.53	153.56
473.749	121.56
473.968	127.56
474.187	120.56
474.406	113.56
474.625	129.56
474.844	137.56
475.063	141.56
475.282	124.56
475.501	119.56
475.72	126.56
475.939	119.56
476.158	134.56
476.377	137.56
476.596	129.56
476.814	119.56
477.033	115.56
477.252	99.56
477.471	132.56
477.69	133.56
477.908	139.56
478.127	145.56
478.346	144.56
478.564	137.56
478.783	136.56
479.002	139.56
479.22	136.56
479.439	146.56
479.658	140.56
479.876	118.56
480.095	120.56
480.313	132.56
480.532	127.56
480.751	107.56
480.969	108.56
481.188	105.56
481.406	94.56
481.624	93.56
481.843	84.56
482.061	88.56
482.28	127.56
482.498	110.56
482.717	117.56
482.935	125.56
483.153	143.56
483.372	143.56
483.59	153.56
483.808	141.56
484.027	132.56
484.245	144.56
484.463	142.56
484.681	152.56
484.9	133.56
485.118	143.56
485.336	135.56
485.554	122.56
485.772	109.56
485.99	101.56
486.209	121.56
486.427	96.56
486.645	113.56
486.863	123.56
487.081	145.56
487.299	138.56
487.517	139.56
487.735	167.56
487.953	179.56
488.171	170.56
488.389	187.56
488.607	179.56
488.825	145.56
489.043	154.56
489.261	137.56
489.479	141.56
489.696	145.56
489.914	145.56
490.132	155.56
490.35	143.56
490.568	179.56
490.786	189.56
491.003	175.56
491.221	176.56
491.439	181.56
491.657	189.56
491.874	209.56
492.092	236.56
492.31	229.56
492.527	232.56
492.745	210.56
492.963	212.56
493.18	200.56
493.398	196.56
493.615	190.56
493.833	165.56
494.05	188.56
494.268	174.56
494.485	186.56
494.703	198.56
494.92	168.56
495.138	184.56
495.355	185.56
495.573	174.56
495.79	159.56
496.008	160.56
496.225	158.56
496.442	161.56
496.66	167.56
496.877	179.56
497.094	155.56
497.312	163.56
497.529	155.56
497.746	152.56
497.963	149.56
498.181	140.56
498.398	127.56
498.615	135.56
498.832	118.56
499.049	127.56
499.267	120.56
499.484	122.56
499.701	136.56
499.918	133.56
500.135	135.56
500.352	156.56
500.569	139.56
500.786	156.56
501.003	144.56
501.22	136.56
501.437	134.56
501.654	130.56
501.871	148.56
502.088	137.56
502.305	139.56
502.522	126.56
502.739	135.56
502.956	136.56
503.172	150.56
503.389	127.56
503.606	122.56
503.823	115.56
504.04	127.56
504.256	120.56
504.473	133.56
504.69	123.56
504.907	133.56
505.123	127.56
505.34	129.56
505.557	144.56
505.773	129.56
505.99	131.56
506.207	118.56
506.423	108.56
506.64	119.56
506.856	118.56
507.073	129.56
507.289	125.56
507.506	121.56
507.722	133.56
507.939	120.56
508.155	115.56
508.372	109.56
508.588	118.56
508.805	119.56
509.021	109.56
509.238	99.56
509.454	111.56
509.67	99.56
509.887	112.56
510.103	99.56
510.319	104.56
510.536	114.56
510.752	88.56
510.968	85.56
