Data from Location2.07152019.Energy5.Lamp.07192019.3%Agarose_HRD10591_14-55-52-358.txt Node
Date: Fri Jul 19 14:55:52 EDT 2019
User: cochatt
Spectrometer: HR+D1059
Trigger mode: 1
Integration Time (sec): 1.000000E-1
Scans to average: 1
Electric dark correction enabled: true
Nonlinearity correction enabled: false
Boxcar width: 0
XAxis mode: Wavelengths
Number of Pixels in Spectrum: 2048
>>>>>Begin Spectral Data<<<<<
223.165	-21.88
223.4	-21.88
223.635	-21.88
223.869	-13.88
224.104	-8.88
224.338	-18.88
224.573	-15.88
224.808	-14.88
225.042	-8.88
225.277	-10.88
225.511	-5.88
225.746	3.12
225.98	7.12
226.215	28.12
226.449	14.12
226.683	7.12
226.918	27.12
227.152	33.12
227.387	30.12
227.621	42.12
227.856	50.12
228.09	43.12
228.324	63.12
228.559	57.12
228.793	62.12
229.027	56.12
229.262	79.12
229.496	71.12
229.73	66.12
229.964	80.12
230.199	81.12
230.433	77.12
230.667	76.12
230.901	71.12
231.136	63.12
231.37	77.12
231.604	77.12
231.838	87.12
232.072	80.12
232.306	75.12
232.541	86.12
232.775	77.12
233.009	86.12
233.243	86.12
233.477	75.12
233.711	74.12
233.945	94.12
234.179	75.12
234.413	75.12
234.647	91.12
234.881	88.12
235.115	79.12
235.349	79.12
235.583	100.12
235.817	74.12
236.051	93.12
236.285	77.12
236.519	79.12
236.753	84.12
236.987	71.12
237.221	86.12
237.455	69.12
237.689	73.12
237.922	74.12
238.156	81.12
238.39	81.12
238.624	77.12
238.858	73.12
239.091	84.12
239.325	69.12
239.559	87.12
239.793	95.12
240.027	83.12
240.26	90.12
240.494	83.12
240.728	81.12
240.961	79.12
241.195	75.12
241.429	80.12
241.662	74.12
241.896	67.12
242.13	80.12
242.363	79.12
242.597	83.12
242.83	69.12
243.064	62.12
243.298	88.12
243.531	79.12
243.765	83.12
243.998	58.12
244.232	70.12
244.465	74.12
244.699	86.12
244.932	93.12
245.166	76.12
245.399	76.12
245.633	76.12
245.866	78.12
246.099	88.12
246.333	87.12
246.566	91.12
246.8	74.12
247.033	88.12
247.266	90.12
247.5	74.12
247.733	79.12
247.966	79.12
248.2	78.12
248.433	79.12
248.666	73.12
248.899	92.12
249.133	91.12
249.366	96.12
249.599	74.12
249.832	79.12
250.066	92.12
250.299	83.12
250.532	80.12
250.765	74.12
250.998	77.12
251.231	83.12
251.465	94.12
251.698	79.12
251.931	77.12
252.164	75.12
252.397	80.12
252.63	74.12
252.863	78.12
253.096	78.12
253.329	94.12
253.562	76.12
253.795	90.12
254.028	81.12
254.261	79.12
254.494	84.12
254.727	75.12
254.96	79.12
255.193	89.12
255.426	92.12
255.659	87.12
255.892	83.12
256.124	73.12
256.357	90.12
256.59	82.12
256.823	89.12
257.056	78.12
257.289	101.12
257.521	84.12
257.754	89.12
257.987	101.12
258.22	84.12
258.452	83.12
258.685	91.12
258.918	81.12
259.151	87.12
259.383	94.12
259.616	73.12
259.849	83.12
260.081	86.12
260.314	84.12
260.547	87.12
260.779	89.12
261.012	91.12
261.244	87.12
261.477	65.12
261.71	80.12
261.942	71.12
262.175	77.12
262.407	79.12
262.64	95.12
262.872	87.12
263.105	84.12
263.337	95.12
263.57	76.12
263.802	93.12
264.035	70.12
264.267	88.12
264.499	83.12
264.732	81.12
264.964	88.12
265.197	102.12
265.429	86.12
265.661	98.12
265.894	92.12
266.126	85.12
266.358	84.12
266.591	91.12
266.823	91.12
267.055	89.12
267.287	85.12
267.52	78.12
267.752	82.12
267.984	79.12
268.216	83.12
268.448	88.12
268.681	83.12
268.913	99.12
269.145	91.12
269.377	87.12
269.609	85.12
269.841	96.12
270.073	85.12
270.306	108.12
270.538	95.12
270.77	91.12
271.002	88.12
271.234	80.12
271.466	85.12
271.698	91.12
271.93	90.12
272.162	85.12
272.394	98.12
272.626	82.12
272.858	90.12
273.09	90.12
273.322	85.12
273.553	77.12
273.785	80.12
274.017	79.12
274.249	97.12
274.481	88.12
274.713	87.12
274.945	92.12
275.176	93.12
275.408	84.12
275.64	81.12
275.872	90.12
276.104	88.12
276.335	75.12
276.567	87.12
276.799	97.12
277.031	88.12
277.262	91.12
277.494	83.12
277.726	83.12
277.957	88.12
278.189	86.12
278.421	82.12
278.652	84.12
278.884	89.12
279.115	86.12
279.347	92.12
279.579	85.12
279.81	86.12
280.042	71.12
280.273	86.12
280.505	91.12
280.736	92.12
280.968	82.12
281.199	75.12
281.431	74.12
281.662	92.12
281.894	91.12
282.125	84.12
282.356	88.12
282.588	91.12
282.819	79.12
283.051	73.12
283.282	81.12
283.513	92.12
283.745	78.12
283.976	98.12
284.207	85.12
284.439	83.12
284.67	80.12
284.901	74.12
285.132	92.12
285.364	74.12
285.595	95.12
285.826	77.12
286.057	95.12
286.288	86.12
286.52	86.12
286.751	74.12
286.982	79.12
287.213	89.12
287.444	82.12
287.675	87.12
287.906	78.12
288.138	97.12
288.369	94.12
288.6	82.12
288.831	89.12
289.062	99.12
289.293	76.12
289.524	91.12
289.755	87.12
289.986	86.12
290.217	94.12
290.448	99.12
290.679	98.12
290.91	84.12
291.141	77.12
291.371	83.12
291.602	84.12
291.833	99.12
292.064	89.12
292.295	87.12
292.526	99.12
292.757	87.12
292.987	73.12
293.218	83.12
293.449	78.12
293.68	72.12
293.91	83.12
294.141	94.12
294.372	95.12
294.603	94.12
294.833	77.12
295.064	93.12
295.295	78.12
295.525	93.12
295.756	81.12
295.987	82.12
296.217	73.12
296.448	75.12
296.679	84.12
296.909	87.12
297.14	92.12
297.37	78.12
297.601	87.12
297.831	85.12
298.062	87.12
298.292	89.12
298.523	92.12
298.753	96.12
298.984	87.12
299.214	100.12
299.445	98.12
299.675	97.12
299.905	90.12
300.136	83.12
300.366	83.12
300.597	84.12
300.827	88.12
301.057	94.12
301.288	81.12
301.518	77.12
301.748	90.12
301.979	88.12
302.209	93.12
302.439	94.12
302.669	69.12
302.9	83.12
303.13	86.12
303.36	88.12
303.59	85.12
303.82	91.12
304.051	89.12
304.281	86.12
304.511	96.12
304.741	91.12
304.971	81.12
305.201	95.12
305.431	97.12
305.661	90.12
305.891	91.12
306.121	83.12
306.352	91.12
306.582	89.12
306.812	84.12
307.042	87.12
307.272	86.12
307.502	87.12
307.731	85.12
307.961	84.12
308.191	82.12
308.421	85.12
308.651	81.12
308.881	95.12
309.111	102.12
309.341	85.12
309.571	80.12
309.8	89.12
310.03	79.12
310.26	77.12
310.49	83.12
310.72	91.12
310.949	83.12
311.179	72.12
311.409	84.12
311.639	89.12
311.868	84.12
312.098	83.12
312.328	83.12
312.557	84.12
312.787	85.12
313.017	86.12
313.246	86.12
313.476	82.12
313.706	90.12
313.935	96.12
314.165	92.12
314.394	93.12
314.624	85.12
314.853	82.12
315.083	73.12
315.312	97.12
315.542	90.12
315.771	80.12
316.001	78.12
316.23	103.12
316.46	70.12
316.689	78.12
316.919	91.12
317.148	103.12
317.377	83.12
317.607	95.12
317.836	96.12
318.065	76.12
318.295	83.12
318.524	80.12
318.753	79.12
318.983	89.12
319.212	98.12
319.441	81.12
319.67	91.12
319.9	81.12
320.129	92.12
320.358	92.12
320.587	84.12
320.816	100.12
321.046	78.12
321.275	77.12
321.504	78.12
321.733	77.12
321.962	84.12
322.191	79.12
322.42	80.12
322.649	75.12
322.878	77.12
323.108	81.12
323.337	77.12
323.566	89.12
323.795	81.12
324.024	72.12
324.253	90.12
324.482	89.12
324.71	97.12
324.939	90.12
325.168	76.12
325.397	93.12
325.626	86.12
325.855	96.12
326.084	95.12
326.313	87.12
326.542	86.12
326.77	89.12
326.999	72.12
327.228	77.12
327.457	86.12
327.686	86.12
327.914	88.12
328.143	98.12
328.372	100.12
328.6	73.12
328.829	79.12
329.058	93.12
329.287	90.12
329.515	80.12
329.744	84.12
329.972	86.12
330.201	86.12
330.43	105.12
330.658	102.12
330.887	80.12
331.115	85.12
331.344	78.12
331.572	92.12
331.801	84.12
332.03	91.12
332.258	76.12
332.486	65.12
332.715	94.12
332.943	79.12
333.172	84.12
333.4	84.12
333.629	91.12
333.857	88.12
334.085	91.12
334.314	76.12
334.542	70.12
334.771	90.12
334.999	88.12
335.227	98.12
335.455	86.12
335.684	91.12
335.912	90.12
336.14	92.12
336.369	83.12
336.597	79.12
336.825	84.12
337.053	80.12
337.281	92.12
337.51	84.12
337.738	89.12
337.966	87.12
338.194	92.12
338.422	83.12
338.65	96.12
338.878	87.12
339.106	83.12
339.334	68.12
339.562	97.12
339.79	70.12
340.018	90.12
340.246	90.12
340.474	91.12
340.702	86.12
340.93	74.12
341.158	78.12
341.386	96.12
341.614	89.12
341.842	91.12
342.07	89.12
342.298	84.12
342.526	85.12
342.754	77.12
342.981	74.12
343.209	95.12
343.437	86.12
343.665	80.12
343.893	92.12
344.12	83.12
344.348	86.12
344.576	93.12
344.804	85.12
345.031	95.12
345.259	98.12
345.487	86.12
345.714	91.12
345.942	78.12
346.17	76.12
346.397	94.12
346.625	88.12
346.853	88.12
347.08	79.12
347.308	89.12
347.535	78.12
347.763	85.12
347.99	91.12
348.218	98.12
348.445	79.12
348.673	82.12
348.9	83.12
349.128	86.12
349.355	90.12
349.583	79.12
349.81	97.12
350.037	72.12
350.265	82.12
350.492	74.12
350.72	97.12
350.947	94.12
351.174	85.12
351.402	69.12
351.629	80.12
351.856	103.12
352.083	79.12
352.311	90.12
352.538	98.12
352.765	78.12
352.992	78.12
353.22	87.12
353.447	80.12
353.674	89.12
353.901	83.12
354.128	79.12
354.355	85.12
354.583	76.12
354.81	93.12
355.037	82.12
355.264	99.12
355.491	85.12
355.718	84.12
355.945	87.12
356.172	93.12
356.399	78.12
356.626	75.12
356.853	97.12
357.08	85.12
357.307	87.12
357.534	84.12
357.761	94.12
357.988	79.12
358.215	77.12
358.441	82.12
358.668	81.12
358.895	91.12
359.122	97.12
359.349	90.12
359.576	73.12
359.802	68.12
360.029	76.12
360.256	102.12
360.483	83.12
360.709	89.12
360.936	85.12
361.163	91.12
361.39	79.12
361.616	103.12
361.843	91.12
362.07	87.12
362.296	93.12
362.523	91.12
362.749	91.12
362.976	82.12
363.203	79.12
363.429	95.12
363.656	86.12
363.882	71.12
364.109	81.12
364.335	81.12
364.562	75.12
364.788	91.12
365.015	91.12
365.241	89.12
365.468	95.12
365.694	95.12
365.92	79.12
366.147	89.12
366.373	80.12
366.599	81.12
366.826	81.12
367.052	89.12
367.278	99.12
367.505	79.12
367.731	92.12
367.957	87.12
368.184	94.12
368.41	87.12
368.636	82.12
368.862	103.12
369.089	77.12
369.315	101.12
369.541	100.12
369.767	100.12
369.993	91.12
370.219	92.12
370.445	89.12
370.672	85.12
370.898	90.12
371.124	82.12
371.35	108.12
371.576	106.12
371.802	99.12
372.028	94.12
372.254	100.12
372.48	93.12
372.706	97.12
372.932	99.12
373.158	107.12
373.384	95.12
373.61	86.12
373.835	92.12
374.061	98.12
374.287	93.12
374.513	92.12
374.739	85.12
374.965	103.12
375.191	87.12
375.416	89.12
375.642	95.12
375.868	91.12
376.094	90.12
376.319	105.12
376.545	89.12
376.771	102.12
376.997	89.12
377.222	96.12
377.448	92.12
377.674	98.12
377.899	110.12
378.125	98.12
378.35	107.12
378.576	90.12
378.802	97.12
379.027	102.12
379.253	92.12
379.478	83.12
379.704	99.12
379.929	86.12
380.155	110.12
380.38	93.12
380.606	89.12
380.831	105.12
381.057	98.12
381.282	82.12
381.507	101.12
381.733	107.12
381.958	92.12
382.184	98.12
382.409	112.12
382.634	112.12
382.86	97.12
383.085	97.12
383.31	89.12
383.535	104.12
383.761	103.12
383.986	100.12
384.211	100.12
384.436	100.12
384.662	98.12
384.887	102.12
385.112	83.12
385.337	100.12
385.562	89.12
385.787	85.12
386.013	105.12
386.238	110.12
386.463	101.12
386.688	106.12
386.913	111.12
387.138	107.12
387.363	114.12
387.588	98.12
387.813	100.12
388.038	99.12
388.263	101.12
388.488	110.12
388.713	99.12
388.938	102.12
389.163	93.12
389.387	106.12
389.612	112.12
389.837	106.12
390.062	86.12
390.287	96.12
390.512	97.12
390.736	110.12
390.961	108.12
391.186	99.12
391.411	108.12
391.636	101.12
391.86	113.12
392.085	108.12
392.31	95.12
392.534	108.12
392.759	110.12
392.984	94.12
393.208	115.12
393.433	100.12
393.658	99.12
393.882	106.12
394.107	104.12
394.331	99.12
394.556	104.12
394.78	105.12
395.005	90.12
395.229	120.12
395.454	105.12
395.678	105.12
395.903	106.12
396.127	111.12
396.352	110.12
396.576	112.12
396.801	93.12
397.025	123.12
397.249	113.12
397.474	117.12
397.698	108.12
397.922	106.12
398.147	99.12
398.371	97.12
398.595	109.12
398.82	119.12
399.044	102.12
399.268	118.12
399.492	120.12
399.717	122.12
399.941	118.12
400.165	110.12
400.389	111.12
400.613	114.12
400.837	114.12
401.062	107.12
401.286	108.12
401.51	115.12
401.734	103.12
401.958	105.12
402.182	101.12
402.406	110.12
402.63	113.12
402.854	110.12
403.078	119.12
403.302	118.12
403.526	130.12
403.75	122.12
403.974	113.12
404.198	123.12
404.422	102.12
404.645	117.12
404.869	119.12
405.093	109.12
405.317	99.12
405.541	112.12
405.765	131.12
405.988	122.12
406.212	118.12
406.436	117.12
406.66	126.12
406.883	123.12
407.107	117.12
407.331	119.12
407.555	122.12
407.778	124.12
408.002	115.12
408.226	120.12
408.449	129.12
408.673	131.12
408.896	114.12
409.12	124.12
409.344	120.12
409.567	130.12
409.791	120.12
410.014	125.12
410.238	120.12
410.461	126.12
410.685	117.12
410.908	113.12
411.132	119.12
411.355	127.12
411.578	126.12
411.802	120.12
412.025	119.12
412.249	128.12
412.472	125.12
412.695	134.12
412.919	140.12
413.142	133.12
413.365	131.12
413.589	127.12
413.812	127.12
414.035	115.12
414.258	127.12
414.482	122.12
414.705	127.12
414.928	113.12
415.151	128.12
415.374	142.12
415.597	132.12
415.821	124.12
416.044	137.12
416.267	127.12
416.49	133.12
416.713	128.12
416.936	121.12
417.159	121.12
417.382	124.12
417.605	137.12
417.828	146.12
418.051	125.12
418.274	129.12
418.497	127.12
418.72	122.12
418.943	135.12
419.166	145.12
419.389	123.12
419.611	134.12
419.834	127.12
420.057	129.12
420.28	133.12
420.503	129.12
420.726	129.12
420.948	133.12
421.171	130.12
421.394	140.12
421.617	139.12
421.839	144.12
422.062	147.12
422.285	128.12
422.507	123.12
422.73	139.12
422.953	133.12
423.175	137.12
423.398	127.12
423.621	142.12
423.843	133.12
424.066	122.12
424.288	135.12
424.511	147.12
424.733	147.12
424.956	140.12
425.178	136.12
425.401	142.12
425.623	139.12
425.846	137.12
426.068	127.12
426.291	139.12
426.513	125.12
426.735	131.12
426.958	142.12
427.18	141.12
427.402	141.12
427.625	133.12
427.847	132.12
428.069	134.12
428.292	125.12
428.514	139.12
428.736	138.12
428.958	111.12
429.181	136.12
429.403	129.12
429.625	139.12
429.847	129.12
430.069	122.12
430.292	142.12
430.514	128.12
430.736	127.12
430.958	151.12
431.18	117.12
431.402	139.12
431.624	122.12
431.846	117.12
432.068	108.12
432.29	101.12
432.512	111.12
432.734	129.12
432.956	135.12
433.178	137.12
433.4	149.12
433.622	145.12
433.844	143.12
434.066	129.12
434.287	102.12
434.509	104.12
434.731	108.12
434.953	100.12
435.175	111.12
435.397	141.12
435.618	127.12
435.84	120.12
436.062	111.12
436.284	128.12
436.505	126.12
436.727	128.12
436.949	134.12
437.17	124.12
437.392	126.12
437.614	123.12
437.835	119.12
438.057	113.12
438.278	109.12
438.5	121.12
438.721	133.12
438.943	145.12
439.165	140.12
439.386	145.12
439.608	150.12
439.829	137.12
440.05	154.12
440.272	151.12
440.493	145.12
440.715	147.12
440.936	132.12
441.158	153.12
441.379	153.12
441.6	144.12
441.822	143.12
442.043	151.12
442.264	129.12
442.486	148.12
442.707	152.12
442.928	150.12
443.149	146.12
443.371	143.12
443.592	139.12
443.813	138.12
444.034	139.12
444.255	133.12
444.476	138.12
444.698	137.12
444.919	134.12
445.14	288.12
445.361	193.12
445.582	143.12
445.803	148.12
446.024	140.12
446.245	155.12
446.466	163.12
446.687	149.12
446.908	161.12
447.129	159.12
447.35	169.12
447.571	162.12
447.792	135.12
448.013	148.12
448.234	146.12
448.455	139.12
448.675	150.12
448.896	139.12
449.117	153.12
449.338	143.12
449.559	142.12
449.779	143.12
450	134.12
450.221	134.12
450.442	140.12
450.662	124.12
450.883	142.12
451.104	132.12
451.324	127.12
451.545	140.12
451.766	129.12
451.986	131.12
452.207	119.12
452.428	115.12
452.648	130.12
452.869	135.12
453.089	121.12
453.31	120.12
453.53	121.12
453.751	109.12
453.971	110.12
454.192	105.12
454.412	100.12
454.633	121.12
454.853	118.12
455.073	116.12
455.294	131.12
455.514	116.12
455.734	117.12
455.955	116.12
456.175	127.12
456.395	111.12
456.616	103.12
456.836	115.12
457.056	110.12
457.276	102.12
457.497	114.12
457.717	108.12
457.937	117.12
458.157	120.12
458.377	108.12
458.598	94.12
458.818	111.12
459.038	91.12
459.258	85.12
459.478	85.12
459.698	92.12
459.918	119.12
460.138	103.12
460.358	124.12
460.578	117.12
460.798	114.12
461.018	108.12
461.238	132.12
461.458	122.12
461.678	115.12
461.898	113.12
462.118	113.12
462.338	103.12
462.558	100.12
462.777	116.12
462.997	107.12
463.217	98.12
463.437	111.12
463.657	113.12
463.876	107.12
464.096	123.12
464.316	116.12
464.536	106.12
464.755	113.12
464.975	123.12
465.195	121.12
465.414	116.12
465.634	121.12
465.854	126.12
466.073	129.12
466.293	144.12
466.512	125.12
466.732	124.12
466.951	122.12
467.171	157.12
467.391	126.12
467.61	137.12
467.829	140.12
468.049	142.12
468.268	150.12
468.488	146.12
468.707	141.12
468.927	137.12
469.146	154.12
469.365	133.12
469.585	135.12
469.804	141.12
470.023	139.12
470.243	150.12
470.462	155.12
470.681	139.12
470.901	137.12
471.12	120.12
471.339	151.12
471.558	135.12
471.777	143.12
471.997	138.12
472.216	123.12
472.435	118.12
472.654	99.12
472.873	108.12
473.092	126.12
473.311	131.12
473.53	130.12
473.749	138.12
473.968	134.12
474.187	124.12
474.406	112.12
474.625	116.12
474.844	141.12
475.063	136.12
475.282	131.12
475.501	111.12
475.72	116.12
475.939	127.12
476.158	140.12
476.377	129.12
476.596	127.12
476.814	120.12
477.033	103.12
477.252	116.12
477.471	133.12
477.69	144.12
477.908	127.12
478.127	152.12
478.346	137.12
478.564	129.12
478.783	137.12
479.002	139.12
479.22	139.12
479.439	137.12
479.658	117.12
479.876	117.12
480.095	109.12
480.313	119.12
480.532	123.12
480.751	116.12
480.969	102.12
481.188	85.12
481.406	92.12
481.624	98.12
481.843	87.12
482.061	89.12
482.28	102.12
482.498	101.12
482.717	102.12
482.935	129.12
483.153	153.12
483.372	154.12
483.59	150.12
483.808	140.12
484.027	141.12
484.245	145.12
484.463	161.12
484.681	171.12
484.9	154.12
485.118	134.12
485.336	118.12
485.554	107.12
485.772	93.12
485.99	112.12
486.209	103.12
486.427	100.12
486.645	133.12
486.863	137.12
487.081	152.12
487.299	131.12
487.517	153.12
487.735	165.12
487.953	199.12
488.171	182.12
488.389	187.12
488.607	156.12
488.825	133.12
489.043	137.12
489.261	123.12
489.479	157.12
489.696	143.12
489.914	143.12
490.132	141.12
490.35	147.12
490.568	149.12
490.786	158.12
491.003	170.12
491.221	159.12
491.439	184.12
491.657	187.12
491.874	179.12
492.092	199.12
492.31	227.12
492.527	223.12
492.745	206.12
492.963	202.12
493.18	190.12
493.398	193.12
493.615	193.12
493.833	159.12
494.05	172.12
494.268	166.12
494.485	180.12
494.703	155.12
494.92	176.12
495.138	177.12
495.355	186.12
495.573	165.12
495.79	169.12
496.008	164.12
496.225	158.12
496.442	172.12
496.66	166.12
496.877	173.12
497.094	179.12
497.312	149.12
497.529	155.12
497.746	137.12
497.963	145.12
498.181	148.12
498.398	118.12
498.615	136.12
498.832	123.12
499.049	122.12
499.267	122.12
499.484	150.12
499.701	126.12
499.918	131.12
500.135	134.12
500.352	166.12
500.569	158.12
500.786	139.12
501.003	138.12
501.22	134.12
501.437	148.12
501.654	132.12
501.871	135.12
502.088	145.12
502.305	143.12
502.522	129.12
502.739	132.12
502.956	141.12
503.172	131.12
503.389	119.12
503.606	109.12
503.823	125.12
504.04	120.12
504.256	113.12
504.473	107.12
504.69	113.12
504.907	140.12
505.123	113.12
505.34	123.12
505.557	128.12
505.773	111.12
505.99	113.12
506.207	131.12
506.423	122.12
506.64	121.12
506.856	130.12
507.073	115.12
507.289	124.12
507.506	126.12
507.722	114.12
507.939	126.12
508.155	126.12
508.372	121.12
508.588	121.12
508.805	114.12
509.021	108.12
509.238	105.12
509.454	126.12
509.67	99.12
509.887	113.12
510.103	106.12
510.319	100.12
510.536	96.12
510.752	74.12
510.968	79.12
511.184	94.12
