Data from Location2.07152019.Energy5.Lamp.07192019.3%Agarose_HRD10591_14-56-33-358.txt Node
Date: Fri Jul 19 14:56:33 EDT 2019
User: cochatt
Spectrometer: HR+D1059
Trigger mode: 1
Integration Time (sec): 1.000000E-1
Scans to average: 1
Electric dark correction enabled: true
Nonlinearity correction enabled: false
Boxcar width: 0
XAxis mode: Wavelengths
Number of Pixels in Spectrum: 2048
>>>>>Begin Spectral Data<<<<<
223.165	-19.44
223.4	-19.44
223.635	-19.44
223.869	-24.44
224.104	-11.44
224.338	-20.44
224.573	-12.44
224.808	-3.44
225.042	11.56
225.277	-19.44
225.511	3.56
225.746	0.56
225.98	10.56
226.215	1.56
226.449	22.56
226.683	16.56
226.918	29.56
227.152	14.56
227.387	33.56
227.621	30.56
227.856	41.56
228.09	54.56
228.324	57.56
228.559	48.56
228.793	51.56
229.027	57.56
229.262	60.56
229.496	68.56
229.73	71.56
229.964	58.56
230.199	70.56
230.433	71.56
230.667	84.56
230.901	69.56
231.136	74.56
231.37	65.56
231.604	88.56
231.838	95.56
232.072	78.56
232.306	88.56
232.541	79.56
232.775	81.56
233.009	90.56
233.243	76.56
233.477	86.56
233.711	86.56
233.945	88.56
234.179	73.56
234.413	81.56
234.647	65.56
234.881	69.56
235.115	82.56
235.349	66.56
235.583	75.56
235.817	91.56
236.051	77.56
236.285	78.56
236.519	71.56
236.753	65.56
236.987	83.56
237.221	86.56
237.455	85.56
237.689	92.56
237.922	73.56
238.156	83.56
238.39	79.56
238.624	76.56
238.858	70.56
239.091	83.56
239.325	77.56
239.559	74.56
239.793	71.56
240.027	73.56
240.26	87.56
240.494	81.56
240.728	66.56
240.961	81.56
241.195	66.56
241.429	81.56
241.662	75.56
241.896	85.56
242.13	77.56
242.363	77.56
242.597	80.56
242.83	82.56
243.064	71.56
243.298	67.56
243.531	86.56
243.765	79.56
243.998	79.56
244.232	80.56
244.465	77.56
244.699	80.56
244.932	72.56
245.166	88.56
245.399	79.56
245.633	78.56
245.866	85.56
246.099	73.56
246.333	77.56
246.566	75.56
246.8	77.56
247.033	79.56
247.266	70.56
247.5	83.56
247.733	66.56
247.966	80.56
248.2	68.56
248.433	75.56
248.666	68.56
248.899	71.56
249.133	72.56
249.366	92.56
249.599	86.56
249.832	80.56
250.066	87.56
250.299	86.56
250.532	79.56
250.765	75.56
250.998	85.56
251.231	101.56
251.465	79.56
251.698	82.56
251.931	79.56
252.164	82.56
252.397	79.56
252.63	79.56
252.863	71.56
253.096	80.56
253.329	76.56
253.562	77.56
253.795	83.56
254.028	82.56
254.261	67.56
254.494	83.56
254.727	83.56
254.96	88.56
255.193	74.56
255.426	69.56
255.659	74.56
255.892	83.56
256.124	97.56
256.357	71.56
256.59	90.56
256.823	85.56
257.056	79.56
257.289	73.56
257.521	65.56
257.754	77.56
257.987	80.56
258.22	74.56
258.452	97.56
258.685	81.56
258.918	89.56
259.151	83.56
259.383	82.56
259.616	63.56
259.849	83.56
260.081	71.56
260.314	87.56
260.547	64.56
260.779	80.56
261.012	67.56
261.244	74.56
261.477	85.56
261.71	72.56
261.942	89.56
262.175	67.56
262.407	86.56
262.64	96.56
262.872	83.56
263.105	71.56
263.337	96.56
263.57	70.56
263.802	93.56
264.035	83.56
264.267	72.56
264.499	65.56
264.732	78.56
264.964	82.56
265.197	91.56
265.429	85.56
265.661	85.56
265.894	76.56
266.126	71.56
266.358	86.56
266.591	66.56
266.823	78.56
267.055	84.56
267.287	96.56
267.52	79.56
267.752	75.56
267.984	87.56
268.216	73.56
268.448	66.56
268.681	79.56
268.913	88.56
269.145	90.56
269.377	74.56
269.609	75.56
269.841	78.56
270.073	68.56
270.306	91.56
270.538	88.56
270.77	76.56
271.002	85.56
271.234	78.56
271.466	83.56
271.698	76.56
271.93	82.56
272.162	77.56
272.394	88.56
272.626	89.56
272.858	82.56
273.09	91.56
273.322	96.56
273.553	80.56
273.785	74.56
274.017	83.56
274.249	69.56
274.481	77.56
274.713	89.56
274.945	76.56
275.176	87.56
275.408	94.56
275.64	79.56
275.872	83.56
276.104	92.56
276.335	80.56
276.567	82.56
276.799	83.56
277.031	77.56
277.262	84.56
277.494	90.56
277.726	70.56
277.957	73.56
278.189	83.56
278.421	89.56
278.652	92.56
278.884	77.56
279.115	91.56
279.347	80.56
279.579	91.56
279.81	80.56
280.042	80.56
280.273	75.56
280.505	58.56
280.736	89.56
280.968	80.56
281.199	79.56
281.431	77.56
281.662	89.56
281.894	90.56
282.125	99.56
282.356	79.56
282.588	78.56
282.819	86.56
283.051	87.56
283.282	103.56
283.513	76.56
283.745	92.56
283.976	84.56
284.207	78.56
284.439	90.56
284.67	87.56
284.901	95.56
285.132	89.56
285.364	93.56
285.595	86.56
285.826	74.56
286.057	80.56
286.288	78.56
286.52	73.56
286.751	93.56
286.982	84.56
287.213	74.56
287.444	83.56
287.675	86.56
287.906	84.56
288.138	79.56
288.369	100.56
288.6	87.56
288.831	90.56
289.062	73.56
289.293	88.56
289.524	68.56
289.755	89.56
289.986	83.56
290.217	84.56
290.448	66.56
290.679	87.56
290.91	92.56
291.141	89.56
291.371	81.56
291.602	79.56
291.833	79.56
292.064	94.56
292.295	77.56
292.526	80.56
292.757	82.56
292.987	78.56
293.218	73.56
293.449	82.56
293.68	81.56
293.91	89.56
294.141	95.56
294.372	83.56
294.603	71.56
294.833	64.56
295.064	75.56
295.295	84.56
295.525	74.56
295.756	81.56
295.987	72.56
296.217	83.56
296.448	84.56
296.679	91.56
296.909	72.56
297.14	90.56
297.37	81.56
297.601	77.56
297.831	95.56
298.062	84.56
298.292	89.56
298.523	92.56
298.753	85.56
298.984	77.56
299.214	87.56
299.445	85.56
299.675	80.56
299.905	96.56
300.136	86.56
300.366	82.56
300.597	87.56
300.827	69.56
301.057	79.56
301.288	83.56
301.518	86.56
301.748	88.56
301.979	83.56
302.209	81.56
302.439	80.56
302.669	98.56
302.9	75.56
303.13	72.56
303.36	88.56
303.59	81.56
303.82	83.56
304.051	92.56
304.281	87.56
304.511	89.56
304.741	81.56
304.971	83.56
305.201	85.56
305.431	75.56
305.661	91.56
305.891	80.56
306.121	91.56
306.352	74.56
306.582	81.56
306.812	84.56
307.042	80.56
307.272	86.56
307.502	84.56
307.731	86.56
307.961	85.56
308.191	80.56
308.421	89.56
308.651	86.56
308.881	82.56
309.111	81.56
309.341	71.56
309.571	83.56
309.8	75.56
310.03	87.56
310.26	83.56
310.49	78.56
310.72	84.56
310.949	92.56
311.179	89.56
311.409	74.56
311.639	81.56
311.868	88.56
312.098	71.56
312.328	84.56
312.557	82.56
312.787	76.56
313.017	100.56
313.246	85.56
313.476	72.56
313.706	87.56
313.935	99.56
314.165	83.56
314.394	85.56
314.624	83.56
314.853	84.56
315.083	68.56
315.312	83.56
315.542	75.56
315.771	84.56
316.001	85.56
316.23	81.56
316.46	81.56
316.689	76.56
316.919	75.56
317.148	74.56
317.377	94.56
317.607	88.56
317.836	81.56
318.065	87.56
318.295	78.56
318.524	76.56
318.753	87.56
318.983	87.56
319.212	80.56
319.441	88.56
319.67	88.56
319.9	94.56
320.129	96.56
320.358	97.56
320.587	84.56
320.816	95.56
321.046	97.56
321.275	92.56
321.504	86.56
321.733	82.56
321.962	85.56
322.191	87.56
322.42	89.56
322.649	79.56
322.878	75.56
323.108	78.56
323.337	95.56
323.566	77.56
323.795	82.56
324.024	87.56
324.253	82.56
324.482	80.56
324.71	86.56
324.939	89.56
325.168	87.56
325.397	83.56
325.626	75.56
325.855	76.56
326.084	83.56
326.313	88.56
326.542	92.56
326.77	75.56
326.999	85.56
327.228	78.56
327.457	91.56
327.686	82.56
327.914	88.56
328.143	93.56
328.372	83.56
328.6	90.56
328.829	76.56
329.058	89.56
329.287	96.56
329.515	82.56
329.744	75.56
329.972	69.56
330.201	80.56
330.43	87.56
330.658	86.56
330.887	75.56
331.115	78.56
331.344	77.56
331.572	78.56
331.801	87.56
332.03	74.56
332.258	83.56
332.486	83.56
332.715	81.56
332.943	85.56
333.172	99.56
333.4	81.56
333.629	75.56
333.857	76.56
334.085	82.56
334.314	77.56
334.542	93.56
334.771	87.56
334.999	84.56
335.227	76.56
335.455	80.56
335.684	90.56
335.912	90.56
336.14	74.56
336.369	77.56
336.597	80.56
336.825	95.56
337.053	82.56
337.281	82.56
337.51	83.56
337.738	87.56
337.966	83.56
338.194	99.56
338.422	82.56
338.65	91.56
338.878	79.56
339.106	92.56
339.334	84.56
339.562	83.56
339.79	88.56
340.018	82.56
340.246	84.56
340.474	75.56
340.702	88.56
340.93	77.56
341.158	87.56
341.386	88.56
341.614	75.56
341.842	76.56
342.07	75.56
342.298	75.56
342.526	94.56
342.754	94.56
342.981	72.56
343.209	67.56
343.437	96.56
343.665	84.56
343.893	76.56
344.12	87.56
344.348	90.56
344.576	91.56
344.804	89.56
345.031	96.56
345.259	87.56
345.487	84.56
345.714	81.56
345.942	91.56
346.17	82.56
346.397	66.56
346.625	91.56
346.853	74.56
347.08	65.56
347.308	80.56
347.535	87.56
347.763	91.56
347.99	89.56
348.218	76.56
348.445	73.56
348.673	74.56
348.9	79.56
349.128	71.56
349.355	68.56
349.583	71.56
349.81	75.56
350.037	97.56
350.265	89.56
350.492	87.56
350.72	93.56
350.947	89.56
351.174	101.56
351.402	92.56
351.629	73.56
351.856	89.56
352.083	90.56
352.311	84.56
352.538	97.56
352.765	77.56
352.992	91.56
353.22	95.56
353.447	79.56
353.674	75.56
353.901	76.56
354.128	88.56
354.355	90.56
354.583	87.56
354.81	86.56
355.037	88.56
355.264	87.56
355.491	91.56
355.718	81.56
355.945	89.56
356.172	82.56
356.399	83.56
356.626	87.56
356.853	86.56
357.08	92.56
357.307	74.56
357.534	84.56
357.761	70.56
357.988	88.56
358.215	90.56
358.441	86.56
358.668	100.56
358.895	83.56
359.122	80.56
359.349	82.56
359.576	81.56
359.802	77.56
360.029	83.56
360.256	79.56
360.483	79.56
360.709	71.56
360.936	95.56
361.163	77.56
361.39	92.56
361.616	75.56
361.843	79.56
362.07	91.56
362.296	84.56
362.523	88.56
362.749	89.56
362.976	79.56
363.203	85.56
363.429	80.56
363.656	71.56
363.882	80.56
364.109	99.56
364.335	89.56
364.562	83.56
364.788	76.56
365.015	78.56
365.241	77.56
365.468	99.56
365.694	93.56
365.92	82.56
366.147	86.56
366.373	88.56
366.599	92.56
366.826	78.56
367.052	85.56
367.278	71.56
367.505	84.56
367.731	99.56
367.957	88.56
368.184	77.56
368.41	81.56
368.636	94.56
368.862	99.56
369.089	93.56
369.315	93.56
369.541	93.56
369.767	92.56
369.993	89.56
370.219	78.56
370.445	82.56
370.672	83.56
370.898	78.56
371.124	113.56
371.35	85.56
371.576	93.56
371.802	87.56
372.028	93.56
372.254	102.56
372.48	85.56
372.706	92.56
372.932	78.56
373.158	96.56
373.384	99.56
373.61	104.56
373.835	92.56
374.061	84.56
374.287	95.56
374.513	116.56
374.739	90.56
374.965	94.56
375.191	88.56
375.416	96.56
375.642	96.56
375.868	97.56
376.094	80.56
376.319	90.56
376.545	83.56
376.771	81.56
376.997	101.56
377.222	100.56
377.448	85.56
377.674	104.56
377.899	95.56
378.125	95.56
378.35	89.56
378.576	96.56
378.802	92.56
379.027	92.56
379.253	85.56
379.478	98.56
379.704	94.56
379.929	88.56
380.155	91.56
380.38	90.56
380.606	102.56
380.831	98.56
381.057	97.56
381.282	96.56
381.507	98.56
381.733	100.56
381.958	86.56
382.184	101.56
382.409	99.56
382.634	96.56
382.86	100.56
383.085	102.56
383.31	102.56
383.535	96.56
383.761	106.56
383.986	98.56
384.211	84.56
384.436	99.56
384.662	101.56
384.887	93.56
385.112	102.56
385.337	84.56
385.562	90.56
385.787	95.56
386.013	96.56
386.238	92.56
386.463	108.56
386.688	114.56
386.913	105.56
387.138	80.56
387.363	95.56
387.588	107.56
387.813	101.56
388.038	108.56
388.263	112.56
388.488	98.56
388.713	83.56
388.938	84.56
389.163	96.56
389.387	96.56
389.612	82.56
389.837	100.56
390.062	96.56
390.287	107.56
390.512	97.56
390.736	100.56
390.961	100.56
391.186	101.56
391.411	116.56
391.636	105.56
391.86	107.56
392.085	115.56
392.31	107.56
392.534	97.56
392.759	105.56
392.984	101.56
393.208	98.56
393.433	106.56
393.658	107.56
393.882	111.56
394.107	115.56
394.331	105.56
394.556	103.56
394.78	115.56
395.005	104.56
395.229	117.56
395.454	108.56
395.678	102.56
395.903	113.56
396.127	116.56
396.352	104.56
396.576	114.56
396.801	92.56
397.025	112.56
397.249	108.56
397.474	113.56
397.698	102.56
397.922	105.56
398.147	111.56
398.371	109.56
398.595	120.56
398.82	99.56
399.044	113.56
399.268	110.56
399.492	92.56
399.717	111.56
399.941	125.56
400.165	114.56
400.389	106.56
400.613	110.56
400.837	108.56
401.062	109.56
401.286	115.56
401.51	100.56
401.734	104.56
401.958	103.56
402.182	119.56
402.406	112.56
402.63	96.56
402.854	124.56
403.078	100.56
403.302	111.56
403.526	118.56
403.75	123.56
403.974	106.56
404.198	119.56
404.422	118.56
404.645	124.56
404.869	108.56
405.093	114.56
405.317	108.56
405.541	103.56
405.765	107.56
405.988	125.56
406.212	112.56
406.436	113.56
406.66	116.56
406.883	111.56
407.107	112.56
407.331	116.56
407.555	116.56
407.778	123.56
408.002	105.56
408.226	117.56
408.449	118.56
408.673	106.56
408.896	123.56
409.12	124.56
409.344	126.56
409.567	122.56
409.791	111.56
410.014	119.56
410.238	120.56
410.461	107.56
410.685	116.56
410.908	107.56
411.132	120.56
411.355	119.56
411.578	117.56
411.802	125.56
412.025	114.56
412.249	102.56
412.472	112.56
412.695	109.56
412.919	115.56
413.142	119.56
413.365	133.56
413.589	117.56
413.812	136.56
414.035	117.56
414.258	122.56
414.482	108.56
414.705	120.56
414.928	127.56
415.151	123.56
415.374	117.56
415.597	118.56
415.821	125.56
416.044	149.56
416.267	121.56
416.49	127.56
416.713	113.56
416.936	129.56
417.159	127.56
417.382	135.56
417.605	134.56
417.828	132.56
418.051	117.56
418.274	123.56
418.497	134.56
418.72	123.56
418.943	125.56
419.166	127.56
419.389	116.56
419.611	140.56
419.834	138.56
420.057	135.56
420.28	133.56
420.503	127.56
420.726	129.56
420.948	139.56
421.171	133.56
421.394	143.56
421.617	133.56
421.839	139.56
422.062	137.56
422.285	135.56
422.507	146.56
422.73	135.56
422.953	123.56
423.175	135.56
423.398	132.56
423.621	137.56
423.843	132.56
424.066	131.56
424.288	128.56
424.511	129.56
424.733	128.56
424.956	132.56
425.178	128.56
425.401	135.56
425.623	128.56
425.846	133.56
426.068	143.56
426.291	129.56
426.513	127.56
426.735	123.56
426.958	129.56
427.18	122.56
427.402	138.56
427.625	141.56
427.847	127.56
428.069	144.56
428.292	141.56
428.514	140.56
428.736	117.56
428.958	117.56
429.181	130.56
429.403	137.56
429.625	124.56
429.847	122.56
430.069	136.56
430.292	124.56
430.514	128.56
430.736	124.56
430.958	129.56
431.18	127.56
431.402	133.56
431.624	114.56
431.846	112.56
432.068	103.56
432.29	92.56
432.512	93.56
432.734	115.56
432.956	123.56
433.178	140.56
433.4	133.56
433.622	141.56
433.844	145.56
434.066	119.56
434.287	101.56
434.509	90.56
434.731	92.56
434.953	122.56
435.175	126.56
435.397	124.56
435.618	120.56
435.84	106.56
436.062	115.56
436.284	119.56
436.505	130.56
436.727	139.56
436.949	131.56
437.17	141.56
437.392	128.56
437.614	121.56
437.835	105.56
438.057	119.56
438.278	118.56
438.5	115.56
438.721	132.56
438.943	141.56
439.165	138.56
439.386	131.56
439.608	143.56
439.829	138.56
440.05	141.56
440.272	147.56
440.493	135.56
440.715	124.56
440.936	142.56
441.158	151.56
441.379	138.56
441.6	147.56
441.822	144.56
442.043	141.56
442.264	134.56
442.486	116.56
442.707	147.56
442.928	141.56
443.149	147.56
443.371	134.56
443.592	119.56
443.813	133.56
444.034	133.56
444.255	157.56
444.476	143.56
444.698	138.56
444.919	121.56
445.14	261.56
445.361	194.56
445.582	145.56
445.803	149.56
446.024	136.56
446.245	144.56
446.466	139.56
446.687	156.56
446.908	154.56
447.129	141.56
447.35	159.56
447.571	141.56
447.792	147.56
448.013	135.56
448.234	124.56
448.455	139.56
448.675	139.56
448.896	144.56
449.117	153.56
449.338	124.56
449.559	129.56
449.779	128.56
450	120.56
450.221	140.56
450.442	130.56
450.662	136.56
450.883	140.56
451.104	134.56
451.324	122.56
451.545	126.56
451.766	124.56
451.986	128.56
452.207	139.56
452.428	120.56
452.648	102.56
452.869	125.56
453.089	125.56
453.31	119.56
453.53	121.56
453.751	99.56
453.971	93.56
454.192	109.56
454.412	105.56
454.633	119.56
454.853	116.56
455.073	115.56
455.294	126.56
455.514	122.56
455.734	116.56
455.955	105.56
456.175	120.56
456.395	105.56
456.616	101.56
456.836	126.56
457.056	99.56
457.276	111.56
457.497	109.56
457.717	95.56
457.937	105.56
458.157	111.56
458.377	92.56
458.598	102.56
458.818	102.56
459.038	76.56
459.258	88.56
459.478	97.56
459.698	90.56
459.918	84.56
460.138	105.56
460.358	85.56
460.578	103.56
460.798	125.56
461.018	113.56
461.238	105.56
461.458	119.56
461.678	117.56
461.898	107.56
462.118	126.56
462.338	118.56
462.558	121.56
462.777	129.56
462.997	132.56
463.217	105.56
463.437	107.56
463.657	116.56
463.876	112.56
464.096	125.56
464.316	105.56
464.536	106.56
464.755	105.56
464.975	96.56
465.195	116.56
465.414	121.56
465.634	119.56
465.854	108.56
466.073	121.56
466.293	121.56
466.512	117.56
466.732	123.56
466.951	132.56
467.171	121.56
467.391	111.56
467.61	140.56
467.829	138.56
468.049	151.56
468.268	131.56
468.488	137.56
468.707	129.56
468.927	147.56
469.146	127.56
469.365	160.56
469.585	145.56
469.804	140.56
470.023	137.56
470.243	147.56
470.462	141.56
470.681	155.56
470.901	143.56
471.12	131.56
471.339	135.56
471.558	132.56
471.777	142.56
471.997	132.56
472.216	123.56
472.435	130.56
472.654	111.56
472.873	118.56
473.092	126.56
473.311	132.56
473.53	132.56
473.749	128.56
473.968	111.56
474.187	111.56
474.406	117.56
474.625	137.56
474.844	125.56
475.063	117.56
475.282	117.56
475.501	131.56
475.72	127.56
475.939	122.56
476.158	135.56
476.377	139.56
476.596	136.56
476.814	117.56
477.033	103.56
477.252	115.56
477.471	122.56
477.69	137.56
477.908	137.56
478.127	147.56
478.346	139.56
478.564	148.56
478.783	134.56
479.002	129.56
479.22	131.56
479.439	139.56
479.658	132.56
479.876	121.56
480.095	115.56
480.313	119.56
480.532	121.56
480.751	112.56
480.969	105.56
481.188	100.56
481.406	92.56
481.624	83.56
481.843	97.56
482.061	103.56
482.28	104.56
482.498	90.56
482.717	105.56
482.935	121.56
483.153	120.56
483.372	144.56
483.59	152.56
483.808	129.56
484.027	127.56
484.245	135.56
484.463	129.56
484.681	156.56
484.9	153.56
485.118	133.56
485.336	133.56
485.554	112.56
485.772	106.56
485.99	101.56
486.209	112.56
486.427	106.56
486.645	106.56
486.863	135.56
487.081	129.56
487.299	147.56
487.517	127.56
487.735	162.56
487.953	187.56
488.171	185.56
488.389	163.56
488.607	155.56
488.825	145.56
489.043	129.56
489.261	130.56
489.479	131.56
489.696	140.56
489.914	145.56
490.132	149.56
490.35	167.56
490.568	151.56
490.786	159.56
491.003	185.56
491.221	171.56
491.439	189.56
491.657	179.56
491.874	204.56
492.092	220.56
492.31	231.56
492.527	233.56
492.745	188.56
492.963	185.56
493.18	176.56
493.398	163.56
493.615	173.56
493.833	188.56
494.05	166.56
494.268	163.56
494.485	175.56
494.703	168.56
494.92	169.56
495.138	163.56
495.355	180.56
495.573	171.56
495.79	177.56
496.008	166.56
496.225	162.56
496.442	161.56
496.66	171.56
496.877	152.56
497.094	167.56
497.312	164.56
497.529	189.56
497.746	142.56
497.963	144.56
498.181	126.56
498.398	125.56
498.615	116.56
498.832	98.56
499.049	125.56
499.267	136.56
499.484	131.56
499.701	139.56
499.918	134.56
500.135	120.56
500.352	142.56
500.569	132.56
500.786	155.56
501.003	149.56
501.22	134.56
501.437	141.56
501.654	128.56
501.871	127.56
502.088	123.56
502.305	129.56
502.522	131.56
502.739	126.56
502.956	135.56
503.172	126.56
503.389	112.56
503.606	121.56
503.823	123.56
504.04	116.56
504.256	110.56
504.473	104.56
504.69	117.56
504.907	115.56
505.123	114.56
505.34	117.56
505.557	119.56
505.773	113.56
505.99	108.56
506.207	116.56
506.423	119.56
506.64	108.56
506.856	121.56
507.073	123.56
507.289	123.56
507.506	121.56
507.722	129.56
507.939	123.56
508.155	112.56
508.372	122.56
508.588	122.56
508.805	120.56
509.021	101.56
509.238	112.56
509.454	101.56
509.67	108.56
509.887	97.56
510.103	91.56
510.319	98.56
510.536	94.56
510.752	90.56
510.968	96.56
511.184	98.56
511.401	83.56
511.617	93.56
