Data from Location2.07152019.Energy5.Lamp.07192019.3%Agarose_HRD10591_14-58-14-358.txt Node
Date: Fri Jul 19 14:58:14 EDT 2019
User: cochatt
Spectrometer: HR+D1059
Trigger mode: 1
Integration Time (sec): 1.000000E-1
Scans to average: 1
Electric dark correction enabled: true
Nonlinearity correction enabled: false
Boxcar width: 0
XAxis mode: Wavelengths
Number of Pixels in Spectrum: 2048
>>>>>Begin Spectral Data<<<<<
223.165	-16.56
223.4	-16.56
223.635	-16.56
223.869	-11.56
224.104	-12.56
224.338	-23.56
224.573	-28.56
224.808	-4.56
225.042	0.44
225.277	-6.56
225.511	0.44
225.746	1.44
225.98	10.44
226.215	17.44
226.449	4.44
226.683	11.44
226.918	36.44
227.152	21.44
227.387	32.44
227.621	31.44
227.856	41.44
228.09	40.44
228.324	51.44
228.559	48.44
228.793	49.44
229.027	66.44
229.262	69.44
229.496	58.44
229.73	73.44
229.964	90.44
230.199	72.44
230.433	72.44
230.667	80.44
230.901	81.44
231.136	89.44
231.37	88.44
231.604	94.44
231.838	98.44
232.072	75.44
232.306	88.44
232.541	80.44
232.775	75.44
233.009	84.44
233.243	71.44
233.477	73.44
233.711	70.44
233.945	85.44
234.179	73.44
234.413	78.44
234.647	87.44
234.881	81.44
235.115	81.44
235.349	81.44
235.583	80.44
235.817	81.44
236.051	73.44
236.285	88.44
236.519	75.44
236.753	90.44
236.987	76.44
237.221	83.44
237.455	81.44
237.689	72.44
237.922	96.44
238.156	83.44
238.39	77.44
238.624	78.44
238.858	90.44
239.091	74.44
239.325	78.44
239.559	77.44
239.793	77.44
240.027	78.44
240.26	68.44
240.494	73.44
240.728	80.44
240.961	64.44
241.195	78.44
241.429	76.44
241.662	84.44
241.896	79.44
242.13	78.44
242.363	89.44
242.597	79.44
242.83	85.44
243.064	92.44
243.298	67.44
243.531	68.44
243.765	89.44
243.998	75.44
244.232	63.44
244.465	79.44
244.699	86.44
244.932	70.44
245.166	76.44
245.399	76.44
245.633	72.44
245.866	92.44
246.099	85.44
246.333	73.44
246.566	85.44
246.8	89.44
247.033	85.44
247.266	81.44
247.5	87.44
247.733	91.44
247.966	85.44
248.2	87.44
248.433	69.44
248.666	72.44
248.899	88.44
249.133	82.44
249.366	76.44
249.599	83.44
249.832	97.44
250.066	83.44
250.299	80.44
250.532	77.44
250.765	74.44
250.998	82.44
251.231	91.44
251.465	88.44
251.698	83.44
251.931	89.44
252.164	75.44
252.397	79.44
252.63	74.44
252.863	78.44
253.096	76.44
253.329	82.44
253.562	82.44
253.795	87.44
254.028	97.44
254.261	101.44
254.494	85.44
254.727	84.44
254.96	73.44
255.193	81.44
255.426	80.44
255.659	81.44
255.892	79.44
256.124	78.44
256.357	78.44
256.59	85.44
256.823	86.44
257.056	83.44
257.289	76.44
257.521	80.44
257.754	86.44
257.987	73.44
258.22	71.44
258.452	72.44
258.685	73.44
258.918	84.44
259.151	79.44
259.383	87.44
259.616	82.44
259.849	79.44
260.081	77.44
260.314	67.44
260.547	88.44
260.779	90.44
261.012	93.44
261.244	68.44
261.477	85.44
261.71	80.44
261.942	82.44
262.175	82.44
262.407	84.44
262.64	77.44
262.872	71.44
263.105	87.44
263.337	84.44
263.57	78.44
263.802	98.44
264.035	85.44
264.267	90.44
264.499	65.44
264.732	95.44
264.964	99.44
265.197	78.44
265.429	73.44
265.661	80.44
265.894	90.44
266.126	69.44
266.358	86.44
266.591	78.44
266.823	81.44
267.055	87.44
267.287	74.44
267.52	81.44
267.752	81.44
267.984	89.44
268.216	74.44
268.448	88.44
268.681	83.44
268.913	85.44
269.145	83.44
269.377	90.44
269.609	89.44
269.841	79.44
270.073	78.44
270.306	86.44
270.538	84.44
270.77	90.44
271.002	86.44
271.234	77.44
271.466	79.44
271.698	82.44
271.93	81.44
272.162	76.44
272.394	93.44
272.626	84.44
272.858	74.44
273.09	91.44
273.322	97.44
273.553	82.44
273.785	76.44
274.017	81.44
274.249	83.44
274.481	72.44
274.713	71.44
274.945	85.44
275.176	81.44
275.408	72.44
275.64	79.44
275.872	78.44
276.104	91.44
276.335	75.44
276.567	81.44
276.799	81.44
277.031	77.44
277.262	83.44
277.494	79.44
277.726	85.44
277.957	84.44
278.189	88.44
278.421	76.44
278.652	66.44
278.884	76.44
279.115	94.44
279.347	75.44
279.579	85.44
279.81	76.44
280.042	70.44
280.273	92.44
280.505	78.44
280.736	74.44
280.968	79.44
281.199	85.44
281.431	88.44
281.662	85.44
281.894	82.44
282.125	82.44
282.356	90.44
282.588	87.44
282.819	81.44
283.051	81.44
283.282	76.44
283.513	101.44
283.745	86.44
283.976	81.44
284.207	83.44
284.439	91.44
284.67	77.44
284.901	75.44
285.132	75.44
285.364	69.44
285.595	82.44
285.826	89.44
286.057	71.44
286.288	78.44
286.52	84.44
286.751	74.44
286.982	89.44
287.213	80.44
287.444	83.44
287.675	77.44
287.906	88.44
288.138	79.44
288.369	91.44
288.6	74.44
288.831	84.44
289.062	83.44
289.293	100.44
289.524	76.44
289.755	99.44
289.986	90.44
290.217	91.44
290.448	81.44
290.679	79.44
290.91	79.44
291.141	72.44
291.371	85.44
291.602	89.44
291.833	86.44
292.064	82.44
292.295	89.44
292.526	77.44
292.757	95.44
292.987	72.44
293.218	67.44
293.449	86.44
293.68	74.44
293.91	85.44
294.141	83.44
294.372	84.44
294.603	85.44
294.833	76.44
295.064	81.44
295.295	85.44
295.525	82.44
295.756	90.44
295.987	79.44
296.217	78.44
296.448	79.44
296.679	84.44
296.909	94.44
297.14	90.44
297.37	79.44
297.601	80.44
297.831	82.44
298.062	73.44
298.292	72.44
298.523	80.44
298.753	85.44
298.984	98.44
299.214	88.44
299.445	91.44
299.675	87.44
299.905	86.44
300.136	83.44
300.366	77.44
300.597	70.44
300.827	80.44
301.057	102.44
301.288	91.44
301.518	89.44
301.748	88.44
301.979	63.44
302.209	84.44
302.439	81.44
302.669	76.44
302.9	85.44
303.13	94.44
303.36	88.44
303.59	78.44
303.82	80.44
304.051	80.44
304.281	68.44
304.511	92.44
304.741	85.44
304.971	89.44
305.201	93.44
305.431	77.44
305.661	68.44
305.891	83.44
306.121	80.44
306.352	79.44
306.582	91.44
306.812	80.44
307.042	86.44
307.272	93.44
307.502	97.44
307.731	84.44
307.961	87.44
308.191	89.44
308.421	89.44
308.651	77.44
308.881	89.44
309.111	93.44
309.341	78.44
309.571	80.44
309.8	75.44
310.03	87.44
310.26	74.44
310.49	83.44
310.72	67.44
310.949	73.44
311.179	95.44
311.409	81.44
311.639	77.44
311.868	76.44
312.098	81.44
312.328	78.44
312.557	96.44
312.787	83.44
313.017	73.44
313.246	87.44
313.476	88.44
313.706	91.44
313.935	83.44
314.165	100.44
314.394	97.44
314.624	85.44
314.853	101.44
315.083	81.44
315.312	78.44
315.542	77.44
315.771	98.44
316.001	77.44
316.23	77.44
316.46	77.44
316.689	85.44
316.919	77.44
317.148	75.44
317.377	90.44
317.607	95.44
317.836	71.44
318.065	84.44
318.295	82.44
318.524	76.44
318.753	90.44
318.983	87.44
319.212	87.44
319.441	91.44
319.67	69.44
319.9	80.44
320.129	86.44
320.358	86.44
320.587	89.44
320.816	90.44
321.046	95.44
321.275	76.44
321.504	88.44
321.733	82.44
321.962	95.44
322.191	79.44
322.42	74.44
322.649	91.44
322.878	92.44
323.108	93.44
323.337	85.44
323.566	83.44
323.795	67.44
324.024	96.44
324.253	78.44
324.482	93.44
324.71	90.44
324.939	81.44
325.168	85.44
325.397	73.44
325.626	83.44
325.855	75.44
326.084	74.44
326.313	83.44
326.542	78.44
326.77	83.44
326.999	93.44
327.228	86.44
327.457	95.44
327.686	87.44
327.914	90.44
328.143	89.44
328.372	75.44
328.6	75.44
328.829	73.44
329.058	69.44
329.287	77.44
329.515	89.44
329.744	75.44
329.972	84.44
330.201	87.44
330.43	93.44
330.658	79.44
330.887	75.44
331.115	93.44
331.344	84.44
331.572	79.44
331.801	90.44
332.03	90.44
332.258	93.44
332.486	75.44
332.715	76.44
332.943	93.44
333.172	78.44
333.4	96.44
333.629	90.44
333.857	82.44
334.085	68.44
334.314	84.44
334.542	88.44
334.771	81.44
334.999	84.44
335.227	84.44
335.455	83.44
335.684	94.44
335.912	83.44
336.14	81.44
336.369	78.44
336.597	83.44
336.825	84.44
337.053	79.44
337.281	92.44
337.51	80.44
337.738	90.44
337.966	98.44
338.194	92.44
338.422	81.44
338.65	86.44
338.878	95.44
339.106	66.44
339.334	75.44
339.562	90.44
339.79	91.44
340.018	94.44
340.246	92.44
340.474	85.44
340.702	84.44
340.93	85.44
341.158	88.44
341.386	85.44
341.614	96.44
341.842	91.44
342.07	85.44
342.298	90.44
342.526	79.44
342.754	81.44
342.981	81.44
343.209	75.44
343.437	66.44
343.665	91.44
343.893	82.44
344.12	83.44
344.348	79.44
344.576	87.44
344.804	81.44
345.031	83.44
345.259	95.44
345.487	87.44
345.714	79.44
345.942	88.44
346.17	94.44
346.397	81.44
346.625	77.44
346.853	82.44
347.08	88.44
347.308	86.44
347.535	76.44
347.763	87.44
347.99	87.44
348.218	79.44
348.445	80.44
348.673	77.44
348.9	92.44
349.128	96.44
349.355	87.44
349.583	88.44
349.81	72.44
350.037	66.44
350.265	90.44
350.492	82.44
350.72	93.44
350.947	77.44
351.174	93.44
351.402	74.44
351.629	85.44
351.856	70.44
352.083	77.44
352.311	87.44
352.538	80.44
352.765	92.44
352.992	100.44
353.22	89.44
353.447	90.44
353.674	95.44
353.901	87.44
354.128	86.44
354.355	79.44
354.583	75.44
354.81	88.44
355.037	78.44
355.264	80.44
355.491	94.44
355.718	80.44
355.945	77.44
356.172	72.44
356.399	83.44
356.626	76.44
356.853	80.44
357.08	81.44
357.307	73.44
357.534	80.44
357.761	83.44
357.988	87.44
358.215	79.44
358.441	74.44
358.668	75.44
358.895	78.44
359.122	95.44
359.349	81.44
359.576	87.44
359.802	85.44
360.029	91.44
360.256	88.44
360.483	83.44
360.709	83.44
360.936	98.44
361.163	92.44
361.39	88.44
361.616	76.44
361.843	84.44
362.07	74.44
362.296	75.44
362.523	97.44
362.749	80.44
362.976	85.44
363.203	84.44
363.429	77.44
363.656	72.44
363.882	88.44
364.109	85.44
364.335	71.44
364.562	72.44
364.788	84.44
365.015	92.44
365.241	88.44
365.468	89.44
365.694	81.44
365.92	87.44
366.147	96.44
366.373	95.44
366.599	82.44
366.826	84.44
367.052	87.44
367.278	90.44
367.505	100.44
367.731	95.44
367.957	84.44
368.184	81.44
368.41	88.44
368.636	90.44
368.862	90.44
369.089	93.44
369.315	78.44
369.541	90.44
369.767	79.44
369.993	91.44
370.219	77.44
370.445	95.44
370.672	91.44
370.898	87.44
371.124	104.44
371.35	102.44
371.576	92.44
371.802	82.44
372.028	80.44
372.254	98.44
372.48	81.44
372.706	101.44
372.932	93.44
373.158	83.44
373.384	86.44
373.61	84.44
373.835	105.44
374.061	96.44
374.287	93.44
374.513	92.44
374.739	91.44
374.965	91.44
375.191	100.44
375.416	95.44
375.642	104.44
375.868	92.44
376.094	92.44
376.319	76.44
376.545	100.44
376.771	87.44
376.997	77.44
377.222	84.44
377.448	92.44
377.674	94.44
377.899	95.44
378.125	92.44
378.35	91.44
378.576	90.44
378.802	100.44
379.027	90.44
379.253	90.44
379.478	93.44
379.704	104.44
379.929	95.44
380.155	98.44
380.38	98.44
380.606	87.44
380.831	76.44
381.057	95.44
381.282	100.44
381.507	106.44
381.733	105.44
381.958	90.44
382.184	92.44
382.409	75.44
382.634	100.44
382.86	87.44
383.085	96.44
383.31	92.44
383.535	99.44
383.761	88.44
383.986	107.44
384.211	99.44
384.436	101.44
384.662	103.44
384.887	92.44
385.112	80.44
385.337	97.44
385.562	104.44
385.787	92.44
386.013	106.44
386.238	105.44
386.463	100.44
386.688	103.44
386.913	104.44
387.138	87.44
387.363	101.44
387.588	109.44
387.813	91.44
388.038	101.44
388.263	92.44
388.488	107.44
388.713	111.44
388.938	106.44
389.163	111.44
389.387	104.44
389.612	108.44
389.837	109.44
390.062	107.44
390.287	96.44
390.512	97.44
390.736	102.44
390.961	105.44
391.186	105.44
391.411	112.44
391.636	100.44
391.86	104.44
392.085	107.44
392.31	101.44
392.534	114.44
392.759	107.44
392.984	98.44
393.208	92.44
393.433	97.44
393.658	81.44
393.882	112.44
394.107	98.44
394.331	93.44
394.556	101.44
394.78	88.44
395.005	112.44
395.229	112.44
395.454	88.44
395.678	122.44
395.903	104.44
396.127	110.44
396.352	99.44
396.576	111.44
396.801	99.44
397.025	101.44
397.249	107.44
397.474	104.44
397.698	109.44
397.922	105.44
398.147	105.44
398.371	119.44
398.595	110.44
398.82	124.44
399.044	105.44
399.268	101.44
399.492	99.44
399.717	116.44
399.941	97.44
400.165	98.44
400.389	116.44
400.613	106.44
400.837	111.44
401.062	112.44
401.286	111.44
401.51	119.44
401.734	107.44
401.958	109.44
402.182	103.44
402.406	101.44
402.63	116.44
402.854	110.44
403.078	110.44
403.302	121.44
403.526	100.44
403.75	119.44
403.974	125.44
404.198	116.44
404.422	108.44
404.645	131.44
404.869	109.44
405.093	123.44
405.317	115.44
405.541	121.44
405.765	102.44
405.988	110.44
406.212	128.44
406.436	118.44
406.66	125.44
406.883	108.44
407.107	124.44
407.331	107.44
407.555	122.44
407.778	131.44
408.002	122.44
408.226	109.44
408.449	119.44
408.673	117.44
408.896	115.44
409.12	115.44
409.344	131.44
409.567	125.44
409.791	134.44
410.014	123.44
410.238	128.44
410.461	127.44
410.685	119.44
410.908	111.44
411.132	125.44
411.355	131.44
411.578	131.44
411.802	129.44
412.025	124.44
412.249	130.44
412.472	128.44
412.695	117.44
412.919	123.44
413.142	109.44
413.365	123.44
413.589	114.44
413.812	115.44
414.035	113.44
414.258	122.44
414.482	120.44
414.705	115.44
414.928	113.44
415.151	113.44
415.374	115.44
415.597	119.44
415.821	112.44
416.044	120.44
416.267	138.44
416.49	127.44
416.713	121.44
416.936	124.44
417.159	127.44
417.382	137.44
417.605	128.44
417.828	119.44
418.051	122.44
418.274	126.44
418.497	130.44
418.72	132.44
418.943	129.44
419.166	130.44
419.389	141.44
419.611	145.44
419.834	135.44
420.057	144.44
420.28	132.44
420.503	127.44
420.726	133.44
420.948	122.44
421.171	134.44
421.394	141.44
421.617	140.44
421.839	153.44
422.062	127.44
422.285	129.44
422.507	130.44
422.73	133.44
422.953	124.44
423.175	123.44
423.398	131.44
423.621	128.44
423.843	153.44
424.066	141.44
424.288	145.44
424.511	138.44
424.733	139.44
424.956	140.44
425.178	137.44
425.401	118.44
425.623	124.44
425.846	132.44
426.068	125.44
426.291	143.44
426.513	134.44
426.735	121.44
426.958	110.44
427.18	131.44
427.402	143.44
427.625	133.44
427.847	130.44
428.069	127.44
428.292	122.44
428.514	121.44
428.736	133.44
428.958	120.44
429.181	139.44
429.403	129.44
429.625	131.44
429.847	132.44
430.069	123.44
430.292	121.44
430.514	118.44
430.736	124.44
430.958	133.44
431.18	118.44
431.402	100.44
431.624	119.44
431.846	96.44
432.068	103.44
432.29	95.44
432.512	94.44
432.734	131.44
432.956	137.44
433.178	142.44
433.4	123.44
433.622	145.44
433.844	116.44
434.066	122.44
434.287	115.44
434.509	98.44
434.731	81.44
434.953	106.44
435.175	115.44
435.397	133.44
435.618	136.44
435.84	111.44
436.062	123.44
436.284	129.44
436.505	129.44
436.727	133.44
436.949	129.44
437.17	135.44
437.392	120.44
437.614	126.44
437.835	118.44
438.057	99.44
438.278	121.44
438.5	121.44
438.721	143.44
438.943	131.44
439.165	128.44
439.386	125.44
439.608	134.44
439.829	141.44
440.05	133.44
440.272	129.44
440.493	133.44
440.715	142.44
440.936	124.44
441.158	147.44
441.379	141.44
441.6	155.44
441.822	145.44
442.043	155.44
442.264	130.44
442.486	136.44
442.707	129.44
442.928	144.44
443.149	133.44
443.371	142.44
443.592	126.44
443.813	141.44
444.034	146.44
444.255	132.44
444.476	141.44
444.698	146.44
444.919	155.44
445.14	255.44
445.361	194.44
445.582	136.44
445.803	155.44
446.024	135.44
446.245	163.44
446.466	145.44
446.687	141.44
446.908	155.44
447.129	164.44
447.35	155.44
447.571	161.44
447.792	128.44
448.013	148.44
448.234	148.44
448.455	166.44
448.675	137.44
448.896	136.44
449.117	141.44
449.338	136.44
449.559	137.44
449.779	132.44
450	139.44
450.221	135.44
450.442	132.44
450.662	122.44
450.883	127.44
451.104	137.44
451.324	141.44
451.545	124.44
451.766	136.44
451.986	139.44
452.207	127.44
452.428	131.44
452.648	125.44
452.869	113.44
453.089	114.44
453.31	117.44
453.53	97.44
453.751	120.44
453.971	103.44
454.192	99.44
454.412	115.44
454.633	104.44
454.853	132.44
455.073	121.44
455.294	124.44
455.514	129.44
455.734	124.44
455.955	109.44
456.175	111.44
456.395	106.44
456.616	116.44
456.836	111.44
457.056	107.44
457.276	108.44
457.497	109.44
457.717	106.44
457.937	107.44
458.157	117.44
458.377	99.44
458.598	98.44
458.818	99.44
459.038	97.44
459.258	82.44
459.478	112.44
459.698	103.44
459.918	95.44
460.138	106.44
460.358	120.44
460.578	116.44
460.798	120.44
461.018	107.44
461.238	112.44
461.458	113.44
461.678	125.44
461.898	120.44
462.118	128.44
462.338	116.44
462.558	117.44
462.777	112.44
462.997	101.44
463.217	105.44
463.437	106.44
463.657	103.44
463.876	100.44
464.096	102.44
464.316	110.44
464.536	109.44
464.755	111.44
464.975	115.44
465.195	115.44
465.414	117.44
465.634	122.44
465.854	130.44
466.073	120.44
466.293	123.44
466.512	138.44
466.732	129.44
466.951	128.44
467.171	119.44
467.391	140.44
467.61	133.44
467.829	141.44
468.049	131.44
468.268	122.44
468.488	143.44
468.707	144.44
468.927	134.44
469.146	131.44
469.365	135.44
469.585	144.44
469.804	145.44
470.023	138.44
470.243	135.44
470.462	149.44
470.681	128.44
470.901	155.44
471.12	127.44
471.339	133.44
471.558	159.44
471.777	139.44
471.997	142.44
472.216	139.44
472.435	134.44
472.654	123.44
472.873	103.44
473.092	118.44
473.311	121.44
473.53	117.44
473.749	128.44
473.968	125.44
474.187	123.44
474.406	126.44
474.625	138.44
474.844	127.44
475.063	112.44
475.282	147.44
475.501	117.44
475.72	122.44
475.939	127.44
476.158	143.44
476.377	131.44
476.596	130.44
476.814	115.44
477.033	120.44
477.252	109.44
477.471	131.44
477.69	139.44
477.908	144.44
478.127	136.44
478.346	135.44
478.564	137.44
478.783	131.44
479.002	126.44
479.22	131.44
479.439	122.44
479.658	124.44
479.876	102.44
480.095	114.44
480.313	129.44
480.532	119.44
480.751	114.44
480.969	96.44
481.188	83.44
481.406	87.44
481.624	96.44
481.843	89.44
482.061	105.44
482.28	107.44
482.498	97.44
482.717	121.44
482.935	123.44
483.153	154.44
483.372	155.44
483.59	140.44
483.808	139.44
484.027	140.44
484.245	129.44
484.463	147.44
484.681	145.44
484.9	151.44
485.118	140.44
485.336	139.44
485.554	116.44
485.772	107.44
485.99	116.44
486.209	105.44
486.427	121.44
486.645	119.44
486.863	131.44
487.081	146.44
487.299	142.44
487.517	140.44
487.735	170.44
487.953	193.44
488.171	184.44
488.389	173.44
488.607	141.44
488.825	137.44
489.043	128.44
489.261	140.44
489.479	147.44
489.696	150.44
489.914	152.44
490.132	132.44
490.35	168.44
490.568	162.44
490.786	162.44
491.003	159.44
491.221	185.44
491.439	180.44
491.657	173.44
491.874	219.44
492.092	233.44
492.31	235.44
492.527	227.44
492.745	209.44
492.963	202.44
493.18	183.44
493.398	187.44
493.615	170.44
493.833	175.44
494.05	166.44
494.268	183.44
494.485	161.44
494.703	170.44
494.92	173.44
495.138	170.44
495.355	162.44
495.573	168.44
495.79	161.44
496.008	172.44
496.225	176.44
496.442	163.44
496.66	159.44
496.877	159.44
497.094	169.44
497.312	161.44
497.529	155.44
497.746	147.44
497.963	139.44
498.181	131.44
498.398	128.44
498.615	130.44
498.832	114.44
499.049	130.44
499.267	125.44
499.484	129.44
499.701	124.44
499.918	135.44
500.135	135.44
500.352	146.44
500.569	133.44
500.786	139.44
501.003	136.44
501.22	146.44
501.437	152.44
501.654	129.44
501.871	137.44
502.088	135.44
502.305	137.44
502.522	136.44
502.739	136.44
502.956	141.44
503.172	127.44
503.389	121.44
503.606	127.44
503.823	107.44
504.04	107.44
504.256	120.44
504.473	123.44
504.69	104.44
504.907	138.44
505.123	111.44
505.34	126.44
505.557	116.44
505.773	121.44
505.99	124.44
506.207	122.44
506.423	117.44
506.64	125.44
506.856	129.44
507.073	119.44
507.289	115.44
507.506	121.44
507.722	128.44
507.939	125.44
508.155	117.44
508.372	98.44
508.588	112.44
508.805	118.44
509.021	125.44
509.238	108.44
509.454	94.44
509.67	115.44
509.887	116.44
510.103	96.44
510.319	105.44
510.536	81.44
510.752	87.44
510.968	97.44
511.184	80.44
511.401	94.44
511.617	90.44
