Data from Location2.07152019.Energy5.Lamp.07192019.3%Agarose_HRD10591_14-55-44-358.txt Node
Date: Fri Jul 19 14:55:44 EDT 2019
User: cochatt
Spectrometer: HR+D1059
Trigger mode: 1
Integration Time (sec): 1.000000E-1
Scans to average: 1
Electric dark correction enabled: true
Nonlinearity correction enabled: false
Boxcar width: 0
XAxis mode: Wavelengths
Number of Pixels in Spectrum: 2048
>>>>>Begin Spectral Data<<<<<
223.165	-24.69
223.4	-24.69
223.635	-24.69
223.869	-13.69
224.104	-20.69
224.338	-3.69
224.573	-6.69
224.808	-5.69
225.042	-6.69
225.277	-9.69
225.511	-0.69
225.746	6.31
225.98	0.31
226.215	15.31
226.449	3.31
226.683	15.31
226.918	25.31
227.152	26.31
227.387	30.31
227.621	17.31
227.856	46.31
228.09	45.31
228.324	52.31
228.559	58.31
228.793	71.31
229.027	62.31
229.262	66.31
229.496	65.31
229.73	54.31
229.964	69.31
230.199	66.31
230.433	73.31
230.667	64.31
230.901	93.31
231.136	73.31
231.37	74.31
231.604	82.31
231.838	99.31
232.072	94.31
232.306	81.31
232.541	76.31
232.775	86.31
233.009	73.31
233.243	73.31
233.477	88.31
233.711	81.31
233.945	90.31
234.179	82.31
234.413	78.31
234.647	85.31
234.881	66.31
235.115	77.31
235.349	78.31
235.583	83.31
235.817	71.31
236.051	88.31
236.285	84.31
236.519	78.31
236.753	75.31
236.987	102.31
237.221	74.31
237.455	86.31
237.689	83.31
237.922	79.31
238.156	86.31
238.39	76.31
238.624	79.31
238.858	84.31
239.091	77.31
239.325	74.31
239.559	61.31
239.793	89.31
240.027	77.31
240.26	82.31
240.494	80.31
240.728	63.31
240.961	63.31
241.195	91.31
241.429	82.31
241.662	81.31
241.896	73.31
242.13	79.31
242.363	65.31
242.597	68.31
242.83	64.31
243.064	77.31
243.298	64.31
243.531	82.31
243.765	80.31
243.998	74.31
244.232	82.31
244.465	75.31
244.699	78.31
244.932	75.31
245.166	88.31
245.399	88.31
245.633	86.31
245.866	64.31
246.099	73.31
246.333	73.31
246.566	75.31
246.8	85.31
247.033	82.31
247.266	75.31
247.5	77.31
247.733	87.31
247.966	78.31
248.2	91.31
248.433	83.31
248.666	66.31
248.899	92.31
249.133	67.31
249.366	78.31
249.599	85.31
249.832	65.31
250.066	82.31
250.299	77.31
250.532	90.31
250.765	88.31
250.998	76.31
251.231	78.31
251.465	71.31
251.698	77.31
251.931	89.31
252.164	93.31
252.397	64.31
252.63	70.31
252.863	78.31
253.096	66.31
253.329	79.31
253.562	78.31
253.795	80.31
254.028	72.31
254.261	91.31
254.494	71.31
254.727	99.31
254.96	83.31
255.193	79.31
255.426	86.31
255.659	79.31
255.892	86.31
256.124	79.31
256.357	82.31
256.59	80.31
256.823	68.31
257.056	81.31
257.289	82.31
257.521	81.31
257.754	81.31
257.987	76.31
258.22	88.31
258.452	87.31
258.685	78.31
258.918	81.31
259.151	80.31
259.383	93.31
259.616	92.31
259.849	84.31
260.081	84.31
260.314	87.31
260.547	81.31
260.779	82.31
261.012	92.31
261.244	74.31
261.477	80.31
261.71	96.31
261.942	74.31
262.175	88.31
262.407	92.31
262.64	83.31
262.872	75.31
263.105	65.31
263.337	89.31
263.57	77.31
263.802	81.31
264.035	72.31
264.267	69.31
264.499	96.31
264.732	86.31
264.964	85.31
265.197	84.31
265.429	79.31
265.661	86.31
265.894	90.31
266.126	74.31
266.358	92.31
266.591	89.31
266.823	79.31
267.055	99.31
267.287	84.31
267.52	84.31
267.752	78.31
267.984	69.31
268.216	75.31
268.448	79.31
268.681	84.31
268.913	83.31
269.145	92.31
269.377	60.31
269.609	69.31
269.841	82.31
270.073	69.31
270.306	76.31
270.538	80.31
270.77	72.31
271.002	75.31
271.234	91.31
271.466	76.31
271.698	84.31
271.93	86.31
272.162	97.31
272.394	80.31
272.626	75.31
272.858	71.31
273.09	85.31
273.322	86.31
273.553	89.31
273.785	74.31
274.017	81.31
274.249	88.31
274.481	79.31
274.713	82.31
274.945	80.31
275.176	73.31
275.408	76.31
275.64	74.31
275.872	74.31
276.104	77.31
276.335	75.31
276.567	73.31
276.799	90.31
277.031	85.31
277.262	86.31
277.494	99.31
277.726	89.31
277.957	90.31
278.189	78.31
278.421	84.31
278.652	94.31
278.884	85.31
279.115	76.31
279.347	80.31
279.579	80.31
279.81	77.31
280.042	89.31
280.273	77.31
280.505	101.31
280.736	85.31
280.968	90.31
281.199	76.31
281.431	79.31
281.662	82.31
281.894	87.31
282.125	78.31
282.356	93.31
282.588	72.31
282.819	89.31
283.051	93.31
283.282	75.31
283.513	77.31
283.745	90.31
283.976	77.31
284.207	93.31
284.439	72.31
284.67	81.31
284.901	94.31
285.132	97.31
285.364	72.31
285.595	82.31
285.826	77.31
286.057	71.31
286.288	82.31
286.52	93.31
286.751	84.31
286.982	84.31
287.213	84.31
287.444	93.31
287.675	81.31
287.906	87.31
288.138	100.31
288.369	104.31
288.6	75.31
288.831	82.31
289.062	91.31
289.293	80.31
289.524	69.31
289.755	81.31
289.986	64.31
290.217	76.31
290.448	88.31
290.679	74.31
290.91	95.31
291.141	90.31
291.371	85.31
291.602	84.31
291.833	104.31
292.064	88.31
292.295	72.31
292.526	74.31
292.757	82.31
292.987	82.31
293.218	82.31
293.449	91.31
293.68	84.31
293.91	86.31
294.141	91.31
294.372	80.31
294.603	78.31
294.833	90.31
295.064	85.31
295.295	78.31
295.525	87.31
295.756	103.31
295.987	77.31
296.217	92.31
296.448	88.31
296.679	84.31
296.909	86.31
297.14	94.31
297.37	93.31
297.601	80.31
297.831	90.31
298.062	92.31
298.292	99.31
298.523	101.31
298.753	79.31
298.984	78.31
299.214	86.31
299.445	90.31
299.675	84.31
299.905	87.31
300.136	84.31
300.366	87.31
300.597	87.31
300.827	79.31
301.057	75.31
301.288	84.31
301.518	82.31
301.748	83.31
301.979	82.31
302.209	103.31
302.439	69.31
302.669	81.31
302.9	89.31
303.13	83.31
303.36	93.31
303.59	83.31
303.82	86.31
304.051	86.31
304.281	89.31
304.511	80.31
304.741	86.31
304.971	92.31
305.201	102.31
305.431	85.31
305.661	80.31
305.891	93.31
306.121	85.31
306.352	94.31
306.582	87.31
306.812	89.31
307.042	86.31
307.272	83.31
307.502	74.31
307.731	89.31
307.961	82.31
308.191	82.31
308.421	95.31
308.651	72.31
308.881	96.31
309.111	78.31
309.341	82.31
309.571	83.31
309.8	94.31
310.03	80.31
310.26	77.31
310.49	74.31
310.72	78.31
310.949	75.31
311.179	84.31
311.409	80.31
311.639	86.31
311.868	86.31
312.098	94.31
312.328	62.31
312.557	85.31
312.787	88.31
313.017	83.31
313.246	74.31
313.476	81.31
313.706	80.31
313.935	91.31
314.165	78.31
314.394	87.31
314.624	82.31
314.853	84.31
315.083	86.31
315.312	90.31
315.542	100.31
315.771	85.31
316.001	84.31
316.23	87.31
316.46	85.31
316.689	90.31
316.919	101.31
317.148	87.31
317.377	76.31
317.607	87.31
317.836	69.31
318.065	62.31
318.295	86.31
318.524	84.31
318.753	81.31
318.983	73.31
319.212	78.31
319.441	90.31
319.67	85.31
319.9	79.31
320.129	95.31
320.358	87.31
320.587	93.31
320.816	99.31
321.046	100.31
321.275	101.31
321.504	79.31
321.733	82.31
321.962	88.31
322.191	90.31
322.42	96.31
322.649	93.31
322.878	90.31
323.108	91.31
323.337	90.31
323.566	97.31
323.795	85.31
324.024	90.31
324.253	80.31
324.482	81.31
324.71	85.31
324.939	82.31
325.168	86.31
325.397	83.31
325.626	105.31
325.855	92.31
326.084	76.31
326.313	77.31
326.542	76.31
326.77	83.31
326.999	84.31
327.228	82.31
327.457	78.31
327.686	103.31
327.914	98.31
328.143	88.31
328.372	85.31
328.6	84.31
328.829	84.31
329.058	85.31
329.287	86.31
329.515	84.31
329.744	93.31
329.972	101.31
330.201	88.31
330.43	92.31
330.658	85.31
330.887	88.31
331.115	89.31
331.344	70.31
331.572	86.31
331.801	93.31
332.03	72.31
332.258	76.31
332.486	82.31
332.715	94.31
332.943	87.31
333.172	87.31
333.4	86.31
333.629	93.31
333.857	82.31
334.085	90.31
334.314	82.31
334.542	85.31
334.771	73.31
334.999	84.31
335.227	82.31
335.455	93.31
335.684	93.31
335.912	92.31
336.14	93.31
336.369	82.31
336.597	81.31
336.825	89.31
337.053	92.31
337.281	98.31
337.51	70.31
337.738	93.31
337.966	74.31
338.194	93.31
338.422	89.31
338.65	82.31
338.878	89.31
339.106	92.31
339.334	77.31
339.562	95.31
339.79	91.31
340.018	82.31
340.246	92.31
340.474	84.31
340.702	68.31
340.93	75.31
341.158	89.31
341.386	73.31
341.614	85.31
341.842	93.31
342.07	93.31
342.298	80.31
342.526	76.31
342.754	91.31
342.981	99.31
343.209	85.31
343.437	89.31
343.665	88.31
343.893	88.31
344.12	73.31
344.348	88.31
344.576	75.31
344.804	78.31
345.031	88.31
345.259	91.31
345.487	95.31
345.714	84.31
345.942	86.31
346.17	87.31
346.397	90.31
346.625	82.31
346.853	93.31
347.08	95.31
347.308	93.31
347.535	81.31
347.763	89.31
347.99	78.31
348.218	91.31
348.445	99.31
348.673	84.31
348.9	89.31
349.128	76.31
349.355	77.31
349.583	93.31
349.81	84.31
350.037	80.31
350.265	96.31
350.492	72.31
350.72	88.31
350.947	90.31
351.174	98.31
351.402	75.31
351.629	76.31
351.856	83.31
352.083	85.31
352.311	86.31
352.538	87.31
352.765	74.31
352.992	77.31
353.22	75.31
353.447	79.31
353.674	88.31
353.901	92.31
354.128	86.31
354.355	93.31
354.583	91.31
354.81	85.31
355.037	89.31
355.264	73.31
355.491	88.31
355.718	92.31
355.945	96.31
356.172	81.31
356.399	90.31
356.626	106.31
356.853	92.31
357.08	90.31
357.307	72.31
357.534	93.31
357.761	92.31
357.988	80.31
358.215	78.31
358.441	76.31
358.668	80.31
358.895	82.31
359.122	88.31
359.349	84.31
359.576	81.31
359.802	78.31
360.029	75.31
360.256	78.31
360.483	82.31
360.709	88.31
360.936	97.31
361.163	84.31
361.39	91.31
361.616	88.31
361.843	70.31
362.07	95.31
362.296	98.31
362.523	78.31
362.749	94.31
362.976	100.31
363.203	84.31
363.429	83.31
363.656	80.31
363.882	76.31
364.109	88.31
364.335	76.31
364.562	80.31
364.788	89.31
365.015	86.31
365.241	86.31
365.468	81.31
365.694	85.31
365.92	82.31
366.147	90.31
366.373	89.31
366.599	98.31
366.826	92.31
367.052	84.31
367.278	98.31
367.505	85.31
367.731	86.31
367.957	87.31
368.184	89.31
368.41	105.31
368.636	103.31
368.862	100.31
369.089	93.31
369.315	83.31
369.541	96.31
369.767	76.31
369.993	91.31
370.219	79.31
370.445	96.31
370.672	96.31
370.898	97.31
371.124	86.31
371.35	77.31
371.576	73.31
371.802	93.31
372.028	94.31
372.254	93.31
372.48	96.31
372.706	85.31
372.932	87.31
373.158	82.31
373.384	92.31
373.61	91.31
373.835	102.31
374.061	105.31
374.287	89.31
374.513	86.31
374.739	88.31
374.965	76.31
375.191	84.31
375.416	95.31
375.642	99.31
375.868	100.31
376.094	94.31
376.319	88.31
376.545	90.31
376.771	85.31
376.997	85.31
377.222	92.31
377.448	82.31
377.674	101.31
377.899	86.31
378.125	98.31
378.35	98.31
378.576	102.31
378.802	91.31
379.027	91.31
379.253	88.31
379.478	90.31
379.704	106.31
379.929	109.31
380.155	80.31
380.38	96.31
380.606	96.31
380.831	117.31
381.057	111.31
381.282	88.31
381.507	102.31
381.733	107.31
381.958	92.31
382.184	97.31
382.409	92.31
382.634	94.31
382.86	86.31
383.085	94.31
383.31	102.31
383.535	97.31
383.761	94.31
383.986	103.31
384.211	107.31
384.436	85.31
384.662	89.31
384.887	107.31
385.112	88.31
385.337	104.31
385.562	116.31
385.787	86.31
386.013	109.31
386.238	103.31
386.463	94.31
386.688	103.31
386.913	89.31
387.138	100.31
387.363	109.31
387.588	107.31
387.813	94.31
388.038	100.31
388.263	101.31
388.488	91.31
388.713	96.31
388.938	92.31
389.163	100.31
389.387	108.31
389.612	89.31
389.837	104.31
390.062	101.31
390.287	93.31
390.512	86.31
390.736	105.31
390.961	98.31
391.186	104.31
391.411	106.31
391.636	99.31
391.86	114.31
392.085	109.31
392.31	108.31
392.534	101.31
392.759	101.31
392.984	105.31
393.208	104.31
393.433	83.31
393.658	97.31
393.882	106.31
394.107	112.31
394.331	105.31
394.556	108.31
394.78	94.31
395.005	105.31
395.229	98.31
395.454	113.31
395.678	104.31
395.903	106.31
396.127	102.31
396.352	106.31
396.576	120.31
396.801	118.31
397.025	108.31
397.249	113.31
397.474	116.31
397.698	114.31
397.922	119.31
398.147	107.31
398.371	124.31
398.595	104.31
398.82	105.31
399.044	110.31
399.268	86.31
399.492	98.31
399.717	102.31
399.941	99.31
400.165	105.31
400.389	109.31
400.613	115.31
400.837	110.31
401.062	107.31
401.286	116.31
401.51	121.31
401.734	113.31
401.958	108.31
402.182	99.31
402.406	113.31
402.63	98.31
402.854	122.31
403.078	115.31
403.302	112.31
403.526	101.31
403.75	113.31
403.974	103.31
404.198	126.31
404.422	111.31
404.645	121.31
404.869	123.31
405.093	129.31
405.317	134.31
405.541	129.31
405.765	125.31
405.988	123.31
406.212	124.31
406.436	120.31
406.66	134.31
406.883	107.31
407.107	116.31
407.331	110.31
407.555	113.31
407.778	122.31
408.002	128.31
408.226	128.31
408.449	117.31
408.673	126.31
408.896	105.31
409.12	116.31
409.344	130.31
409.567	128.31
409.791	126.31
410.014	134.31
410.238	123.31
410.461	132.31
410.685	136.31
410.908	117.31
411.132	116.31
411.355	136.31
411.578	117.31
411.802	121.31
412.025	115.31
412.249	136.31
412.472	123.31
412.695	125.31
412.919	112.31
413.142	135.31
413.365	125.31
413.589	119.31
413.812	122.31
414.035	128.31
414.258	128.31
414.482	125.31
414.705	132.31
414.928	132.31
415.151	130.31
415.374	110.31
415.597	115.31
415.821	112.31
416.044	114.31
416.267	123.31
416.49	124.31
416.713	124.31
416.936	117.31
417.159	123.31
417.382	124.31
417.605	129.31
417.828	128.31
418.051	121.31
418.274	134.31
418.497	126.31
418.72	137.31
418.943	122.31
419.166	138.31
419.389	135.31
419.611	132.31
419.834	138.31
420.057	131.31
420.28	137.31
420.503	133.31
420.726	138.31
420.948	134.31
421.171	136.31
421.394	134.31
421.617	145.31
421.839	142.31
422.062	140.31
422.285	137.31
422.507	137.31
422.73	130.31
422.953	128.31
423.175	120.31
423.398	121.31
423.621	139.31
423.843	126.31
424.066	130.31
424.288	140.31
424.511	145.31
424.733	126.31
424.956	130.31
425.178	148.31
425.401	130.31
425.623	137.31
425.846	133.31
426.068	130.31
426.291	124.31
426.513	127.31
426.735	126.31
426.958	136.31
427.18	145.31
427.402	134.31
427.625	135.31
427.847	126.31
428.069	127.31
428.292	120.31
428.514	146.31
428.736	129.31
428.958	125.31
429.181	130.31
429.403	142.31
429.625	138.31
429.847	138.31
430.069	123.31
430.292	108.31
430.514	122.31
430.736	118.31
430.958	135.31
431.18	132.31
431.402	122.31
431.624	121.31
431.846	114.31
432.068	122.31
432.29	101.31
432.512	103.31
432.734	120.31
432.956	130.31
433.178	123.31
433.4	132.31
433.622	140.31
433.844	131.31
434.066	140.31
434.287	121.31
434.509	92.31
434.731	89.31
434.953	112.31
435.175	103.31
435.397	112.31
435.618	134.31
435.84	97.31
436.062	124.31
436.284	116.31
436.505	133.31
436.727	134.31
436.949	126.31
437.17	128.31
437.392	130.31
437.614	122.31
437.835	103.31
438.057	114.31
438.278	114.31
438.5	122.31
438.721	136.31
438.943	131.31
439.165	144.31
439.386	161.31
439.608	143.31
439.829	134.31
440.05	130.31
440.272	146.31
440.493	151.31
440.715	146.31
440.936	139.31
441.158	144.31
441.379	132.31
441.6	142.31
441.822	144.31
442.043	142.31
442.264	143.31
442.486	144.31
442.707	139.31
442.928	142.31
443.149	134.31
443.371	133.31
443.592	128.31
443.813	149.31
444.034	147.31
444.255	140.31
444.476	136.31
444.698	147.31
444.919	134.31
445.14	262.31
445.361	220.31
445.582	145.31
445.803	153.31
446.024	144.31
446.245	144.31
446.466	152.31
446.687	164.31
446.908	161.31
447.129	164.31
447.35	135.31
447.571	158.31
447.792	160.31
448.013	160.31
448.234	140.31
448.455	135.31
448.675	132.31
448.896	141.31
449.117	146.31
449.338	125.31
449.559	140.31
449.779	138.31
450	150.31
450.221	149.31
450.442	138.31
450.662	140.31
450.883	142.31
451.104	146.31
451.324	146.31
451.545	133.31
451.766	136.31
451.986	132.31
452.207	130.31
452.428	123.31
452.648	112.31
452.869	118.31
453.089	112.31
453.31	108.31
453.53	116.31
453.751	104.31
453.971	110.31
454.192	111.31
454.412	103.31
454.633	110.31
454.853	110.31
455.073	120.31
455.294	107.31
455.514	130.31
455.734	114.31
455.955	102.31
456.175	113.31
456.395	113.31
456.616	108.31
456.836	118.31
457.056	114.31
457.276	103.31
457.497	96.31
457.717	113.31
457.937	110.31
458.157	116.31
458.377	104.31
458.598	98.31
458.818	83.31
459.038	86.31
459.258	93.31
459.478	82.31
459.698	94.31
459.918	106.31
460.138	109.31
460.358	128.31
460.578	110.31
460.798	124.31
461.018	118.31
461.238	105.31
461.458	122.31
461.678	105.31
461.898	122.31
462.118	116.31
462.338	117.31
462.558	113.31
462.777	95.31
462.997	118.31
463.217	108.31
463.437	105.31
463.657	110.31
463.876	97.31
464.096	106.31
464.316	102.31
464.536	121.31
464.755	114.31
464.975	108.31
465.195	117.31
465.414	101.31
465.634	97.31
465.854	122.31
466.073	122.31
466.293	113.31
466.512	132.31
466.732	136.31
466.951	138.31
467.171	141.31
467.391	146.31
467.61	132.31
467.829	147.31
468.049	132.31
468.268	130.31
468.488	135.31
468.707	131.31
468.927	135.31
469.146	139.31
469.365	139.31
469.585	137.31
469.804	149.31
470.023	148.31
470.243	141.31
470.462	123.31
470.681	141.31
470.901	142.31
471.12	125.31
471.339	125.31
471.558	133.31
471.777	146.31
471.997	137.31
472.216	126.31
472.435	116.31
472.654	99.31
472.873	119.31
473.092	112.31
473.311	118.31
473.53	120.31
473.749	122.31
473.968	124.31
474.187	121.31
474.406	134.31
474.625	127.31
474.844	134.31
475.063	146.31
475.282	144.31
475.501	119.31
475.72	123.31
475.939	118.31
476.158	124.31
476.377	121.31
476.596	131.31
476.814	116.31
477.033	121.31
477.252	121.31
477.471	129.31
477.69	132.31
477.908	138.31
478.127	140.31
478.346	136.31
478.564	127.31
478.783	131.31
479.002	123.31
479.22	125.31
479.439	140.31
479.658	124.31
479.876	121.31
480.095	121.31
480.313	116.31
480.532	112.31
480.751	106.31
480.969	105.31
481.188	104.31
481.406	92.31
481.624	96.31
481.843	87.31
482.061	92.31
482.28	117.31
482.498	109.31
482.717	96.31
482.935	128.31
483.153	132.31
483.372	139.31
483.59	133.31
483.808	133.31
484.027	128.31
484.245	118.31
484.463	153.31
484.681	144.31
484.9	144.31
485.118	145.31
485.336	134.31
485.554	112.31
485.772	102.31
485.99	100.31
486.209	100.31
486.427	115.31
486.645	124.31
486.863	138.31
487.081	123.31
487.299	123.31
487.517	137.31
487.735	157.31
487.953	189.31
488.171	177.31
488.389	174.31
488.607	169.31
488.825	147.31
489.043	123.31
489.261	123.31
489.479	130.31
489.696	136.31
489.914	144.31
490.132	152.31
490.35	147.31
490.568	158.31
490.786	174.31
491.003	170.31
491.221	190.31
491.439	172.31
491.657	202.31
491.874	201.31
492.092	206.31
492.31	247.31
492.527	208.31
492.745	198.31
492.963	188.31
493.18	197.31
493.398	177.31
493.615	182.31
493.833	177.31
494.05	169.31
494.268	168.31
494.485	164.31
494.703	179.31
494.92	180.31
495.138	168.31
495.355	167.31
495.573	164.31
495.79	163.31
496.008	184.31
496.225	170.31
496.442	164.31
496.66	176.31
496.877	166.31
497.094	146.31
497.312	159.31
497.529	146.31
497.746	156.31
497.963	138.31
498.181	127.31
498.398	120.31
498.615	114.31
498.832	113.31
499.049	112.31
499.267	130.31
499.484	112.31
499.701	130.31
499.918	129.31
500.135	131.31
500.352	135.31
500.569	124.31
500.786	140.31
501.003	135.31
501.22	143.31
501.437	133.31
501.654	147.31
501.871	141.31
502.088	138.31
502.305	134.31
502.522	122.31
502.739	125.31
502.956	133.31
503.172	129.31
503.389	105.31
503.606	125.31
503.823	128.31
504.04	133.31
504.256	128.31
504.473	123.31
504.69	122.31
504.907	135.31
505.123	119.31
505.34	112.31
505.557	117.31
505.773	124.31
505.99	126.31
506.207	123.31
506.423	119.31
506.64	131.31
506.856	128.31
507.073	120.31
507.289	118.31
507.506	123.31
507.722	128.31
507.939	121.31
508.155	118.31
508.372	104.31
508.588	133.31
508.805	114.31
509.021	110.31
509.238	106.31
509.454	108.31
509.67	116.31
509.887	80.31
510.103	92.31
510.319	88.31
510.536	84.31
510.752	77.31
510.968	81.31
511.184	87.31
511.401	87.31
