Data from Location2.07152019.Energy5.Lamp.07192019.3%Agarose_HRD10591_14-56-51-359.txt Node
Date: Fri Jul 19 14:56:51 EDT 2019
User: cochatt
Spectrometer: HR+D1059
Trigger mode: 1
Integration Time (sec): 1.000000E-1
Scans to average: 1
Electric dark correction enabled: true
Nonlinearity correction enabled: false
Boxcar width: 0
XAxis mode: Wavelengths
Number of Pixels in Spectrum: 2048
>>>>>Begin Spectral Data<<<<<
223.165	-13.88
223.4	-13.88
223.635	-13.88
223.869	-9.88
224.104	-19.88
224.338	-13.88
224.573	1.12
224.808	-15.88
225.042	2.12
225.277	-3.88
225.511	-3.88
225.746	-4.88
225.98	6.12
226.215	20.12
226.449	8.12
226.683	12.12
226.918	15.12
227.152	21.12
227.387	25.12
227.621	46.12
227.856	35.12
228.09	42.12
228.324	44.12
228.559	57.12
228.793	58.12
229.027	65.12
229.262	74.12
229.496	63.12
229.73	85.12
229.964	84.12
230.199	76.12
230.433	85.12
230.667	72.12
230.901	75.12
231.136	84.12
231.37	77.12
231.604	94.12
231.838	87.12
232.072	73.12
232.306	69.12
232.541	90.12
232.775	71.12
233.009	84.12
233.243	80.12
233.477	82.12
233.711	81.12
233.945	85.12
234.179	71.12
234.413	87.12
234.647	84.12
234.881	82.12
235.115	83.12
235.349	77.12
235.583	77.12
235.817	91.12
236.051	73.12
236.285	94.12
236.519	79.12
236.753	80.12
236.987	93.12
237.221	72.12
237.455	68.12
237.689	72.12
237.922	77.12
238.156	79.12
238.39	71.12
238.624	75.12
238.858	85.12
239.091	84.12
239.325	68.12
239.559	89.12
239.793	83.12
240.027	62.12
240.26	73.12
240.494	78.12
240.728	68.12
240.961	70.12
241.195	83.12
241.429	73.12
241.662	85.12
241.896	70.12
242.13	86.12
242.363	83.12
242.597	74.12
242.83	86.12
243.064	76.12
243.298	76.12
243.531	74.12
243.765	80.12
243.998	80.12
244.232	83.12
244.465	69.12
244.699	73.12
244.932	67.12
245.166	79.12
245.399	77.12
245.633	75.12
245.866	82.12
246.099	71.12
246.333	101.12
246.566	87.12
246.8	75.12
247.033	77.12
247.266	104.12
247.5	80.12
247.733	75.12
247.966	83.12
248.2	79.12
248.433	72.12
248.666	88.12
248.899	84.12
249.133	77.12
249.366	94.12
249.599	74.12
249.832	87.12
250.066	84.12
250.299	79.12
250.532	86.12
250.765	88.12
250.998	80.12
251.231	84.12
251.465	76.12
251.698	94.12
251.931	64.12
252.164	72.12
252.397	79.12
252.63	84.12
252.863	87.12
253.096	76.12
253.329	90.12
253.562	65.12
253.795	80.12
254.028	92.12
254.261	73.12
254.494	78.12
254.727	96.12
254.96	88.12
255.193	86.12
255.426	88.12
255.659	72.12
255.892	79.12
256.124	88.12
256.357	85.12
256.59	96.12
256.823	88.12
257.056	70.12
257.289	87.12
257.521	87.12
257.754	76.12
257.987	86.12
258.22	75.12
258.452	81.12
258.685	87.12
258.918	76.12
259.151	83.12
259.383	88.12
259.616	87.12
259.849	87.12
260.081	78.12
260.314	88.12
260.547	86.12
260.779	93.12
261.012	82.12
261.244	82.12
261.477	104.12
261.71	77.12
261.942	77.12
262.175	95.12
262.407	90.12
262.64	85.12
262.872	89.12
263.105	85.12
263.337	92.12
263.57	75.12
263.802	90.12
264.035	79.12
264.267	83.12
264.499	73.12
264.732	89.12
264.964	97.12
265.197	89.12
265.429	88.12
265.661	78.12
265.894	96.12
266.126	89.12
266.358	76.12
266.591	79.12
266.823	70.12
267.055	81.12
267.287	93.12
267.52	86.12
267.752	95.12
267.984	82.12
268.216	79.12
268.448	84.12
268.681	81.12
268.913	95.12
269.145	88.12
269.377	84.12
269.609	79.12
269.841	75.12
270.073	74.12
270.306	78.12
270.538	70.12
270.77	87.12
271.002	96.12
271.234	79.12
271.466	83.12
271.698	92.12
271.93	88.12
272.162	87.12
272.394	72.12
272.626	90.12
272.858	74.12
273.09	89.12
273.322	86.12
273.553	98.12
273.785	92.12
274.017	87.12
274.249	80.12
274.481	79.12
274.713	90.12
274.945	89.12
275.176	96.12
275.408	78.12
275.64	80.12
275.872	84.12
276.104	90.12
276.335	79.12
276.567	88.12
276.799	66.12
277.031	70.12
277.262	83.12
277.494	90.12
277.726	88.12
277.957	89.12
278.189	77.12
278.421	84.12
278.652	89.12
278.884	93.12
279.115	91.12
279.347	89.12
279.579	72.12
279.81	76.12
280.042	80.12
280.273	83.12
280.505	78.12
280.736	92.12
280.968	76.12
281.199	84.12
281.431	82.12
281.662	88.12
281.894	86.12
282.125	82.12
282.356	88.12
282.588	90.12
282.819	84.12
283.051	77.12
283.282	84.12
283.513	78.12
283.745	72.12
283.976	79.12
284.207	81.12
284.439	89.12
284.67	82.12
284.901	90.12
285.132	86.12
285.364	92.12
285.595	81.12
285.826	93.12
286.057	96.12
286.288	70.12
286.52	86.12
286.751	84.12
286.982	87.12
287.213	84.12
287.444	91.12
287.675	87.12
287.906	89.12
288.138	89.12
288.369	84.12
288.6	83.12
288.831	69.12
289.062	96.12
289.293	69.12
289.524	85.12
289.755	86.12
289.986	78.12
290.217	89.12
290.448	81.12
290.679	102.12
290.91	84.12
291.141	86.12
291.371	93.12
291.602	72.12
291.833	72.12
292.064	79.12
292.295	76.12
292.526	89.12
292.757	80.12
292.987	101.12
293.218	90.12
293.449	86.12
293.68	84.12
293.91	80.12
294.141	88.12
294.372	91.12
294.603	80.12
294.833	102.12
295.064	86.12
295.295	81.12
295.525	77.12
295.756	95.12
295.987	79.12
296.217	87.12
296.448	77.12
296.679	93.12
296.909	91.12
297.14	69.12
297.37	71.12
297.601	82.12
297.831	80.12
298.062	81.12
298.292	71.12
298.523	101.12
298.753	78.12
298.984	86.12
299.214	83.12
299.445	108.12
299.675	89.12
299.905	86.12
300.136	93.12
300.366	95.12
300.597	78.12
300.827	100.12
301.057	87.12
301.288	74.12
301.518	80.12
301.748	76.12
301.979	88.12
302.209	84.12
302.439	83.12
302.669	89.12
302.9	83.12
303.13	79.12
303.36	88.12
303.59	84.12
303.82	83.12
304.051	81.12
304.281	88.12
304.511	98.12
304.741	80.12
304.971	82.12
305.201	94.12
305.431	95.12
305.661	95.12
305.891	98.12
306.121	78.12
306.352	91.12
306.582	79.12
306.812	101.12
307.042	93.12
307.272	87.12
307.502	66.12
307.731	85.12
307.961	81.12
308.191	88.12
308.421	83.12
308.651	82.12
308.881	80.12
309.111	93.12
309.341	77.12
309.571	94.12
309.8	92.12
310.03	78.12
310.26	86.12
310.49	86.12
310.72	99.12
310.949	93.12
311.179	83.12
311.409	86.12
311.639	94.12
311.868	83.12
312.098	85.12
312.328	99.12
312.557	97.12
312.787	77.12
313.017	91.12
313.246	73.12
313.476	87.12
313.706	95.12
313.935	83.12
314.165	93.12
314.394	88.12
314.624	77.12
314.853	84.12
315.083	89.12
315.312	99.12
315.542	74.12
315.771	90.12
316.001	74.12
316.23	99.12
316.46	84.12
316.689	94.12
316.919	91.12
317.148	92.12
317.377	69.12
317.607	93.12
317.836	99.12
318.065	80.12
318.295	87.12
318.524	88.12
318.753	86.12
318.983	83.12
319.212	97.12
319.441	89.12
319.67	90.12
319.9	87.12
320.129	83.12
320.358	88.12
320.587	78.12
320.816	91.12
321.046	84.12
321.275	91.12
321.504	83.12
321.733	87.12
321.962	103.12
322.191	94.12
322.42	93.12
322.649	96.12
322.878	75.12
323.108	79.12
323.337	83.12
323.566	84.12
323.795	72.12
324.024	98.12
324.253	84.12
324.482	77.12
324.71	92.12
324.939	90.12
325.168	79.12
325.397	77.12
325.626	63.12
325.855	84.12
326.084	79.12
326.313	86.12
326.542	93.12
326.77	87.12
326.999	90.12
327.228	96.12
327.457	70.12
327.686	77.12
327.914	88.12
328.143	90.12
328.372	84.12
328.6	84.12
328.829	88.12
329.058	79.12
329.287	91.12
329.515	90.12
329.744	97.12
329.972	73.12
330.201	80.12
330.43	75.12
330.658	97.12
330.887	79.12
331.115	83.12
331.344	81.12
331.572	97.12
331.801	96.12
332.03	97.12
332.258	84.12
332.486	95.12
332.715	99.12
332.943	71.12
333.172	80.12
333.4	88.12
333.629	85.12
333.857	85.12
334.085	89.12
334.314	91.12
334.542	78.12
334.771	75.12
334.999	88.12
335.227	69.12
335.455	87.12
335.684	81.12
335.912	94.12
336.14	79.12
336.369	80.12
336.597	83.12
336.825	87.12
337.053	89.12
337.281	85.12
337.51	94.12
337.738	90.12
337.966	82.12
338.194	93.12
338.422	103.12
338.65	90.12
338.878	76.12
339.106	81.12
339.334	91.12
339.562	86.12
339.79	91.12
340.018	93.12
340.246	95.12
340.474	77.12
340.702	83.12
340.93	91.12
341.158	90.12
341.386	96.12
341.614	91.12
341.842	91.12
342.07	91.12
342.298	77.12
342.526	90.12
342.754	101.12
342.981	85.12
343.209	97.12
343.437	90.12
343.665	99.12
343.893	81.12
344.12	80.12
344.348	89.12
344.576	90.12
344.804	93.12
345.031	84.12
345.259	88.12
345.487	106.12
345.714	88.12
345.942	87.12
346.17	84.12
346.397	87.12
346.625	91.12
346.853	72.12
347.08	83.12
347.308	85.12
347.535	75.12
347.763	77.12
347.99	103.12
348.218	105.12
348.445	94.12
348.673	84.12
348.9	97.12
349.128	99.12
349.355	87.12
349.583	82.12
349.81	96.12
350.037	94.12
350.265	89.12
350.492	80.12
350.72	75.12
350.947	85.12
351.174	83.12
351.402	72.12
351.629	94.12
351.856	91.12
352.083	96.12
352.311	98.12
352.538	90.12
352.765	88.12
352.992	89.12
353.22	93.12
353.447	78.12
353.674	91.12
353.901	102.12
354.128	79.12
354.355	90.12
354.583	79.12
354.81	73.12
355.037	79.12
355.264	96.12
355.491	90.12
355.718	87.12
355.945	98.12
356.172	69.12
356.399	77.12
356.626	101.12
356.853	77.12
357.08	74.12
357.307	80.12
357.534	92.12
357.761	92.12
357.988	83.12
358.215	90.12
358.441	90.12
358.668	96.12
358.895	95.12
359.122	80.12
359.349	91.12
359.576	102.12
359.802	73.12
360.029	79.12
360.256	93.12
360.483	103.12
360.709	91.12
360.936	89.12
361.163	80.12
361.39	79.12
361.616	87.12
361.843	80.12
362.07	88.12
362.296	92.12
362.523	86.12
362.749	74.12
362.976	99.12
363.203	85.12
363.429	84.12
363.656	79.12
363.882	93.12
364.109	84.12
364.335	85.12
364.562	82.12
364.788	78.12
365.015	86.12
365.241	89.12
365.468	91.12
365.694	94.12
365.92	83.12
366.147	98.12
366.373	75.12
366.599	79.12
366.826	95.12
367.052	88.12
367.278	96.12
367.505	100.12
367.731	98.12
367.957	94.12
368.184	77.12
368.41	88.12
368.636	90.12
368.862	89.12
369.089	101.12
369.315	89.12
369.541	92.12
369.767	99.12
369.993	82.12
370.219	92.12
370.445	73.12
370.672	84.12
370.898	90.12
371.124	94.12
371.35	103.12
371.576	109.12
371.802	84.12
372.028	90.12
372.254	103.12
372.48	97.12
372.706	91.12
372.932	95.12
373.158	89.12
373.384	91.12
373.61	94.12
373.835	97.12
374.061	98.12
374.287	90.12
374.513	103.12
374.739	98.12
374.965	76.12
375.191	87.12
375.416	92.12
375.642	91.12
375.868	101.12
376.094	92.12
376.319	92.12
376.545	88.12
376.771	99.12
376.997	103.12
377.222	87.12
377.448	99.12
377.674	89.12
377.899	103.12
378.125	85.12
378.35	99.12
378.576	85.12
378.802	92.12
379.027	92.12
379.253	86.12
379.478	84.12
379.704	100.12
379.929	94.12
380.155	99.12
380.38	99.12
380.606	106.12
380.831	107.12
381.057	105.12
381.282	94.12
381.507	113.12
381.733	105.12
381.958	103.12
382.184	93.12
382.409	98.12
382.634	114.12
382.86	108.12
383.085	100.12
383.31	93.12
383.535	94.12
383.761	116.12
383.986	109.12
384.211	86.12
384.436	103.12
384.662	107.12
384.887	99.12
385.112	100.12
385.337	85.12
385.562	105.12
385.787	91.12
386.013	107.12
386.238	114.12
386.463	112.12
386.688	104.12
386.913	109.12
387.138	88.12
387.363	97.12
387.588	109.12
387.813	97.12
388.038	87.12
388.263	108.12
388.488	92.12
388.713	95.12
388.938	99.12
389.163	107.12
389.387	104.12
389.612	101.12
389.837	95.12
390.062	97.12
390.287	102.12
390.512	102.12
390.736	100.12
390.961	116.12
391.186	99.12
391.411	106.12
391.636	112.12
391.86	115.12
392.085	90.12
392.31	109.12
392.534	105.12
392.759	107.12
392.984	97.12
393.208	105.12
393.433	109.12
393.658	119.12
393.882	103.12
394.107	110.12
394.331	104.12
394.556	105.12
394.78	112.12
395.005	95.12
395.229	94.12
395.454	109.12
395.678	96.12
395.903	111.12
396.127	108.12
396.352	123.12
396.576	114.12
396.801	109.12
397.025	126.12
397.249	118.12
397.474	118.12
397.698	104.12
397.922	102.12
398.147	110.12
398.371	109.12
398.595	127.12
398.82	107.12
399.044	107.12
399.268	123.12
399.492	108.12
399.717	122.12
399.941	106.12
400.165	110.12
400.389	110.12
400.613	118.12
400.837	111.12
401.062	120.12
401.286	117.12
401.51	110.12
401.734	114.12
401.958	104.12
402.182	118.12
402.406	111.12
402.63	114.12
402.854	124.12
403.078	121.12
403.302	113.12
403.526	121.12
403.75	125.12
403.974	124.12
404.198	119.12
404.422	108.12
404.645	109.12
404.869	126.12
405.093	128.12
405.317	114.12
405.541	111.12
405.765	111.12
405.988	121.12
406.212	129.12
406.436	133.12
406.66	123.12
406.883	125.12
407.107	109.12
407.331	121.12
407.555	116.12
407.778	118.12
408.002	136.12
408.226	131.12
408.449	113.12
408.673	123.12
408.896	139.12
409.12	130.12
409.344	122.12
409.567	125.12
409.791	134.12
410.014	118.12
410.238	127.12
410.461	107.12
410.685	122.12
410.908	121.12
411.132	103.12
411.355	132.12
411.578	135.12
411.802	109.12
412.025	114.12
412.249	122.12
412.472	133.12
412.695	127.12
412.919	114.12
413.142	107.12
413.365	111.12
413.589	123.12
413.812	119.12
414.035	131.12
414.258	119.12
414.482	112.12
414.705	119.12
414.928	123.12
415.151	127.12
415.374	125.12
415.597	116.12
415.821	118.12
416.044	122.12
416.267	129.12
416.49	123.12
416.713	115.12
416.936	130.12
417.159	128.12
417.382	125.12
417.605	121.12
417.828	124.12
418.051	133.12
418.274	125.12
418.497	144.12
418.72	127.12
418.943	130.12
419.166	128.12
419.389	134.12
419.611	122.12
419.834	119.12
420.057	128.12
420.28	125.12
420.503	142.12
420.726	133.12
420.948	137.12
421.171	143.12
421.394	131.12
421.617	133.12
421.839	149.12
422.062	152.12
422.285	133.12
422.507	129.12
422.73	125.12
422.953	111.12
423.175	125.12
423.398	125.12
423.621	121.12
423.843	127.12
424.066	147.12
424.288	136.12
424.511	142.12
424.733	138.12
424.956	135.12
425.178	134.12
425.401	130.12
425.623	136.12
425.846	153.12
426.068	130.12
426.291	140.12
426.513	143.12
426.735	133.12
426.958	114.12
427.18	131.12
427.402	161.12
427.625	130.12
427.847	125.12
428.069	131.12
428.292	135.12
428.514	128.12
428.736	126.12
428.958	142.12
429.181	123.12
429.403	114.12
429.625	114.12
429.847	130.12
430.069	125.12
430.292	119.12
430.514	126.12
430.736	120.12
430.958	126.12
431.18	132.12
431.402	127.12
431.624	109.12
431.846	99.12
432.068	97.12
432.29	97.12
432.512	107.12
432.734	111.12
432.956	129.12
433.178	142.12
433.4	149.12
433.622	130.12
433.844	128.12
434.066	103.12
434.287	104.12
434.509	83.12
434.731	87.12
434.953	119.12
435.175	120.12
435.397	123.12
435.618	122.12
435.84	125.12
436.062	100.12
436.284	136.12
436.505	132.12
436.727	145.12
436.949	132.12
437.17	135.12
437.392	113.12
437.614	126.12
437.835	128.12
438.057	115.12
438.278	110.12
438.5	130.12
438.721	127.12
438.943	134.12
439.165	130.12
439.386	141.12
439.608	143.12
439.829	148.12
440.05	135.12
440.272	143.12
440.493	144.12
440.715	151.12
440.936	154.12
441.158	147.12
441.379	148.12
441.6	155.12
441.822	160.12
442.043	144.12
442.264	138.12
442.486	143.12
442.707	147.12
442.928	131.12
443.149	128.12
443.371	134.12
443.592	142.12
443.813	149.12
444.034	136.12
444.255	129.12
444.476	134.12
444.698	143.12
444.919	139.12
445.14	286.12
445.361	221.12
445.582	153.12
445.803	157.12
446.024	138.12
446.245	152.12
446.466	151.12
446.687	168.12
446.908	144.12
447.129	167.12
447.35	162.12
447.571	154.12
447.792	160.12
448.013	154.12
448.234	147.12
448.455	137.12
448.675	143.12
448.896	151.12
449.117	128.12
449.338	145.12
449.559	138.12
449.779	132.12
450	149.12
450.221	132.12
450.442	155.12
450.662	151.12
450.883	139.12
451.104	128.12
451.324	129.12
451.545	127.12
451.766	140.12
451.986	126.12
452.207	143.12
452.428	140.12
452.648	130.12
452.869	133.12
453.089	118.12
453.31	110.12
453.53	104.12
453.751	107.12
453.971	114.12
454.192	103.12
454.412	114.12
454.633	120.12
454.853	116.12
455.073	120.12
455.294	126.12
455.514	116.12
455.734	111.12
455.955	115.12
456.175	108.12
456.395	121.12
456.616	123.12
456.836	116.12
457.056	114.12
457.276	105.12
457.497	118.12
457.717	97.12
457.937	109.12
458.157	124.12
458.377	107.12
458.598	101.12
458.818	95.12
459.038	95.12
459.258	94.12
459.478	95.12
459.698	100.12
459.918	104.12
460.138	108.12
460.358	103.12
460.578	114.12
460.798	120.12
461.018	122.12
461.238	123.12
461.458	95.12
461.678	101.12
461.898	109.12
462.118	115.12
462.338	125.12
462.558	108.12
462.777	87.12
462.997	117.12
463.217	117.12
463.437	121.12
463.657	114.12
463.876	106.12
464.096	118.12
464.316	124.12
464.536	120.12
464.755	127.12
464.975	119.12
465.195	117.12
465.414	134.12
465.634	103.12
465.854	114.12
466.073	122.12
466.293	120.12
466.512	138.12
466.732	142.12
466.951	132.12
467.171	148.12
467.391	136.12
467.61	137.12
467.829	127.12
468.049	127.12
468.268	139.12
468.488	125.12
468.707	135.12
468.927	125.12
469.146	139.12
469.365	135.12
469.585	137.12
469.804	139.12
470.023	144.12
470.243	136.12
470.462	142.12
470.681	138.12
470.901	145.12
471.12	158.12
471.339	134.12
471.558	135.12
471.777	145.12
471.997	130.12
472.216	137.12
472.435	117.12
472.654	111.12
472.873	107.12
473.092	131.12
473.311	121.12
473.53	123.12
473.749	132.12
473.968	114.12
474.187	111.12
474.406	126.12
474.625	122.12
474.844	132.12
475.063	146.12
475.282	136.12
475.501	125.12
475.72	127.12
475.939	132.12
476.158	134.12
476.377	128.12
476.596	123.12
476.814	114.12
477.033	96.12
477.252	122.12
477.471	126.12
477.69	142.12
477.908	133.12
478.127	151.12
478.346	131.12
478.564	150.12
478.783	125.12
479.002	136.12
479.22	123.12
479.439	126.12
479.658	121.12
479.876	117.12
480.095	106.12
480.313	101.12
480.532	109.12
480.751	107.12
480.969	106.12
481.188	77.12
481.406	95.12
481.624	92.12
481.843	99.12
482.061	109.12
482.28	118.12
482.498	119.12
482.717	95.12
482.935	113.12
483.153	134.12
483.372	158.12
483.59	167.12
483.808	142.12
484.027	123.12
484.245	128.12
484.463	135.12
484.681	167.12
484.9	138.12
485.118	139.12
485.336	127.12
485.554	125.12
485.772	124.12
485.99	102.12
486.209	115.12
486.427	110.12
486.645	121.12
486.863	138.12
487.081	145.12
487.299	136.12
487.517	146.12
487.735	150.12
487.953	181.12
488.171	182.12
488.389	185.12
488.607	161.12
488.825	143.12
489.043	128.12
489.261	138.12
489.479	139.12
489.696	150.12
489.914	161.12
490.132	150.12
490.35	143.12
490.568	169.12
490.786	162.12
491.003	175.12
491.221	189.12
491.439	191.12
491.657	187.12
491.874	192.12
492.092	216.12
492.31	218.12
492.527	228.12
492.745	191.12
492.963	186.12
493.18	175.12
493.398	188.12
493.615	187.12
493.833	173.12
494.05	176.12
494.268	191.12
494.485	170.12
494.703	159.12
494.92	166.12
495.138	164.12
495.355	185.12
495.573	168.12
495.79	173.12
496.008	191.12
496.225	170.12
496.442	164.12
496.66	167.12
496.877	182.12
497.094	175.12
497.312	166.12
497.529	152.12
497.746	150.12
497.963	138.12
498.181	128.12
498.398	122.12
498.615	122.12
498.832	116.12
499.049	118.12
499.267	119.12
499.484	132.12
499.701	149.12
499.918	133.12
500.135	143.12
500.352	134.12
500.569	140.12
500.786	139.12
501.003	144.12
501.22	149.12
501.437	138.12
501.654	137.12
501.871	144.12
502.088	131.12
502.305	127.12
502.522	134.12
502.739	125.12
502.956	139.12
503.172	130.12
503.389	118.12
503.606	121.12
503.823	120.12
504.04	107.12
504.256	128.12
504.473	125.12
504.69	124.12
504.907	120.12
505.123	145.12
505.34	127.12
505.557	130.12
505.773	125.12
505.99	123.12
506.207	120.12
506.423	115.12
506.64	130.12
506.856	138.12
507.073	128.12
507.289	119.12
507.506	112.12
507.722	122.12
507.939	117.12
508.155	117.12
508.372	117.12
508.588	123.12
508.805	116.12
509.021	110.12
509.238	109.12
509.454	112.12
509.67	109.12
509.887	106.12
510.103	86.12
510.319	83.12
510.536	87.12
510.752	91.12
510.968	92.12
511.184	82.12
