Data from Location2.07152019.Energy5.Lamp.07192019.3%Agarose_HRD10591_14-57-17-358.txt Node
Date: Fri Jul 19 14:57:17 EDT 2019
User: cochatt
Spectrometer: HR+D1059
Trigger mode: 1
Integration Time (sec): 1.000000E-1
Scans to average: 1
Electric dark correction enabled: true
Nonlinearity correction enabled: false
Boxcar width: 0
XAxis mode: Wavelengths
Number of Pixels in Spectrum: 2048
>>>>>Begin Spectral Data<<<<<
223.165	-13.69
223.4	-13.69
223.635	-13.69
223.869	-19.69
224.104	-16.69
224.338	-13.69
224.573	-18.69
224.808	-6.69
225.042	8.31
225.277	-11.69
225.511	-2.69
225.746	4.31
225.98	9.31
226.215	18.31
226.449	8.31
226.683	16.31
226.918	18.31
227.152	20.31
227.387	23.31
227.621	18.31
227.856	37.31
228.09	41.31
228.324	33.31
228.559	49.31
228.793	64.31
229.027	50.31
229.262	62.31
229.496	68.31
229.73	74.31
229.964	78.31
230.199	68.31
230.433	62.31
230.667	88.31
230.901	68.31
231.136	71.31
231.37	84.31
231.604	93.31
231.838	68.31
232.072	66.31
232.306	79.31
232.541	86.31
232.775	81.31
233.009	72.31
233.243	89.31
233.477	83.31
233.711	97.31
233.945	65.31
234.179	65.31
234.413	68.31
234.647	77.31
234.881	90.31
235.115	88.31
235.349	83.31
235.583	89.31
235.817	83.31
236.051	94.31
236.285	73.31
236.519	70.31
236.753	78.31
236.987	76.31
237.221	73.31
237.455	85.31
237.689	71.31
237.922	65.31
238.156	71.31
238.39	68.31
238.624	73.31
238.858	80.31
239.091	78.31
239.325	94.31
239.559	80.31
239.793	63.31
240.027	71.31
240.26	74.31
240.494	87.31
240.728	72.31
240.961	69.31
241.195	71.31
241.429	82.31
241.662	82.31
241.896	79.31
242.13	96.31
242.363	72.31
242.597	70.31
242.83	76.31
243.064	69.31
243.298	80.31
243.531	75.31
243.765	69.31
243.998	72.31
244.232	69.31
244.465	64.31
244.699	84.31
244.932	82.31
245.166	76.31
245.399	78.31
245.633	99.31
245.866	90.31
246.099	71.31
246.333	93.31
246.566	82.31
246.8	78.31
247.033	61.31
247.266	76.31
247.5	85.31
247.733	73.31
247.966	70.31
248.2	78.31
248.433	81.31
248.666	74.31
248.899	73.31
249.133	81.31
249.366	81.31
249.599	66.31
249.832	75.31
250.066	81.31
250.299	77.31
250.532	80.31
250.765	74.31
250.998	77.31
251.231	73.31
251.465	85.31
251.698	73.31
251.931	68.31
252.164	77.31
252.397	76.31
252.63	79.31
252.863	79.31
253.096	80.31
253.329	70.31
253.562	84.31
253.795	77.31
254.028	73.31
254.261	81.31
254.494	70.31
254.727	77.31
254.96	73.31
255.193	59.31
255.426	71.31
255.659	76.31
255.892	84.31
256.124	77.31
256.357	73.31
256.59	83.31
256.823	84.31
257.056	78.31
257.289	82.31
257.521	83.31
257.754	81.31
257.987	75.31
258.22	76.31
258.452	67.31
258.685	79.31
258.918	81.31
259.151	65.31
259.383	85.31
259.616	77.31
259.849	68.31
260.081	69.31
260.314	70.31
260.547	86.31
260.779	92.31
261.012	76.31
261.244	73.31
261.477	85.31
261.71	82.31
261.942	82.31
262.175	88.31
262.407	79.31
262.64	74.31
262.872	89.31
263.105	81.31
263.337	88.31
263.57	73.31
263.802	68.31
264.035	82.31
264.267	85.31
264.499	76.31
264.732	77.31
264.964	68.31
265.197	74.31
265.429	99.31
265.661	72.31
265.894	88.31
266.126	87.31
266.358	65.31
266.591	79.31
266.823	80.31
267.055	88.31
267.287	103.31
267.52	93.31
267.752	81.31
267.984	74.31
268.216	82.31
268.448	87.31
268.681	85.31
268.913	80.31
269.145	78.31
269.377	70.31
269.609	81.31
269.841	75.31
270.073	73.31
270.306	85.31
270.538	76.31
270.77	80.31
271.002	73.31
271.234	73.31
271.466	93.31
271.698	89.31
271.93	70.31
272.162	74.31
272.394	99.31
272.626	84.31
272.858	77.31
273.09	73.31
273.322	83.31
273.553	73.31
273.785	81.31
274.017	76.31
274.249	69.31
274.481	79.31
274.713	75.31
274.945	85.31
275.176	89.31
275.408	82.31
275.64	73.31
275.872	83.31
276.104	87.31
276.335	80.31
276.567	85.31
276.799	78.31
277.031	66.31
277.262	76.31
277.494	69.31
277.726	81.31
277.957	76.31
278.189	78.31
278.421	86.31
278.652	78.31
278.884	82.31
279.115	92.31
279.347	91.31
279.579	76.31
279.81	68.31
280.042	87.31
280.273	90.31
280.505	83.31
280.736	81.31
280.968	86.31
281.199	82.31
281.431	96.31
281.662	74.31
281.894	84.31
282.125	78.31
282.356	85.31
282.588	78.31
282.819	92.31
283.051	76.31
283.282	77.31
283.513	82.31
283.745	88.31
283.976	93.31
284.207	86.31
284.439	85.31
284.67	86.31
284.901	89.31
285.132	88.31
285.364	79.31
285.595	76.31
285.826	95.31
286.057	78.31
286.288	79.31
286.52	73.31
286.751	88.31
286.982	92.31
287.213	69.31
287.444	88.31
287.675	80.31
287.906	81.31
288.138	69.31
288.369	80.31
288.6	85.31
288.831	96.31
289.062	85.31
289.293	66.31
289.524	91.31
289.755	101.31
289.986	89.31
290.217	80.31
290.448	83.31
290.679	73.31
290.91	84.31
291.141	81.31
291.371	78.31
291.602	98.31
291.833	78.31
292.064	94.31
292.295	82.31
292.526	72.31
292.757	80.31
292.987	82.31
293.218	78.31
293.449	81.31
293.68	78.31
293.91	84.31
294.141	88.31
294.372	72.31
294.603	84.31
294.833	103.31
295.064	80.31
295.295	86.31
295.525	72.31
295.756	64.31
295.987	86.31
296.217	71.31
296.448	93.31
296.679	89.31
296.909	80.31
297.14	80.31
297.37	82.31
297.601	82.31
297.831	89.31
298.062	73.31
298.292	79.31
298.523	82.31
298.753	84.31
298.984	70.31
299.214	85.31
299.445	82.31
299.675	83.31
299.905	72.31
300.136	95.31
300.366	83.31
300.597	86.31
300.827	79.31
301.057	87.31
301.288	78.31
301.518	84.31
301.748	80.31
301.979	90.31
302.209	73.31
302.439	81.31
302.669	82.31
302.9	75.31
303.13	76.31
303.36	98.31
303.59	84.31
303.82	70.31
304.051	83.31
304.281	85.31
304.511	77.31
304.741	82.31
304.971	73.31
305.201	74.31
305.431	91.31
305.661	90.31
305.891	92.31
306.121	87.31
306.352	71.31
306.582	80.31
306.812	87.31
307.042	80.31
307.272	85.31
307.502	78.31
307.731	80.31
307.961	93.31
308.191	76.31
308.421	81.31
308.651	90.31
308.881	80.31
309.111	85.31
309.341	91.31
309.571	78.31
309.8	78.31
310.03	92.31
310.26	76.31
310.49	81.31
310.72	77.31
310.949	89.31
311.179	74.31
311.409	74.31
311.639	72.31
311.868	81.31
312.098	94.31
312.328	59.31
312.557	74.31
312.787	85.31
313.017	89.31
313.246	92.31
313.476	81.31
313.706	84.31
313.935	84.31
314.165	88.31
314.394	73.31
314.624	90.31
314.853	76.31
315.083	88.31
315.312	78.31
315.542	60.31
315.771	91.31
316.001	82.31
316.23	81.31
316.46	88.31
316.689	68.31
316.919	72.31
317.148	83.31
317.377	83.31
317.607	84.31
317.836	85.31
318.065	70.31
318.295	87.31
318.524	71.31
318.753	77.31
318.983	85.31
319.212	66.31
319.441	78.31
319.67	90.31
319.9	85.31
320.129	78.31
320.358	86.31
320.587	76.31
320.816	79.31
321.046	81.31
321.275	82.31
321.504	79.31
321.733	89.31
321.962	74.31
322.191	94.31
322.42	69.31
322.649	90.31
322.878	79.31
323.108	90.31
323.337	78.31
323.566	89.31
323.795	82.31
324.024	98.31
324.253	90.31
324.482	78.31
324.71	68.31
324.939	85.31
325.168	81.31
325.397	76.31
325.626	88.31
325.855	83.31
326.084	85.31
326.313	70.31
326.542	81.31
326.77	82.31
326.999	95.31
327.228	78.31
327.457	76.31
327.686	73.31
327.914	73.31
328.143	81.31
328.372	84.31
328.6	84.31
328.829	94.31
329.058	83.31
329.287	86.31
329.515	86.31
329.744	105.31
329.972	92.31
330.201	82.31
330.43	83.31
330.658	84.31
330.887	84.31
331.115	85.31
331.344	90.31
331.572	81.31
331.801	82.31
332.03	88.31
332.258	90.31
332.486	87.31
332.715	72.31
332.943	78.31
333.172	81.31
333.4	84.31
333.629	85.31
333.857	88.31
334.085	87.31
334.314	98.31
334.542	82.31
334.771	85.31
334.999	84.31
335.227	85.31
335.455	87.31
335.684	84.31
335.912	88.31
336.14	78.31
336.369	77.31
336.597	81.31
336.825	76.31
337.053	78.31
337.281	90.31
337.51	80.31
337.738	82.31
337.966	94.31
338.194	89.31
338.422	94.31
338.65	81.31
338.878	100.31
339.106	90.31
339.334	91.31
339.562	79.31
339.79	80.31
340.018	84.31
340.246	84.31
340.474	85.31
340.702	94.31
340.93	84.31
341.158	88.31
341.386	93.31
341.614	87.31
341.842	84.31
342.07	70.31
342.298	72.31
342.526	82.31
342.754	72.31
342.981	95.31
343.209	75.31
343.437	89.31
343.665	68.31
343.893	82.31
344.12	82.31
344.348	87.31
344.576	74.31
344.804	86.31
345.031	93.31
345.259	74.31
345.487	82.31
345.714	78.31
345.942	89.31
346.17	87.31
346.397	75.31
346.625	82.31
346.853	74.31
347.08	70.31
347.308	83.31
347.535	95.31
347.763	95.31
347.99	72.31
348.218	72.31
348.445	77.31
348.673	77.31
348.9	80.31
349.128	91.31
349.355	89.31
349.583	88.31
349.81	85.31
350.037	88.31
350.265	72.31
350.492	80.31
350.72	80.31
350.947	77.31
351.174	68.31
351.402	77.31
351.629	83.31
351.856	80.31
352.083	78.31
352.311	83.31
352.538	68.31
352.765	90.31
352.992	69.31
353.22	84.31
353.447	76.31
353.674	74.31
353.901	85.31
354.128	86.31
354.355	74.31
354.583	65.31
354.81	81.31
355.037	89.31
355.264	84.31
355.491	81.31
355.718	87.31
355.945	96.31
356.172	70.31
356.399	87.31
356.626	90.31
356.853	91.31
357.08	73.31
357.307	85.31
357.534	101.31
357.761	89.31
357.988	80.31
358.215	75.31
358.441	93.31
358.668	70.31
358.895	72.31
359.122	95.31
359.349	78.31
359.576	77.31
359.802	79.31
360.029	94.31
360.256	91.31
360.483	79.31
360.709	90.31
360.936	78.31
361.163	80.31
361.39	91.31
361.616	84.31
361.843	92.31
362.07	86.31
362.296	110.31
362.523	79.31
362.749	87.31
362.976	88.31
363.203	90.31
363.429	79.31
363.656	76.31
363.882	83.31
364.109	78.31
364.335	94.31
364.562	82.31
364.788	85.31
365.015	78.31
365.241	93.31
365.468	86.31
365.694	82.31
365.92	71.31
366.147	79.31
366.373	105.31
366.599	81.31
366.826	79.31
367.052	94.31
367.278	105.31
367.505	88.31
367.731	83.31
367.957	78.31
368.184	85.31
368.41	74.31
368.636	85.31
368.862	73.31
369.089	80.31
369.315	80.31
369.541	101.31
369.767	92.31
369.993	96.31
370.219	88.31
370.445	81.31
370.672	77.31
370.898	100.31
371.124	78.31
371.35	86.31
371.576	80.31
371.802	85.31
372.028	88.31
372.254	98.31
372.48	84.31
372.706	75.31
372.932	93.31
373.158	82.31
373.384	93.31
373.61	97.31
373.835	101.31
374.061	99.31
374.287	102.31
374.513	89.31
374.739	84.31
374.965	82.31
375.191	89.31
375.416	85.31
375.642	100.31
375.868	94.31
376.094	100.31
376.319	91.31
376.545	103.31
376.771	81.31
376.997	74.31
377.222	84.31
377.448	87.31
377.674	101.31
377.899	88.31
378.125	98.31
378.35	105.31
378.576	96.31
378.802	90.31
379.027	95.31
379.253	91.31
379.478	84.31
379.704	85.31
379.929	96.31
380.155	95.31
380.38	92.31
380.606	93.31
380.831	98.31
381.057	97.31
381.282	88.31
381.507	92.31
381.733	93.31
381.958	94.31
382.184	102.31
382.409	83.31
382.634	87.31
382.86	100.31
383.085	95.31
383.31	91.31
383.535	94.31
383.761	90.31
383.986	98.31
384.211	104.31
384.436	98.31
384.662	98.31
384.887	87.31
385.112	104.31
385.337	90.31
385.562	92.31
385.787	97.31
386.013	105.31
386.238	84.31
386.463	97.31
386.688	105.31
386.913	101.31
387.138	103.31
387.363	108.31
387.588	110.31
387.813	102.31
388.038	92.31
388.263	97.31
388.488	89.31
388.713	94.31
388.938	86.31
389.163	104.31
389.387	104.31
389.612	99.31
389.837	97.31
390.062	108.31
390.287	103.31
390.512	89.31
390.736	105.31
390.961	99.31
391.186	108.31
391.411	94.31
391.636	106.31
391.86	110.31
392.085	105.31
392.31	119.31
392.534	85.31
392.759	95.31
392.984	111.31
393.208	115.31
393.433	102.31
393.658	88.31
393.882	106.31
394.107	104.31
394.331	110.31
394.556	87.31
394.78	90.31
395.005	108.31
395.229	103.31
395.454	116.31
395.678	99.31
395.903	103.31
396.127	109.31
396.352	90.31
396.576	106.31
396.801	96.31
397.025	114.31
397.249	120.31
397.474	112.31
397.698	104.31
397.922	98.31
398.147	102.31
398.371	103.31
398.595	111.31
398.82	94.31
399.044	114.31
399.268	113.31
399.492	102.31
399.717	127.31
399.941	118.31
400.165	92.31
400.389	102.31
400.613	105.31
400.837	123.31
401.062	95.31
401.286	114.31
401.51	107.31
401.734	110.31
401.958	121.31
402.182	97.31
402.406	114.31
402.63	105.31
402.854	116.31
403.078	111.31
403.302	98.31
403.526	109.31
403.75	121.31
403.974	97.31
404.198	104.31
404.422	119.31
404.645	102.31
404.869	124.31
405.093	112.31
405.317	116.31
405.541	108.31
405.765	117.31
405.988	107.31
406.212	115.31
406.436	121.31
406.66	123.31
406.883	118.31
407.107	112.31
407.331	109.31
407.555	106.31
407.778	118.31
408.002	96.31
408.226	106.31
408.449	112.31
408.673	118.31
408.896	112.31
409.12	119.31
409.344	119.31
409.567	112.31
409.791	123.31
410.014	107.31
410.238	98.31
410.461	116.31
410.685	126.31
410.908	115.31
411.132	134.31
411.355	122.31
411.578	124.31
411.802	118.31
412.025	103.31
412.249	119.31
412.472	122.31
412.695	121.31
412.919	109.31
413.142	116.31
413.365	124.31
413.589	126.31
413.812	124.31
414.035	112.31
414.258	115.31
414.482	116.31
414.705	128.31
414.928	124.31
415.151	108.31
415.374	125.31
415.597	128.31
415.821	117.31
416.044	116.31
416.267	127.31
416.49	134.31
416.713	133.31
416.936	122.31
417.159	120.31
417.382	124.31
417.605	108.31
417.828	121.31
418.051	118.31
418.274	115.31
418.497	132.31
418.72	132.31
418.943	133.31
419.166	118.31
419.389	140.31
419.611	133.31
419.834	135.31
420.057	126.31
420.28	139.31
420.503	138.31
420.726	124.31
420.948	129.31
421.171	134.31
421.394	124.31
421.617	140.31
421.839	142.31
422.062	147.31
422.285	132.31
422.507	142.31
422.73	122.31
422.953	125.31
423.175	126.31
423.398	122.31
423.621	120.31
423.843	129.31
424.066	125.31
424.288	128.31
424.511	142.31
424.733	147.31
424.956	148.31
425.178	132.31
425.401	136.31
425.623	127.31
425.846	118.31
426.068	118.31
426.291	139.31
426.513	140.31
426.735	120.31
426.958	126.31
427.18	143.31
427.402	132.31
427.625	124.31
427.847	132.31
428.069	139.31
428.292	115.31
428.514	111.31
428.736	124.31
428.958	120.31
429.181	128.31
429.403	132.31
429.625	131.31
429.847	114.31
430.069	131.31
430.292	115.31
430.514	126.31
430.736	114.31
430.958	130.31
431.18	120.31
431.402	134.31
431.624	117.31
431.846	119.31
432.068	115.31
432.29	77.31
432.512	106.31
432.734	97.31
432.956	122.31
433.178	143.31
433.4	136.31
433.622	115.31
433.844	147.31
434.066	120.31
434.287	104.31
434.509	90.31
434.731	100.31
434.953	107.31
435.175	131.31
435.397	129.31
435.618	124.31
435.84	102.31
436.062	119.31
436.284	110.31
436.505	107.31
436.727	121.31
436.949	140.31
437.17	134.31
437.392	128.31
437.614	111.31
437.835	106.31
438.057	96.31
438.278	121.31
438.5	105.31
438.721	130.31
438.943	134.31
439.165	137.31
439.386	130.31
439.608	130.31
439.829	142.31
440.05	140.31
440.272	136.31
440.493	139.31
440.715	141.31
440.936	140.31
441.158	142.31
441.379	132.31
441.6	134.31
441.822	138.31
442.043	136.31
442.264	144.31
442.486	138.31
442.707	137.31
442.928	134.31
443.149	126.31
443.371	122.31
443.592	143.31
443.813	141.31
444.034	150.31
444.255	137.31
444.476	138.31
444.698	144.31
444.919	140.31
445.14	283.31
445.361	195.31
445.582	151.31
445.803	148.31
446.024	145.31
446.245	146.31
446.466	158.31
446.687	145.31
446.908	152.31
447.129	153.31
447.35	154.31
447.571	127.31
447.792	121.31
448.013	136.31
448.234	140.31
448.455	147.31
448.675	138.31
448.896	130.31
449.117	128.31
449.338	129.31
449.559	137.31
449.779	123.31
450	132.31
450.221	136.31
450.442	120.31
450.662	125.31
450.883	137.31
451.104	132.31
451.324	120.31
451.545	128.31
451.766	126.31
451.986	113.31
452.207	116.31
452.428	104.31
452.648	121.31
452.869	108.31
453.089	122.31
453.31	100.31
453.53	114.31
453.751	103.31
453.971	92.31
454.192	104.31
454.412	100.31
454.633	110.31
454.853	118.31
455.073	119.31
455.294	114.31
455.514	120.31
455.734	116.31
455.955	108.31
456.175	109.31
456.395	107.31
456.616	114.31
456.836	104.31
457.056	112.31
457.276	114.31
457.497	112.31
457.717	109.31
457.937	113.31
458.157	111.31
458.377	96.31
458.598	97.31
458.818	87.31
459.038	87.31
459.258	89.31
459.478	89.31
459.698	93.31
459.918	96.31
460.138	106.31
460.358	115.31
460.578	110.31
460.798	103.31
461.018	111.31
461.238	108.31
461.458	97.31
461.678	113.31
461.898	110.31
462.118	115.31
462.338	120.31
462.558	114.31
462.777	113.31
462.997	112.31
463.217	109.31
463.437	124.31
463.657	100.31
463.876	108.31
464.096	106.31
464.316	99.31
464.536	117.31
464.755	120.31
464.975	110.31
465.195	122.31
465.414	110.31
465.634	109.31
465.854	115.31
466.073	117.31
466.293	119.31
466.512	122.31
466.732	127.31
466.951	138.31
467.171	132.31
467.391	127.31
467.61	120.31
467.829	122.31
468.049	116.31
468.268	131.31
468.488	120.31
468.707	138.31
468.927	153.31
469.146	153.31
469.365	124.31
469.585	138.31
469.804	129.31
470.023	129.31
470.243	131.31
470.462	135.31
470.681	136.31
470.901	126.31
471.12	138.31
471.339	133.31
471.558	144.31
471.777	138.31
471.997	129.31
472.216	128.31
472.435	109.31
472.654	107.31
472.873	119.31
473.092	123.31
473.311	129.31
473.53	130.31
473.749	120.31
473.968	130.31
474.187	122.31
474.406	127.31
474.625	124.31
474.844	132.31
475.063	148.31
475.282	125.31
475.501	103.31
475.72	130.31
475.939	126.31
476.158	129.31
476.377	119.31
476.596	125.31
476.814	118.31
477.033	105.31
477.252	116.31
477.471	126.31
477.69	132.31
477.908	109.31
478.127	137.31
478.346	136.31
478.564	143.31
478.783	129.31
479.002	133.31
479.22	129.31
479.439	135.31
479.658	114.31
479.876	112.31
480.095	120.31
480.313	125.31
480.532	108.31
480.751	114.31
480.969	98.31
481.188	84.31
481.406	87.31
481.624	95.31
481.843	84.31
482.061	80.31
482.28	101.31
482.498	116.31
482.717	121.31
482.935	116.31
483.153	140.31
483.372	149.31
483.59	144.31
483.808	133.31
484.027	128.31
484.245	114.31
484.463	127.31
484.681	148.31
484.9	160.31
485.118	144.31
485.336	128.31
485.554	114.31
485.772	102.31
485.99	101.31
486.209	104.31
486.427	124.31
486.645	111.31
486.863	124.31
487.081	146.31
487.299	136.31
487.517	132.31
487.735	150.31
487.953	183.31
488.171	185.31
488.389	169.31
488.607	157.31
488.825	134.31
489.043	126.31
489.261	124.31
489.479	131.31
489.696	138.31
489.914	139.31
490.132	153.31
490.35	163.31
490.568	158.31
490.786	173.31
491.003	174.31
491.221	182.31
491.439	176.31
491.657	187.31
491.874	197.31
492.092	203.31
492.31	232.31
492.527	224.31
492.745	196.31
492.963	185.31
493.18	185.31
493.398	169.31
493.615	180.31
493.833	160.31
494.05	176.31
494.268	176.31
494.485	194.31
494.703	191.31
494.92	183.31
495.138	157.31
495.355	184.31
495.573	158.31
495.79	161.31
496.008	165.31
496.225	186.31
496.442	176.31
496.66	170.31
496.877	159.31
497.094	163.31
497.312	156.31
497.529	154.31
497.746	146.31
497.963	151.31
498.181	128.31
498.398	117.31
498.615	113.31
498.832	116.31
499.049	115.31
499.267	104.31
499.484	125.31
499.701	129.31
499.918	127.31
500.135	131.31
500.352	130.31
500.569	136.31
500.786	154.31
501.003	146.31
501.22	144.31
501.437	131.31
501.654	139.31
501.871	133.31
502.088	138.31
502.305	145.31
502.522	123.31
502.739	135.31
502.956	121.31
503.172	126.31
503.389	112.31
503.606	123.31
503.823	113.31
504.04	112.31
504.256	116.31
504.473	125.31
504.69	128.31
504.907	122.31
505.123	116.31
505.34	119.31
505.557	109.31
505.773	126.31
505.99	113.31
506.207	130.31
506.423	117.31
506.64	124.31
506.856	121.31
507.073	98.31
507.289	122.31
507.506	136.31
507.722	116.31
507.939	108.31
508.155	120.31
508.372	114.31
508.588	103.31
508.805	105.31
509.021	110.31
509.238	108.31
509.454	109.31
509.67	116.31
509.887	86.31
510.103	89.31
510.319	93.31
510.536	87.31
510.752	78.31
510.968	76.31
511.184	77.31
511.401	80.31
511.617	81.31
511.833	89.31
