Data from Location2.07152019.Energy5.Lamp.07192019.3%Agarose_HRD10591_14-58-34-359.txt Node
Date: Fri Jul 19 14:58:34 EDT 2019
User: cochatt
Spectrometer: HR+D1059
Trigger mode: 1
Integration Time (sec): 1.000000E-1
Scans to average: 1
Electric dark correction enabled: true
Nonlinearity correction enabled: false
Boxcar width: 0
XAxis mode: Wavelengths
Number of Pixels in Spectrum: 2048
>>>>>Begin Spectral Data<<<<<
223.165	-9.69
223.4	-9.69
223.635	-9.69
223.869	-12.69
224.104	-18.69
224.338	-10.69
224.573	-2.69
224.808	-15.69
225.042	-5.69
225.277	6.31
225.511	-12.69
225.746	-5.69
225.98	19.31
226.215	16.31
226.449	1.31
226.683	13.31
226.918	9.31
227.152	28.31
227.387	22.31
227.621	24.31
227.856	36.31
228.09	52.31
228.324	40.31
228.559	64.31
228.793	51.31
229.027	65.31
229.262	60.31
229.496	69.31
229.73	69.31
229.964	62.31
230.199	73.31
230.433	64.31
230.667	72.31
230.901	60.31
231.136	72.31
231.37	75.31
231.604	73.31
231.838	81.31
232.072	84.31
232.306	64.31
232.541	65.31
232.775	89.31
233.009	76.31
233.243	74.31
233.477	71.31
233.711	82.31
233.945	88.31
234.179	90.31
234.413	80.31
234.647	55.31
234.881	67.31
235.115	74.31
235.349	73.31
235.583	71.31
235.817	74.31
236.051	72.31
236.285	80.31
236.519	82.31
236.753	77.31
236.987	62.31
237.221	62.31
237.455	79.31
237.689	66.31
237.922	65.31
238.156	81.31
238.39	61.31
238.624	61.31
238.858	75.31
239.091	65.31
239.325	71.31
239.559	78.31
239.793	80.31
240.027	58.31
240.26	67.31
240.494	65.31
240.728	65.31
240.961	78.31
241.195	63.31
241.429	67.31
241.662	76.31
241.896	79.31
242.13	74.31
242.363	77.31
242.597	71.31
242.83	71.31
243.064	74.31
243.298	68.31
243.531	66.31
243.765	87.31
243.998	66.31
244.232	75.31
244.465	84.31
244.699	64.31
244.932	80.31
245.166	92.31
245.399	86.31
245.633	65.31
245.866	68.31
246.099	66.31
246.333	92.31
246.566	71.31
246.8	78.31
247.033	75.31
247.266	66.31
247.5	70.31
247.733	73.31
247.966	78.31
248.2	78.31
248.433	71.31
248.666	82.31
248.899	91.31
249.133	85.31
249.366	70.31
249.599	91.31
249.832	69.31
250.066	79.31
250.299	72.31
250.532	86.31
250.765	84.31
250.998	77.31
251.231	72.31
251.465	71.31
251.698	74.31
251.931	68.31
252.164	90.31
252.397	82.31
252.63	73.31
252.863	86.31
253.096	73.31
253.329	70.31
253.562	97.31
253.795	71.31
254.028	79.31
254.261	78.31
254.494	65.31
254.727	78.31
254.96	75.31
255.193	71.31
255.426	70.31
255.659	76.31
255.892	78.31
256.124	65.31
256.357	77.31
256.59	89.31
256.823	77.31
257.056	81.31
257.289	64.31
257.521	74.31
257.754	73.31
257.987	74.31
258.22	85.31
258.452	80.31
258.685	75.31
258.918	59.31
259.151	73.31
259.383	79.31
259.616	71.31
259.849	71.31
260.081	72.31
260.314	76.31
260.547	70.31
260.779	71.31
261.012	66.31
261.244	80.31
261.477	71.31
261.71	73.31
261.942	93.31
262.175	83.31
262.407	69.31
262.64	63.31
262.872	85.31
263.105	82.31
263.337	87.31
263.57	81.31
263.802	68.31
264.035	64.31
264.267	74.31
264.499	55.31
264.732	77.31
264.964	82.31
265.197	84.31
265.429	90.31
265.661	78.31
265.894	76.31
266.126	98.31
266.358	72.31
266.591	74.31
266.823	61.31
267.055	73.31
267.287	67.31
267.52	77.31
267.752	68.31
267.984	84.31
268.216	64.31
268.448	83.31
268.681	81.31
268.913	80.31
269.145	67.31
269.377	81.31
269.609	70.31
269.841	83.31
270.073	89.31
270.306	73.31
270.538	77.31
270.77	77.31
271.002	73.31
271.234	86.31
271.466	80.31
271.698	95.31
271.93	85.31
272.162	68.31
272.394	71.31
272.626	78.31
272.858	89.31
273.09	77.31
273.322	86.31
273.553	71.31
273.785	83.31
274.017	74.31
274.249	85.31
274.481	81.31
274.713	83.31
274.945	77.31
275.176	77.31
275.408	78.31
275.64	87.31
275.872	70.31
276.104	74.31
276.335	74.31
276.567	78.31
276.799	62.31
277.031	75.31
277.262	79.31
277.494	79.31
277.726	77.31
277.957	81.31
278.189	85.31
278.421	60.31
278.652	75.31
278.884	84.31
279.115	84.31
279.347	79.31
279.579	75.31
279.81	79.31
280.042	74.31
280.273	84.31
280.505	81.31
280.736	86.31
280.968	85.31
281.199	75.31
281.431	69.31
281.662	77.31
281.894	70.31
282.125	73.31
282.356	78.31
282.588	75.31
282.819	87.31
283.051	72.31
283.282	85.31
283.513	79.31
283.745	89.31
283.976	90.31
284.207	77.31
284.439	78.31
284.67	77.31
284.901	85.31
285.132	76.31
285.364	86.31
285.595	89.31
285.826	87.31
286.057	73.31
286.288	82.31
286.52	68.31
286.751	79.31
286.982	79.31
287.213	77.31
287.444	73.31
287.675	89.31
287.906	77.31
288.138	75.31
288.369	79.31
288.6	83.31
288.831	81.31
289.062	77.31
289.293	75.31
289.524	66.31
289.755	86.31
289.986	70.31
290.217	67.31
290.448	86.31
290.679	72.31
290.91	84.31
291.141	84.31
291.371	91.31
291.602	80.31
291.833	87.31
292.064	88.31
292.295	92.31
292.526	69.31
292.757	77.31
292.987	54.31
293.218	82.31
293.449	71.31
293.68	88.31
293.91	70.31
294.141	92.31
294.372	76.31
294.603	87.31
294.833	90.31
295.064	92.31
295.295	81.31
295.525	70.31
295.756	60.31
295.987	71.31
296.217	79.31
296.448	84.31
296.679	71.31
296.909	81.31
297.14	74.31
297.37	93.31
297.601	57.31
297.831	79.31
298.062	90.31
298.292	84.31
298.523	71.31
298.753	87.31
298.984	66.31
299.214	80.31
299.445	98.31
299.675	87.31
299.905	77.31
300.136	89.31
300.366	87.31
300.597	84.31
300.827	80.31
301.057	84.31
301.288	82.31
301.518	79.31
301.748	68.31
301.979	82.31
302.209	77.31
302.439	92.31
302.669	81.31
302.9	63.31
303.13	79.31
303.36	76.31
303.59	85.31
303.82	86.31
304.051	81.31
304.281	74.31
304.511	76.31
304.741	78.31
304.971	74.31
305.201	72.31
305.431	77.31
305.661	70.31
305.891	82.31
306.121	94.31
306.352	77.31
306.582	84.31
306.812	86.31
307.042	90.31
307.272	84.31
307.502	88.31
307.731	87.31
307.961	85.31
308.191	74.31
308.421	81.31
308.651	79.31
308.881	75.31
309.111	97.31
309.341	102.31
309.571	82.31
309.8	84.31
310.03	87.31
310.26	75.31
310.49	80.31
310.72	71.31
310.949	70.31
311.179	76.31
311.409	77.31
311.639	71.31
311.868	75.31
312.098	76.31
312.328	85.31
312.557	79.31
312.787	81.31
313.017	70.31
313.246	79.31
313.476	83.31
313.706	79.31
313.935	68.31
314.165	104.31
314.394	72.31
314.624	87.31
314.853	87.31
315.083	77.31
315.312	85.31
315.542	91.31
315.771	82.31
316.001	73.31
316.23	77.31
316.46	82.31
316.689	71.31
316.919	76.31
317.148	81.31
317.377	91.31
317.607	82.31
317.836	82.31
318.065	78.31
318.295	81.31
318.524	87.31
318.753	82.31
318.983	72.31
319.212	79.31
319.441	84.31
319.67	86.31
319.9	73.31
320.129	68.31
320.358	86.31
320.587	83.31
320.816	78.31
321.046	83.31
321.275	87.31
321.504	91.31
321.733	80.31
321.962	77.31
322.191	82.31
322.42	88.31
322.649	77.31
322.878	85.31
323.108	85.31
323.337	86.31
323.566	68.31
323.795	78.31
324.024	89.31
324.253	86.31
324.482	94.31
324.71	84.31
324.939	80.31
325.168	72.31
325.397	74.31
325.626	81.31
325.855	98.31
326.084	88.31
326.313	73.31
326.542	73.31
326.77	82.31
326.999	84.31
327.228	72.31
327.457	90.31
327.686	71.31
327.914	75.31
328.143	89.31
328.372	72.31
328.6	92.31
328.829	76.31
329.058	74.31
329.287	76.31
329.515	92.31
329.744	82.31
329.972	80.31
330.201	79.31
330.43	73.31
330.658	62.31
330.887	80.31
331.115	73.31
331.344	90.31
331.572	84.31
331.801	72.31
332.03	80.31
332.258	100.31
332.486	84.31
332.715	79.31
332.943	74.31
333.172	85.31
333.4	81.31
333.629	88.31
333.857	79.31
334.085	90.31
334.314	88.31
334.542	94.31
334.771	79.31
334.999	74.31
335.227	86.31
335.455	64.31
335.684	86.31
335.912	80.31
336.14	82.31
336.369	76.31
336.597	89.31
336.825	77.31
337.053	74.31
337.281	77.31
337.51	69.31
337.738	84.31
337.966	85.31
338.194	77.31
338.422	67.31
338.65	79.31
338.878	95.31
339.106	90.31
339.334	81.31
339.562	85.31
339.79	79.31
340.018	87.31
340.246	69.31
340.474	87.31
340.702	85.31
340.93	92.31
341.158	76.31
341.386	77.31
341.614	78.31
341.842	86.31
342.07	86.31
342.298	84.31
342.526	82.31
342.754	83.31
342.981	87.31
343.209	74.31
343.437	74.31
343.665	85.31
343.893	84.31
344.12	86.31
344.348	95.31
344.576	84.31
344.804	74.31
345.031	67.31
345.259	72.31
345.487	69.31
345.714	70.31
345.942	74.31
346.17	69.31
346.397	78.31
346.625	72.31
346.853	74.31
347.08	81.31
347.308	96.31
347.535	86.31
347.763	80.31
347.99	80.31
348.218	92.31
348.445	71.31
348.673	78.31
348.9	80.31
349.128	81.31
349.355	78.31
349.583	83.31
349.81	76.31
350.037	84.31
350.265	79.31
350.492	83.31
350.72	86.31
350.947	91.31
351.174	89.31
351.402	72.31
351.629	75.31
351.856	82.31
352.083	79.31
352.311	79.31
352.538	79.31
352.765	80.31
352.992	69.31
353.22	82.31
353.447	83.31
353.674	81.31
353.901	75.31
354.128	76.31
354.355	71.31
354.583	72.31
354.81	74.31
355.037	93.31
355.264	101.31
355.491	78.31
355.718	80.31
355.945	81.31
356.172	91.31
356.399	77.31
356.626	84.31
356.853	88.31
357.08	81.31
357.307	94.31
357.534	81.31
357.761	85.31
357.988	79.31
358.215	73.31
358.441	86.31
358.668	83.31
358.895	71.31
359.122	80.31
359.349	73.31
359.576	84.31
359.802	90.31
360.029	85.31
360.256	95.31
360.483	71.31
360.709	90.31
360.936	82.31
361.163	83.31
361.39	80.31
361.616	80.31
361.843	73.31
362.07	78.31
362.296	77.31
362.523	96.31
362.749	84.31
362.976	77.31
363.203	84.31
363.429	76.31
363.656	79.31
363.882	77.31
364.109	78.31
364.335	71.31
364.562	88.31
364.788	85.31
365.015	84.31
365.241	86.31
365.468	86.31
365.694	75.31
365.92	81.31
366.147	85.31
366.373	84.31
366.599	88.31
366.826	90.31
367.052	75.31
367.278	91.31
367.505	86.31
367.731	72.31
367.957	71.31
368.184	98.31
368.41	84.31
368.636	85.31
368.862	91.31
369.089	88.31
369.315	71.31
369.541	86.31
369.767	81.31
369.993	96.31
370.219	94.31
370.445	93.31
370.672	89.31
370.898	88.31
371.124	90.31
371.35	93.31
371.576	87.31
371.802	78.31
372.028	88.31
372.254	88.31
372.48	79.31
372.706	89.31
372.932	97.31
373.158	82.31
373.384	102.31
373.61	102.31
373.835	85.31
374.061	78.31
374.287	95.31
374.513	88.31
374.739	98.31
374.965	89.31
375.191	88.31
375.416	79.31
375.642	97.31
375.868	100.31
376.094	97.31
376.319	83.31
376.545	92.31
376.771	79.31
376.997	79.31
377.222	81.31
377.448	90.31
377.674	89.31
377.899	84.31
378.125	91.31
378.35	96.31
378.576	104.31
378.802	106.31
379.027	82.31
379.253	77.31
379.478	89.31
379.704	86.31
379.929	85.31
380.155	94.31
380.38	111.31
380.606	94.31
380.831	86.31
381.057	84.31
381.282	85.31
381.507	84.31
381.733	117.31
381.958	94.31
382.184	84.31
382.409	89.31
382.634	86.31
382.86	95.31
383.085	100.31
383.31	98.31
383.535	100.31
383.761	92.31
383.986	88.31
384.211	95.31
384.436	104.31
384.662	101.31
384.887	103.31
385.112	90.31
385.337	81.31
385.562	98.31
385.787	106.31
386.013	106.31
386.238	92.31
386.463	97.31
386.688	94.31
386.913	112.31
387.138	107.31
387.363	106.31
387.588	89.31
387.813	91.31
388.038	106.31
388.263	108.31
388.488	100.31
388.713	106.31
388.938	93.31
389.163	98.31
389.387	89.31
389.612	91.31
389.837	82.31
390.062	90.31
390.287	94.31
390.512	93.31
390.736	105.31
390.961	99.31
391.186	101.31
391.411	87.31
391.636	108.31
391.86	100.31
392.085	104.31
392.31	93.31
392.534	96.31
392.759	101.31
392.984	93.31
393.208	100.31
393.433	101.31
393.658	104.31
393.882	102.31
394.107	105.31
394.331	99.31
394.556	105.31
394.78	99.31
395.005	102.31
395.229	104.31
395.454	112.31
395.678	104.31
395.903	119.31
396.127	100.31
396.352	99.31
396.576	103.31
396.801	100.31
397.025	100.31
397.249	100.31
397.474	117.31
397.698	108.31
397.922	111.31
398.147	101.31
398.371	110.31
398.595	94.31
398.82	98.31
399.044	110.31
399.268	100.31
399.492	100.31
399.717	115.31
399.941	117.31
400.165	120.31
400.389	98.31
400.613	102.31
400.837	103.31
401.062	108.31
401.286	119.31
401.51	112.31
401.734	99.31
401.958	112.31
402.182	112.31
402.406	101.31
402.63	105.31
402.854	121.31
403.078	115.31
403.302	115.31
403.526	114.31
403.75	123.31
403.974	100.31
404.198	104.31
404.422	121.31
404.645	126.31
404.869	116.31
405.093	110.31
405.317	104.31
405.541	103.31
405.765	128.31
405.988	123.31
406.212	111.31
406.436	111.31
406.66	110.31
406.883	111.31
407.107	106.31
407.331	116.31
407.555	117.31
407.778	106.31
408.002	108.31
408.226	113.31
408.449	104.31
408.673	122.31
408.896	128.31
409.12	122.31
409.344	120.31
409.567	121.31
409.791	120.31
410.014	102.31
410.238	118.31
410.461	126.31
410.685	115.31
410.908	119.31
411.132	114.31
411.355	99.31
411.578	106.31
411.802	116.31
412.025	120.31
412.249	109.31
412.472	113.31
412.695	113.31
412.919	118.31
413.142	110.31
413.365	118.31
413.589	126.31
413.812	115.31
414.035	111.31
414.258	107.31
414.482	122.31
414.705	114.31
414.928	134.31
415.151	123.31
415.374	116.31
415.597	107.31
415.821	118.31
416.044	123.31
416.267	117.31
416.49	124.31
416.713	120.31
416.936	126.31
417.159	121.31
417.382	125.31
417.605	124.31
417.828	125.31
418.051	121.31
418.274	125.31
418.497	108.31
418.72	136.31
418.943	130.31
419.166	129.31
419.389	130.31
419.611	135.31
419.834	133.31
420.057	123.31
420.28	125.31
420.503	130.31
420.726	136.31
420.948	135.31
421.171	111.31
421.394	142.31
421.617	125.31
421.839	134.31
422.062	116.31
422.285	120.31
422.507	133.31
422.73	124.31
422.953	113.31
423.175	118.31
423.398	116.31
423.621	117.31
423.843	130.31
424.066	134.31
424.288	128.31
424.511	130.31
424.733	138.31
424.956	125.31
425.178	135.31
425.401	141.31
425.623	128.31
425.846	124.31
426.068	124.31
426.291	116.31
426.513	129.31
426.735	119.31
426.958	128.31
427.18	127.31
427.402	121.31
427.625	137.31
427.847	129.31
428.069	136.31
428.292	120.31
428.514	117.31
428.736	130.31
428.958	120.31
429.181	121.31
429.403	134.31
429.625	122.31
429.847	131.31
430.069	140.31
430.292	116.31
430.514	122.31
430.736	117.31
430.958	128.31
431.18	128.31
431.402	120.31
431.624	117.31
431.846	120.31
432.068	109.31
432.29	88.31
432.512	104.31
432.734	112.31
432.956	110.31
433.178	129.31
433.4	125.31
433.622	126.31
433.844	128.31
434.066	130.31
434.287	103.31
434.509	108.31
434.731	97.31
434.953	101.31
435.175	110.31
435.397	129.31
435.618	120.31
435.84	116.31
436.062	104.31
436.284	108.31
436.505	126.31
436.727	136.31
436.949	122.31
437.17	128.31
437.392	120.31
437.614	116.31
437.835	109.31
438.057	112.31
438.278	103.31
438.5	118.31
438.721	128.31
438.943	127.31
439.165	149.31
439.386	135.31
439.608	135.31
439.829	161.31
440.05	149.31
440.272	139.31
440.493	140.31
440.715	129.31
440.936	139.31
441.158	136.31
441.379	130.31
441.6	140.31
441.822	144.31
442.043	137.31
442.264	150.31
442.486	130.31
442.707	128.31
442.928	122.31
443.149	133.31
443.371	132.31
443.592	136.31
443.813	133.31
444.034	130.31
444.255	130.31
444.476	135.31
444.698	143.31
444.919	138.31
445.14	241.31
445.361	186.31
445.582	146.31
445.803	147.31
446.024	154.31
446.245	144.31
446.466	152.31
446.687	134.31
446.908	148.31
447.129	157.31
447.35	162.31
447.571	145.31
447.792	137.31
448.013	142.31
448.234	144.31
448.455	152.31
448.675	141.31
448.896	144.31
449.117	143.31
449.338	138.31
449.559	136.31
449.779	124.31
450	132.31
450.221	129.31
450.442	128.31
450.662	128.31
450.883	127.31
451.104	138.31
451.324	125.31
451.545	121.31
451.766	114.31
451.986	118.31
452.207	121.31
452.428	129.31
452.648	134.31
452.869	110.31
453.089	100.31
453.31	88.31
453.53	101.31
453.751	111.31
453.971	98.31
454.192	93.31
454.412	117.31
454.633	114.31
454.853	114.31
455.073	111.31
455.294	118.31
455.514	98.31
455.734	101.31
455.955	105.31
456.175	103.31
456.395	111.31
456.616	95.31
456.836	103.31
457.056	103.31
457.276	105.31
457.497	114.31
457.717	83.31
457.937	105.31
458.157	98.31
458.377	100.31
458.598	93.31
458.818	74.31
459.038	76.31
459.258	95.31
459.478	92.31
459.698	82.31
459.918	99.31
460.138	96.31
460.358	108.31
460.578	108.31
460.798	99.31
461.018	117.31
461.238	112.31
461.458	112.31
461.678	121.31
461.898	117.31
462.118	112.31
462.338	113.31
462.558	120.31
462.777	101.31
462.997	108.31
463.217	84.31
463.437	117.31
463.657	112.31
463.876	99.31
464.096	100.31
464.316	100.31
464.536	110.31
464.755	104.31
464.975	105.31
465.195	108.31
465.414	110.31
465.634	120.31
465.854	109.31
466.073	114.31
466.293	119.31
466.512	110.31
466.732	133.31
466.951	132.31
467.171	129.31
467.391	128.31
467.61	123.31
467.829	127.31
468.049	145.31
468.268	134.31
468.488	139.31
468.707	134.31
468.927	121.31
469.146	129.31
469.365	144.31
469.585	139.31
469.804	140.31
470.023	130.31
470.243	126.31
470.462	132.31
470.681	141.31
470.901	140.31
471.12	126.31
471.339	135.31
471.558	152.31
471.777	152.31
471.997	135.31
472.216	143.31
472.435	119.31
472.654	100.31
472.873	104.31
473.092	121.31
473.311	120.31
473.53	128.31
473.749	121.31
473.968	118.31
474.187	118.31
474.406	110.31
474.625	122.31
474.844	126.31
475.063	123.31
475.282	114.31
475.501	104.31
475.72	116.31
475.939	112.31
476.158	125.31
476.377	129.31
476.596	121.31
476.814	97.31
477.033	103.31
477.252	112.31
477.471	118.31
477.69	136.31
477.908	122.31
478.127	141.31
478.346	124.31
478.564	124.31
478.783	133.31
479.002	132.31
479.22	142.31
479.439	147.31
479.658	115.31
479.876	110.31
480.095	113.31
480.313	113.31
480.532	117.31
480.751	110.31
480.969	70.31
481.188	90.31
481.406	93.31
481.624	92.31
481.843	87.31
482.061	92.31
482.28	113.31
482.498	115.31
482.717	107.31
482.935	97.31
483.153	124.31
483.372	140.31
483.59	147.31
483.808	134.31
484.027	134.31
484.245	126.31
484.463	134.31
484.681	153.31
484.9	130.31
485.118	122.31
485.336	120.31
485.554	112.31
485.772	96.31
485.99	101.31
486.209	112.31
486.427	94.31
486.645	112.31
486.863	131.31
487.081	133.31
487.299	128.31
487.517	134.31
487.735	164.31
487.953	161.31
488.171	168.31
488.389	172.31
488.607	152.31
488.825	122.31
489.043	142.31
489.261	137.31
489.479	136.31
489.696	130.31
489.914	140.31
490.132	129.31
490.35	120.31
490.568	164.31
490.786	167.31
491.003	177.31
491.221	174.31
491.439	173.31
491.657	182.31
491.874	204.31
492.092	217.31
492.31	232.31
492.527	214.31
492.745	194.31
492.963	192.31
493.18	189.31
493.398	188.31
493.615	183.31
493.833	168.31
494.05	148.31
494.268	169.31
494.485	159.31
494.703	173.31
494.92	160.31
495.138	175.31
495.355	167.31
495.573	162.31
495.79	157.31
496.008	167.31
496.225	168.31
496.442	168.31
496.66	165.31
496.877	161.31
497.094	166.31
497.312	145.31
497.529	140.31
497.746	146.31
497.963	128.31
498.181	142.31
498.398	128.31
498.615	118.31
498.832	109.31
499.049	105.31
499.267	114.31
499.484	126.31
499.701	128.31
499.918	140.31
500.135	136.31
500.352	122.31
500.569	144.31
500.786	145.31
501.003	137.31
501.22	132.31
501.437	144.31
501.654	137.31
501.871	132.31
502.088	139.31
502.305	121.31
502.522	134.31
502.739	122.31
502.956	122.31
503.172	126.31
503.389	124.31
503.606	120.31
503.823	103.31
504.04	120.31
504.256	113.31
504.473	124.31
504.69	114.31
504.907	124.31
505.123	112.31
505.34	116.31
505.557	122.31
505.773	119.31
505.99	112.31
506.207	113.31
506.423	106.31
506.64	120.31
506.856	119.31
507.073	105.31
507.289	115.31
507.506	125.31
507.722	119.31
507.939	111.31
508.155	108.31
508.372	108.31
508.588	113.31
508.805	104.31
509.021	108.31
509.238	87.31
509.454	115.31
509.67	96.31
509.887	103.31
510.103	84.31
510.319	88.31
510.536	88.31
510.752	81.31
510.968	73.31
511.184	82.31
511.401	65.31
511.617	85.31
511.833	67.31
512.049	80.31
