Data from Location2.07152019.Energy5.Lamp.07192019.3%Agarose_HRD10591_14-58-30-359.txt Node
Date: Fri Jul 19 14:58:30 EDT 2019
User: cochatt
Spectrometer: HR+D1059
Trigger mode: 1
Integration Time (sec): 1.000000E-1
Scans to average: 1
Electric dark correction enabled: true
Nonlinearity correction enabled: false
Boxcar width: 0
XAxis mode: Wavelengths
Number of Pixels in Spectrum: 2048
>>>>>Begin Spectral Data<<<<<
223.165	-11.5
223.4	-11.5
223.635	-11.5
223.869	-9.5
224.104	-18.5
224.338	-17.5
224.573	-12.5
224.808	-19.5
225.042	-19.5
225.277	-12.5
225.511	-11.5
225.746	6.5
225.98	9.5
226.215	20.5
226.449	17.5
226.683	19.5
226.918	38.5
227.152	20.5
227.387	36.5
227.621	30.5
227.856	39.5
228.09	33.5
228.324	45.5
228.559	30.5
228.793	53.5
229.027	66.5
229.262	55.5
229.496	60.5
229.73	75.5
229.964	70.5
230.199	70.5
230.433	71.5
230.667	74.5
230.901	67.5
231.136	84.5
231.37	78.5
231.604	90.5
231.838	67.5
232.072	85.5
232.306	87.5
232.541	80.5
232.775	93.5
233.009	84.5
233.243	96.5
233.477	76.5
233.711	86.5
233.945	76.5
234.179	83.5
234.413	88.5
234.647	72.5
234.881	78.5
235.115	81.5
235.349	69.5
235.583	77.5
235.817	75.5
236.051	84.5
236.285	76.5
236.519	80.5
236.753	83.5
236.987	86.5
237.221	79.5
237.455	88.5
237.689	82.5
237.922	76.5
238.156	88.5
238.39	90.5
238.624	78.5
238.858	73.5
239.091	83.5
239.325	74.5
239.559	83.5
239.793	93.5
240.027	73.5
240.26	76.5
240.494	73.5
240.728	73.5
240.961	76.5
241.195	85.5
241.429	74.5
241.662	92.5
241.896	80.5
242.13	86.5
242.363	88.5
242.597	76.5
242.83	78.5
243.064	87.5
243.298	80.5
243.531	91.5
243.765	81.5
243.998	87.5
244.232	75.5
244.465	83.5
244.699	78.5
244.932	93.5
245.166	78.5
245.399	87.5
245.633	71.5
245.866	88.5
246.099	72.5
246.333	82.5
246.566	78.5
246.8	67.5
247.033	69.5
247.266	93.5
247.5	82.5
247.733	72.5
247.966	93.5
248.2	66.5
248.433	73.5
248.666	79.5
248.899	77.5
249.133	74.5
249.366	89.5
249.599	73.5
249.832	73.5
250.066	74.5
250.299	85.5
250.532	81.5
250.765	82.5
250.998	75.5
251.231	68.5
251.465	96.5
251.698	85.5
251.931	67.5
252.164	88.5
252.397	66.5
252.63	89.5
252.863	82.5
253.096	75.5
253.329	76.5
253.562	70.5
253.795	67.5
254.028	82.5
254.261	88.5
254.494	73.5
254.727	72.5
254.96	69.5
255.193	82.5
255.426	90.5
255.659	78.5
255.892	83.5
256.124	73.5
256.357	83.5
256.59	79.5
256.823	79.5
257.056	85.5
257.289	87.5
257.521	77.5
257.754	79.5
257.987	79.5
258.22	83.5
258.452	83.5
258.685	77.5
258.918	82.5
259.151	70.5
259.383	79.5
259.616	68.5
259.849	74.5
260.081	86.5
260.314	88.5
260.547	74.5
260.779	88.5
261.012	85.5
261.244	69.5
261.477	70.5
261.71	78.5
261.942	78.5
262.175	74.5
262.407	83.5
262.64	70.5
262.872	85.5
263.105	83.5
263.337	79.5
263.57	70.5
263.802	73.5
264.035	72.5
264.267	74.5
264.499	81.5
264.732	84.5
264.964	87.5
265.197	73.5
265.429	80.5
265.661	84.5
265.894	76.5
266.126	73.5
266.358	77.5
266.591	100.5
266.823	80.5
267.055	86.5
267.287	85.5
267.52	73.5
267.752	93.5
267.984	75.5
268.216	82.5
268.448	82.5
268.681	92.5
268.913	92.5
269.145	84.5
269.377	76.5
269.609	72.5
269.841	94.5
270.073	84.5
270.306	90.5
270.538	86.5
270.77	76.5
271.002	84.5
271.234	95.5
271.466	73.5
271.698	64.5
271.93	75.5
272.162	87.5
272.394	81.5
272.626	80.5
272.858	76.5
273.09	79.5
273.322	96.5
273.553	81.5
273.785	87.5
274.017	72.5
274.249	88.5
274.481	82.5
274.713	70.5
274.945	89.5
275.176	91.5
275.408	94.5
275.64	84.5
275.872	90.5
276.104	82.5
276.335	86.5
276.567	82.5
276.799	83.5
277.031	91.5
277.262	78.5
277.494	72.5
277.726	90.5
277.957	88.5
278.189	81.5
278.421	74.5
278.652	80.5
278.884	90.5
279.115	82.5
279.347	95.5
279.579	93.5
279.81	87.5
280.042	84.5
280.273	77.5
280.505	90.5
280.736	85.5
280.968	99.5
281.199	80.5
281.431	79.5
281.662	86.5
281.894	78.5
282.125	89.5
282.356	96.5
282.588	70.5
282.819	88.5
283.051	81.5
283.282	85.5
283.513	93.5
283.745	87.5
283.976	78.5
284.207	88.5
284.439	90.5
284.67	81.5
284.901	71.5
285.132	95.5
285.364	79.5
285.595	93.5
285.826	77.5
286.057	85.5
286.288	77.5
286.52	84.5
286.751	83.5
286.982	84.5
287.213	91.5
287.444	100.5
287.675	92.5
287.906	81.5
288.138	87.5
288.369	86.5
288.6	83.5
288.831	73.5
289.062	85.5
289.293	88.5
289.524	81.5
289.755	88.5
289.986	75.5
290.217	85.5
290.448	86.5
290.679	86.5
290.91	73.5
291.141	76.5
291.371	78.5
291.602	102.5
291.833	98.5
292.064	85.5
292.295	75.5
292.526	92.5
292.757	88.5
292.987	90.5
293.218	77.5
293.449	82.5
293.68	97.5
293.91	84.5
294.141	86.5
294.372	72.5
294.603	87.5
294.833	88.5
295.064	78.5
295.295	98.5
295.525	88.5
295.756	90.5
295.987	78.5
296.217	85.5
296.448	77.5
296.679	87.5
296.909	90.5
297.14	86.5
297.37	86.5
297.601	98.5
297.831	90.5
298.062	93.5
298.292	82.5
298.523	85.5
298.753	78.5
298.984	79.5
299.214	80.5
299.445	88.5
299.675	88.5
299.905	91.5
300.136	86.5
300.366	91.5
300.597	81.5
300.827	89.5
301.057	87.5
301.288	79.5
301.518	86.5
301.748	68.5
301.979	81.5
302.209	78.5
302.439	84.5
302.669	69.5
302.9	83.5
303.13	83.5
303.36	90.5
303.59	85.5
303.82	81.5
304.051	85.5
304.281	82.5
304.511	83.5
304.741	79.5
304.971	82.5
305.201	85.5
305.431	82.5
305.661	78.5
305.891	96.5
306.121	86.5
306.352	89.5
306.582	85.5
306.812	78.5
307.042	80.5
307.272	87.5
307.502	85.5
307.731	88.5
307.961	83.5
308.191	91.5
308.421	86.5
308.651	87.5
308.881	76.5
309.111	80.5
309.341	85.5
309.571	80.5
309.8	86.5
310.03	88.5
310.26	81.5
310.49	87.5
310.72	76.5
310.949	89.5
311.179	93.5
311.409	90.5
311.639	85.5
311.868	94.5
312.098	103.5
312.328	86.5
312.557	93.5
312.787	86.5
313.017	90.5
313.246	96.5
313.476	104.5
313.706	92.5
313.935	85.5
314.165	78.5
314.394	88.5
314.624	78.5
314.853	74.5
315.083	82.5
315.312	96.5
315.542	90.5
315.771	89.5
316.001	89.5
316.23	87.5
316.46	77.5
316.689	83.5
316.919	89.5
317.148	84.5
317.377	92.5
317.607	88.5
317.836	77.5
318.065	88.5
318.295	74.5
318.524	89.5
318.753	82.5
318.983	67.5
319.212	84.5
319.441	81.5
319.67	80.5
319.9	87.5
320.129	95.5
320.358	88.5
320.587	99.5
320.816	83.5
321.046	83.5
321.275	89.5
321.504	84.5
321.733	84.5
321.962	93.5
322.191	92.5
322.42	75.5
322.649	85.5
322.878	83.5
323.108	76.5
323.337	91.5
323.566	90.5
323.795	91.5
324.024	92.5
324.253	91.5
324.482	84.5
324.71	96.5
324.939	92.5
325.168	89.5
325.397	93.5
325.626	79.5
325.855	82.5
326.084	84.5
326.313	84.5
326.542	91.5
326.77	79.5
326.999	73.5
327.228	88.5
327.457	87.5
327.686	94.5
327.914	84.5
328.143	93.5
328.372	87.5
328.6	89.5
328.829	75.5
329.058	86.5
329.287	93.5
329.515	101.5
329.744	87.5
329.972	84.5
330.201	64.5
330.43	82.5
330.658	94.5
330.887	91.5
331.115	88.5
331.344	85.5
331.572	99.5
331.801	81.5
332.03	98.5
332.258	89.5
332.486	88.5
332.715	84.5
332.943	80.5
333.172	84.5
333.4	81.5
333.629	89.5
333.857	65.5
334.085	77.5
334.314	100.5
334.542	88.5
334.771	67.5
334.999	82.5
335.227	90.5
335.455	78.5
335.684	83.5
335.912	85.5
336.14	101.5
336.369	101.5
336.597	78.5
336.825	84.5
337.053	77.5
337.281	84.5
337.51	80.5
337.738	85.5
337.966	78.5
338.194	93.5
338.422	77.5
338.65	85.5
338.878	78.5
339.106	81.5
339.334	76.5
339.562	80.5
339.79	86.5
340.018	83.5
340.246	91.5
340.474	85.5
340.702	103.5
340.93	85.5
341.158	85.5
341.386	71.5
341.614	64.5
341.842	85.5
342.07	87.5
342.298	94.5
342.526	82.5
342.754	93.5
342.981	94.5
343.209	83.5
343.437	100.5
343.665	97.5
343.893	84.5
344.12	88.5
344.348	94.5
344.576	76.5
344.804	90.5
345.031	90.5
345.259	89.5
345.487	78.5
345.714	80.5
345.942	76.5
346.17	82.5
346.397	74.5
346.625	94.5
346.853	77.5
347.08	88.5
347.308	94.5
347.535	69.5
347.763	83.5
347.99	85.5
348.218	77.5
348.445	89.5
348.673	74.5
348.9	95.5
349.128	85.5
349.355	81.5
349.583	80.5
349.81	77.5
350.037	84.5
350.265	96.5
350.492	87.5
350.72	79.5
350.947	80.5
351.174	83.5
351.402	73.5
351.629	91.5
351.856	91.5
352.083	70.5
352.311	83.5
352.538	79.5
352.765	74.5
352.992	92.5
353.22	100.5
353.447	78.5
353.674	86.5
353.901	88.5
354.128	93.5
354.355	77.5
354.583	73.5
354.81	83.5
355.037	93.5
355.264	89.5
355.491	84.5
355.718	78.5
355.945	84.5
356.172	83.5
356.399	82.5
356.626	81.5
356.853	74.5
357.08	85.5
357.307	83.5
357.534	78.5
357.761	97.5
357.988	92.5
358.215	95.5
358.441	88.5
358.668	88.5
358.895	82.5
359.122	81.5
359.349	72.5
359.576	91.5
359.802	87.5
360.029	93.5
360.256	88.5
360.483	84.5
360.709	99.5
360.936	85.5
361.163	100.5
361.39	84.5
361.616	82.5
361.843	88.5
362.07	86.5
362.296	92.5
362.523	88.5
362.749	77.5
362.976	77.5
363.203	84.5
363.429	89.5
363.656	78.5
363.882	93.5
364.109	81.5
364.335	85.5
364.562	82.5
364.788	88.5
365.015	96.5
365.241	86.5
365.468	88.5
365.694	74.5
365.92	90.5
366.147	89.5
366.373	80.5
366.599	92.5
366.826	89.5
367.052	91.5
367.278	99.5
367.505	76.5
367.731	88.5
367.957	84.5
368.184	91.5
368.41	88.5
368.636	91.5
368.862	93.5
369.089	91.5
369.315	84.5
369.541	81.5
369.767	96.5
369.993	98.5
370.219	95.5
370.445	95.5
370.672	88.5
370.898	83.5
371.124	75.5
371.35	93.5
371.576	78.5
371.802	99.5
372.028	84.5
372.254	98.5
372.48	74.5
372.706	83.5
372.932	90.5
373.158	88.5
373.384	93.5
373.61	103.5
373.835	89.5
374.061	92.5
374.287	87.5
374.513	75.5
374.739	90.5
374.965	104.5
375.191	78.5
375.416	106.5
375.642	91.5
375.868	85.5
376.094	88.5
376.319	101.5
376.545	99.5
376.771	105.5
376.997	99.5
377.222	103.5
377.448	102.5
377.674	96.5
377.899	99.5
378.125	89.5
378.35	82.5
378.576	80.5
378.802	90.5
379.027	106.5
379.253	92.5
379.478	92.5
379.704	71.5
379.929	100.5
380.155	95.5
380.38	90.5
380.606	105.5
380.831	100.5
381.057	90.5
381.282	101.5
381.507	96.5
381.733	100.5
381.958	78.5
382.184	94.5
382.409	96.5
382.634	87.5
382.86	103.5
383.085	106.5
383.31	99.5
383.535	87.5
383.761	78.5
383.986	103.5
384.211	92.5
384.436	105.5
384.662	96.5
384.887	106.5
385.112	94.5
385.337	91.5
385.562	84.5
385.787	105.5
386.013	118.5
386.238	98.5
386.463	101.5
386.688	109.5
386.913	116.5
387.138	110.5
387.363	114.5
387.588	104.5
387.813	104.5
388.038	101.5
388.263	100.5
388.488	102.5
388.713	94.5
388.938	81.5
389.163	99.5
389.387	109.5
389.612	99.5
389.837	101.5
390.062	104.5
390.287	104.5
390.512	100.5
390.736	105.5
390.961	108.5
391.186	96.5
391.411	94.5
391.636	95.5
391.86	103.5
392.085	121.5
392.31	114.5
392.534	91.5
392.759	106.5
392.984	103.5
393.208	112.5
393.433	108.5
393.658	90.5
393.882	109.5
394.107	107.5
394.331	101.5
394.556	100.5
394.78	89.5
395.005	107.5
395.229	106.5
395.454	113.5
395.678	107.5
395.903	102.5
396.127	98.5
396.352	109.5
396.576	103.5
396.801	97.5
397.025	109.5
397.249	107.5
397.474	117.5
397.698	102.5
397.922	98.5
398.147	109.5
398.371	104.5
398.595	112.5
398.82	114.5
399.044	114.5
399.268	119.5
399.492	107.5
399.717	105.5
399.941	109.5
400.165	114.5
400.389	114.5
400.613	108.5
400.837	109.5
401.062	102.5
401.286	104.5
401.51	118.5
401.734	102.5
401.958	106.5
402.182	110.5
402.406	121.5
402.63	112.5
402.854	99.5
403.078	130.5
403.302	110.5
403.526	118.5
403.75	117.5
403.974	112.5
404.198	108.5
404.422	112.5
404.645	112.5
404.869	115.5
405.093	112.5
405.317	114.5
405.541	110.5
405.765	109.5
405.988	115.5
406.212	109.5
406.436	110.5
406.66	110.5
406.883	117.5
407.107	116.5
407.331	120.5
407.555	108.5
407.778	108.5
408.002	129.5
408.226	104.5
408.449	118.5
408.673	116.5
408.896	122.5
409.12	131.5
409.344	117.5
409.567	124.5
409.791	117.5
410.014	126.5
410.238	120.5
410.461	110.5
410.685	134.5
410.908	122.5
411.132	114.5
411.355	133.5
411.578	118.5
411.802	108.5
412.025	132.5
412.249	118.5
412.472	128.5
412.695	120.5
412.919	120.5
413.142	129.5
413.365	124.5
413.589	119.5
413.812	122.5
414.035	137.5
414.258	109.5
414.482	131.5
414.705	107.5
414.928	109.5
415.151	129.5
415.374	132.5
415.597	127.5
415.821	116.5
416.044	116.5
416.267	120.5
416.49	140.5
416.713	131.5
416.936	131.5
417.159	119.5
417.382	123.5
417.605	105.5
417.828	124.5
418.051	126.5
418.274	136.5
418.497	135.5
418.72	134.5
418.943	127.5
419.166	133.5
419.389	152.5
419.611	148.5
419.834	121.5
420.057	120.5
420.28	124.5
420.503	125.5
420.726	135.5
420.948	134.5
421.171	139.5
421.394	142.5
421.617	130.5
421.839	142.5
422.062	136.5
422.285	136.5
422.507	121.5
422.73	120.5
422.953	118.5
423.175	115.5
423.398	124.5
423.621	131.5
423.843	137.5
424.066	146.5
424.288	145.5
424.511	138.5
424.733	140.5
424.956	128.5
425.178	149.5
425.401	136.5
425.623	128.5
425.846	119.5
426.068	132.5
426.291	125.5
426.513	122.5
426.735	133.5
426.958	130.5
427.18	138.5
427.402	133.5
427.625	125.5
427.847	127.5
428.069	125.5
428.292	126.5
428.514	121.5
428.736	120.5
428.958	124.5
429.181	122.5
429.403	126.5
429.625	122.5
429.847	123.5
430.069	115.5
430.292	134.5
430.514	128.5
430.736	121.5
430.958	121.5
431.18	119.5
431.402	136.5
431.624	118.5
431.846	115.5
432.068	101.5
432.29	103.5
432.512	98.5
432.734	99.5
432.956	128.5
433.178	120.5
433.4	125.5
433.622	123.5
433.844	136.5
434.066	130.5
434.287	104.5
434.509	106.5
434.731	99.5
434.953	105.5
435.175	128.5
435.397	116.5
435.618	110.5
435.84	118.5
436.062	126.5
436.284	123.5
436.505	126.5
436.727	129.5
436.949	119.5
437.17	116.5
437.392	125.5
437.614	122.5
437.835	123.5
438.057	109.5
438.278	119.5
438.5	117.5
438.721	128.5
438.943	125.5
439.165	146.5
439.386	132.5
439.608	150.5
439.829	138.5
440.05	147.5
440.272	140.5
440.493	130.5
440.715	149.5
440.936	150.5
441.158	148.5
441.379	139.5
441.6	151.5
441.822	144.5
442.043	139.5
442.264	141.5
442.486	133.5
442.707	150.5
442.928	148.5
443.149	148.5
443.371	128.5
443.592	125.5
443.813	125.5
444.034	142.5
444.255	132.5
444.476	133.5
444.698	129.5
444.919	140.5
445.14	242.5
445.361	174.5
445.582	161.5
445.803	142.5
446.024	148.5
446.245	150.5
446.466	164.5
446.687	158.5
446.908	155.5
447.129	144.5
447.35	135.5
447.571	140.5
447.792	147.5
448.013	152.5
448.234	148.5
448.455	143.5
448.675	140.5
448.896	137.5
449.117	145.5
449.338	125.5
449.559	142.5
449.779	146.5
450	147.5
450.221	141.5
450.442	138.5
450.662	137.5
450.883	141.5
451.104	134.5
451.324	125.5
451.545	114.5
451.766	133.5
451.986	138.5
452.207	130.5
452.428	126.5
452.648	112.5
452.869	114.5
453.089	126.5
453.31	106.5
453.53	118.5
453.751	101.5
453.971	102.5
454.192	108.5
454.412	93.5
454.633	124.5
454.853	122.5
455.073	130.5
455.294	129.5
455.514	110.5
455.734	117.5
455.955	102.5
456.175	121.5
456.395	118.5
456.616	105.5
456.836	104.5
457.056	105.5
457.276	108.5
457.497	109.5
457.717	122.5
457.937	107.5
458.157	102.5
458.377	102.5
458.598	89.5
458.818	89.5
459.038	95.5
459.258	88.5
459.478	79.5
459.698	88.5
459.918	91.5
460.138	96.5
460.358	106.5
460.578	131.5
460.798	109.5
461.018	106.5
461.238	129.5
461.458	120.5
461.678	115.5
461.898	108.5
462.118	116.5
462.338	130.5
462.558	124.5
462.777	108.5
462.997	93.5
463.217	108.5
463.437	91.5
463.657	110.5
463.876	106.5
464.096	125.5
464.316	109.5
464.536	114.5
464.755	96.5
464.975	116.5
465.195	111.5
465.414	122.5
465.634	118.5
465.854	118.5
466.073	94.5
466.293	127.5
466.512	120.5
466.732	127.5
466.951	151.5
467.171	131.5
467.391	123.5
467.61	137.5
467.829	128.5
468.049	132.5
468.268	147.5
468.488	118.5
468.707	154.5
468.927	141.5
469.146	134.5
469.365	136.5
469.585	139.5
469.804	135.5
470.023	150.5
470.243	148.5
470.462	147.5
470.681	137.5
470.901	146.5
471.12	135.5
471.339	148.5
471.558	128.5
471.777	122.5
471.997	133.5
472.216	114.5
472.435	120.5
472.654	115.5
472.873	109.5
473.092	117.5
473.311	112.5
473.53	117.5
473.749	118.5
473.968	129.5
474.187	123.5
474.406	131.5
474.625	125.5
474.844	143.5
475.063	136.5
475.282	129.5
475.501	112.5
475.72	115.5
475.939	115.5
476.158	141.5
476.377	133.5
476.596	126.5
476.814	132.5
477.033	119.5
477.252	124.5
477.471	138.5
477.69	141.5
477.908	130.5
478.127	144.5
478.346	142.5
478.564	133.5
478.783	134.5
479.002	148.5
479.22	137.5
479.439	123.5
479.658	124.5
479.876	125.5
480.095	105.5
480.313	117.5
480.532	113.5
480.751	122.5
480.969	84.5
481.188	99.5
481.406	97.5
481.624	94.5
481.843	91.5
482.061	86.5
482.28	104.5
482.498	116.5
482.717	120.5
482.935	128.5
483.153	132.5
483.372	151.5
483.59	145.5
483.808	132.5
484.027	131.5
484.245	128.5
484.463	154.5
484.681	166.5
484.9	121.5
485.118	136.5
485.336	144.5
485.554	117.5
485.772	96.5
485.99	86.5
486.209	107.5
486.427	98.5
486.645	103.5
486.863	135.5
487.081	140.5
487.299	125.5
487.517	135.5
487.735	159.5
487.953	196.5
488.171	184.5
488.389	177.5
488.607	160.5
488.825	147.5
489.043	141.5
489.261	134.5
489.479	135.5
489.696	150.5
489.914	146.5
490.132	160.5
490.35	164.5
490.568	162.5
490.786	162.5
491.003	160.5
491.221	167.5
491.439	197.5
491.657	192.5
491.874	197.5
492.092	218.5
492.31	227.5
492.527	224.5
492.745	202.5
492.963	184.5
493.18	180.5
493.398	190.5
493.615	174.5
493.833	187.5
494.05	176.5
494.268	163.5
494.485	162.5
494.703	199.5
494.92	197.5
495.138	180.5
495.355	152.5
495.573	166.5
495.79	171.5
496.008	161.5
496.225	174.5
496.442	176.5
496.66	181.5
496.877	169.5
497.094	175.5
497.312	172.5
497.529	163.5
497.746	161.5
497.963	150.5
498.181	133.5
498.398	113.5
498.615	133.5
498.832	134.5
499.049	118.5
499.267	121.5
499.484	121.5
499.701	127.5
499.918	136.5
500.135	140.5
500.352	139.5
500.569	132.5
500.786	139.5
501.003	125.5
501.22	127.5
501.437	141.5
501.654	142.5
501.871	139.5
502.088	132.5
502.305	134.5
502.522	118.5
502.739	130.5
502.956	128.5
503.172	127.5
503.389	117.5
503.606	125.5
503.823	126.5
504.04	112.5
504.256	128.5
504.473	125.5
504.69	128.5
504.907	114.5
505.123	110.5
505.34	111.5
505.557	131.5
505.773	120.5
505.99	111.5
506.207	126.5
506.423	119.5
506.64	118.5
506.856	125.5
507.073	121.5
507.289	134.5
507.506	117.5
507.722	121.5
507.939	124.5
508.155	117.5
508.372	114.5
508.588	109.5
508.805	107.5
509.021	112.5
509.238	101.5
509.454	99.5
509.67	102.5
509.887	112.5
510.103	88.5
510.319	91.5
510.536	76.5
510.752	97.5
510.968	84.5
511.184	93.5
511.401	97.5
511.617	88.5
511.833	96.5
512.049	100.5
512.265	111.5
512.481	115.5
512.698	101.5
512.914	92.5
513.13	92.5
513.346	108.5
513.562	89.5
513.778	86.5
513.994	90.5
514.21	90.5
514.426	96.5
514.642	100.5
514.858	91.5
515.074	86.5
515.29	96.5
515.506	86.5
515.721	105.5
515.937	94.5
516.153	82.5
516.369	95.5
516.585	83.5
516.801	97.5
517.016	77.5
517.232	93.5
517.448	83.5
517.664	96.5
517.879	93.5
518.095	99.5
518.311	99.5
518.527	96.5
518.742	79.5
518.958	112.5
519.173	96.5
519.389	105.5
519.605	104.5
519.82	101.5
520.036	124.5
520.251	105.5
520.467	96.5
520.682	87.5
520.898	103.5
521.113	93.5
521.329	78.5
521.544	92.5
521.76	106.5
521.975	95.5
522.19	94.5
522.406	112.5
522.621	105.5
522.836	102.5
523.052	92.5
523.267	101.5
523.482	112.5
523.698	120.5
523.913	117.5
524.128	122.5
524.343	117.5
524.559	114.5
524.774	127.5
524.989	118.5
525.204	125.5
525.419	112.5
525.634	121.5
525.849	120.5
526.064	130.5
526.28	97.5
526.495	98.5
526.71	103.5
526.925	83.5
527.14	78.5
527.355	91.5
527.57	87.5
527.785	93.5
527.999	89.5
528.214	109.5
528.429	113.5
528.644	108.5
528.859	130.5
529.074	148.5
529.289	152.5
529.503	142.5
529.718	137.5
529.933	129.5
530.148	104.5
530.363	94.5
530.577	84.5
