Data from Location2.07152019.Energy5.Lamp.07192019.3%Agarose_HRD10591_14-57-40-359.txt Node
Date: Fri Jul 19 14:57:40 EDT 2019
User: cochatt
Spectrometer: HR+D1059
Trigger mode: 1
Integration Time (sec): 1.000000E-1
Scans to average: 1
Electric dark correction enabled: true
Nonlinearity correction enabled: false
Boxcar width: 0
XAxis mode: Wavelengths
Number of Pixels in Spectrum: 2048
>>>>>Begin Spectral Data<<<<<
223.165	-10.06
223.4	-10.06
223.635	-10.06
223.869	-14.06
224.104	-22.06
224.338	-14.06
224.573	-7.06
224.808	-10.06
225.042	-15.06
225.277	-11.06
225.511	-5.06
225.746	-1.06
225.98	6.94
226.215	13.94
226.449	14.94
226.683	30.94
226.918	22.94
227.152	19.94
227.387	41.94
227.621	32.94
227.856	34.94
228.09	50.94
228.324	56.94
228.559	46.94
228.793	54.94
229.027	60.94
229.262	72.94
229.496	64.94
229.73	55.94
229.964	78.94
230.199	83.94
230.433	76.94
230.667	78.94
230.901	91.94
231.136	68.94
231.37	86.94
231.604	75.94
231.838	81.94
232.072	82.94
232.306	77.94
232.541	81.94
232.775	90.94
233.009	81.94
233.243	82.94
233.477	77.94
233.711	83.94
233.945	83.94
234.179	84.94
234.413	63.94
234.647	60.94
234.881	70.94
235.115	76.94
235.349	75.94
235.583	84.94
235.817	79.94
236.051	70.94
236.285	68.94
236.519	82.94
236.753	79.94
236.987	70.94
237.221	69.94
237.455	86.94
237.689	62.94
237.922	72.94
238.156	80.94
238.39	79.94
238.624	79.94
238.858	74.94
239.091	58.94
239.325	67.94
239.559	77.94
239.793	59.94
240.027	86.94
240.26	65.94
240.494	73.94
240.728	77.94
240.961	64.94
241.195	66.94
241.429	66.94
241.662	69.94
241.896	82.94
242.13	74.94
242.363	70.94
242.597	68.94
242.83	66.94
243.064	74.94
243.298	77.94
243.531	67.94
243.765	75.94
243.998	67.94
244.232	74.94
244.465	81.94
244.699	63.94
244.932	83.94
245.166	77.94
245.399	84.94
245.633	75.94
245.866	86.94
246.099	89.94
246.333	72.94
246.566	70.94
246.8	89.94
247.033	77.94
247.266	79.94
247.5	83.94
247.733	75.94
247.966	70.94
248.2	79.94
248.433	81.94
248.666	79.94
248.899	91.94
249.133	65.94
249.366	79.94
249.599	75.94
249.832	65.94
250.066	76.94
250.299	68.94
250.532	71.94
250.765	81.94
250.998	83.94
251.231	68.94
251.465	84.94
251.698	80.94
251.931	83.94
252.164	71.94
252.397	62.94
252.63	83.94
252.863	71.94
253.096	83.94
253.329	76.94
253.562	74.94
253.795	74.94
254.028	74.94
254.261	68.94
254.494	80.94
254.727	69.94
254.96	77.94
255.193	72.94
255.426	75.94
255.659	84.94
255.892	77.94
256.124	76.94
256.357	86.94
256.59	77.94
256.823	58.94
257.056	84.94
257.289	84.94
257.521	73.94
257.754	83.94
257.987	87.94
258.22	85.94
258.452	66.94
258.685	72.94
258.918	68.94
259.151	78.94
259.383	79.94
259.616	87.94
259.849	77.94
260.081	91.94
260.314	73.94
260.547	77.94
260.779	91.94
261.012	93.94
261.244	91.94
261.477	84.94
261.71	91.94
261.942	70.94
262.175	89.94
262.407	74.94
262.64	85.94
262.872	88.94
263.105	76.94
263.337	67.94
263.57	94.94
263.802	84.94
264.035	72.94
264.267	77.94
264.499	66.94
264.732	74.94
264.964	93.94
265.197	80.94
265.429	65.94
265.661	72.94
265.894	82.94
266.126	94.94
266.358	76.94
266.591	80.94
266.823	81.94
267.055	85.94
267.287	91.94
267.52	80.94
267.752	91.94
267.984	73.94
268.216	86.94
268.448	84.94
268.681	78.94
268.913	83.94
269.145	83.94
269.377	77.94
269.609	77.94
269.841	73.94
270.073	88.94
270.306	87.94
270.538	83.94
270.77	83.94
271.002	95.94
271.234	72.94
271.466	88.94
271.698	70.94
271.93	76.94
272.162	66.94
272.394	75.94
272.626	78.94
272.858	74.94
273.09	74.94
273.322	83.94
273.553	84.94
273.785	89.94
274.017	102.94
274.249	86.94
274.481	83.94
274.713	89.94
274.945	86.94
275.176	82.94
275.408	70.94
275.64	83.94
275.872	85.94
276.104	98.94
276.335	76.94
276.567	85.94
276.799	81.94
277.031	96.94
277.262	78.94
277.494	96.94
277.726	84.94
277.957	75.94
278.189	76.94
278.421	90.94
278.652	75.94
278.884	74.94
279.115	80.94
279.347	71.94
279.579	76.94
279.81	84.94
280.042	72.94
280.273	76.94
280.505	95.94
280.736	79.94
280.968	69.94
281.199	83.94
281.431	83.94
281.662	88.94
281.894	69.94
282.125	79.94
282.356	91.94
282.588	95.94
282.819	83.94
283.051	91.94
283.282	74.94
283.513	77.94
283.745	94.94
283.976	58.94
284.207	94.94
284.439	89.94
284.67	79.94
284.901	82.94
285.132	79.94
285.364	80.94
285.595	69.94
285.826	74.94
286.057	88.94
286.288	75.94
286.52	77.94
286.751	84.94
286.982	82.94
287.213	68.94
287.444	82.94
287.675	83.94
287.906	79.94
288.138	80.94
288.369	74.94
288.6	70.94
288.831	82.94
289.062	88.94
289.293	78.94
289.524	84.94
289.755	90.94
289.986	83.94
290.217	71.94
290.448	75.94
290.679	82.94
290.91	98.94
291.141	82.94
291.371	83.94
291.602	73.94
291.833	89.94
292.064	86.94
292.295	76.94
292.526	84.94
292.757	81.94
292.987	75.94
293.218	74.94
293.449	89.94
293.68	68.94
293.91	70.94
294.141	75.94
294.372	77.94
294.603	77.94
294.833	83.94
295.064	97.94
295.295	72.94
295.525	93.94
295.756	87.94
295.987	72.94
296.217	78.94
296.448	77.94
296.679	72.94
296.909	93.94
297.14	77.94
297.37	80.94
297.601	79.94
297.831	71.94
298.062	74.94
298.292	69.94
298.523	78.94
298.753	78.94
298.984	80.94
299.214	88.94
299.445	77.94
299.675	92.94
299.905	91.94
300.136	85.94
300.366	91.94
300.597	84.94
300.827	84.94
301.057	75.94
301.288	86.94
301.518	81.94
301.748	78.94
301.979	65.94
302.209	84.94
302.439	82.94
302.669	76.94
302.9	76.94
303.13	72.94
303.36	78.94
303.59	81.94
303.82	92.94
304.051	92.94
304.281	76.94
304.511	87.94
304.741	76.94
304.971	88.94
305.201	82.94
305.431	73.94
305.661	73.94
305.891	75.94
306.121	86.94
306.352	73.94
306.582	90.94
306.812	83.94
307.042	76.94
307.272	85.94
307.502	90.94
307.731	82.94
307.961	76.94
308.191	66.94
308.421	75.94
308.651	77.94
308.881	68.94
309.111	79.94
309.341	94.94
309.571	84.94
309.8	89.94
310.03	91.94
310.26	74.94
310.49	83.94
310.72	82.94
310.949	75.94
311.179	98.94
311.409	89.94
311.639	75.94
311.868	91.94
312.098	73.94
312.328	81.94
312.557	81.94
312.787	88.94
313.017	88.94
313.246	91.94
313.476	76.94
313.706	80.94
313.935	80.94
314.165	90.94
314.394	59.94
314.624	82.94
314.853	85.94
315.083	72.94
315.312	68.94
315.542	77.94
315.771	81.94
316.001	82.94
316.23	75.94
316.46	74.94
316.689	76.94
316.919	88.94
317.148	87.94
317.377	93.94
317.607	73.94
317.836	74.94
318.065	72.94
318.295	80.94
318.524	89.94
318.753	85.94
318.983	71.94
319.212	86.94
319.441	82.94
319.67	87.94
319.9	79.94
320.129	90.94
320.358	95.94
320.587	88.94
320.816	82.94
321.046	73.94
321.275	70.94
321.504	81.94
321.733	79.94
321.962	83.94
322.191	80.94
322.42	99.94
322.649	81.94
322.878	70.94
323.108	86.94
323.337	85.94
323.566	88.94
323.795	75.94
324.024	81.94
324.253	72.94
324.482	84.94
324.71	87.94
324.939	77.94
325.168	95.94
325.397	96.94
325.626	81.94
325.855	88.94
326.084	78.94
326.313	92.94
326.542	90.94
326.77	90.94
326.999	74.94
327.228	76.94
327.457	92.94
327.686	79.94
327.914	85.94
328.143	72.94
328.372	84.94
328.6	85.94
328.829	80.94
329.058	67.94
329.287	94.94
329.515	84.94
329.744	91.94
329.972	85.94
330.201	77.94
330.43	85.94
330.658	97.94
330.887	76.94
331.115	80.94
331.344	91.94
331.572	73.94
331.801	91.94
332.03	78.94
332.258	79.94
332.486	88.94
332.715	84.94
332.943	94.94
333.172	64.94
333.4	90.94
333.629	98.94
333.857	78.94
334.085	78.94
334.314	78.94
334.542	83.94
334.771	86.94
334.999	92.94
335.227	79.94
335.455	82.94
335.684	80.94
335.912	90.94
336.14	87.94
336.369	82.94
336.597	83.94
336.825	76.94
337.053	86.94
337.281	80.94
337.51	97.94
337.738	87.94
337.966	95.94
338.194	71.94
338.422	83.94
338.65	66.94
338.878	79.94
339.106	90.94
339.334	93.94
339.562	75.94
339.79	79.94
340.018	80.94
340.246	75.94
340.474	73.94
340.702	80.94
340.93	90.94
341.158	89.94
341.386	68.94
341.614	86.94
341.842	73.94
342.07	74.94
342.298	87.94
342.526	79.94
342.754	80.94
342.981	87.94
343.209	76.94
343.437	76.94
343.665	79.94
343.893	76.94
344.12	78.94
344.348	76.94
344.576	84.94
344.804	93.94
345.031	90.94
345.259	82.94
345.487	66.94
345.714	80.94
345.942	75.94
346.17	81.94
346.397	81.94
346.625	87.94
346.853	86.94
347.08	64.94
347.308	79.94
347.535	84.94
347.763	80.94
347.99	79.94
348.218	91.94
348.445	86.94
348.673	89.94
348.9	83.94
349.128	84.94
349.355	84.94
349.583	90.94
349.81	85.94
350.037	85.94
350.265	88.94
350.492	73.94
350.72	67.94
350.947	83.94
351.174	82.94
351.402	83.94
351.629	95.94
351.856	76.94
352.083	75.94
352.311	91.94
352.538	84.94
352.765	75.94
352.992	87.94
353.22	81.94
353.447	88.94
353.674	90.94
353.901	98.94
354.128	96.94
354.355	85.94
354.583	78.94
354.81	90.94
355.037	69.94
355.264	96.94
355.491	80.94
355.718	74.94
355.945	80.94
356.172	76.94
356.399	70.94
356.626	75.94
356.853	70.94
357.08	80.94
357.307	89.94
357.534	74.94
357.761	87.94
357.988	92.94
358.215	79.94
358.441	77.94
358.668	89.94
358.895	96.94
359.122	92.94
359.349	58.94
359.576	88.94
359.802	92.94
360.029	101.94
360.256	84.94
360.483	88.94
360.709	80.94
360.936	85.94
361.163	88.94
361.39	72.94
361.616	77.94
361.843	90.94
362.07	88.94
362.296	92.94
362.523	87.94
362.749	93.94
362.976	85.94
363.203	80.94
363.429	88.94
363.656	86.94
363.882	80.94
364.109	76.94
364.335	90.94
364.562	89.94
364.788	75.94
365.015	88.94
365.241	89.94
365.468	92.94
365.694	78.94
365.92	83.94
366.147	85.94
366.373	86.94
366.599	80.94
366.826	84.94
367.052	89.94
367.278	77.94
367.505	86.94
367.731	97.94
367.957	96.94
368.184	97.94
368.41	110.94
368.636	92.94
368.862	75.94
369.089	86.94
369.315	95.94
369.541	72.94
369.767	87.94
369.993	91.94
370.219	89.94
370.445	92.94
370.672	82.94
370.898	82.94
371.124	75.94
371.35	87.94
371.576	95.94
371.802	88.94
372.028	92.94
372.254	92.94
372.48	90.94
372.706	106.94
372.932	87.94
373.158	99.94
373.384	98.94
373.61	93.94
373.835	95.94
374.061	93.94
374.287	103.94
374.513	92.94
374.739	89.94
374.965	98.94
375.191	97.94
375.416	99.94
375.642	86.94
375.868	115.94
376.094	100.94
376.319	93.94
376.545	98.94
376.771	80.94
376.997	85.94
377.222	82.94
377.448	95.94
377.674	96.94
377.899	86.94
378.125	88.94
378.35	94.94
378.576	80.94
378.802	87.94
379.027	80.94
379.253	85.94
379.478	88.94
379.704	95.94
379.929	88.94
380.155	90.94
380.38	94.94
380.606	93.94
380.831	88.94
381.057	91.94
381.282	88.94
381.507	87.94
381.733	89.94
381.958	93.94
382.184	77.94
382.409	98.94
382.634	92.94
382.86	95.94
383.085	96.94
383.31	101.94
383.535	88.94
383.761	91.94
383.986	102.94
384.211	90.94
384.436	85.94
384.662	92.94
384.887	98.94
385.112	86.94
385.337	92.94
385.562	100.94
385.787	97.94
386.013	92.94
386.238	93.94
386.463	94.94
386.688	96.94
386.913	101.94
387.138	101.94
387.363	93.94
387.588	105.94
387.813	102.94
388.038	85.94
388.263	107.94
388.488	91.94
388.713	90.94
388.938	97.94
389.163	97.94
389.387	91.94
389.612	102.94
389.837	98.94
390.062	106.94
390.287	96.94
390.512	97.94
390.736	94.94
390.961	71.94
391.186	99.94
391.411	101.94
391.636	99.94
391.86	85.94
392.085	85.94
392.31	93.94
392.534	92.94
392.759	116.94
392.984	108.94
393.208	100.94
393.433	90.94
393.658	106.94
393.882	105.94
394.107	104.94
394.331	98.94
394.556	112.94
394.78	94.94
395.005	96.94
395.229	110.94
395.454	97.94
395.678	114.94
395.903	116.94
396.127	97.94
396.352	122.94
396.576	117.94
396.801	105.94
397.025	104.94
397.249	100.94
397.474	118.94
397.698	98.94
397.922	108.94
398.147	105.94
398.371	103.94
398.595	106.94
398.82	104.94
399.044	113.94
399.268	102.94
399.492	118.94
399.717	97.94
399.941	124.94
400.165	109.94
400.389	118.94
400.613	102.94
400.837	113.94
401.062	110.94
401.286	104.94
401.51	112.94
401.734	98.94
401.958	113.94
402.182	114.94
402.406	105.94
402.63	118.94
402.854	98.94
403.078	99.94
403.302	102.94
403.526	117.94
403.75	104.94
403.974	112.94
404.198	110.94
404.422	121.94
404.645	107.94
404.869	118.94
405.093	107.94
405.317	112.94
405.541	114.94
405.765	118.94
405.988	117.94
406.212	104.94
406.436	120.94
406.66	124.94
406.883	123.94
407.107	120.94
407.331	126.94
407.555	107.94
407.778	119.94
408.002	125.94
408.226	111.94
408.449	100.94
408.673	113.94
408.896	118.94
409.12	113.94
409.344	114.94
409.567	118.94
409.791	112.94
410.014	113.94
410.238	132.94
410.461	119.94
410.685	113.94
410.908	115.94
411.132	122.94
411.355	119.94
411.578	123.94
411.802	130.94
412.025	128.94
412.249	139.94
412.472	115.94
412.695	128.94
412.919	121.94
413.142	112.94
413.365	136.94
413.589	113.94
413.812	124.94
414.035	116.94
414.258	122.94
414.482	114.94
414.705	113.94
414.928	130.94
415.151	118.94
415.374	119.94
415.597	122.94
415.821	115.94
416.044	121.94
416.267	128.94
416.49	116.94
416.713	133.94
416.936	122.94
417.159	131.94
417.382	116.94
417.605	133.94
417.828	120.94
418.051	120.94
418.274	127.94
418.497	122.94
418.72	123.94
418.943	136.94
419.166	126.94
419.389	127.94
419.611	126.94
419.834	130.94
420.057	122.94
420.28	113.94
420.503	134.94
420.726	134.94
420.948	129.94
421.171	134.94
421.394	130.94
421.617	132.94
421.839	128.94
422.062	136.94
422.285	131.94
422.507	128.94
422.73	119.94
422.953	130.94
423.175	129.94
423.398	126.94
423.621	127.94
423.843	133.94
424.066	136.94
424.288	144.94
424.511	136.94
424.733	158.94
424.956	129.94
425.178	129.94
425.401	136.94
425.623	135.94
425.846	128.94
426.068	111.94
426.291	127.94
426.513	130.94
426.735	113.94
426.958	123.94
427.18	118.94
427.402	136.94
427.625	140.94
427.847	119.94
428.069	132.94
428.292	131.94
428.514	124.94
428.736	134.94
428.958	125.94
429.181	129.94
429.403	134.94
429.625	137.94
429.847	139.94
430.069	128.94
430.292	124.94
430.514	114.94
430.736	134.94
430.958	130.94
431.18	120.94
431.402	123.94
431.624	122.94
431.846	113.94
432.068	99.94
432.29	84.94
432.512	90.94
432.734	120.94
432.956	123.94
433.178	114.94
433.4	142.94
433.622	128.94
433.844	146.94
434.066	124.94
434.287	101.94
434.509	83.94
434.731	114.94
434.953	103.94
435.175	122.94
435.397	114.94
435.618	108.94
435.84	104.94
436.062	117.94
436.284	106.94
436.505	120.94
436.727	144.94
436.949	124.94
437.17	131.94
437.392	130.94
437.614	128.94
437.835	112.94
438.057	103.94
438.278	111.94
438.5	131.94
438.721	120.94
438.943	136.94
439.165	123.94
439.386	130.94
439.608	139.94
439.829	151.94
440.05	130.94
440.272	140.94
440.493	154.94
440.715	129.94
440.936	144.94
441.158	136.94
441.379	145.94
441.6	139.94
441.822	147.94
442.043	159.94
442.264	134.94
442.486	134.94
442.707	137.94
442.928	136.94
443.149	138.94
443.371	137.94
443.592	154.94
443.813	147.94
444.034	137.94
444.255	143.94
444.476	122.94
444.698	138.94
444.919	139.94
445.14	232.94
445.361	167.94
445.582	145.94
445.803	124.94
446.024	146.94
446.245	144.94
446.466	175.94
446.687	151.94
446.908	144.94
447.129	158.94
447.35	144.94
447.571	159.94
447.792	150.94
448.013	129.94
448.234	134.94
448.455	119.94
448.675	127.94
448.896	148.94
449.117	138.94
449.338	128.94
449.559	135.94
449.779	147.94
450	133.94
450.221	130.94
450.442	126.94
450.662	145.94
450.883	118.94
451.104	122.94
451.324	128.94
451.545	127.94
451.766	126.94
451.986	123.94
452.207	110.94
452.428	136.94
452.648	127.94
452.869	119.94
453.089	124.94
453.31	103.94
453.53	105.94
453.751	122.94
453.971	105.94
454.192	96.94
454.412	118.94
454.633	113.94
454.853	121.94
455.073	105.94
455.294	123.94
455.514	120.94
455.734	122.94
455.955	99.94
456.175	113.94
456.395	107.94
456.616	128.94
456.836	120.94
457.056	111.94
457.276	122.94
457.497	127.94
457.717	124.94
457.937	110.94
458.157	100.94
458.377	109.94
458.598	103.94
458.818	92.94
459.038	79.94
459.258	88.94
459.478	88.94
459.698	88.94
459.918	112.94
460.138	104.94
460.358	107.94
460.578	106.94
460.798	105.94
461.018	110.94
461.238	122.94
461.458	119.94
461.678	104.94
461.898	122.94
462.118	110.94
462.338	119.94
462.558	114.94
462.777	105.94
462.997	116.94
463.217	120.94
463.437	122.94
463.657	115.94
463.876	113.94
464.096	113.94
464.316	95.94
464.536	111.94
464.755	124.94
464.975	118.94
465.195	112.94
465.414	118.94
465.634	124.94
465.854	104.94
466.073	128.94
466.293	119.94
466.512	125.94
466.732	129.94
466.951	136.94
467.171	142.94
467.391	148.94
467.61	124.94
467.829	138.94
468.049	134.94
468.268	139.94
468.488	121.94
468.707	131.94
468.927	146.94
469.146	134.94
469.365	146.94
469.585	127.94
469.804	142.94
470.023	133.94
470.243	140.94
470.462	135.94
470.681	144.94
470.901	136.94
471.12	129.94
471.339	138.94
471.558	138.94
471.777	126.94
471.997	140.94
472.216	136.94
472.435	111.94
472.654	120.94
472.873	103.94
473.092	109.94
473.311	113.94
473.53	124.94
473.749	132.94
473.968	131.94
474.187	115.94
474.406	117.94
474.625	128.94
474.844	134.94
475.063	131.94
475.282	120.94
475.501	117.94
475.72	123.94
475.939	116.94
476.158	137.94
476.377	118.94
476.596	121.94
476.814	118.94
477.033	106.94
477.252	111.94
477.471	124.94
477.69	124.94
477.908	135.94
478.127	148.94
478.346	138.94
478.564	130.94
478.783	130.94
479.002	132.94
479.22	135.94
479.439	138.94
479.658	124.94
479.876	110.94
480.095	115.94
480.313	112.94
480.532	115.94
480.751	118.94
480.969	92.94
481.188	75.94
481.406	98.94
481.624	93.94
481.843	90.94
482.061	92.94
482.28	105.94
482.498	120.94
482.717	105.94
482.935	128.94
483.153	144.94
483.372	138.94
483.59	151.94
483.808	136.94
484.027	122.94
484.245	130.94
484.463	140.94
484.681	152.94
484.9	126.94
485.118	131.94
485.336	134.94
485.554	101.94
485.772	114.94
485.99	112.94
486.209	100.94
486.427	112.94
486.645	121.94
486.863	136.94
487.081	140.94
487.299	119.94
487.517	132.94
487.735	162.94
487.953	194.94
488.171	174.94
488.389	183.94
488.607	158.94
488.825	136.94
489.043	118.94
489.261	127.94
489.479	146.94
489.696	138.94
489.914	139.94
490.132	133.94
490.35	135.94
490.568	158.94
490.786	160.94
491.003	177.94
491.221	172.94
491.439	192.94
491.657	186.94
491.874	191.94
492.092	212.94
492.31	229.94
492.527	219.94
492.745	213.94
492.963	191.94
493.18	192.94
493.398	169.94
493.615	182.94
493.833	180.94
494.05	170.94
494.268	178.94
494.485	173.94
494.703	152.94
494.92	155.94
495.138	170.94
495.355	183.94
495.573	154.94
495.79	172.94
496.008	162.94
496.225	171.94
496.442	171.94
496.66	170.94
496.877	167.94
497.094	164.94
497.312	175.94
497.529	163.94
497.746	161.94
497.963	128.94
498.181	132.94
498.398	126.94
498.615	109.94
498.832	108.94
499.049	130.94
499.267	110.94
499.484	103.94
499.701	120.94
499.918	131.94
500.135	122.94
500.352	139.94
500.569	141.94
500.786	150.94
501.003	149.94
501.22	147.94
501.437	137.94
501.654	124.94
501.871	150.94
502.088	135.94
502.305	117.94
502.522	140.94
502.739	137.94
502.956	132.94
503.172	133.94
503.389	124.94
503.606	124.94
503.823	127.94
504.04	116.94
504.256	122.94
504.473	108.94
504.69	124.94
504.907	129.94
505.123	124.94
505.34	115.94
505.557	116.94
505.773	131.94
505.99	119.94
506.207	113.94
506.423	114.94
506.64	114.94
506.856	120.94
507.073	116.94
507.289	113.94
507.506	112.94
507.722	124.94
507.939	117.94
508.155	107.94
508.372	112.94
508.588	102.94
508.805	105.94
509.021	98.94
509.238	105.94
509.454	105.94
509.67	88.94
509.887	90.94
510.103	92.94
510.319	91.94
510.536	92.94
510.752	94.94
510.968	91.94
511.184	76.94
511.401	92.94
511.617	83.94
511.833	96.94
512.049	96.94
