Data from Location2.07152019.Energy5.Lamp.07192019.3%Agarose_HRD10591_14-57-43-358.txt Node
Date: Fri Jul 19 14:57:43 EDT 2019
User: cochatt
Spectrometer: HR+D1059
Trigger mode: 1
Integration Time (sec): 1.000000E-1
Scans to average: 1
Electric dark correction enabled: true
Nonlinearity correction enabled: false
Boxcar width: 0
XAxis mode: Wavelengths
Number of Pixels in Spectrum: 2048
>>>>>Begin Spectral Data<<<<<
223.165	-9.75
223.4	-9.75
223.635	-9.75
223.869	-21.75
224.104	-16.75
224.338	-17.75
224.573	1.25
224.808	-13.75
225.042	2.25
225.277	-5.75
225.511	-2.75
225.746	9.25
225.98	0.25
226.215	8.25
226.449	12.25
226.683	10.25
226.918	4.25
227.152	40.25
227.387	12.25
227.621	30.25
227.856	33.25
228.09	36.25
228.324	55.25
228.559	58.25
228.793	42.25
229.027	56.25
229.262	50.25
229.496	59.25
229.73	50.25
229.964	70.25
230.199	74.25
230.433	67.25
230.667	64.25
230.901	73.25
231.136	72.25
231.37	72.25
231.604	72.25
231.838	79.25
232.072	76.25
232.306	77.25
232.541	82.25
232.775	78.25
233.009	88.25
233.243	81.25
233.477	81.25
233.711	85.25
233.945	82.25
234.179	86.25
234.413	82.25
234.647	82.25
234.881	84.25
235.115	77.25
235.349	75.25
235.583	76.25
235.817	68.25
236.051	75.25
236.285	74.25
236.519	79.25
236.753	83.25
236.987	72.25
237.221	65.25
237.455	66.25
237.689	78.25
237.922	69.25
238.156	63.25
238.39	56.25
238.624	68.25
238.858	65.25
239.091	74.25
239.325	70.25
239.559	60.25
239.793	64.25
240.027	62.25
240.26	82.25
240.494	89.25
240.728	73.25
240.961	87.25
241.195	66.25
241.429	76.25
241.662	85.25
241.896	64.25
242.13	74.25
242.363	69.25
242.597	67.25
242.83	71.25
243.064	57.25
243.298	76.25
243.531	70.25
243.765	75.25
243.998	81.25
244.232	72.25
244.465	78.25
244.699	83.25
244.932	86.25
245.166	82.25
245.399	70.25
245.633	80.25
245.866	79.25
246.099	72.25
246.333	74.25
246.566	81.25
246.8	76.25
247.033	61.25
247.266	86.25
247.5	80.25
247.733	72.25
247.966	64.25
248.2	70.25
248.433	77.25
248.666	87.25
248.899	72.25
249.133	75.25
249.366	70.25
249.599	86.25
249.832	82.25
250.066	75.25
250.299	86.25
250.532	79.25
250.765	84.25
250.998	73.25
251.231	78.25
251.465	76.25
251.698	80.25
251.931	85.25
252.164	78.25
252.397	72.25
252.63	89.25
252.863	58.25
253.096	87.25
253.329	91.25
253.562	86.25
253.795	84.25
254.028	74.25
254.261	78.25
254.494	82.25
254.727	90.25
254.96	82.25
255.193	80.25
255.426	69.25
255.659	73.25
255.892	89.25
256.124	84.25
256.357	81.25
256.59	82.25
256.823	63.25
257.056	82.25
257.289	70.25
257.521	82.25
257.754	82.25
257.987	83.25
258.22	76.25
258.452	77.25
258.685	65.25
258.918	77.25
259.151	70.25
259.383	74.25
259.616	80.25
259.849	95.25
260.081	82.25
260.314	82.25
260.547	84.25
260.779	91.25
261.012	65.25
261.244	84.25
261.477	87.25
261.71	85.25
261.942	87.25
262.175	87.25
262.407	79.25
262.64	74.25
262.872	78.25
263.105	85.25
263.337	86.25
263.57	74.25
263.802	84.25
264.035	69.25
264.267	74.25
264.499	73.25
264.732	83.25
264.964	65.25
265.197	74.25
265.429	75.25
265.661	72.25
265.894	80.25
266.126	92.25
266.358	86.25
266.591	99.25
266.823	83.25
267.055	76.25
267.287	89.25
267.52	76.25
267.752	87.25
267.984	76.25
268.216	83.25
268.448	87.25
268.681	84.25
268.913	95.25
269.145	82.25
269.377	77.25
269.609	92.25
269.841	82.25
270.073	76.25
270.306	91.25
270.538	77.25
270.77	82.25
271.002	84.25
271.234	73.25
271.466	85.25
271.698	82.25
271.93	94.25
272.162	90.25
272.394	66.25
272.626	76.25
272.858	77.25
273.09	91.25
273.322	73.25
273.553	84.25
273.785	89.25
274.017	93.25
274.249	75.25
274.481	75.25
274.713	83.25
274.945	76.25
275.176	83.25
275.408	73.25
275.64	83.25
275.872	105.25
276.104	79.25
276.335	83.25
276.567	95.25
276.799	92.25
277.031	84.25
277.262	98.25
277.494	88.25
277.726	82.25
277.957	78.25
278.189	97.25
278.421	88.25
278.652	74.25
278.884	80.25
279.115	89.25
279.347	87.25
279.579	83.25
279.81	83.25
280.042	88.25
280.273	80.25
280.505	82.25
280.736	77.25
280.968	78.25
281.199	80.25
281.431	78.25
281.662	80.25
281.894	74.25
282.125	75.25
282.356	89.25
282.588	90.25
282.819	77.25
283.051	94.25
283.282	80.25
283.513	76.25
283.745	77.25
283.976	86.25
284.207	63.25
284.439	79.25
284.67	73.25
284.901	89.25
285.132	67.25
285.364	90.25
285.595	90.25
285.826	90.25
286.057	90.25
286.288	79.25
286.52	85.25
286.751	77.25
286.982	76.25
287.213	92.25
287.444	60.25
287.675	90.25
287.906	87.25
288.138	88.25
288.369	89.25
288.6	83.25
288.831	92.25
289.062	82.25
289.293	90.25
289.524	82.25
289.755	79.25
289.986	78.25
290.217	77.25
290.448	76.25
290.679	86.25
290.91	81.25
291.141	65.25
291.371	84.25
291.602	83.25
291.833	80.25
292.064	91.25
292.295	89.25
292.526	81.25
292.757	88.25
292.987	74.25
293.218	88.25
293.449	80.25
293.68	76.25
293.91	92.25
294.141	80.25
294.372	65.25
294.603	86.25
294.833	81.25
295.064	86.25
295.295	91.25
295.525	78.25
295.756	86.25
295.987	79.25
296.217	78.25
296.448	78.25
296.679	85.25
296.909	86.25
297.14	92.25
297.37	85.25
297.601	80.25
297.831	70.25
298.062	82.25
298.292	80.25
298.523	81.25
298.753	74.25
298.984	75.25
299.214	74.25
299.445	91.25
299.675	95.25
299.905	84.25
300.136	86.25
300.366	89.25
300.597	82.25
300.827	76.25
301.057	87.25
301.288	78.25
301.518	72.25
301.748	88.25
301.979	83.25
302.209	72.25
302.439	94.25
302.669	85.25
302.9	80.25
303.13	75.25
303.36	75.25
303.59	78.25
303.82	88.25
304.051	79.25
304.281	81.25
304.511	75.25
304.741	85.25
304.971	74.25
305.201	74.25
305.431	73.25
305.661	81.25
305.891	83.25
306.121	89.25
306.352	96.25
306.582	91.25
306.812	92.25
307.042	68.25
307.272	82.25
307.502	84.25
307.731	100.25
307.961	79.25
308.191	85.25
308.421	82.25
308.651	80.25
308.881	76.25
309.111	79.25
309.341	72.25
309.571	87.25
309.8	87.25
310.03	80.25
310.26	79.25
310.49	82.25
310.72	91.25
310.949	76.25
311.179	75.25
311.409	73.25
311.639	73.25
311.868	83.25
312.098	87.25
312.328	88.25
312.557	100.25
312.787	87.25
313.017	88.25
313.246	74.25
313.476	77.25
313.706	80.25
313.935	74.25
314.165	75.25
314.394	85.25
314.624	92.25
314.853	86.25
315.083	86.25
315.312	74.25
315.542	85.25
315.771	76.25
316.001	75.25
316.23	70.25
316.46	91.25
316.689	81.25
316.919	76.25
317.148	75.25
317.377	76.25
317.607	90.25
317.836	86.25
318.065	82.25
318.295	77.25
318.524	85.25
318.753	88.25
318.983	79.25
319.212	82.25
319.441	82.25
319.67	77.25
319.9	85.25
320.129	90.25
320.358	95.25
320.587	80.25
320.816	78.25
321.046	73.25
321.275	83.25
321.504	82.25
321.733	76.25
321.962	91.25
322.191	102.25
322.42	91.25
322.649	89.25
322.878	88.25
323.108	76.25
323.337	82.25
323.566	71.25
323.795	80.25
324.024	82.25
324.253	90.25
324.482	75.25
324.71	88.25
324.939	101.25
325.168	88.25
325.397	93.25
325.626	90.25
325.855	82.25
326.084	83.25
326.313	87.25
326.542	81.25
326.77	82.25
326.999	83.25
327.228	82.25
327.457	83.25
327.686	93.25
327.914	93.25
328.143	98.25
328.372	81.25
328.6	85.25
328.829	88.25
329.058	79.25
329.287	91.25
329.515	86.25
329.744	77.25
329.972	82.25
330.201	88.25
330.43	93.25
330.658	82.25
330.887	61.25
331.115	72.25
331.344	91.25
331.572	92.25
331.801	72.25
332.03	70.25
332.258	79.25
332.486	78.25
332.715	66.25
332.943	90.25
333.172	92.25
333.4	75.25
333.629	92.25
333.857	80.25
334.085	84.25
334.314	80.25
334.542	84.25
334.771	84.25
334.999	71.25
335.227	87.25
335.455	76.25
335.684	80.25
335.912	76.25
336.14	80.25
336.369	65.25
336.597	77.25
336.825	83.25
337.053	74.25
337.281	80.25
337.51	80.25
337.738	79.25
337.966	84.25
338.194	88.25
338.422	85.25
338.65	79.25
338.878	78.25
339.106	80.25
339.334	96.25
339.562	84.25
339.79	61.25
340.018	76.25
340.246	76.25
340.474	86.25
340.702	82.25
340.93	87.25
341.158	100.25
341.386	95.25
341.614	76.25
341.842	83.25
342.07	93.25
342.298	93.25
342.526	76.25
342.754	90.25
342.981	74.25
343.209	95.25
343.437	80.25
343.665	78.25
343.893	85.25
344.12	95.25
344.348	92.25
344.576	104.25
344.804	96.25
345.031	77.25
345.259	66.25
345.487	91.25
345.714	74.25
345.942	81.25
346.17	91.25
346.397	93.25
346.625	84.25
346.853	96.25
347.08	75.25
347.308	80.25
347.535	80.25
347.763	75.25
347.99	72.25
348.218	90.25
348.445	86.25
348.673	97.25
348.9	91.25
349.128	88.25
349.355	87.25
349.583	88.25
349.81	80.25
350.037	82.25
350.265	73.25
350.492	95.25
350.72	79.25
350.947	88.25
351.174	71.25
351.402	88.25
351.629	90.25
351.856	75.25
352.083	74.25
352.311	93.25
352.538	80.25
352.765	83.25
352.992	79.25
353.22	83.25
353.447	76.25
353.674	99.25
353.901	81.25
354.128	92.25
354.355	76.25
354.583	79.25
354.81	67.25
355.037	81.25
355.264	87.25
355.491	83.25
355.718	87.25
355.945	66.25
356.172	84.25
356.399	82.25
356.626	70.25
356.853	66.25
357.08	84.25
357.307	87.25
357.534	84.25
357.761	68.25
357.988	86.25
358.215	81.25
358.441	78.25
358.668	76.25
358.895	96.25
359.122	76.25
359.349	81.25
359.576	87.25
359.802	88.25
360.029	69.25
360.256	75.25
360.483	83.25
360.709	78.25
360.936	76.25
361.163	92.25
361.39	82.25
361.616	94.25
361.843	81.25
362.07	82.25
362.296	91.25
362.523	85.25
362.749	90.25
362.976	84.25
363.203	88.25
363.429	86.25
363.656	74.25
363.882	86.25
364.109	91.25
364.335	66.25
364.562	82.25
364.788	98.25
365.015	91.25
365.241	80.25
365.468	84.25
365.694	80.25
365.92	94.25
366.147	73.25
366.373	94.25
366.599	92.25
366.826	99.25
367.052	88.25
367.278	89.25
367.505	85.25
367.731	76.25
367.957	83.25
368.184	94.25
368.41	87.25
368.636	84.25
368.862	96.25
369.089	101.25
369.315	87.25
369.541	95.25
369.767	96.25
369.993	85.25
370.219	81.25
370.445	97.25
370.672	81.25
370.898	89.25
371.124	92.25
371.35	86.25
371.576	84.25
371.802	84.25
372.028	86.25
372.254	96.25
372.48	97.25
372.706	83.25
372.932	105.25
373.158	92.25
373.384	99.25
373.61	90.25
373.835	79.25
374.061	88.25
374.287	84.25
374.513	90.25
374.739	88.25
374.965	92.25
375.191	101.25
375.416	88.25
375.642	92.25
375.868	92.25
376.094	87.25
376.319	107.25
376.545	82.25
376.771	83.25
376.997	87.25
377.222	96.25
377.448	99.25
377.674	114.25
377.899	83.25
378.125	91.25
378.35	91.25
378.576	95.25
378.802	91.25
379.027	90.25
379.253	100.25
379.478	98.25
379.704	92.25
379.929	103.25
380.155	96.25
380.38	99.25
380.606	104.25
380.831	85.25
381.057	93.25
381.282	98.25
381.507	106.25
381.733	101.25
381.958	92.25
382.184	100.25
382.409	95.25
382.634	105.25
382.86	99.25
383.085	96.25
383.31	103.25
383.535	91.25
383.761	101.25
383.986	102.25
384.211	84.25
384.436	101.25
384.662	98.25
384.887	94.25
385.112	99.25
385.337	91.25
385.562	97.25
385.787	96.25
386.013	103.25
386.238	98.25
386.463	95.25
386.688	86.25
386.913	86.25
387.138	87.25
387.363	93.25
387.588	110.25
387.813	99.25
388.038	96.25
388.263	89.25
388.488	108.25
388.713	90.25
388.938	99.25
389.163	102.25
389.387	101.25
389.612	116.25
389.837	106.25
390.062	93.25
390.287	106.25
390.512	108.25
390.736	102.25
390.961	91.25
391.186	92.25
391.411	95.25
391.636	101.25
391.86	95.25
392.085	105.25
392.31	80.25
392.534	110.25
392.759	123.25
392.984	99.25
393.208	95.25
393.433	96.25
393.658	102.25
393.882	97.25
394.107	101.25
394.331	111.25
394.556	110.25
394.78	85.25
395.005	112.25
395.229	104.25
395.454	102.25
395.678	89.25
395.903	105.25
396.127	96.25
396.352	102.25
396.576	110.25
396.801	101.25
397.025	110.25
397.249	110.25
397.474	116.25
397.698	114.25
397.922	121.25
398.147	120.25
398.371	107.25
398.595	110.25
398.82	116.25
399.044	115.25
399.268	116.25
399.492	108.25
399.717	112.25
399.941	104.25
400.165	121.25
400.389	122.25
400.613	114.25
400.837	110.25
401.062	98.25
401.286	118.25
401.51	115.25
401.734	103.25
401.958	113.25
402.182	121.25
402.406	118.25
402.63	91.25
402.854	90.25
403.078	114.25
403.302	128.25
403.526	120.25
403.75	112.25
403.974	115.25
404.198	126.25
404.422	120.25
404.645	116.25
404.869	123.25
405.093	122.25
405.317	122.25
405.541	123.25
405.765	119.25
405.988	117.25
406.212	121.25
406.436	126.25
406.66	117.25
406.883	130.25
407.107	120.25
407.331	113.25
407.555	106.25
407.778	111.25
408.002	116.25
408.226	116.25
408.449	123.25
408.673	107.25
408.896	130.25
409.12	107.25
409.344	118.25
409.567	126.25
409.791	135.25
410.014	122.25
410.238	119.25
410.461	128.25
410.685	124.25
410.908	129.25
411.132	136.25
411.355	126.25
411.578	122.25
411.802	124.25
412.025	116.25
412.249	114.25
412.472	130.25
412.695	119.25
412.919	131.25
413.142	121.25
413.365	122.25
413.589	112.25
413.812	116.25
414.035	125.25
414.258	120.25
414.482	130.25
414.705	108.25
414.928	106.25
415.151	127.25
415.374	134.25
415.597	136.25
415.821	141.25
416.044	138.25
416.267	124.25
416.49	139.25
416.713	133.25
416.936	116.25
417.159	116.25
417.382	133.25
417.605	133.25
417.828	125.25
418.051	127.25
418.274	132.25
418.497	126.25
418.72	150.25
418.943	138.25
419.166	131.25
419.389	146.25
419.611	136.25
419.834	141.25
420.057	117.25
420.28	139.25
420.503	130.25
420.726	125.25
420.948	125.25
421.171	134.25
421.394	136.25
421.617	134.25
421.839	139.25
422.062	130.25
422.285	144.25
422.507	128.25
422.73	119.25
422.953	117.25
423.175	120.25
423.398	120.25
423.621	114.25
423.843	121.25
424.066	139.25
424.288	155.25
424.511	142.25
424.733	137.25
424.956	137.25
425.178	119.25
425.401	141.25
425.623	131.25
425.846	139.25
426.068	136.25
426.291	141.25
426.513	118.25
426.735	126.25
426.958	122.25
427.18	118.25
427.402	138.25
427.625	129.25
427.847	119.25
428.069	122.25
428.292	124.25
428.514	128.25
428.736	123.25
428.958	132.25
429.181	139.25
429.403	103.25
429.625	120.25
429.847	136.25
430.069	130.25
430.292	123.25
430.514	130.25
430.736	129.25
430.958	116.25
431.18	128.25
431.402	126.25
431.624	114.25
431.846	110.25
432.068	91.25
432.29	102.25
432.512	103.25
432.734	123.25
432.956	123.25
433.178	126.25
433.4	124.25
433.622	139.25
433.844	131.25
434.066	119.25
434.287	126.25
434.509	99.25
434.731	99.25
434.953	121.25
435.175	131.25
435.397	133.25
435.618	125.25
435.84	128.25
436.062	117.25
436.284	120.25
436.505	115.25
436.727	122.25
436.949	130.25
437.17	130.25
437.392	130.25
437.614	129.25
437.835	123.25
438.057	109.25
438.278	108.25
438.5	110.25
438.721	135.25
438.943	149.25
439.165	134.25
439.386	169.25
439.608	131.25
439.829	140.25
440.05	158.25
440.272	148.25
440.493	119.25
440.715	134.25
440.936	149.25
441.158	144.25
441.379	144.25
441.6	139.25
441.822	168.25
442.043	146.25
442.264	144.25
442.486	128.25
442.707	141.25
442.928	144.25
443.149	134.25
443.371	134.25
443.592	140.25
443.813	128.25
444.034	154.25
444.255	131.25
444.476	132.25
444.698	136.25
444.919	130.25
445.14	229.25
445.361	186.25
445.582	149.25
445.803	133.25
446.024	132.25
446.245	139.25
446.466	152.25
446.687	144.25
446.908	172.25
447.129	132.25
447.35	140.25
447.571	155.25
447.792	131.25
448.013	152.25
448.234	150.25
448.455	143.25
448.675	150.25
448.896	135.25
449.117	130.25
449.338	137.25
449.559	135.25
449.779	137.25
450	124.25
450.221	121.25
450.442	130.25
450.662	144.25
450.883	135.25
451.104	157.25
451.324	137.25
451.545	107.25
451.766	130.25
451.986	114.25
452.207	127.25
452.428	116.25
452.648	116.25
452.869	133.25
453.089	132.25
453.31	117.25
453.53	98.25
453.751	99.25
453.971	102.25
454.192	113.25
454.412	103.25
454.633	116.25
454.853	125.25
455.073	118.25
455.294	148.25
455.514	122.25
455.734	124.25
455.955	114.25
456.175	113.25
456.395	99.25
456.616	105.25
456.836	115.25
457.056	118.25
457.276	123.25
457.497	104.25
457.717	99.25
457.937	104.25
458.157	104.25
458.377	107.25
458.598	96.25
458.818	92.25
459.038	87.25
459.258	78.25
459.478	100.25
459.698	99.25
459.918	90.25
460.138	99.25
460.358	111.25
460.578	131.25
460.798	113.25
461.018	106.25
461.238	106.25
461.458	128.25
461.678	103.25
461.898	114.25
462.118	112.25
462.338	118.25
462.558	104.25
462.777	98.25
462.997	108.25
463.217	100.25
463.437	107.25
463.657	103.25
463.876	103.25
464.096	106.25
464.316	104.25
464.536	94.25
464.755	120.25
464.975	113.25
465.195	118.25
465.414	114.25
465.634	108.25
465.854	122.25
466.073	109.25
466.293	139.25
466.512	110.25
466.732	129.25
466.951	134.25
467.171	119.25
467.391	131.25
467.61	132.25
467.829	126.25
468.049	146.25
468.268	135.25
468.488	130.25
468.707	138.25
468.927	122.25
469.146	128.25
469.365	140.25
469.585	144.25
469.804	131.25
470.023	126.25
470.243	136.25
470.462	139.25
470.681	146.25
470.901	130.25
471.12	146.25
471.339	163.25
471.558	133.25
471.777	144.25
471.997	150.25
472.216	135.25
472.435	119.25
472.654	125.25
472.873	116.25
473.092	112.25
473.311	120.25
473.53	122.25
473.749	127.25
473.968	130.25
474.187	134.25
474.406	106.25
474.625	120.25
474.844	125.25
475.063	130.25
475.282	126.25
475.501	111.25
475.72	115.25
475.939	116.25
476.158	139.25
476.377	128.25
476.596	120.25
476.814	118.25
477.033	102.25
477.252	104.25
477.471	113.25
477.69	121.25
477.908	139.25
478.127	140.25
478.346	138.25
478.564	124.25
478.783	136.25
479.002	132.25
479.22	123.25
479.439	123.25
479.658	131.25
479.876	95.25
480.095	118.25
480.313	123.25
480.532	110.25
480.751	105.25
480.969	92.25
481.188	96.25
481.406	87.25
481.624	80.25
481.843	85.25
482.061	103.25
482.28	120.25
482.498	109.25
482.717	118.25
482.935	105.25
483.153	148.25
483.372	144.25
483.59	149.25
483.808	124.25
484.027	129.25
484.245	124.25
484.463	147.25
484.681	144.25
484.9	140.25
485.118	133.25
485.336	129.25
485.554	116.25
485.772	107.25
485.99	99.25
486.209	125.25
486.427	98.25
486.645	92.25
486.863	135.25
487.081	136.25
487.299	127.25
487.517	139.25
487.735	153.25
487.953	172.25
488.171	178.25
488.389	180.25
488.607	162.25
488.825	148.25
489.043	129.25
489.261	135.25
489.479	133.25
489.696	141.25
489.914	150.25
490.132	131.25
490.35	169.25
490.568	151.25
490.786	153.25
491.003	160.25
491.221	177.25
491.439	183.25
491.657	190.25
491.874	216.25
492.092	209.25
492.31	234.25
492.527	228.25
492.745	197.25
492.963	192.25
493.18	184.25
493.398	184.25
493.615	194.25
493.833	168.25
494.05	170.25
494.268	164.25
494.485	168.25
494.703	171.25
494.92	161.25
495.138	165.25
495.355	159.25
495.573	170.25
495.79	157.25
496.008	163.25
496.225	175.25
496.442	160.25
496.66	161.25
496.877	166.25
497.094	174.25
497.312	168.25
497.529	147.25
497.746	154.25
497.963	154.25
498.181	145.25
498.398	130.25
498.615	118.25
498.832	118.25
499.049	98.25
499.267	124.25
499.484	116.25
499.701	130.25
499.918	130.25
500.135	141.25
500.352	135.25
500.569	146.25
500.786	132.25
501.003	147.25
501.22	130.25
501.437	134.25
501.654	149.25
501.871	137.25
502.088	130.25
502.305	140.25
502.522	115.25
502.739	121.25
502.956	123.25
503.172	117.25
503.389	120.25
503.606	114.25
503.823	120.25
504.04	115.25
504.256	114.25
504.473	132.25
504.69	117.25
504.907	122.25
505.123	113.25
505.34	129.25
505.557	122.25
505.773	123.25
505.99	138.25
506.207	126.25
506.423	105.25
506.64	124.25
506.856	120.25
507.073	114.25
507.289	132.25
507.506	122.25
507.722	113.25
507.939	124.25
508.155	117.25
508.372	123.25
508.588	97.25
508.805	111.25
509.021	116.25
509.238	101.25
509.454	105.25
509.67	90.25
509.887	104.25
510.103	97.25
510.319	98.25
510.536	91.25
510.752	97.25
510.968	90.25
511.184	79.25
511.401	80.25
511.617	91.25
511.833	81.25
512.049	83.25
