Data from Location2.07152019.Energy5.Lamp.07192019.3%Agarose_HRD10591_14-58-25-360.txt Node
Date: Fri Jul 19 14:58:25 EDT 2019
User: cochatt
Spectrometer: HR+D1059
Trigger mode: 1
Integration Time (sec): 1.000000E-1
Scans to average: 1
Electric dark correction enabled: true
Nonlinearity correction enabled: false
Boxcar width: 0
XAxis mode: Wavelengths
Number of Pixels in Spectrum: 2048
>>>>>Begin Spectral Data<<<<<
223.165	-5.5
223.4	-5.5
223.635	-5.5
223.869	-18.5
224.104	-18.5
224.338	-8.5
224.573	-12.5
224.808	-11.5
225.042	-11.5
225.277	1.5
225.511	-9.5
225.746	0.5
225.98	5.5
226.215	0.5
226.449	8.5
226.683	18.5
226.918	39.5
227.152	21.5
227.387	34.5
227.621	30.5
227.856	46.5
228.09	51.5
228.324	53.5
228.559	61.5
228.793	65.5
229.027	60.5
229.262	65.5
229.496	82.5
229.73	70.5
229.964	73.5
230.199	64.5
230.433	71.5
230.667	71.5
230.901	76.5
231.136	88.5
231.37	82.5
231.604	76.5
231.838	86.5
232.072	97.5
232.306	84.5
232.541	83.5
232.775	79.5
233.009	94.5
233.243	79.5
233.477	95.5
233.711	87.5
233.945	95.5
234.179	92.5
234.413	93.5
234.647	82.5
234.881	81.5
235.115	79.5
235.349	86.5
235.583	78.5
235.817	78.5
236.051	84.5
236.285	83.5
236.519	72.5
236.753	91.5
236.987	70.5
237.221	74.5
237.455	93.5
237.689	75.5
237.922	86.5
238.156	83.5
238.39	72.5
238.624	84.5
238.858	76.5
239.091	83.5
239.325	77.5
239.559	82.5
239.793	88.5
240.027	79.5
240.26	75.5
240.494	84.5
240.728	80.5
240.961	83.5
241.195	82.5
241.429	82.5
241.662	85.5
241.896	94.5
242.13	87.5
242.363	75.5
242.597	70.5
242.83	87.5
243.064	84.5
243.298	75.5
243.531	69.5
243.765	81.5
243.998	79.5
244.232	88.5
244.465	77.5
244.699	87.5
244.932	82.5
245.166	74.5
245.399	92.5
245.633	80.5
245.866	86.5
246.099	89.5
246.333	75.5
246.566	84.5
246.8	76.5
247.033	81.5
247.266	84.5
247.5	76.5
247.733	75.5
247.966	91.5
248.2	74.5
248.433	79.5
248.666	83.5
248.899	76.5
249.133	61.5
249.366	84.5
249.599	86.5
249.832	80.5
250.066	87.5
250.299	83.5
250.532	77.5
250.765	86.5
250.998	88.5
251.231	89.5
251.465	75.5
251.698	82.5
251.931	70.5
252.164	81.5
252.397	82.5
252.63	72.5
252.863	96.5
253.096	79.5
253.329	87.5
253.562	75.5
253.795	87.5
254.028	72.5
254.261	77.5
254.494	90.5
254.727	77.5
254.96	88.5
255.193	89.5
255.426	89.5
255.659	70.5
255.892	86.5
256.124	88.5
256.357	70.5
256.59	77.5
256.823	76.5
257.056	90.5
257.289	88.5
257.521	79.5
257.754	77.5
257.987	78.5
258.22	82.5
258.452	83.5
258.685	71.5
258.918	77.5
259.151	78.5
259.383	85.5
259.616	67.5
259.849	80.5
260.081	85.5
260.314	91.5
260.547	75.5
260.779	75.5
261.012	83.5
261.244	85.5
261.477	83.5
261.71	78.5
261.942	83.5
262.175	72.5
262.407	77.5
262.64	68.5
262.872	86.5
263.105	74.5
263.337	86.5
263.57	94.5
263.802	79.5
264.035	86.5
264.267	73.5
264.499	74.5
264.732	85.5
264.964	84.5
265.197	86.5
265.429	81.5
265.661	77.5
265.894	89.5
266.126	88.5
266.358	81.5
266.591	84.5
266.823	82.5
267.055	84.5
267.287	82.5
267.52	79.5
267.752	69.5
267.984	73.5
268.216	75.5
268.448	73.5
268.681	88.5
268.913	78.5
269.145	76.5
269.377	92.5
269.609	87.5
269.841	87.5
270.073	78.5
270.306	88.5
270.538	74.5
270.77	81.5
271.002	94.5
271.234	80.5
271.466	76.5
271.698	84.5
271.93	81.5
272.162	79.5
272.394	76.5
272.626	75.5
272.858	90.5
273.09	86.5
273.322	88.5
273.553	84.5
273.785	79.5
274.017	89.5
274.249	70.5
274.481	73.5
274.713	77.5
274.945	82.5
275.176	83.5
275.408	107.5
275.64	69.5
275.872	85.5
276.104	77.5
276.335	86.5
276.567	88.5
276.799	96.5
277.031	78.5
277.262	72.5
277.494	80.5
277.726	91.5
277.957	91.5
278.189	86.5
278.421	79.5
278.652	74.5
278.884	92.5
279.115	84.5
279.347	81.5
279.579	81.5
279.81	88.5
280.042	78.5
280.273	86.5
280.505	78.5
280.736	89.5
280.968	93.5
281.199	85.5
281.431	88.5
281.662	85.5
281.894	81.5
282.125	78.5
282.356	78.5
282.588	81.5
282.819	88.5
283.051	81.5
283.282	86.5
283.513	87.5
283.745	77.5
283.976	89.5
284.207	70.5
284.439	88.5
284.67	86.5
284.901	93.5
285.132	75.5
285.364	91.5
285.595	89.5
285.826	82.5
286.057	83.5
286.288	81.5
286.52	85.5
286.751	85.5
286.982	78.5
287.213	80.5
287.444	90.5
287.675	88.5
287.906	105.5
288.138	78.5
288.369	87.5
288.6	77.5
288.831	85.5
289.062	92.5
289.293	78.5
289.524	96.5
289.755	72.5
289.986	80.5
290.217	79.5
290.448	100.5
290.679	78.5
290.91	96.5
291.141	93.5
291.371	90.5
291.602	78.5
291.833	75.5
292.064	84.5
292.295	83.5
292.526	81.5
292.757	73.5
292.987	84.5
293.218	90.5
293.449	76.5
293.68	84.5
293.91	96.5
294.141	89.5
294.372	70.5
294.603	78.5
294.833	94.5
295.064	76.5
295.295	97.5
295.525	81.5
295.756	79.5
295.987	74.5
296.217	84.5
296.448	77.5
296.679	87.5
296.909	70.5
297.14	74.5
297.37	75.5
297.601	82.5
297.831	80.5
298.062	91.5
298.292	70.5
298.523	100.5
298.753	94.5
298.984	94.5
299.214	85.5
299.445	89.5
299.675	77.5
299.905	80.5
300.136	89.5
300.366	85.5
300.597	81.5
300.827	69.5
301.057	85.5
301.288	84.5
301.518	93.5
301.748	92.5
301.979	82.5
302.209	73.5
302.439	96.5
302.669	82.5
302.9	84.5
303.13	80.5
303.36	99.5
303.59	82.5
303.82	75.5
304.051	73.5
304.281	90.5
304.511	89.5
304.741	79.5
304.971	72.5
305.201	87.5
305.431	83.5
305.661	88.5
305.891	83.5
306.121	92.5
306.352	84.5
306.582	71.5
306.812	89.5
307.042	93.5
307.272	71.5
307.502	80.5
307.731	81.5
307.961	99.5
308.191	99.5
308.421	82.5
308.651	74.5
308.881	86.5
309.111	96.5
309.341	92.5
309.571	82.5
309.8	84.5
310.03	80.5
310.26	81.5
310.49	94.5
310.72	77.5
310.949	84.5
311.179	90.5
311.409	75.5
311.639	81.5
311.868	83.5
312.098	90.5
312.328	74.5
312.557	81.5
312.787	86.5
313.017	89.5
313.246	78.5
313.476	80.5
313.706	84.5
313.935	76.5
314.165	88.5
314.394	99.5
314.624	74.5
314.853	78.5
315.083	92.5
315.312	84.5
315.542	91.5
315.771	95.5
316.001	81.5
316.23	88.5
316.46	97.5
316.689	87.5
316.919	88.5
317.148	89.5
317.377	92.5
317.607	83.5
317.836	104.5
318.065	77.5
318.295	85.5
318.524	83.5
318.753	89.5
318.983	88.5
319.212	94.5
319.441	96.5
319.67	92.5
319.9	87.5
320.129	83.5
320.358	83.5
320.587	77.5
320.816	81.5
321.046	96.5
321.275	98.5
321.504	77.5
321.733	72.5
321.962	80.5
322.191	97.5
322.42	89.5
322.649	91.5
322.878	89.5
323.108	87.5
323.337	76.5
323.566	94.5
323.795	78.5
324.024	101.5
324.253	81.5
324.482	76.5
324.71	90.5
324.939	84.5
325.168	92.5
325.397	79.5
325.626	84.5
325.855	75.5
326.084	76.5
326.313	88.5
326.542	84.5
326.77	87.5
326.999	77.5
327.228	68.5
327.457	79.5
327.686	85.5
327.914	82.5
328.143	72.5
328.372	73.5
328.6	82.5
328.829	94.5
329.058	99.5
329.287	75.5
329.515	89.5
329.744	80.5
329.972	85.5
330.201	77.5
330.43	80.5
330.658	98.5
330.887	96.5
331.115	92.5
331.344	81.5
331.572	97.5
331.801	87.5
332.03	84.5
332.258	89.5
332.486	88.5
332.715	97.5
332.943	78.5
333.172	87.5
333.4	88.5
333.629	82.5
333.857	78.5
334.085	85.5
334.314	95.5
334.542	91.5
334.771	75.5
334.999	89.5
335.227	85.5
335.455	78.5
335.684	88.5
335.912	101.5
336.14	85.5
336.369	93.5
336.597	71.5
336.825	72.5
337.053	77.5
337.281	89.5
337.51	89.5
337.738	86.5
337.966	88.5
338.194	87.5
338.422	76.5
338.65	85.5
338.878	89.5
339.106	97.5
339.334	96.5
339.562	95.5
339.79	92.5
340.018	82.5
340.246	82.5
340.474	77.5
340.702	92.5
340.93	98.5
341.158	81.5
341.386	83.5
341.614	87.5
341.842	88.5
342.07	89.5
342.298	85.5
342.526	100.5
342.754	88.5
342.981	83.5
343.209	91.5
343.437	83.5
343.665	96.5
343.893	93.5
344.12	91.5
344.348	87.5
344.576	84.5
344.804	85.5
345.031	82.5
345.259	91.5
345.487	87.5
345.714	97.5
345.942	81.5
346.17	85.5
346.397	82.5
346.625	85.5
346.853	81.5
347.08	68.5
347.308	87.5
347.535	94.5
347.763	87.5
347.99	88.5
348.218	89.5
348.445	76.5
348.673	102.5
348.9	88.5
349.128	89.5
349.355	85.5
349.583	84.5
349.81	72.5
350.037	90.5
350.265	86.5
350.492	102.5
350.72	77.5
350.947	84.5
351.174	99.5
351.402	81.5
351.629	95.5
351.856	90.5
352.083	71.5
352.311	88.5
352.538	81.5
352.765	84.5
352.992	98.5
353.22	88.5
353.447	88.5
353.674	89.5
353.901	83.5
354.128	77.5
354.355	81.5
354.583	90.5
354.81	79.5
355.037	90.5
355.264	89.5
355.491	79.5
355.718	93.5
355.945	80.5
356.172	75.5
356.399	88.5
356.626	83.5
356.853	86.5
357.08	84.5
357.307	73.5
357.534	80.5
357.761	79.5
357.988	88.5
358.215	69.5
358.441	89.5
358.668	84.5
358.895	86.5
359.122	82.5
359.349	78.5
359.576	81.5
359.802	78.5
360.029	84.5
360.256	90.5
360.483	79.5
360.709	82.5
360.936	91.5
361.163	77.5
361.39	79.5
361.616	83.5
361.843	76.5
362.07	97.5
362.296	77.5
362.523	85.5
362.749	98.5
362.976	84.5
363.203	84.5
363.429	81.5
363.656	75.5
363.882	82.5
364.109	89.5
364.335	82.5
364.562	79.5
364.788	98.5
365.015	76.5
365.241	71.5
365.468	90.5
365.694	76.5
365.92	76.5
366.147	91.5
366.373	73.5
366.599	94.5
366.826	82.5
367.052	81.5
367.278	83.5
367.505	87.5
367.731	88.5
367.957	84.5
368.184	81.5
368.41	85.5
368.636	94.5
368.862	78.5
369.089	94.5
369.315	98.5
369.541	92.5
369.767	91.5
369.993	78.5
370.219	88.5
370.445	82.5
370.672	82.5
370.898	91.5
371.124	84.5
371.35	91.5
371.576	89.5
371.802	99.5
372.028	83.5
372.254	90.5
372.48	98.5
372.706	84.5
372.932	85.5
373.158	101.5
373.384	93.5
373.61	93.5
373.835	99.5
374.061	83.5
374.287	84.5
374.513	95.5
374.739	93.5
374.965	83.5
375.191	96.5
375.416	113.5
375.642	91.5
375.868	111.5
376.094	90.5
376.319	92.5
376.545	83.5
376.771	81.5
376.997	88.5
377.222	86.5
377.448	96.5
377.674	112.5
377.899	101.5
378.125	107.5
378.35	92.5
378.576	77.5
378.802	109.5
379.027	98.5
379.253	101.5
379.478	84.5
379.704	102.5
379.929	109.5
380.155	83.5
380.38	100.5
380.606	93.5
380.831	102.5
381.057	113.5
381.282	92.5
381.507	101.5
381.733	84.5
381.958	94.5
382.184	106.5
382.409	99.5
382.634	107.5
382.86	97.5
383.085	100.5
383.31	92.5
383.535	92.5
383.761	87.5
383.986	95.5
384.211	94.5
384.436	92.5
384.662	93.5
384.887	105.5
385.112	93.5
385.337	94.5
385.562	96.5
385.787	100.5
386.013	108.5
386.238	116.5
386.463	102.5
386.688	103.5
386.913	107.5
387.138	103.5
387.363	100.5
387.588	118.5
387.813	112.5
388.038	96.5
388.263	100.5
388.488	78.5
388.713	94.5
388.938	103.5
389.163	101.5
389.387	107.5
389.612	99.5
389.837	100.5
390.062	107.5
390.287	91.5
390.512	99.5
390.736	104.5
390.961	100.5
391.186	114.5
391.411	104.5
391.636	113.5
391.86	116.5
392.085	105.5
392.31	88.5
392.534	123.5
392.759	96.5
392.984	101.5
393.208	102.5
393.433	104.5
393.658	101.5
393.882	103.5
394.107	109.5
394.331	104.5
394.556	109.5
394.78	110.5
395.005	121.5
395.229	96.5
395.454	116.5
395.678	102.5
395.903	122.5
396.127	114.5
396.352	106.5
396.576	97.5
396.801	114.5
397.025	105.5
397.249	113.5
397.474	116.5
397.698	108.5
397.922	116.5
398.147	104.5
398.371	105.5
398.595	109.5
398.82	96.5
399.044	99.5
399.268	101.5
399.492	113.5
399.717	106.5
399.941	112.5
400.165	107.5
400.389	118.5
400.613	116.5
400.837	107.5
401.062	116.5
401.286	95.5
401.51	113.5
401.734	108.5
401.958	116.5
402.182	103.5
402.406	115.5
402.63	109.5
402.854	101.5
403.078	113.5
403.302	123.5
403.526	104.5
403.75	126.5
403.974	116.5
404.198	114.5
404.422	122.5
404.645	120.5
404.869	120.5
405.093	116.5
405.317	111.5
405.541	125.5
405.765	109.5
405.988	116.5
406.212	127.5
406.436	120.5
406.66	121.5
406.883	113.5
407.107	134.5
407.331	140.5
407.555	128.5
407.778	111.5
408.002	104.5
408.226	103.5
408.449	122.5
408.673	109.5
408.896	118.5
409.12	120.5
409.344	104.5
409.567	118.5
409.791	110.5
410.014	111.5
410.238	116.5
410.461	115.5
410.685	117.5
410.908	130.5
411.132	123.5
411.355	128.5
411.578	128.5
411.802	122.5
412.025	117.5
412.249	126.5
412.472	118.5
412.695	101.5
412.919	124.5
413.142	113.5
413.365	128.5
413.589	132.5
413.812	128.5
414.035	119.5
414.258	123.5
414.482	128.5
414.705	128.5
414.928	123.5
415.151	127.5
415.374	122.5
415.597	130.5
415.821	120.5
416.044	123.5
416.267	125.5
416.49	128.5
416.713	120.5
416.936	121.5
417.159	124.5
417.382	116.5
417.605	137.5
417.828	136.5
418.051	125.5
418.274	127.5
418.497	124.5
418.72	124.5
418.943	138.5
419.166	142.5
419.389	131.5
419.611	126.5
419.834	120.5
420.057	121.5
420.28	135.5
420.503	123.5
420.726	139.5
420.948	126.5
421.171	123.5
421.394	145.5
421.617	126.5
421.839	129.5
422.062	148.5
422.285	138.5
422.507	113.5
422.73	118.5
422.953	129.5
423.175	132.5
423.398	116.5
423.621	151.5
423.843	108.5
424.066	125.5
424.288	147.5
424.511	152.5
424.733	141.5
424.956	130.5
425.178	140.5
425.401	132.5
425.623	135.5
425.846	130.5
426.068	139.5
426.291	127.5
426.513	132.5
426.735	134.5
426.958	130.5
427.18	131.5
427.402	122.5
427.625	130.5
427.847	146.5
428.069	139.5
428.292	137.5
428.514	123.5
428.736	120.5
428.958	116.5
429.181	125.5
429.403	125.5
429.625	122.5
429.847	137.5
430.069	117.5
430.292	141.5
430.514	121.5
430.736	134.5
430.958	132.5
431.18	135.5
431.402	126.5
431.624	127.5
431.846	99.5
432.068	102.5
432.29	100.5
432.512	111.5
432.734	114.5
432.956	130.5
433.178	120.5
433.4	134.5
433.622	126.5
433.844	137.5
434.066	132.5
434.287	105.5
434.509	92.5
434.731	113.5
434.953	126.5
435.175	119.5
435.397	128.5
435.618	130.5
435.84	106.5
436.062	113.5
436.284	132.5
436.505	140.5
436.727	123.5
436.949	126.5
437.17	127.5
437.392	132.5
437.614	132.5
437.835	118.5
438.057	118.5
438.278	118.5
438.5	105.5
438.721	121.5
438.943	135.5
439.165	145.5
439.386	138.5
439.608	140.5
439.829	128.5
440.05	150.5
440.272	152.5
440.493	153.5
440.715	139.5
440.936	144.5
441.158	140.5
441.379	146.5
441.6	152.5
441.822	132.5
442.043	148.5
442.264	144.5
442.486	137.5
442.707	153.5
442.928	130.5
443.149	140.5
443.371	153.5
443.592	146.5
443.813	136.5
444.034	125.5
444.255	144.5
444.476	141.5
444.698	150.5
444.919	130.5
445.14	222.5
445.361	199.5
445.582	149.5
445.803	132.5
446.024	139.5
446.245	145.5
446.466	163.5
446.687	150.5
446.908	161.5
447.129	153.5
447.35	146.5
447.571	146.5
447.792	144.5
448.013	145.5
448.234	138.5
448.455	149.5
448.675	140.5
448.896	138.5
449.117	128.5
449.338	138.5
449.559	132.5
449.779	137.5
450	133.5
450.221	139.5
450.442	132.5
450.662	129.5
450.883	141.5
451.104	128.5
451.324	132.5
451.545	133.5
451.766	130.5
451.986	136.5
452.207	120.5
452.428	116.5
452.648	133.5
452.869	124.5
453.089	122.5
453.31	105.5
453.53	99.5
453.751	109.5
453.971	97.5
454.192	116.5
454.412	118.5
454.633	110.5
454.853	110.5
455.073	130.5
455.294	116.5
455.514	129.5
455.734	122.5
455.955	109.5
456.175	125.5
456.395	101.5
456.616	100.5
456.836	118.5
457.056	108.5
457.276	112.5
457.497	111.5
457.717	101.5
457.937	116.5
458.157	117.5
458.377	113.5
458.598	96.5
458.818	90.5
459.038	87.5
459.258	89.5
459.478	93.5
459.698	95.5
459.918	87.5
460.138	103.5
460.358	113.5
460.578	115.5
460.798	116.5
461.018	107.5
461.238	130.5
461.458	122.5
461.678	110.5
461.898	121.5
462.118	112.5
462.338	101.5
462.558	114.5
462.777	105.5
462.997	114.5
463.217	120.5
463.437	98.5
463.657	129.5
463.876	104.5
464.096	119.5
464.316	98.5
464.536	104.5
464.755	122.5
464.975	103.5
465.195	112.5
465.414	128.5
465.634	125.5
465.854	117.5
466.073	125.5
466.293	112.5
466.512	128.5
466.732	120.5
466.951	132.5
467.171	130.5
467.391	140.5
467.61	128.5
467.829	131.5
468.049	140.5
468.268	125.5
468.488	133.5
468.707	129.5
468.927	126.5
469.146	139.5
469.365	142.5
469.585	139.5
469.804	124.5
470.023	131.5
470.243	138.5
470.462	156.5
470.681	143.5
470.901	140.5
471.12	132.5
471.339	132.5
471.558	123.5
471.777	139.5
471.997	152.5
472.216	132.5
472.435	118.5
472.654	103.5
472.873	93.5
473.092	122.5
473.311	121.5
473.53	125.5
473.749	131.5
473.968	135.5
474.187	129.5
474.406	120.5
474.625	123.5
474.844	144.5
475.063	128.5
475.282	123.5
475.501	125.5
475.72	127.5
475.939	123.5
476.158	143.5
476.377	136.5
476.596	112.5
476.814	103.5
477.033	100.5
477.252	114.5
477.471	126.5
477.69	123.5
477.908	131.5
478.127	140.5
478.346	132.5
478.564	146.5
478.783	125.5
479.002	137.5
479.22	136.5
479.439	133.5
479.658	132.5
479.876	100.5
480.095	108.5
480.313	116.5
480.532	119.5
480.751	108.5
480.969	98.5
481.188	91.5
481.406	86.5
481.624	97.5
481.843	102.5
482.061	84.5
482.28	121.5
482.498	119.5
482.717	108.5
482.935	112.5
483.153	139.5
483.372	148.5
483.59	150.5
483.808	145.5
484.027	134.5
484.245	130.5
484.463	144.5
484.681	157.5
484.9	154.5
485.118	137.5
485.336	118.5
485.554	124.5
485.772	102.5
485.99	100.5
486.209	118.5
486.427	105.5
486.645	138.5
486.863	140.5
487.081	121.5
487.299	110.5
487.517	138.5
487.735	158.5
487.953	198.5
488.171	183.5
488.389	173.5
488.607	162.5
488.825	138.5
489.043	134.5
489.261	129.5
489.479	148.5
489.696	151.5
489.914	140.5
490.132	139.5
490.35	152.5
490.568	156.5
490.786	173.5
491.003	174.5
491.221	185.5
491.439	192.5
491.657	193.5
491.874	204.5
492.092	231.5
492.31	229.5
492.527	224.5
492.745	219.5
492.963	209.5
493.18	188.5
493.398	183.5
493.615	169.5
493.833	187.5
494.05	176.5
494.268	162.5
494.485	170.5
494.703	173.5
494.92	173.5
495.138	167.5
495.355	182.5
495.573	189.5
495.79	163.5
496.008	164.5
496.225	170.5
496.442	158.5
496.66	170.5
496.877	175.5
497.094	159.5
497.312	176.5
497.529	176.5
497.746	152.5
497.963	147.5
498.181	140.5
498.398	125.5
498.615	109.5
498.832	108.5
499.049	124.5
499.267	118.5
499.484	128.5
499.701	124.5
499.918	134.5
500.135	128.5
500.352	138.5
500.569	137.5
500.786	141.5
501.003	143.5
501.22	151.5
501.437	132.5
501.654	142.5
501.871	137.5
502.088	143.5
502.305	123.5
502.522	128.5
502.739	126.5
502.956	125.5
503.172	128.5
503.389	119.5
503.606	120.5
503.823	118.5
504.04	120.5
504.256	112.5
504.473	126.5
504.69	132.5
504.907	131.5
505.123	131.5
505.34	133.5
505.557	115.5
505.773	119.5
505.99	122.5
506.207	132.5
506.423	119.5
506.64	124.5
506.856	114.5
507.073	122.5
507.289	123.5
507.506	129.5
507.722	112.5
507.939	107.5
508.155	134.5
508.372	128.5
508.588	113.5
508.805	109.5
509.021	107.5
509.238	104.5
509.454	114.5
509.67	115.5
509.887	90.5
510.103	82.5
510.319	101.5
510.536	90.5
510.752	76.5
510.968	88.5
511.184	85.5
511.401	86.5
511.617	90.5
511.833	81.5
512.049	93.5
512.265	90.5
512.481	83.5
512.698	80.5
512.914	90.5
513.13	104.5
513.346	86.5
513.562	92.5
513.778	101.5
513.994	77.5
514.21	90.5
514.426	104.5
514.642	76.5
514.858	72.5
515.074	84.5
515.29	100.5
515.506	85.5
515.721	94.5
515.937	101.5
516.153	91.5
516.369	81.5
516.585	83.5
516.801	95.5
517.016	80.5
517.232	100.5
517.448	95.5
517.664	98.5
517.879	96.5
518.095	101.5
518.311	97.5
518.527	93.5
518.742	88.5
518.958	105.5
519.173	89.5
519.389	101.5
519.605	105.5
519.82	110.5
520.036	102.5
520.251	102.5
520.467	111.5
520.682	92.5
520.898	91.5
521.113	93.5
521.329	97.5
521.544	90.5
521.76	98.5
521.975	97.5
522.19	104.5
522.406	99.5
522.621	103.5
522.836	109.5
523.052	105.5
523.267	109.5
523.482	115.5
523.698	114.5
523.913	112.5
524.128	115.5
524.343	110.5
524.559	130.5
524.774	127.5
524.989	117.5
525.204	110.5
525.419	116.5
525.634	119.5
525.849	108.5
526.064	106.5
526.28	112.5
526.495	84.5
526.71	90.5
526.925	84.5
527.14	82.5
527.355	100.5
527.57	75.5
527.785	79.5
527.999	107.5
528.214	102.5
528.429	121.5
528.644	128.5
528.859	134.5
529.074	141.5
529.289	158.5
529.503	156.5
529.718	131.5
529.933	117.5
530.148	121.5
530.363	100.5
530.577	76.5
