Data from Location2.07152019.Energy5.Lamp.07192019.3%Agarose_HRD10591_14-56-15-359.txt Node
Date: Fri Jul 19 14:56:15 EDT 2019
User: cochatt
Spectrometer: HR+D1059
Trigger mode: 1
Integration Time (sec): 1.000000E-1
Scans to average: 1
Electric dark correction enabled: true
Nonlinearity correction enabled: false
Boxcar width: 0
XAxis mode: Wavelengths
Number of Pixels in Spectrum: 2048
>>>>>Begin Spectral Data<<<<<
223.165	-12.12
223.4	-12.12
223.635	-12.12
223.869	-3.12
224.104	-25.12
224.338	-23.12
224.573	-9.12
224.808	-3.12
225.042	-0.12
225.277	-10.12
225.511	-3.12
225.746	6.88
225.98	11.88
226.215	3.88
226.449	17.88
226.683	16.88
226.918	12.88
227.152	18.88
227.387	33.88
227.621	39.88
227.856	43.88
228.09	36.88
228.324	36.88
228.559	55.88
228.793	43.88
229.027	61.88
229.262	63.88
229.496	57.88
229.73	68.88
229.964	62.88
230.199	68.88
230.433	63.88
230.667	82.88
230.901	79.88
231.136	86.88
231.37	66.88
231.604	74.88
231.838	76.88
232.072	79.88
232.306	81.88
232.541	79.88
232.775	69.88
233.009	78.88
233.243	73.88
233.477	86.88
233.711	79.88
233.945	79.88
234.179	63.88
234.413	82.88
234.647	86.88
234.881	68.88
235.115	66.88
235.349	88.88
235.583	63.88
235.817	71.88
236.051	69.88
236.285	75.88
236.519	62.88
236.753	76.88
236.987	73.88
237.221	76.88
237.455	75.88
237.689	73.88
237.922	61.88
238.156	67.88
238.39	72.88
238.624	77.88
238.858	76.88
239.091	85.88
239.325	71.88
239.559	67.88
239.793	70.88
240.027	78.88
240.26	71.88
240.494	68.88
240.728	75.88
240.961	65.88
241.195	79.88
241.429	69.88
241.662	72.88
241.896	74.88
242.13	71.88
242.363	61.88
242.597	78.88
242.83	69.88
243.064	69.88
243.298	66.88
243.531	65.88
243.765	60.88
243.998	69.88
244.232	67.88
244.465	74.88
244.699	79.88
244.932	76.88
245.166	84.88
245.399	76.88
245.633	73.88
245.866	67.88
246.099	56.88
246.333	75.88
246.566	74.88
246.8	62.88
247.033	84.88
247.266	69.88
247.5	70.88
247.733	90.88
247.966	80.88
248.2	64.88
248.433	71.88
248.666	82.88
248.899	75.88
249.133	85.88
249.366	74.88
249.599	68.88
249.832	67.88
250.066	92.88
250.299	66.88
250.532	80.88
250.765	72.88
250.998	89.88
251.231	82.88
251.465	62.88
251.698	76.88
251.931	88.88
252.164	78.88
252.397	85.88
252.63	76.88
252.863	86.88
253.096	68.88
253.329	62.88
253.562	58.88
253.795	63.88
254.028	76.88
254.261	71.88
254.494	86.88
254.727	81.88
254.96	76.88
255.193	69.88
255.426	72.88
255.659	60.88
255.892	73.88
256.124	76.88
256.357	73.88
256.59	80.88
256.823	83.88
257.056	91.88
257.289	74.88
257.521	79.88
257.754	74.88
257.987	77.88
258.22	78.88
258.452	72.88
258.685	79.88
258.918	72.88
259.151	84.88
259.383	75.88
259.616	73.88
259.849	73.88
260.081	73.88
260.314	69.88
260.547	68.88
260.779	71.88
261.012	76.88
261.244	79.88
261.477	87.88
261.71	70.88
261.942	68.88
262.175	67.88
262.407	76.88
262.64	80.88
262.872	73.88
263.105	80.88
263.337	82.88
263.57	80.88
263.802	77.88
264.035	78.88
264.267	86.88
264.499	75.88
264.732	83.88
264.964	80.88
265.197	79.88
265.429	83.88
265.661	73.88
265.894	60.88
266.126	83.88
266.358	79.88
266.591	72.88
266.823	70.88
267.055	80.88
267.287	77.88
267.52	88.88
267.752	80.88
267.984	78.88
268.216	70.88
268.448	86.88
268.681	80.88
268.913	63.88
269.145	72.88
269.377	76.88
269.609	76.88
269.841	79.88
270.073	84.88
270.306	85.88
270.538	84.88
270.77	85.88
271.002	81.88
271.234	72.88
271.466	81.88
271.698	70.88
271.93	83.88
272.162	80.88
272.394	76.88
272.626	79.88
272.858	76.88
273.09	96.88
273.322	86.88
273.553	81.88
273.785	92.88
274.017	95.88
274.249	73.88
274.481	75.88
274.713	84.88
274.945	82.88
275.176	80.88
275.408	77.88
275.64	75.88
275.872	66.88
276.104	75.88
276.335	83.88
276.567	87.88
276.799	74.88
277.031	84.88
277.262	79.88
277.494	83.88
277.726	79.88
277.957	73.88
278.189	84.88
278.421	73.88
278.652	70.88
278.884	79.88
279.115	93.88
279.347	86.88
279.579	81.88
279.81	78.88
280.042	78.88
280.273	74.88
280.505	93.88
280.736	85.88
280.968	78.88
281.199	76.88
281.431	84.88
281.662	84.88
281.894	81.88
282.125	69.88
282.356	70.88
282.588	79.88
282.819	79.88
283.051	87.88
283.282	86.88
283.513	79.88
283.745	77.88
283.976	89.88
284.207	79.88
284.439	84.88
284.67	85.88
284.901	78.88
285.132	83.88
285.364	82.88
285.595	72.88
285.826	83.88
286.057	78.88
286.288	77.88
286.52	81.88
286.751	81.88
286.982	83.88
287.213	71.88
287.444	81.88
287.675	92.88
287.906	85.88
288.138	79.88
288.369	82.88
288.6	96.88
288.831	92.88
289.062	88.88
289.293	89.88
289.524	86.88
289.755	80.88
289.986	76.88
290.217	98.88
290.448	77.88
290.679	85.88
290.91	75.88
291.141	81.88
291.371	73.88
291.602	87.88
291.833	81.88
292.064	97.88
292.295	69.88
292.526	80.88
292.757	84.88
292.987	91.88
293.218	93.88
293.449	88.88
293.68	72.88
293.91	81.88
294.141	79.88
294.372	82.88
294.603	81.88
294.833	87.88
295.064	86.88
295.295	71.88
295.525	72.88
295.756	92.88
295.987	78.88
296.217	51.88
296.448	69.88
296.679	85.88
296.909	82.88
297.14	90.88
297.37	81.88
297.601	66.88
297.831	74.88
298.062	93.88
298.292	83.88
298.523	82.88
298.753	59.88
298.984	72.88
299.214	88.88
299.445	85.88
299.675	73.88
299.905	85.88
300.136	71.88
300.366	76.88
300.597	92.88
300.827	80.88
301.057	103.88
301.288	97.88
301.518	59.88
301.748	75.88
301.979	76.88
302.209	65.88
302.439	93.88
302.669	81.88
302.9	81.88
303.13	92.88
303.36	97.88
303.59	84.88
303.82	83.88
304.051	92.88
304.281	86.88
304.511	73.88
304.741	88.88
304.971	76.88
305.201	88.88
305.431	81.88
305.661	86.88
305.891	92.88
306.121	79.88
306.352	89.88
306.582	79.88
306.812	72.88
307.042	84.88
307.272	78.88
307.502	80.88
307.731	81.88
307.961	83.88
308.191	72.88
308.421	78.88
308.651	84.88
308.881	80.88
309.111	83.88
309.341	84.88
309.571	82.88
309.8	83.88
310.03	79.88
310.26	81.88
310.49	92.88
310.72	77.88
310.949	87.88
311.179	80.88
311.409	81.88
311.639	83.88
311.868	100.88
312.098	92.88
312.328	96.88
312.557	84.88
312.787	78.88
313.017	81.88
313.246	81.88
313.476	87.88
313.706	81.88
313.935	65.88
314.165	79.88
314.394	80.88
314.624	89.88
314.853	76.88
315.083	69.88
315.312	73.88
315.542	88.88
315.771	75.88
316.001	97.88
316.23	64.88
316.46	92.88
316.689	102.88
316.919	91.88
317.148	92.88
317.377	94.88
317.607	71.88
317.836	89.88
318.065	72.88
318.295	71.88
318.524	83.88
318.753	62.88
318.983	82.88
319.212	83.88
319.441	86.88
319.67	76.88
319.9	74.88
320.129	74.88
320.358	72.88
320.587	84.88
320.816	87.88
321.046	87.88
321.275	85.88
321.504	90.88
321.733	87.88
321.962	79.88
322.191	73.88
322.42	79.88
322.649	79.88
322.878	85.88
323.108	88.88
323.337	85.88
323.566	76.88
323.795	79.88
324.024	77.88
324.253	71.88
324.482	79.88
324.71	85.88
324.939	77.88
325.168	83.88
325.397	78.88
325.626	84.88
325.855	75.88
326.084	78.88
326.313	87.88
326.542	75.88
326.77	87.88
326.999	84.88
327.228	79.88
327.457	76.88
327.686	85.88
327.914	76.88
328.143	83.88
328.372	78.88
328.6	77.88
328.829	83.88
329.058	72.88
329.287	86.88
329.515	87.88
329.744	87.88
329.972	86.88
330.201	79.88
330.43	82.88
330.658	86.88
330.887	70.88
331.115	85.88
331.344	76.88
331.572	79.88
331.801	82.88
332.03	71.88
332.258	70.88
332.486	72.88
332.715	97.88
332.943	98.88
333.172	92.88
333.4	76.88
333.629	80.88
333.857	79.88
334.085	84.88
334.314	94.88
334.542	75.88
334.771	86.88
334.999	84.88
335.227	96.88
335.455	80.88
335.684	65.88
335.912	82.88
336.14	66.88
336.369	94.88
336.597	92.88
336.825	90.88
337.053	71.88
337.281	89.88
337.51	83.88
337.738	81.88
337.966	80.88
338.194	80.88
338.422	88.88
338.65	79.88
338.878	88.88
339.106	77.88
339.334	77.88
339.562	93.88
339.79	73.88
340.018	83.88
340.246	74.88
340.474	86.88
340.702	84.88
340.93	81.88
341.158	63.88
341.386	88.88
341.614	84.88
341.842	75.88
342.07	78.88
342.298	70.88
342.526	83.88
342.754	70.88
342.981	93.88
343.209	73.88
343.437	86.88
343.665	99.88
343.893	80.88
344.12	84.88
344.348	76.88
344.576	87.88
344.804	84.88
345.031	76.88
345.259	70.88
345.487	81.88
345.714	85.88
345.942	64.88
346.17	81.88
346.397	80.88
346.625	67.88
346.853	76.88
347.08	77.88
347.308	75.88
347.535	79.88
347.763	71.88
347.99	77.88
348.218	91.88
348.445	85.88
348.673	87.88
348.9	79.88
349.128	76.88
349.355	86.88
349.583	86.88
349.81	78.88
350.037	84.88
350.265	87.88
350.492	72.88
350.72	93.88
350.947	73.88
351.174	82.88
351.402	78.88
351.629	77.88
351.856	85.88
352.083	70.88
352.311	92.88
352.538	79.88
352.765	73.88
352.992	87.88
353.22	81.88
353.447	83.88
353.674	83.88
353.901	73.88
354.128	84.88
354.355	65.88
354.583	97.88
354.81	81.88
355.037	78.88
355.264	83.88
355.491	69.88
355.718	89.88
355.945	99.88
356.172	88.88
356.399	86.88
356.626	76.88
356.853	74.88
357.08	75.88
357.307	63.88
357.534	84.88
357.761	83.88
357.988	69.88
358.215	93.88
358.441	79.88
358.668	78.88
358.895	82.88
359.122	95.88
359.349	83.88
359.576	85.88
359.802	82.88
360.029	77.88
360.256	87.88
360.483	62.88
360.709	82.88
360.936	81.88
361.163	91.88
361.39	92.88
361.616	89.88
361.843	74.88
362.07	70.88
362.296	92.88
362.523	85.88
362.749	90.88
362.976	70.88
363.203	77.88
363.429	76.88
363.656	61.88
363.882	83.88
364.109	69.88
364.335	78.88
364.562	91.88
364.788	77.88
365.015	85.88
365.241	86.88
365.468	87.88
365.694	69.88
365.92	79.88
366.147	81.88
366.373	80.88
366.599	82.88
366.826	87.88
367.052	76.88
367.278	80.88
367.505	85.88
367.731	85.88
367.957	92.88
368.184	91.88
368.41	98.88
368.636	86.88
368.862	96.88
369.089	78.88
369.315	86.88
369.541	88.88
369.767	88.88
369.993	100.88
370.219	107.88
370.445	89.88
370.672	87.88
370.898	79.88
371.124	86.88
371.35	89.88
371.576	107.88
371.802	77.88
372.028	94.88
372.254	87.88
372.48	83.88
372.706	101.88
372.932	104.88
373.158	83.88
373.384	91.88
373.61	96.88
373.835	77.88
374.061	87.88
374.287	109.88
374.513	102.88
374.739	93.88
374.965	77.88
375.191	96.88
375.416	91.88
375.642	86.88
375.868	90.88
376.094	85.88
376.319	102.88
376.545	93.88
376.771	87.88
376.997	92.88
377.222	81.88
377.448	87.88
377.674	77.88
377.899	85.88
378.125	94.88
378.35	97.88
378.576	77.88
378.802	96.88
379.027	82.88
379.253	85.88
379.478	86.88
379.704	73.88
379.929	83.88
380.155	92.88
380.38	94.88
380.606	97.88
380.831	101.88
381.057	85.88
381.282	99.88
381.507	85.88
381.733	100.88
381.958	95.88
382.184	90.88
382.409	90.88
382.634	105.88
382.86	88.88
383.085	101.88
383.31	105.88
383.535	94.88
383.761	85.88
383.986	88.88
384.211	98.88
384.436	93.88
384.662	91.88
384.887	99.88
385.112	97.88
385.337	105.88
385.562	108.88
385.787	88.88
386.013	100.88
386.238	81.88
386.463	104.88
386.688	93.88
386.913	94.88
387.138	88.88
387.363	117.88
387.588	89.88
387.813	108.88
388.038	100.88
388.263	94.88
388.488	101.88
388.713	98.88
388.938	81.88
389.163	86.88
389.387	101.88
389.612	111.88
389.837	88.88
390.062	118.88
390.287	100.88
390.512	92.88
390.736	104.88
390.961	101.88
391.186	102.88
391.411	91.88
391.636	91.88
391.86	94.88
392.085	102.88
392.31	103.88
392.534	115.88
392.759	100.88
392.984	107.88
393.208	101.88
393.433	114.88
393.658	78.88
393.882	90.88
394.107	104.88
394.331	105.88
394.556	95.88
394.78	88.88
395.005	107.88
395.229	107.88
395.454	102.88
395.678	101.88
395.903	92.88
396.127	92.88
396.352	80.88
396.576	106.88
396.801	88.88
397.025	91.88
397.249	89.88
397.474	112.88
397.698	107.88
397.922	108.88
398.147	88.88
398.371	109.88
398.595	105.88
398.82	115.88
399.044	97.88
399.268	103.88
399.492	107.88
399.717	124.88
399.941	98.88
400.165	105.88
400.389	105.88
400.613	117.88
400.837	104.88
401.062	107.88
401.286	114.88
401.51	106.88
401.734	115.88
401.958	108.88
402.182	108.88
402.406	95.88
402.63	121.88
402.854	124.88
403.078	104.88
403.302	111.88
403.526	112.88
403.75	112.88
403.974	114.88
404.198	105.88
404.422	96.88
404.645	113.88
404.869	108.88
405.093	123.88
405.317	100.88
405.541	111.88
405.765	123.88
405.988	114.88
406.212	127.88
406.436	115.88
406.66	104.88
406.883	119.88
407.107	117.88
407.331	113.88
407.555	134.88
407.778	102.88
408.002	109.88
408.226	105.88
408.449	105.88
408.673	116.88
408.896	111.88
409.12	114.88
409.344	109.88
409.567	123.88
409.791	112.88
410.014	117.88
410.238	121.88
410.461	120.88
410.685	123.88
410.908	117.88
411.132	122.88
411.355	124.88
411.578	116.88
411.802	120.88
412.025	128.88
412.249	115.88
412.472	111.88
412.695	124.88
412.919	117.88
413.142	107.88
413.365	112.88
413.589	113.88
413.812	120.88
414.035	119.88
414.258	107.88
414.482	132.88
414.705	130.88
414.928	127.88
415.151	127.88
415.374	128.88
415.597	118.88
415.821	121.88
416.044	127.88
416.267	125.88
416.49	117.88
416.713	126.88
416.936	120.88
417.159	111.88
417.382	121.88
417.605	119.88
417.828	128.88
418.051	137.88
418.274	131.88
418.497	133.88
418.72	131.88
418.943	119.88
419.166	135.88
419.389	132.88
419.611	124.88
419.834	128.88
420.057	128.88
420.28	116.88
420.503	119.88
420.726	129.88
420.948	135.88
421.171	128.88
421.394	123.88
421.617	146.88
421.839	136.88
422.062	138.88
422.285	126.88
422.507	113.88
422.73	125.88
422.953	126.88
423.175	123.88
423.398	132.88
423.621	120.88
423.843	119.88
424.066	127.88
424.288	120.88
424.511	130.88
424.733	142.88
424.956	124.88
425.178	133.88
425.401	161.88
425.623	154.88
425.846	148.88
426.068	135.88
426.291	118.88
426.513	136.88
426.735	119.88
426.958	132.88
427.18	120.88
427.402	126.88
427.625	129.88
427.847	125.88
428.069	109.88
428.292	140.88
428.514	132.88
428.736	127.88
428.958	138.88
429.181	131.88
429.403	122.88
429.625	115.88
429.847	127.88
430.069	123.88
430.292	129.88
430.514	133.88
430.736	124.88
430.958	126.88
431.18	119.88
431.402	127.88
431.624	113.88
431.846	102.88
432.068	99.88
432.29	86.88
432.512	111.88
432.734	116.88
432.956	128.88
433.178	130.88
433.4	121.88
433.622	141.88
433.844	135.88
434.066	119.88
434.287	101.88
434.509	81.88
434.731	107.88
434.953	125.88
435.175	113.88
435.397	135.88
435.618	112.88
435.84	105.88
436.062	117.88
436.284	115.88
436.505	119.88
436.727	121.88
436.949	131.88
437.17	128.88
437.392	123.88
437.614	125.88
437.835	113.88
438.057	101.88
438.278	117.88
438.5	123.88
438.721	128.88
438.943	113.88
439.165	118.88
439.386	130.88
439.608	138.88
439.829	147.88
440.05	144.88
440.272	145.88
440.493	145.88
440.715	155.88
440.936	142.88
441.158	133.88
441.379	140.88
441.6	157.88
441.822	130.88
442.043	138.88
442.264	142.88
442.486	139.88
442.707	141.88
442.928	137.88
443.149	131.88
443.371	149.88
443.592	148.88
443.813	132.88
444.034	144.88
444.255	132.88
444.476	136.88
444.698	137.88
444.919	136.88
445.14	270.88
445.361	188.88
445.582	155.88
445.803	129.88
446.024	136.88
446.245	127.88
446.466	137.88
446.687	137.88
446.908	149.88
447.129	150.88
447.35	147.88
447.571	148.88
447.792	128.88
448.013	146.88
448.234	135.88
448.455	143.88
448.675	136.88
448.896	128.88
449.117	137.88
449.338	129.88
449.559	135.88
449.779	143.88
450	127.88
450.221	131.88
450.442	141.88
450.662	116.88
450.883	123.88
451.104	126.88
451.324	127.88
451.545	125.88
451.766	126.88
451.986	117.88
452.207	131.88
452.428	126.88
452.648	130.88
452.869	112.88
453.089	101.88
453.31	103.88
453.53	113.88
453.751	113.88
453.971	112.88
454.192	110.88
454.412	104.88
454.633	109.88
454.853	123.88
455.073	115.88
455.294	131.88
455.514	120.88
455.734	121.88
455.955	116.88
456.175	104.88
456.395	119.88
456.616	113.88
456.836	104.88
457.056	117.88
457.276	99.88
457.497	110.88
457.717	97.88
457.937	89.88
458.157	106.88
458.377	99.88
458.598	101.88
458.818	96.88
459.038	87.88
459.258	90.88
459.478	81.88
459.698	73.88
459.918	90.88
460.138	104.88
460.358	112.88
460.578	100.88
460.798	114.88
461.018	113.88
461.238	109.88
461.458	111.88
461.678	111.88
461.898	114.88
462.118	93.88
462.338	108.88
462.558	103.88
462.777	114.88
462.997	113.88
463.217	105.88
463.437	100.88
463.657	109.88
463.876	99.88
464.096	107.88
464.316	105.88
464.536	107.88
464.755	119.88
464.975	101.88
465.195	121.88
465.414	111.88
465.634	111.88
465.854	103.88
466.073	115.88
466.293	125.88
466.512	122.88
466.732	129.88
466.951	132.88
467.171	122.88
467.391	131.88
467.61	129.88
467.829	123.88
468.049	122.88
468.268	120.88
468.488	133.88
468.707	131.88
468.927	133.88
469.146	128.88
469.365	133.88
469.585	130.88
469.804	139.88
470.023	136.88
470.243	125.88
470.462	137.88
470.681	145.88
470.901	156.88
471.12	129.88
471.339	119.88
471.558	127.88
471.777	134.88
471.997	128.88
472.216	122.88
472.435	94.88
472.654	102.88
472.873	112.88
473.092	114.88
473.311	111.88
473.53	131.88
473.749	119.88
473.968	131.88
474.187	102.88
474.406	113.88
474.625	117.88
474.844	131.88
475.063	121.88
475.282	123.88
475.501	115.88
475.72	122.88
475.939	118.88
476.158	123.88
476.377	123.88
476.596	113.88
476.814	113.88
477.033	112.88
477.252	117.88
477.471	121.88
477.69	140.88
477.908	140.88
478.127	131.88
478.346	124.88
478.564	121.88
478.783	131.88
479.002	137.88
479.22	130.88
479.439	121.88
479.658	113.88
479.876	127.88
480.095	123.88
480.313	119.88
480.532	118.88
480.751	115.88
480.969	92.88
481.188	78.88
481.406	76.88
481.624	89.88
481.843	98.88
482.061	93.88
482.28	100.88
482.498	116.88
482.717	110.88
482.935	107.88
483.153	145.88
483.372	126.88
483.59	151.88
483.808	148.88
484.027	127.88
484.245	119.88
484.463	127.88
484.681	135.88
484.9	152.88
485.118	121.88
485.336	128.88
485.554	101.88
485.772	100.88
485.99	91.88
486.209	104.88
486.427	107.88
486.645	115.88
486.863	130.88
487.081	126.88
487.299	121.88
487.517	117.88
487.735	162.88
487.953	175.88
488.171	179.88
488.389	183.88
488.607	159.88
488.825	147.88
489.043	125.88
489.261	136.88
489.479	121.88
489.696	136.88
489.914	131.88
490.132	149.88
490.35	136.88
490.568	152.88
490.786	158.88
491.003	173.88
491.221	171.88
491.439	195.88
491.657	191.88
491.874	190.88
492.092	201.88
492.31	205.88
492.527	221.88
492.745	189.88
492.963	195.88
493.18	181.88
493.398	180.88
493.615	177.88
493.833	182.88
494.05	157.88
494.268	168.88
494.485	163.88
494.703	159.88
494.92	157.88
495.138	179.88
495.355	175.88
495.573	177.88
495.79	162.88
496.008	163.88
496.225	172.88
496.442	171.88
496.66	159.88
496.877	155.88
497.094	164.88
497.312	160.88
497.529	155.88
497.746	153.88
497.963	119.88
498.181	127.88
498.398	112.88
498.615	111.88
498.832	114.88
499.049	118.88
499.267	126.88
499.484	120.88
499.701	125.88
499.918	123.88
500.135	117.88
500.352	129.88
500.569	143.88
500.786	135.88
501.003	138.88
501.22	147.88
501.437	143.88
501.654	129.88
501.871	127.88
502.088	119.88
502.305	119.88
502.522	128.88
502.739	115.88
502.956	126.88
503.172	119.88
503.389	131.88
503.606	126.88
503.823	119.88
504.04	118.88
504.256	108.88
504.473	116.88
504.69	109.88
504.907	115.88
505.123	114.88
505.34	121.88
505.557	114.88
505.773	113.88
505.99	124.88
506.207	115.88
506.423	121.88
506.64	105.88
506.856	117.88
507.073	104.88
507.289	121.88
507.506	113.88
507.722	110.88
507.939	117.88
508.155	116.88
508.372	104.88
508.588	108.88
508.805	105.88
509.021	101.88
509.238	102.88
509.454	100.88
509.67	82.88
509.887	86.88
510.103	98.88
510.319	99.88
510.536	85.88
510.752	70.88
510.968	80.88
511.184	60.88
511.401	73.88
511.617	98.88
511.833	91.88
512.049	86.88
