Data from Location2.07152019.Energy5.Lamp.07192019.3%Agarose_HRD10591_14-57-27-359.txt Node
Date: Fri Jul 19 14:57:27 EDT 2019
User: cochatt
Spectrometer: HR+D1059
Trigger mode: 1
Integration Time (sec): 1.000000E-1
Scans to average: 1
Electric dark correction enabled: true
Nonlinearity correction enabled: false
Boxcar width: 0
XAxis mode: Wavelengths
Number of Pixels in Spectrum: 2048
>>>>>Begin Spectral Data<<<<<
223.165	-23.06
223.4	-23.06
223.635	-23.06
223.869	-13.06
224.104	-17.06
224.338	-26.06
224.573	-9.06
224.808	-13.06
225.042	-14.06
225.277	-7.06
225.511	-0.06
225.746	11.94
225.98	4.94
226.215	17.94
226.449	18.94
226.683	20.94
226.918	26.94
227.152	20.94
227.387	21.94
227.621	40.94
227.856	36.94
228.09	55.94
228.324	45.94
228.559	50.94
228.793	60.94
229.027	69.94
229.262	48.94
229.496	70.94
229.73	74.94
229.964	82.94
230.199	81.94
230.433	67.94
230.667	70.94
230.901	78.94
231.136	72.94
231.37	67.94
231.604	83.94
231.838	71.94
232.072	79.94
232.306	97.94
232.541	77.94
232.775	82.94
233.009	90.94
233.243	80.94
233.477	79.94
233.711	94.94
233.945	82.94
234.179	82.94
234.413	75.94
234.647	83.94
234.881	76.94
235.115	83.94
235.349	80.94
235.583	76.94
235.817	70.94
236.051	73.94
236.285	59.94
236.519	65.94
236.753	82.94
236.987	80.94
237.221	63.94
237.455	74.94
237.689	77.94
237.922	71.94
238.156	96.94
238.39	74.94
238.624	82.94
238.858	61.94
239.091	78.94
239.325	70.94
239.559	86.94
239.793	73.94
240.027	89.94
240.26	67.94
240.494	78.94
240.728	75.94
240.961	74.94
241.195	64.94
241.429	83.94
241.662	71.94
241.896	74.94
242.13	76.94
242.363	74.94
242.597	71.94
242.83	87.94
243.064	88.94
243.298	81.94
243.531	72.94
243.765	82.94
243.998	70.94
244.232	76.94
244.465	65.94
244.699	67.94
244.932	63.94
245.166	82.94
245.399	78.94
245.633	66.94
245.866	84.94
246.099	63.94
246.333	80.94
246.566	71.94
246.8	83.94
247.033	72.94
247.266	74.94
247.5	86.94
247.733	70.94
247.966	60.94
248.2	95.94
248.433	67.94
248.666	73.94
248.899	77.94
249.133	83.94
249.366	91.94
249.599	83.94
249.832	72.94
250.066	92.94
250.299	76.94
250.532	95.94
250.765	84.94
250.998	80.94
251.231	66.94
251.465	80.94
251.698	84.94
251.931	68.94
252.164	76.94
252.397	65.94
252.63	69.94
252.863	71.94
253.096	81.94
253.329	78.94
253.562	80.94
253.795	87.94
254.028	73.94
254.261	82.94
254.494	82.94
254.727	72.94
254.96	87.94
255.193	72.94
255.426	92.94
255.659	89.94
255.892	77.94
256.124	77.94
256.357	84.94
256.59	77.94
256.823	70.94
257.056	81.94
257.289	86.94
257.521	79.94
257.754	72.94
257.987	74.94
258.22	85.94
258.452	79.94
258.685	67.94
258.918	83.94
259.151	81.94
259.383	79.94
259.616	81.94
259.849	71.94
260.081	94.94
260.314	78.94
260.547	78.94
260.779	85.94
261.012	76.94
261.244	69.94
261.477	90.94
261.71	67.94
261.942	80.94
262.175	83.94
262.407	73.94
262.64	80.94
262.872	80.94
263.105	72.94
263.337	65.94
263.57	67.94
263.802	79.94
264.035	76.94
264.267	75.94
264.499	87.94
264.732	69.94
264.964	74.94
265.197	75.94
265.429	87.94
265.661	73.94
265.894	67.94
266.126	87.94
266.358	80.94
266.591	88.94
266.823	70.94
267.055	66.94
267.287	77.94
267.52	81.94
267.752	72.94
267.984	89.94
268.216	69.94
268.448	73.94
268.681	79.94
268.913	80.94
269.145	82.94
269.377	62.94
269.609	83.94
269.841	89.94
270.073	77.94
270.306	83.94
270.538	89.94
270.77	68.94
271.002	71.94
271.234	80.94
271.466	86.94
271.698	77.94
271.93	89.94
272.162	80.94
272.394	76.94
272.626	79.94
272.858	71.94
273.09	90.94
273.322	90.94
273.553	84.94
273.785	87.94
274.017	90.94
274.249	86.94
274.481	78.94
274.713	76.94
274.945	78.94
275.176	85.94
275.408	79.94
275.64	82.94
275.872	97.94
276.104	81.94
276.335	79.94
276.567	86.94
276.799	85.94
277.031	86.94
277.262	96.94
277.494	93.94
277.726	88.94
277.957	93.94
278.189	66.94
278.421	89.94
278.652	72.94
278.884	73.94
279.115	76.94
279.347	81.94
279.579	75.94
279.81	93.94
280.042	83.94
280.273	82.94
280.505	71.94
280.736	90.94
280.968	76.94
281.199	72.94
281.431	81.94
281.662	86.94
281.894	73.94
282.125	91.94
282.356	81.94
282.588	92.94
282.819	85.94
283.051	82.94
283.282	74.94
283.513	79.94
283.745	75.94
283.976	83.94
284.207	82.94
284.439	76.94
284.67	83.94
284.901	73.94
285.132	88.94
285.364	89.94
285.595	90.94
285.826	90.94
286.057	82.94
286.288	74.94
286.52	90.94
286.751	90.94
286.982	82.94
287.213	88.94
287.444	75.94
287.675	80.94
287.906	69.94
288.138	84.94
288.369	90.94
288.6	98.94
288.831	76.94
289.062	86.94
289.293	85.94
289.524	86.94
289.755	87.94
289.986	85.94
290.217	86.94
290.448	91.94
290.679	74.94
290.91	81.94
291.141	72.94
291.371	89.94
291.602	87.94
291.833	97.94
292.064	89.94
292.295	82.94
292.526	91.94
292.757	90.94
292.987	70.94
293.218	74.94
293.449	80.94
293.68	70.94
293.91	83.94
294.141	93.94
294.372	84.94
294.603	75.94
294.833	80.94
295.064	83.94
295.295	75.94
295.525	92.94
295.756	86.94
295.987	75.94
296.217	69.94
296.448	88.94
296.679	78.94
296.909	77.94
297.14	87.94
297.37	70.94
297.601	82.94
297.831	91.94
298.062	89.94
298.292	88.94
298.523	78.94
298.753	83.94
298.984	76.94
299.214	82.94
299.445	77.94
299.675	87.94
299.905	87.94
300.136	70.94
300.366	85.94
300.597	74.94
300.827	75.94
301.057	91.94
301.288	86.94
301.518	94.94
301.748	82.94
301.979	86.94
302.209	85.94
302.439	90.94
302.669	67.94
302.9	92.94
303.13	87.94
303.36	84.94
303.59	87.94
303.82	71.94
304.051	85.94
304.281	88.94
304.511	93.94
304.741	88.94
304.971	85.94
305.201	87.94
305.431	82.94
305.661	85.94
305.891	82.94
306.121	92.94
306.352	86.94
306.582	87.94
306.812	89.94
307.042	79.94
307.272	78.94
307.502	89.94
307.731	84.94
307.961	75.94
308.191	77.94
308.421	85.94
308.651	89.94
308.881	80.94
309.111	85.94
309.341	89.94
309.571	79.94
309.8	100.94
310.03	84.94
310.26	90.94
310.49	88.94
310.72	84.94
310.949	87.94
311.179	76.94
311.409	87.94
311.639	79.94
311.868	72.94
312.098	86.94
312.328	91.94
312.557	90.94
312.787	81.94
313.017	83.94
313.246	72.94
313.476	77.94
313.706	82.94
313.935	84.94
314.165	82.94
314.394	71.94
314.624	72.94
314.853	86.94
315.083	82.94
315.312	74.94
315.542	74.94
315.771	74.94
316.001	90.94
316.23	74.94
316.46	88.94
316.689	83.94
316.919	100.94
317.148	78.94
317.377	84.94
317.607	83.94
317.836	66.94
318.065	79.94
318.295	78.94
318.524	82.94
318.753	85.94
318.983	82.94
319.212	92.94
319.441	91.94
319.67	87.94
319.9	88.94
320.129	81.94
320.358	84.94
320.587	84.94
320.816	83.94
321.046	85.94
321.275	71.94
321.504	83.94
321.733	89.94
321.962	82.94
322.191	84.94
322.42	76.94
322.649	71.94
322.878	89.94
323.108	104.94
323.337	90.94
323.566	84.94
323.795	86.94
324.024	83.94
324.253	74.94
324.482	82.94
324.71	78.94
324.939	78.94
325.168	91.94
325.397	87.94
325.626	86.94
325.855	84.94
326.084	68.94
326.313	87.94
326.542	76.94
326.77	81.94
326.999	82.94
327.228	81.94
327.457	95.94
327.686	84.94
327.914	86.94
328.143	82.94
328.372	73.94
328.6	81.94
328.829	77.94
329.058	76.94
329.287	83.94
329.515	74.94
329.744	93.94
329.972	82.94
330.201	79.94
330.43	82.94
330.658	80.94
330.887	73.94
331.115	86.94
331.344	70.94
331.572	85.94
331.801	80.94
332.03	72.94
332.258	69.94
332.486	83.94
332.715	99.94
332.943	103.94
333.172	74.94
333.4	79.94
333.629	70.94
333.857	87.94
334.085	97.94
334.314	85.94
334.542	84.94
334.771	77.94
334.999	86.94
335.227	80.94
335.455	75.94
335.684	83.94
335.912	87.94
336.14	78.94
336.369	86.94
336.597	83.94
336.825	76.94
337.053	78.94
337.281	76.94
337.51	84.94
337.738	83.94
337.966	75.94
338.194	75.94
338.422	71.94
338.65	85.94
338.878	78.94
339.106	89.94
339.334	91.94
339.562	84.94
339.79	89.94
340.018	81.94
340.246	70.94
340.474	78.94
340.702	79.94
340.93	91.94
341.158	78.94
341.386	103.94
341.614	90.94
341.842	91.94
342.07	85.94
342.298	87.94
342.526	82.94
342.754	81.94
342.981	86.94
343.209	82.94
343.437	88.94
343.665	84.94
343.893	88.94
344.12	97.94
344.348	76.94
344.576	82.94
344.804	89.94
345.031	75.94
345.259	77.94
345.487	73.94
345.714	77.94
345.942	70.94
346.17	77.94
346.397	75.94
346.625	83.94
346.853	70.94
347.08	82.94
347.308	75.94
347.535	78.94
347.763	89.94
347.99	86.94
348.218	103.94
348.445	84.94
348.673	70.94
348.9	84.94
349.128	104.94
349.355	74.94
349.583	75.94
349.81	79.94
350.037	70.94
350.265	78.94
350.492	81.94
350.72	96.94
350.947	94.94
351.174	91.94
351.402	86.94
351.629	79.94
351.856	81.94
352.083	74.94
352.311	74.94
352.538	80.94
352.765	90.94
352.992	83.94
353.22	82.94
353.447	74.94
353.674	86.94
353.901	82.94
354.128	90.94
354.355	87.94
354.583	95.94
354.81	94.94
355.037	75.94
355.264	91.94
355.491	86.94
355.718	77.94
355.945	84.94
356.172	81.94
356.399	76.94
356.626	76.94
356.853	73.94
357.08	89.94
357.307	82.94
357.534	84.94
357.761	87.94
357.988	79.94
358.215	88.94
358.441	84.94
358.668	82.94
358.895	92.94
359.122	81.94
359.349	82.94
359.576	86.94
359.802	88.94
360.029	75.94
360.256	74.94
360.483	82.94
360.709	90.94
360.936	86.94
361.163	88.94
361.39	76.94
361.616	88.94
361.843	87.94
362.07	81.94
362.296	83.94
362.523	94.94
362.749	85.94
362.976	75.94
363.203	69.94
363.429	80.94
363.656	68.94
363.882	82.94
364.109	86.94
364.335	83.94
364.562	94.94
364.788	80.94
365.015	82.94
365.241	82.94
365.468	80.94
365.694	72.94
365.92	90.94
366.147	72.94
366.373	85.94
366.599	85.94
366.826	78.94
367.052	86.94
367.278	90.94
367.505	82.94
367.731	101.94
367.957	76.94
368.184	91.94
368.41	87.94
368.636	87.94
368.862	93.94
369.089	104.94
369.315	78.94
369.541	84.94
369.767	91.94
369.993	87.94
370.219	79.94
370.445	82.94
370.672	84.94
370.898	80.94
371.124	94.94
371.35	85.94
371.576	87.94
371.802	87.94
372.028	90.94
372.254	72.94
372.48	102.94
372.706	95.94
372.932	80.94
373.158	96.94
373.384	93.94
373.61	90.94
373.835	83.94
374.061	97.94
374.287	67.94
374.513	95.94
374.739	95.94
374.965	91.94
375.191	91.94
375.416	79.94
375.642	88.94
375.868	97.94
376.094	92.94
376.319	84.94
376.545	81.94
376.771	98.94
376.997	91.94
377.222	99.94
377.448	89.94
377.674	90.94
377.899	74.94
378.125	86.94
378.35	80.94
378.576	92.94
378.802	87.94
379.027	107.94
379.253	90.94
379.478	92.94
379.704	78.94
379.929	76.94
380.155	87.94
380.38	97.94
380.606	97.94
380.831	95.94
381.057	99.94
381.282	87.94
381.507	89.94
381.733	84.94
381.958	88.94
382.184	98.94
382.409	95.94
382.634	91.94
382.86	99.94
383.085	102.94
383.31	88.94
383.535	91.94
383.761	101.94
383.986	95.94
384.211	96.94
384.436	84.94
384.662	102.94
384.887	82.94
385.112	94.94
385.337	90.94
385.562	88.94
385.787	95.94
386.013	104.94
386.238	111.94
386.463	90.94
386.688	104.94
386.913	95.94
387.138	98.94
387.363	100.94
387.588	101.94
387.813	94.94
388.038	104.94
388.263	91.94
388.488	84.94
388.713	89.94
388.938	110.94
389.163	91.94
389.387	87.94
389.612	82.94
389.837	90.94
390.062	90.94
390.287	97.94
390.512	120.94
390.736	99.94
390.961	107.94
391.186	86.94
391.411	88.94
391.636	87.94
391.86	113.94
392.085	92.94
392.31	100.94
392.534	103.94
392.759	115.94
392.984	115.94
393.208	93.94
393.433	110.94
393.658	104.94
393.882	114.94
394.107	106.94
394.331	111.94
394.556	101.94
394.78	105.94
395.005	106.94
395.229	103.94
395.454	104.94
395.678	105.94
395.903	86.94
396.127	112.94
396.352	117.94
396.576	112.94
396.801	92.94
397.025	99.94
397.249	99.94
397.474	113.94
397.698	119.94
397.922	95.94
398.147	105.94
398.371	97.94
398.595	120.94
398.82	114.94
399.044	114.94
399.268	104.94
399.492	100.94
399.717	112.94
399.941	125.94
400.165	118.94
400.389	108.94
400.613	116.94
400.837	96.94
401.062	105.94
401.286	109.94
401.51	100.94
401.734	107.94
401.958	110.94
402.182	116.94
402.406	107.94
402.63	97.94
402.854	114.94
403.078	94.94
403.302	106.94
403.526	110.94
403.75	116.94
403.974	103.94
404.198	119.94
404.422	107.94
404.645	115.94
404.869	106.94
405.093	95.94
405.317	126.94
405.541	119.94
405.765	114.94
405.988	130.94
406.212	121.94
406.436	116.94
406.66	125.94
406.883	116.94
407.107	99.94
407.331	114.94
407.555	120.94
407.778	107.94
408.002	122.94
408.226	110.94
408.449	107.94
408.673	117.94
408.896	123.94
409.12	122.94
409.344	109.94
409.567	110.94
409.791	108.94
410.014	114.94
410.238	128.94
410.461	123.94
410.685	110.94
410.908	113.94
411.132	112.94
411.355	126.94
411.578	129.94
411.802	127.94
412.025	115.94
412.249	130.94
412.472	113.94
412.695	126.94
412.919	135.94
413.142	135.94
413.365	111.94
413.589	112.94
413.812	103.94
414.035	120.94
414.258	124.94
414.482	119.94
414.705	114.94
414.928	130.94
415.151	122.94
415.374	135.94
415.597	138.94
415.821	124.94
416.044	112.94
416.267	124.94
416.49	126.94
416.713	120.94
416.936	128.94
417.159	133.94
417.382	119.94
417.605	117.94
417.828	122.94
418.051	115.94
418.274	136.94
418.497	112.94
418.72	125.94
418.943	126.94
419.166	130.94
419.389	146.94
419.611	123.94
419.834	123.94
420.057	133.94
420.28	128.94
420.503	123.94
420.726	126.94
420.948	134.94
421.171	128.94
421.394	146.94
421.617	115.94
421.839	141.94
422.062	141.94
422.285	130.94
422.507	116.94
422.73	122.94
422.953	126.94
423.175	141.94
423.398	125.94
423.621	126.94
423.843	132.94
424.066	118.94
424.288	134.94
424.511	146.94
424.733	137.94
424.956	137.94
425.178	139.94
425.401	132.94
425.623	138.94
425.846	134.94
426.068	129.94
426.291	121.94
426.513	125.94
426.735	115.94
426.958	141.94
427.18	128.94
427.402	132.94
427.625	126.94
427.847	119.94
428.069	138.94
428.292	137.94
428.514	143.94
428.736	132.94
428.958	124.94
429.181	114.94
429.403	127.94
429.625	124.94
429.847	128.94
430.069	130.94
430.292	138.94
430.514	135.94
430.736	124.94
430.958	120.94
431.18	123.94
431.402	117.94
431.624	122.94
431.846	111.94
432.068	94.94
432.29	97.94
432.512	108.94
432.734	120.94
432.956	130.94
433.178	148.94
433.4	136.94
433.622	126.94
433.844	134.94
434.066	105.94
434.287	110.94
434.509	101.94
434.731	98.94
434.953	104.94
435.175	119.94
435.397	125.94
435.618	112.94
435.84	115.94
436.062	105.94
436.284	107.94
436.505	126.94
436.727	116.94
436.949	135.94
437.17	126.94
437.392	138.94
437.614	120.94
437.835	115.94
438.057	100.94
438.278	120.94
438.5	100.94
438.721	136.94
438.943	134.94
439.165	134.94
439.386	122.94
439.608	140.94
439.829	158.94
440.05	147.94
440.272	123.94
440.493	152.94
440.715	132.94
440.936	148.94
441.158	159.94
441.379	144.94
441.6	155.94
441.822	151.94
442.043	146.94
442.264	142.94
442.486	140.94
442.707	132.94
442.928	146.94
443.149	130.94
443.371	129.94
443.592	143.94
443.813	144.94
444.034	131.94
444.255	138.94
444.476	152.94
444.698	147.94
444.919	136.94
445.14	272.94
445.361	200.94
445.582	159.94
445.803	166.94
446.024	159.94
446.245	156.94
446.466	155.94
446.687	140.94
446.908	152.94
447.129	160.94
447.35	146.94
447.571	157.94
447.792	155.94
448.013	148.94
448.234	143.94
448.455	134.94
448.675	134.94
448.896	144.94
449.117	133.94
449.338	143.94
449.559	146.94
449.779	143.94
450	137.94
450.221	123.94
450.442	135.94
450.662	147.94
450.883	126.94
451.104	137.94
451.324	132.94
451.545	136.94
451.766	104.94
451.986	130.94
452.207	119.94
452.428	124.94
452.648	136.94
452.869	132.94
453.089	104.94
453.31	106.94
453.53	93.94
453.751	106.94
453.971	119.94
454.192	96.94
454.412	113.94
454.633	120.94
454.853	114.94
455.073	110.94
455.294	116.94
455.514	127.94
455.734	117.94
455.955	114.94
456.175	116.94
456.395	95.94
456.616	99.94
456.836	100.94
457.056	120.94
457.276	118.94
457.497	127.94
457.717	112.94
457.937	108.94
458.157	106.94
458.377	96.94
458.598	103.94
458.818	82.94
459.038	90.94
459.258	97.94
459.478	95.94
459.698	87.94
459.918	116.94
460.138	118.94
460.358	114.94
460.578	112.94
460.798	127.94
461.018	120.94
461.238	110.94
461.458	118.94
461.678	104.94
461.898	112.94
462.118	101.94
462.338	105.94
462.558	114.94
462.777	119.94
462.997	100.94
463.217	106.94
463.437	101.94
463.657	113.94
463.876	98.94
464.096	111.94
464.316	106.94
464.536	105.94
464.755	115.94
464.975	118.94
465.195	110.94
465.414	122.94
465.634	120.94
465.854	131.94
466.073	116.94
466.293	118.94
466.512	128.94
466.732	125.94
466.951	137.94
467.171	149.94
467.391	142.94
467.61	133.94
467.829	144.94
468.049	138.94
468.268	138.94
468.488	133.94
468.707	146.94
468.927	133.94
469.146	148.94
469.365	133.94
469.585	135.94
469.804	142.94
470.023	137.94
470.243	162.94
470.462	144.94
470.681	124.94
470.901	138.94
471.12	129.94
471.339	132.94
471.558	136.94
471.777	125.94
471.997	136.94
472.216	138.94
472.435	118.94
472.654	112.94
472.873	119.94
473.092	122.94
473.311	127.94
473.53	127.94
473.749	120.94
473.968	134.94
474.187	129.94
474.406	126.94
474.625	123.94
474.844	124.94
475.063	130.94
475.282	130.94
475.501	130.94
475.72	102.94
475.939	116.94
476.158	130.94
476.377	125.94
476.596	127.94
476.814	114.94
477.033	103.94
477.252	124.94
477.471	128.94
477.69	137.94
477.908	146.94
478.127	135.94
478.346	124.94
478.564	138.94
478.783	140.94
479.002	132.94
479.22	122.94
479.439	133.94
479.658	120.94
479.876	116.94
480.095	110.94
480.313	123.94
480.532	128.94
480.751	114.94
480.969	83.94
481.188	99.94
481.406	76.94
481.624	81.94
481.843	84.94
482.061	88.94
482.28	103.94
482.498	127.94
482.717	105.94
482.935	119.94
483.153	130.94
483.372	154.94
483.59	151.94
483.808	144.94
484.027	132.94
484.245	128.94
484.463	141.94
484.681	141.94
484.9	148.94
485.118	150.94
485.336	133.94
485.554	118.94
485.772	110.94
485.99	118.94
486.209	118.94
486.427	112.94
486.645	122.94
486.863	134.94
487.081	152.94
487.299	140.94
487.517	123.94
487.735	161.94
487.953	182.94
488.171	175.94
488.389	176.94
488.607	169.94
488.825	148.94
489.043	134.94
489.261	130.94
489.479	148.94
489.696	128.94
489.914	134.94
490.132	130.94
490.35	139.94
490.568	154.94
490.786	159.94
491.003	177.94
491.221	182.94
491.439	188.94
491.657	193.94
491.874	195.94
492.092	215.94
492.31	227.94
492.527	214.94
492.745	197.94
492.963	194.94
493.18	178.94
493.398	178.94
493.615	179.94
493.833	162.94
494.05	185.94
494.268	171.94
494.485	154.94
494.703	174.94
494.92	159.94
495.138	171.94
495.355	179.94
495.573	159.94
495.79	158.94
496.008	173.94
496.225	163.94
496.442	155.94
496.66	178.94
496.877	156.94
497.094	166.94
497.312	154.94
497.529	148.94
497.746	152.94
497.963	146.94
498.181	133.94
498.398	128.94
498.615	121.94
498.832	118.94
499.049	107.94
499.267	114.94
499.484	125.94
499.701	135.94
499.918	134.94
500.135	122.94
500.352	134.94
500.569	141.94
500.786	122.94
501.003	145.94
501.22	124.94
501.437	134.94
501.654	124.94
501.871	117.94
502.088	124.94
502.305	126.94
502.522	120.94
502.739	115.94
502.956	135.94
503.172	126.94
503.389	123.94
503.606	118.94
503.823	111.94
504.04	128.94
504.256	121.94
504.473	108.94
504.69	128.94
504.907	126.94
505.123	114.94
505.34	119.94
505.557	124.94
505.773	112.94
505.99	118.94
506.207	110.94
506.423	129.94
506.64	114.94
506.856	119.94
507.073	110.94
507.289	128.94
507.506	126.94
507.722	121.94
507.939	116.94
508.155	122.94
508.372	119.94
508.588	122.94
508.805	99.94
509.021	101.94
509.238	110.94
509.454	114.94
509.67	94.94
509.887	102.94
510.103	82.94
510.319	72.94
510.536	90.94
510.752	78.94
510.968	77.94
511.184	80.94
511.401	101.94
511.617	88.94
511.833	95.94
