Data from Location2.07152019.Energy5.Lamp.07192019.3%Agarose_HRD10591_14-58-44-359.txt Node
Date: Fri Jul 19 14:58:44 EDT 2019
User: cochatt
Spectrometer: HR+D1059
Trigger mode: 1
Integration Time (sec): 1.000000E-1
Scans to average: 1
Electric dark correction enabled: true
Nonlinearity correction enabled: false
Boxcar width: 0
XAxis mode: Wavelengths
Number of Pixels in Spectrum: 2048
>>>>>Begin Spectral Data<<<<<
223.165	-15.56
223.4	-15.56
223.635	-15.56
223.869	-20.56
224.104	-6.56
224.338	-24.56
224.573	-18.56
224.808	-7.56
225.042	-12.56
225.277	-9.56
225.511	-2.56
225.746	13.44
225.98	6.44
226.215	21.44
226.449	16.44
226.683	16.44
226.918	25.44
227.152	18.44
227.387	38.44
227.621	44.44
227.856	41.44
228.09	39.44
228.324	43.44
228.559	61.44
228.793	59.44
229.027	60.44
229.262	51.44
229.496	67.44
229.73	54.44
229.964	78.44
230.199	51.44
230.433	64.44
230.667	70.44
230.901	62.44
231.136	69.44
231.37	82.44
231.604	75.44
231.838	73.44
232.072	73.44
232.306	79.44
232.541	78.44
232.775	74.44
233.009	83.44
233.243	68.44
233.477	69.44
233.711	87.44
233.945	86.44
234.179	80.44
234.413	83.44
234.647	76.44
234.881	73.44
235.115	95.44
235.349	69.44
235.583	85.44
235.817	80.44
236.051	74.44
236.285	69.44
236.519	79.44
236.753	73.44
236.987	73.44
237.221	78.44
237.455	80.44
237.689	77.44
237.922	80.44
238.156	77.44
238.39	72.44
238.624	67.44
238.858	73.44
239.091	74.44
239.325	74.44
239.559	68.44
239.793	81.44
240.027	79.44
240.26	68.44
240.494	69.44
240.728	75.44
240.961	67.44
241.195	70.44
241.429	66.44
241.662	72.44
241.896	73.44
242.13	56.44
242.363	69.44
242.597	68.44
242.83	72.44
243.064	59.44
243.298	83.44
243.531	56.44
243.765	72.44
243.998	72.44
244.232	69.44
244.465	73.44
244.699	74.44
244.932	77.44
245.166	68.44
245.399	71.44
245.633	63.44
245.866	74.44
246.099	75.44
246.333	59.44
246.566	73.44
246.8	69.44
247.033	78.44
247.266	66.44
247.5	57.44
247.733	81.44
247.966	70.44
248.2	65.44
248.433	85.44
248.666	94.44
248.899	76.44
249.133	93.44
249.366	78.44
249.599	80.44
249.832	76.44
250.066	78.44
250.299	67.44
250.532	74.44
250.765	76.44
250.998	69.44
251.231	73.44
251.465	71.44
251.698	76.44
251.931	84.44
252.164	60.44
252.397	78.44
252.63	71.44
252.863	80.44
253.096	64.44
253.329	83.44
253.562	79.44
253.795	80.44
254.028	71.44
254.261	74.44
254.494	72.44
254.727	73.44
254.96	68.44
255.193	62.44
255.426	68.44
255.659	73.44
255.892	57.44
256.124	86.44
256.357	73.44
256.59	86.44
256.823	71.44
257.056	78.44
257.289	77.44
257.521	61.44
257.754	79.44
257.987	77.44
258.22	79.44
258.452	79.44
258.685	85.44
258.918	74.44
259.151	74.44
259.383	84.44
259.616	74.44
259.849	63.44
260.081	80.44
260.314	71.44
260.547	74.44
260.779	65.44
261.012	78.44
261.244	74.44
261.477	77.44
261.71	71.44
261.942	80.44
262.175	74.44
262.407	87.44
262.64	80.44
262.872	82.44
263.105	84.44
263.337	73.44
263.57	73.44
263.802	85.44
264.035	91.44
264.267	64.44
264.499	73.44
264.732	82.44
264.964	81.44
265.197	85.44
265.429	84.44
265.661	69.44
265.894	89.44
266.126	84.44
266.358	77.44
266.591	80.44
266.823	77.44
267.055	71.44
267.287	83.44
267.52	77.44
267.752	95.44
267.984	85.44
268.216	71.44
268.448	65.44
268.681	72.44
268.913	78.44
269.145	80.44
269.377	91.44
269.609	84.44
269.841	100.44
270.073	77.44
270.306	73.44
270.538	69.44
270.77	76.44
271.002	73.44
271.234	80.44
271.466	85.44
271.698	72.44
271.93	72.44
272.162	85.44
272.394	83.44
272.626	88.44
272.858	81.44
273.09	77.44
273.322	86.44
273.553	73.44
273.785	85.44
274.017	75.44
274.249	63.44
274.481	82.44
274.713	72.44
274.945	76.44
275.176	84.44
275.408	71.44
275.64	79.44
275.872	75.44
276.104	67.44
276.335	84.44
276.567	72.44
276.799	68.44
277.031	70.44
277.262	80.44
277.494	82.44
277.726	88.44
277.957	84.44
278.189	66.44
278.421	80.44
278.652	76.44
278.884	86.44
279.115	78.44
279.347	79.44
279.579	64.44
279.81	80.44
280.042	70.44
280.273	73.44
280.505	79.44
280.736	70.44
280.968	88.44
281.199	69.44
281.431	83.44
281.662	65.44
281.894	73.44
282.125	79.44
282.356	74.44
282.588	76.44
282.819	66.44
283.051	73.44
283.282	90.44
283.513	71.44
283.745	70.44
283.976	84.44
284.207	75.44
284.439	83.44
284.67	73.44
284.901	72.44
285.132	63.44
285.364	92.44
285.595	83.44
285.826	85.44
286.057	76.44
286.288	80.44
286.52	91.44
286.751	80.44
286.982	83.44
287.213	76.44
287.444	70.44
287.675	75.44
287.906	81.44
288.138	80.44
288.369	91.44
288.6	83.44
288.831	73.44
289.062	86.44
289.293	74.44
289.524	68.44
289.755	83.44
289.986	73.44
290.217	62.44
290.448	68.44
290.679	63.44
290.91	77.44
291.141	72.44
291.371	80.44
291.602	88.44
291.833	75.44
292.064	80.44
292.295	82.44
292.526	68.44
292.757	90.44
292.987	88.44
293.218	73.44
293.449	87.44
293.68	86.44
293.91	89.44
294.141	79.44
294.372	68.44
294.603	88.44
294.833	83.44
295.064	83.44
295.295	88.44
295.525	84.44
295.756	95.44
295.987	86.44
296.217	52.44
296.448	77.44
296.679	79.44
296.909	84.44
297.14	72.44
297.37	74.44
297.601	78.44
297.831	87.44
298.062	84.44
298.292	70.44
298.523	75.44
298.753	73.44
298.984	71.44
299.214	72.44
299.445	72.44
299.675	70.44
299.905	91.44
300.136	73.44
300.366	93.44
300.597	84.44
300.827	83.44
301.057	79.44
301.288	78.44
301.518	83.44
301.748	88.44
301.979	79.44
302.209	81.44
302.439	82.44
302.669	85.44
302.9	78.44
303.13	86.44
303.36	83.44
303.59	100.44
303.82	76.44
304.051	73.44
304.281	87.44
304.511	72.44
304.741	83.44
304.971	77.44
305.201	87.44
305.431	77.44
305.661	83.44
305.891	80.44
306.121	71.44
306.352	80.44
306.582	83.44
306.812	86.44
307.042	75.44
307.272	75.44
307.502	78.44
307.731	77.44
307.961	93.44
308.191	81.44
308.421	87.44
308.651	71.44
308.881	87.44
309.111	71.44
309.341	85.44
309.571	83.44
309.8	87.44
310.03	74.44
310.26	90.44
310.49	91.44
310.72	89.44
310.949	92.44
311.179	80.44
311.409	84.44
311.639	87.44
311.868	70.44
312.098	89.44
312.328	82.44
312.557	84.44
312.787	93.44
313.017	83.44
313.246	96.44
313.476	82.44
313.706	71.44
313.935	81.44
314.165	78.44
314.394	67.44
314.624	77.44
314.853	67.44
315.083	71.44
315.312	74.44
315.542	75.44
315.771	80.44
316.001	83.44
316.23	88.44
316.46	68.44
316.689	80.44
316.919	87.44
317.148	75.44
317.377	81.44
317.607	91.44
317.836	82.44
318.065	79.44
318.295	95.44
318.524	68.44
318.753	75.44
318.983	67.44
319.212	82.44
319.441	71.44
319.67	85.44
319.9	68.44
320.129	86.44
320.358	82.44
320.587	93.44
320.816	90.44
321.046	86.44
321.275	81.44
321.504	78.44
321.733	77.44
321.962	80.44
322.191	73.44
322.42	99.44
322.649	83.44
322.878	79.44
323.108	83.44
323.337	82.44
323.566	96.44
323.795	70.44
324.024	99.44
324.253	83.44
324.482	69.44
324.71	91.44
324.939	76.44
325.168	81.44
325.397	89.44
325.626	74.44
325.855	89.44
326.084	85.44
326.313	79.44
326.542	78.44
326.77	98.44
326.999	86.44
327.228	78.44
327.457	91.44
327.686	68.44
327.914	65.44
328.143	82.44
328.372	69.44
328.6	84.44
328.829	93.44
329.058	78.44
329.287	74.44
329.515	83.44
329.744	81.44
329.972	74.44
330.201	76.44
330.43	69.44
330.658	81.44
330.887	73.44
331.115	80.44
331.344	81.44
331.572	80.44
331.801	79.44
332.03	85.44
332.258	94.44
332.486	79.44
332.715	75.44
332.943	84.44
333.172	88.44
333.4	70.44
333.629	73.44
333.857	74.44
334.085	78.44
334.314	91.44
334.542	93.44
334.771	94.44
334.999	80.44
335.227	86.44
335.455	78.44
335.684	81.44
335.912	86.44
336.14	76.44
336.369	90.44
336.597	73.44
336.825	69.44
337.053	85.44
337.281	79.44
337.51	71.44
337.738	73.44
337.966	76.44
338.194	95.44
338.422	76.44
338.65	75.44
338.878	99.44
339.106	73.44
339.334	82.44
339.562	63.44
339.79	76.44
340.018	82.44
340.246	78.44
340.474	82.44
340.702	84.44
340.93	87.44
341.158	72.44
341.386	78.44
341.614	81.44
341.842	78.44
342.07	76.44
342.298	81.44
342.526	85.44
342.754	94.44
342.981	73.44
343.209	79.44
343.437	95.44
343.665	87.44
343.893	86.44
344.12	91.44
344.348	95.44
344.576	76.44
344.804	93.44
345.031	76.44
345.259	96.44
345.487	95.44
345.714	89.44
345.942	87.44
346.17	91.44
346.397	95.44
346.625	79.44
346.853	94.44
347.08	71.44
347.308	80.44
347.535	73.44
347.763	82.44
347.99	81.44
348.218	79.44
348.445	77.44
348.673	81.44
348.9	83.44
349.128	93.44
349.355	77.44
349.583	78.44
349.81	81.44
350.037	63.44
350.265	80.44
350.492	84.44
350.72	59.44
350.947	86.44
351.174	85.44
351.402	73.44
351.629	80.44
351.856	91.44
352.083	86.44
352.311	75.44
352.538	85.44
352.765	88.44
352.992	87.44
353.22	82.44
353.447	82.44
353.674	77.44
353.901	89.44
354.128	79.44
354.355	91.44
354.583	79.44
354.81	90.44
355.037	86.44
355.264	78.44
355.491	79.44
355.718	69.44
355.945	72.44
356.172	74.44
356.399	72.44
356.626	78.44
356.853	94.44
357.08	80.44
357.307	84.44
357.534	80.44
357.761	78.44
357.988	91.44
358.215	81.44
358.441	67.44
358.668	86.44
358.895	72.44
359.122	84.44
359.349	87.44
359.576	77.44
359.802	65.44
360.029	71.44
360.256	71.44
360.483	91.44
360.709	89.44
360.936	73.44
361.163	78.44
361.39	69.44
361.616	86.44
361.843	84.44
362.07	87.44
362.296	78.44
362.523	87.44
362.749	81.44
362.976	85.44
363.203	86.44
363.429	93.44
363.656	94.44
363.882	85.44
364.109	84.44
364.335	77.44
364.562	84.44
364.788	75.44
365.015	90.44
365.241	91.44
365.468	92.44
365.694	85.44
365.92	87.44
366.147	91.44
366.373	68.44
366.599	78.44
366.826	81.44
367.052	78.44
367.278	88.44
367.505	87.44
367.731	84.44
367.957	76.44
368.184	66.44
368.41	87.44
368.636	98.44
368.862	77.44
369.089	86.44
369.315	92.44
369.541	85.44
369.767	92.44
369.993	75.44
370.219	92.44
370.445	77.44
370.672	79.44
370.898	82.44
371.124	90.44
371.35	86.44
371.576	97.44
371.802	94.44
372.028	93.44
372.254	97.44
372.48	95.44
372.706	84.44
372.932	104.44
373.158	93.44
373.384	89.44
373.61	77.44
373.835	88.44
374.061	85.44
374.287	85.44
374.513	90.44
374.739	95.44
374.965	84.44
375.191	93.44
375.416	88.44
375.642	91.44
375.868	77.44
376.094	88.44
376.319	101.44
376.545	92.44
376.771	89.44
376.997	85.44
377.222	94.44
377.448	81.44
377.674	96.44
377.899	81.44
378.125	109.44
378.35	85.44
378.576	85.44
378.802	93.44
379.027	88.44
379.253	80.44
379.478	84.44
379.704	81.44
379.929	101.44
380.155	98.44
380.38	79.44
380.606	92.44
380.831	79.44
381.057	111.44
381.282	67.44
381.507	97.44
381.733	93.44
381.958	96.44
382.184	87.44
382.409	111.44
382.634	94.44
382.86	82.44
383.085	90.44
383.31	110.44
383.535	104.44
383.761	88.44
383.986	78.44
384.211	82.44
384.436	91.44
384.662	95.44
384.887	94.44
385.112	93.44
385.337	87.44
385.562	85.44
385.787	100.44
386.013	109.44
386.238	96.44
386.463	85.44
386.688	95.44
386.913	96.44
387.138	93.44
387.363	110.44
387.588	107.44
387.813	91.44
388.038	80.44
388.263	101.44
388.488	100.44
388.713	101.44
388.938	80.44
389.163	89.44
389.387	98.44
389.612	100.44
389.837	88.44
390.062	112.44
390.287	100.44
390.512	113.44
390.736	100.44
390.961	99.44
391.186	86.44
391.411	92.44
391.636	114.44
391.86	95.44
392.085	111.44
392.31	104.44
392.534	100.44
392.759	96.44
392.984	99.44
393.208	100.44
393.433	120.44
393.658	97.44
393.882	102.44
394.107	91.44
394.331	110.44
394.556	108.44
394.78	109.44
395.005	117.44
395.229	93.44
395.454	114.44
395.678	90.44
395.903	117.44
396.127	115.44
396.352	103.44
396.576	112.44
396.801	107.44
397.025	86.44
397.249	105.44
397.474	110.44
397.698	110.44
397.922	108.44
398.147	93.44
398.371	112.44
398.595	102.44
398.82	101.44
399.044	103.44
399.268	112.44
399.492	116.44
399.717	92.44
399.941	105.44
400.165	110.44
400.389	116.44
400.613	111.44
400.837	94.44
401.062	108.44
401.286	109.44
401.51	99.44
401.734	107.44
401.958	102.44
402.182	102.44
402.406	103.44
402.63	114.44
402.854	115.44
403.078	101.44
403.302	87.44
403.526	104.44
403.75	111.44
403.974	107.44
404.198	97.44
404.422	102.44
404.645	116.44
404.869	120.44
405.093	122.44
405.317	131.44
405.541	102.44
405.765	126.44
405.988	116.44
406.212	115.44
406.436	117.44
406.66	103.44
406.883	117.44
407.107	113.44
407.331	117.44
407.555	101.44
407.778	107.44
408.002	115.44
408.226	117.44
408.449	110.44
408.673	107.44
408.896	113.44
409.12	113.44
409.344	117.44
409.567	98.44
409.791	107.44
410.014	124.44
410.238	110.44
410.461	117.44
410.685	105.44
410.908	104.44
411.132	122.44
411.355	119.44
411.578	119.44
411.802	121.44
412.025	113.44
412.249	124.44
412.472	110.44
412.695	116.44
412.919	123.44
413.142	114.44
413.365	104.44
413.589	121.44
413.812	107.44
414.035	120.44
414.258	101.44
414.482	119.44
414.705	121.44
414.928	117.44
415.151	112.44
415.374	117.44
415.597	128.44
415.821	114.44
416.044	115.44
416.267	113.44
416.49	137.44
416.713	127.44
416.936	131.44
417.159	115.44
417.382	115.44
417.605	122.44
417.828	115.44
418.051	120.44
418.274	123.44
418.497	130.44
418.72	115.44
418.943	115.44
419.166	120.44
419.389	118.44
419.611	126.44
419.834	128.44
420.057	121.44
420.28	121.44
420.503	131.44
420.726	115.44
420.948	132.44
421.171	120.44
421.394	124.44
421.617	145.44
421.839	133.44
422.062	133.44
422.285	113.44
422.507	134.44
422.73	111.44
422.953	118.44
423.175	112.44
423.398	117.44
423.621	118.44
423.843	130.44
424.066	132.44
424.288	133.44
424.511	128.44
424.733	135.44
424.956	140.44
425.178	144.44
425.401	143.44
425.623	131.44
425.846	121.44
426.068	128.44
426.291	114.44
426.513	110.44
426.735	127.44
426.958	134.44
427.18	134.44
427.402	122.44
427.625	124.44
427.847	129.44
428.069	128.44
428.292	122.44
428.514	127.44
428.736	107.44
428.958	116.44
429.181	108.44
429.403	115.44
429.625	123.44
429.847	135.44
430.069	121.44
430.292	122.44
430.514	116.44
430.736	121.44
430.958	124.44
431.18	123.44
431.402	112.44
431.624	97.44
431.846	107.44
432.068	105.44
432.29	83.44
432.512	116.44
432.734	116.44
432.956	125.44
433.178	136.44
433.4	144.44
433.622	133.44
433.844	137.44
434.066	135.44
434.287	110.44
434.509	96.44
434.731	109.44
434.953	111.44
435.175	111.44
435.397	128.44
435.618	123.44
435.84	104.44
436.062	117.44
436.284	121.44
436.505	126.44
436.727	127.44
436.949	126.44
437.17	129.44
437.392	116.44
437.614	102.44
437.835	104.44
438.057	110.44
438.278	104.44
438.5	113.44
438.721	129.44
438.943	138.44
439.165	142.44
439.386	123.44
439.608	139.44
439.829	137.44
440.05	157.44
440.272	132.44
440.493	148.44
440.715	158.44
440.936	135.44
441.158	136.44
441.379	128.44
441.6	144.44
441.822	143.44
442.043	129.44
442.264	136.44
442.486	131.44
442.707	129.44
442.928	137.44
443.149	130.44
443.371	140.44
443.592	151.44
443.813	149.44
444.034	137.44
444.255	133.44
444.476	141.44
444.698	132.44
444.919	138.44
445.14	269.44
445.361	190.44
445.582	146.44
445.803	149.44
446.024	136.44
446.245	139.44
446.466	143.44
446.687	149.44
446.908	154.44
447.129	148.44
447.35	142.44
447.571	155.44
447.792	138.44
448.013	144.44
448.234	131.44
448.455	130.44
448.675	125.44
448.896	149.44
449.117	143.44
449.338	125.44
449.559	131.44
449.779	109.44
450	148.44
450.221	135.44
450.442	138.44
450.662	136.44
450.883	135.44
451.104	126.44
451.324	133.44
451.545	123.44
451.766	115.44
451.986	119.44
452.207	131.44
452.428	122.44
452.648	138.44
452.869	109.44
453.089	99.44
453.31	101.44
453.53	99.44
453.751	100.44
453.971	112.44
454.192	90.44
454.412	119.44
454.633	116.44
454.853	115.44
455.073	108.44
455.294	117.44
455.514	127.44
455.734	123.44
455.955	110.44
456.175	113.44
456.395	103.44
456.616	102.44
456.836	93.44
457.056	102.44
457.276	101.44
457.497	113.44
457.717	93.44
457.937	98.44
458.157	105.44
458.377	100.44
458.598	95.44
458.818	92.44
459.038	88.44
459.258	88.44
459.478	72.44
459.698	91.44
459.918	89.44
460.138	97.44
460.358	97.44
460.578	118.44
460.798	101.44
461.018	108.44
461.238	136.44
461.458	112.44
461.678	96.44
461.898	115.44
462.118	112.44
462.338	117.44
462.558	107.44
462.777	105.44
462.997	103.44
463.217	94.44
463.437	112.44
463.657	100.44
463.876	107.44
464.096	100.44
464.316	109.44
464.536	114.44
464.755	118.44
464.975	110.44
465.195	119.44
465.414	114.44
465.634	104.44
465.854	127.44
466.073	115.44
466.293	125.44
466.512	121.44
466.732	128.44
466.951	105.44
467.171	123.44
467.391	127.44
467.61	133.44
467.829	136.44
468.049	131.44
468.268	132.44
468.488	122.44
468.707	152.44
468.927	135.44
469.146	127.44
469.365	138.44
469.585	141.44
469.804	133.44
470.023	128.44
470.243	136.44
470.462	130.44
470.681	141.44
470.901	136.44
471.12	131.44
471.339	131.44
471.558	134.44
471.777	117.44
471.997	134.44
472.216	133.44
472.435	116.44
472.654	112.44
472.873	105.44
473.092	107.44
473.311	123.44
473.53	131.44
473.749	113.44
473.968	143.44
474.187	111.44
474.406	119.44
474.625	114.44
474.844	130.44
475.063	126.44
475.282	123.44
475.501	122.44
475.72	118.44
475.939	120.44
476.158	127.44
476.377	129.44
476.596	135.44
476.814	96.44
477.033	116.44
477.252	98.44
477.471	123.44
477.69	121.44
477.908	133.44
478.127	130.44
478.346	122.44
478.564	123.44
478.783	128.44
479.002	133.44
479.22	145.44
479.439	135.44
479.658	111.44
479.876	111.44
480.095	104.44
480.313	111.44
480.532	116.44
480.751	99.44
480.969	93.44
481.188	96.44
481.406	88.44
481.624	75.44
481.843	67.44
482.061	86.44
482.28	111.44
482.498	116.44
482.717	125.44
482.935	115.44
483.153	137.44
483.372	142.44
483.59	135.44
483.808	132.44
484.027	118.44
484.245	128.44
484.463	132.44
484.681	143.44
484.9	134.44
485.118	127.44
485.336	118.44
485.554	96.44
485.772	107.44
485.99	91.44
486.209	115.44
486.427	102.44
486.645	117.44
486.863	122.44
487.081	139.44
487.299	133.44
487.517	130.44
487.735	150.44
487.953	173.44
488.171	180.44
488.389	177.44
488.607	144.44
488.825	145.44
489.043	144.44
489.261	126.44
489.479	129.44
489.696	144.44
489.914	136.44
490.132	126.44
490.35	143.44
490.568	143.44
490.786	178.44
491.003	180.44
491.221	191.44
491.439	190.44
491.657	195.44
491.874	199.44
492.092	214.44
492.31	225.44
492.527	218.44
492.745	202.44
492.963	186.44
493.18	179.44
493.398	191.44
493.615	175.44
493.833	169.44
494.05	178.44
494.268	173.44
494.485	162.44
494.703	175.44
494.92	167.44
495.138	175.44
495.355	161.44
495.573	160.44
495.79	147.44
496.008	165.44
496.225	152.44
496.442	180.44
496.66	171.44
496.877	165.44
497.094	151.44
497.312	150.44
497.529	166.44
497.746	146.44
497.963	130.44
498.181	108.44
498.398	134.44
498.615	119.44
498.832	107.44
499.049	111.44
499.267	119.44
499.484	118.44
499.701	132.44
499.918	123.44
500.135	125.44
500.352	148.44
500.569	131.44
500.786	134.44
501.003	141.44
501.22	156.44
501.437	128.44
501.654	123.44
501.871	128.44
502.088	132.44
502.305	126.44
502.522	122.44
502.739	128.44
502.956	119.44
503.172	126.44
503.389	126.44
503.606	113.44
503.823	109.44
504.04	113.44
504.256	121.44
504.473	110.44
504.69	123.44
504.907	116.44
505.123	127.44
505.34	114.44
505.557	113.44
505.773	110.44
505.99	119.44
506.207	116.44
506.423	113.44
506.64	103.44
506.856	113.44
507.073	117.44
507.289	101.44
507.506	117.44
507.722	109.44
507.939	112.44
508.155	124.44
508.372	119.44
508.588	117.44
508.805	108.44
509.021	100.44
509.238	96.44
509.454	102.44
509.67	87.44
509.887	111.44
510.103	92.44
510.319	94.44
510.536	92.44
510.752	83.44
510.968	73.44
511.184	77.44
511.401	83.44
511.617	92.44
511.833	76.44
512.049	78.44
