Data from Location2.07152019.Energy5.Lamp.07192019.3%Agarose_HRD10591_14-58-36-359.txt Node
Date: Fri Jul 19 14:58:36 EDT 2019
User: cochatt
Spectrometer: HR+D1059
Trigger mode: 1
Integration Time (sec): 1.000000E-1
Scans to average: 1
Electric dark correction enabled: true
Nonlinearity correction enabled: false
Boxcar width: 0
XAxis mode: Wavelengths
Number of Pixels in Spectrum: 2048
>>>>>Begin Spectral Data<<<<<
223.165	-10.69
223.4	-10.69
223.635	-10.69
223.869	-16.69
224.104	-15.69
224.338	-11.69
224.573	-9.69
224.808	-15.69
225.042	6.31
225.277	7.31
225.511	-6.69
225.746	-16.69
225.98	-13.69
226.215	8.31
226.449	18.31
226.683	3.31
226.918	30.31
227.152	43.31
227.387	45.31
227.621	36.31
227.856	40.31
228.09	54.31
228.324	50.31
228.559	66.31
228.793	67.31
229.027	70.31
229.262	76.31
229.496	72.31
229.73	61.31
229.964	68.31
230.199	78.31
230.433	82.31
230.667	74.31
230.901	90.31
231.136	77.31
231.37	81.31
231.604	85.31
231.838	74.31
232.072	80.31
232.306	75.31
232.541	82.31
232.775	88.31
233.009	77.31
233.243	79.31
233.477	84.31
233.711	78.31
233.945	79.31
234.179	71.31
234.413	84.31
234.647	80.31
234.881	96.31
235.115	76.31
235.349	95.31
235.583	80.31
235.817	93.31
236.051	86.31
236.285	77.31
236.519	94.31
236.753	77.31
236.987	77.31
237.221	86.31
237.455	72.31
237.689	74.31
237.922	76.31
238.156	98.31
238.39	75.31
238.624	77.31
238.858	63.31
239.091	75.31
239.325	87.31
239.559	92.31
239.793	70.31
240.027	83.31
240.26	74.31
240.494	80.31
240.728	91.31
240.961	77.31
241.195	83.31
241.429	86.31
241.662	91.31
241.896	72.31
242.13	81.31
242.363	82.31
242.597	84.31
242.83	86.31
243.064	70.31
243.298	72.31
243.531	88.31
243.765	77.31
243.998	81.31
244.232	88.31
244.465	94.31
244.699	83.31
244.932	83.31
245.166	90.31
245.399	80.31
245.633	92.31
245.866	85.31
246.099	85.31
246.333	85.31
246.566	75.31
246.8	94.31
247.033	91.31
247.266	78.31
247.5	78.31
247.733	91.31
247.966	73.31
248.2	74.31
248.433	79.31
248.666	84.31
248.899	76.31
249.133	77.31
249.366	81.31
249.599	79.31
249.832	80.31
250.066	94.31
250.299	93.31
250.532	87.31
250.765	80.31
250.998	92.31
251.231	80.31
251.465	84.31
251.698	80.31
251.931	88.31
252.164	83.31
252.397	82.31
252.63	83.31
252.863	91.31
253.096	84.31
253.329	71.31
253.562	91.31
253.795	93.31
254.028	82.31
254.261	90.31
254.494	82.31
254.727	102.31
254.96	86.31
255.193	86.31
255.426	87.31
255.659	75.31
255.892	85.31
256.124	79.31
256.357	97.31
256.59	90.31
256.823	82.31
257.056	93.31
257.289	74.31
257.521	97.31
257.754	94.31
257.987	80.31
258.22	102.31
258.452	85.31
258.685	80.31
258.918	79.31
259.151	71.31
259.383	80.31
259.616	75.31
259.849	83.31
260.081	82.31
260.314	100.31
260.547	82.31
260.779	81.31
261.012	81.31
261.244	75.31
261.477	90.31
261.71	98.31
261.942	91.31
262.175	70.31
262.407	107.31
262.64	76.31
262.872	77.31
263.105	75.31
263.337	86.31
263.57	82.31
263.802	87.31
264.035	90.31
264.267	90.31
264.499	87.31
264.732	90.31
264.964	74.31
265.197	88.31
265.429	101.31
265.661	89.31
265.894	86.31
266.126	85.31
266.358	92.31
266.591	85.31
266.823	77.31
267.055	72.31
267.287	79.31
267.52	90.31
267.752	87.31
267.984	86.31
268.216	84.31
268.448	90.31
268.681	89.31
268.913	86.31
269.145	91.31
269.377	87.31
269.609	90.31
269.841	84.31
270.073	74.31
270.306	77.31
270.538	97.31
270.77	87.31
271.002	81.31
271.234	76.31
271.466	84.31
271.698	100.31
271.93	78.31
272.162	90.31
272.394	99.31
272.626	90.31
272.858	83.31
273.09	96.31
273.322	86.31
273.553	86.31
273.785	84.31
274.017	76.31
274.249	85.31
274.481	80.31
274.713	79.31
274.945	82.31
275.176	96.31
275.408	82.31
275.64	71.31
275.872	83.31
276.104	85.31
276.335	85.31
276.567	87.31
276.799	93.31
277.031	83.31
277.262	95.31
277.494	84.31
277.726	85.31
277.957	71.31
278.189	80.31
278.421	83.31
278.652	81.31
278.884	91.31
279.115	86.31
279.347	98.31
279.579	84.31
279.81	86.31
280.042	84.31
280.273	91.31
280.505	71.31
280.736	80.31
280.968	78.31
281.199	90.31
281.431	88.31
281.662	77.31
281.894	85.31
282.125	88.31
282.356	93.31
282.588	79.31
282.819	78.31
283.051	104.31
283.282	86.31
283.513	86.31
283.745	100.31
283.976	97.31
284.207	93.31
284.439	96.31
284.67	100.31
284.901	87.31
285.132	86.31
285.364	87.31
285.595	80.31
285.826	83.31
286.057	90.31
286.288	93.31
286.52	85.31
286.751	86.31
286.982	78.31
287.213	94.31
287.444	92.31
287.675	92.31
287.906	92.31
288.138	89.31
288.369	91.31
288.6	79.31
288.831	86.31
289.062	82.31
289.293	87.31
289.524	87.31
289.755	91.31
289.986	98.31
290.217	86.31
290.448	90.31
290.679	81.31
290.91	84.31
291.141	106.31
291.371	83.31
291.602	86.31
291.833	94.31
292.064	81.31
292.295	87.31
292.526	90.31
292.757	81.31
292.987	89.31
293.218	86.31
293.449	80.31
293.68	86.31
293.91	101.31
294.141	89.31
294.372	82.31
294.603	76.31
294.833	88.31
295.064	78.31
295.295	79.31
295.525	90.31
295.756	80.31
295.987	100.31
296.217	87.31
296.448	77.31
296.679	86.31
296.909	95.31
297.14	81.31
297.37	85.31
297.601	73.31
297.831	87.31
298.062	79.31
298.292	101.31
298.523	109.31
298.753	92.31
298.984	87.31
299.214	92.31
299.445	95.31
299.675	87.31
299.905	74.31
300.136	107.31
300.366	80.31
300.597	95.31
300.827	85.31
301.057	79.31
301.288	87.31
301.518	89.31
301.748	84.31
301.979	77.31
302.209	83.31
302.439	95.31
302.669	91.31
302.9	95.31
303.13	98.31
303.36	82.31
303.59	94.31
303.82	77.31
304.051	78.31
304.281	90.31
304.511	106.31
304.741	86.31
304.971	87.31
305.201	81.31
305.431	92.31
305.661	101.31
305.891	95.31
306.121	90.31
306.352	81.31
306.582	78.31
306.812	81.31
307.042	92.31
307.272	71.31
307.502	93.31
307.731	80.31
307.961	91.31
308.191	91.31
308.421	88.31
308.651	93.31
308.881	95.31
309.111	94.31
309.341	89.31
309.571	88.31
309.8	98.31
310.03	80.31
310.26	83.31
310.49	90.31
310.72	89.31
310.949	92.31
311.179	88.31
311.409	84.31
311.639	78.31
311.868	99.31
312.098	88.31
312.328	86.31
312.557	90.31
312.787	71.31
313.017	76.31
313.246	99.31
313.476	77.31
313.706	91.31
313.935	89.31
314.165	100.31
314.394	100.31
314.624	91.31
314.853	92.31
315.083	83.31
315.312	87.31
315.542	80.31
315.771	91.31
316.001	98.31
316.23	91.31
316.46	80.31
316.689	89.31
316.919	71.31
317.148	91.31
317.377	85.31
317.607	78.31
317.836	92.31
318.065	95.31
318.295	87.31
318.524	75.31
318.753	96.31
318.983	82.31
319.212	90.31
319.441	91.31
319.67	85.31
319.9	78.31
320.129	84.31
320.358	89.31
320.587	84.31
320.816	93.31
321.046	89.31
321.275	86.31
321.504	79.31
321.733	93.31
321.962	86.31
322.191	89.31
322.42	96.31
322.649	99.31
322.878	92.31
323.108	91.31
323.337	87.31
323.566	82.31
323.795	84.31
324.024	84.31
324.253	71.31
324.482	84.31
324.71	89.31
324.939	85.31
325.168	80.31
325.397	84.31
325.626	88.31
325.855	84.31
326.084	99.31
326.313	81.31
326.542	76.31
326.77	85.31
326.999	93.31
327.228	88.31
327.457	72.31
327.686	77.31
327.914	95.31
328.143	93.31
328.372	89.31
328.6	91.31
328.829	72.31
329.058	85.31
329.287	89.31
329.515	88.31
329.744	88.31
329.972	95.31
330.201	89.31
330.43	88.31
330.658	96.31
330.887	102.31
331.115	96.31
331.344	67.31
331.572	86.31
331.801	78.31
332.03	91.31
332.258	88.31
332.486	100.31
332.715	96.31
332.943	97.31
333.172	88.31
333.4	88.31
333.629	82.31
333.857	94.31
334.085	81.31
334.314	84.31
334.542	88.31
334.771	74.31
334.999	76.31
335.227	82.31
335.455	77.31
335.684	86.31
335.912	88.31
336.14	87.31
336.369	91.31
336.597	95.31
336.825	83.31
337.053	88.31
337.281	86.31
337.51	90.31
337.738	96.31
337.966	92.31
338.194	78.31
338.422	85.31
338.65	91.31
338.878	83.31
339.106	79.31
339.334	104.31
339.562	80.31
339.79	93.31
340.018	81.31
340.246	87.31
340.474	83.31
340.702	84.31
340.93	84.31
341.158	91.31
341.386	92.31
341.614	90.31
341.842	96.31
342.07	86.31
342.298	86.31
342.526	94.31
342.754	96.31
342.981	88.31
343.209	85.31
343.437	93.31
343.665	88.31
343.893	91.31
344.12	103.31
344.348	94.31
344.576	73.31
344.804	85.31
345.031	87.31
345.259	92.31
345.487	85.31
345.714	74.31
345.942	79.31
346.17	90.31
346.397	92.31
346.625	90.31
346.853	90.31
347.08	85.31
347.308	87.31
347.535	84.31
347.763	78.31
347.99	80.31
348.218	83.31
348.445	95.31
348.673	95.31
348.9	88.31
349.128	72.31
349.355	90.31
349.583	90.31
349.81	95.31
350.037	96.31
350.265	96.31
350.492	84.31
350.72	97.31
350.947	88.31
351.174	81.31
351.402	83.31
351.629	93.31
351.856	84.31
352.083	83.31
352.311	93.31
352.538	79.31
352.765	58.31
352.992	73.31
353.22	92.31
353.447	87.31
353.674	75.31
353.901	78.31
354.128	86.31
354.355	89.31
354.583	98.31
354.81	86.31
355.037	96.31
355.264	97.31
355.491	91.31
355.718	78.31
355.945	87.31
356.172	87.31
356.399	95.31
356.626	92.31
356.853	83.31
357.08	91.31
357.307	91.31
357.534	84.31
357.761	88.31
357.988	93.31
358.215	86.31
358.441	100.31
358.668	94.31
358.895	74.31
359.122	80.31
359.349	97.31
359.576	95.31
359.802	92.31
360.029	74.31
360.256	82.31
360.483	93.31
360.709	85.31
360.936	94.31
361.163	94.31
361.39	81.31
361.616	84.31
361.843	102.31
362.07	92.31
362.296	76.31
362.523	103.31
362.749	93.31
362.976	84.31
363.203	83.31
363.429	76.31
363.656	92.31
363.882	93.31
364.109	102.31
364.335	95.31
364.562	74.31
364.788	91.31
365.015	92.31
365.241	98.31
365.468	78.31
365.694	104.31
365.92	81.31
366.147	76.31
366.373	88.31
366.599	93.31
366.826	79.31
367.052	93.31
367.278	99.31
367.505	100.31
367.731	92.31
367.957	80.31
368.184	85.31
368.41	87.31
368.636	90.31
368.862	90.31
369.089	98.31
369.315	101.31
369.541	100.31
369.767	96.31
369.993	111.31
370.219	95.31
370.445	84.31
370.672	85.31
370.898	100.31
371.124	107.31
371.35	93.31
371.576	115.31
371.802	87.31
372.028	105.31
372.254	90.31
372.48	95.31
372.706	85.31
372.932	84.31
373.158	98.31
373.384	104.31
373.61	104.31
373.835	83.31
374.061	100.31
374.287	107.31
374.513	95.31
374.739	92.31
374.965	98.31
375.191	88.31
375.416	85.31
375.642	98.31
375.868	99.31
376.094	97.31
376.319	99.31
376.545	107.31
376.771	91.31
376.997	85.31
377.222	105.31
377.448	107.31
377.674	92.31
377.899	98.31
378.125	99.31
378.35	96.31
378.576	84.31
378.802	99.31
379.027	91.31
379.253	98.31
379.478	98.31
379.704	104.31
379.929	101.31
380.155	112.31
380.38	94.31
380.606	92.31
380.831	118.31
381.057	105.31
381.282	91.31
381.507	114.31
381.733	101.31
381.958	102.31
382.184	90.31
382.409	91.31
382.634	96.31
382.86	103.31
383.085	105.31
383.31	79.31
383.535	90.31
383.761	112.31
383.986	102.31
384.211	99.31
384.436	97.31
384.662	95.31
384.887	86.31
385.112	107.31
385.337	107.31
385.562	105.31
385.787	106.31
386.013	104.31
386.238	103.31
386.463	118.31
386.688	98.31
386.913	90.31
387.138	101.31
387.363	108.31
387.588	88.31
387.813	101.31
388.038	97.31
388.263	103.31
388.488	108.31
388.713	106.31
388.938	112.31
389.163	94.31
389.387	90.31
389.612	96.31
389.837	111.31
390.062	120.31
390.287	109.31
390.512	93.31
390.736	103.31
390.961	106.31
391.186	111.31
391.411	113.31
391.636	99.31
391.86	121.31
392.085	102.31
392.31	114.31
392.534	96.31
392.759	117.31
392.984	102.31
393.208	112.31
393.433	92.31
393.658	91.31
393.882	105.31
394.107	107.31
394.331	90.31
394.556	113.31
394.78	110.31
395.005	118.31
395.229	102.31
395.454	101.31
395.678	114.31
395.903	109.31
396.127	100.31
396.352	111.31
396.576	119.31
396.801	104.31
397.025	119.31
397.249	98.31
397.474	119.31
397.698	94.31
397.922	105.31
398.147	101.31
398.371	95.31
398.595	101.31
398.82	117.31
399.044	114.31
399.268	100.31
399.492	124.31
399.717	114.31
399.941	108.31
400.165	112.31
400.389	102.31
400.613	127.31
400.837	112.31
401.062	100.31
401.286	123.31
401.51	130.31
401.734	107.31
401.958	115.31
402.182	113.31
402.406	116.31
402.63	122.31
402.854	110.31
403.078	109.31
403.302	108.31
403.526	119.31
403.75	120.31
403.974	118.31
404.198	105.31
404.422	116.31
404.645	129.31
404.869	130.31
405.093	122.31
405.317	117.31
405.541	108.31
405.765	128.31
405.988	112.31
406.212	126.31
406.436	131.31
406.66	138.31
406.883	129.31
407.107	123.31
407.331	140.31
407.555	115.31
407.778	120.31
408.002	122.31
408.226	111.31
408.449	129.31
408.673	128.31
408.896	126.31
409.12	115.31
409.344	120.31
409.567	112.31
409.791	118.31
410.014	126.31
410.238	153.31
410.461	127.31
410.685	139.31
410.908	126.31
411.132	125.31
411.355	130.31
411.578	130.31
411.802	123.31
412.025	127.31
412.249	133.31
412.472	127.31
412.695	142.31
412.919	126.31
413.142	124.31
413.365	128.31
413.589	121.31
413.812	112.31
414.035	133.31
414.258	132.31
414.482	122.31
414.705	114.31
414.928	130.31
415.151	116.31
415.374	127.31
415.597	117.31
415.821	120.31
416.044	117.31
416.267	132.31
416.49	129.31
416.713	123.31
416.936	132.31
417.159	131.31
417.382	139.31
417.605	138.31
417.828	131.31
418.051	120.31
418.274	118.31
418.497	134.31
418.72	137.31
418.943	123.31
419.166	131.31
419.389	127.31
419.611	117.31
419.834	122.31
420.057	134.31
420.28	128.31
420.503	138.31
420.726	133.31
420.948	134.31
421.171	122.31
421.394	115.31
421.617	137.31
421.839	139.31
422.062	121.31
422.285	136.31
422.507	132.31
422.73	134.31
422.953	138.31
423.175	139.31
423.398	125.31
423.621	132.31
423.843	128.31
424.066	148.31
424.288	130.31
424.511	136.31
424.733	137.31
424.956	157.31
425.178	140.31
425.401	153.31
425.623	128.31
425.846	132.31
426.068	125.31
426.291	147.31
426.513	141.31
426.735	122.31
426.958	138.31
427.18	129.31
427.402	135.31
427.625	132.31
427.847	138.31
428.069	142.31
428.292	130.31
428.514	139.31
428.736	134.31
428.958	145.31
429.181	128.31
429.403	132.31
429.625	136.31
429.847	157.31
430.069	155.31
430.292	137.31
430.514	130.31
430.736	120.31
430.958	127.31
431.18	133.31
431.402	128.31
431.624	121.31
431.846	126.31
432.068	84.31
432.29	100.31
432.512	103.31
432.734	129.31
432.956	135.31
433.178	138.31
433.4	143.31
433.622	125.31
433.844	140.31
434.066	126.31
434.287	124.31
434.509	94.31
434.731	105.31
434.953	121.31
435.175	126.31
435.397	137.31
435.618	122.31
435.84	111.31
436.062	120.31
436.284	124.31
436.505	132.31
436.727	128.31
436.949	134.31
437.17	123.31
437.392	120.31
437.614	120.31
437.835	116.31
438.057	121.31
438.278	126.31
438.5	122.31
438.721	120.31
438.943	129.31
439.165	138.31
439.386	144.31
439.608	135.31
439.829	134.31
440.05	148.31
440.272	152.31
440.493	129.31
440.715	148.31
440.936	131.31
441.158	148.31
441.379	146.31
441.6	151.31
441.822	162.31
442.043	143.31
442.264	142.31
442.486	153.31
442.707	137.31
442.928	134.31
443.149	129.31
443.371	151.31
443.592	133.31
443.813	136.31
444.034	139.31
444.255	134.31
444.476	138.31
444.698	134.31
444.919	151.31
445.14	256.31
445.361	197.31
445.582	145.31
445.803	159.31
446.024	143.31
446.245	150.31
446.466	160.31
446.687	158.31
446.908	154.31
447.129	164.31
447.35	154.31
447.571	142.31
447.792	124.31
448.013	133.31
448.234	144.31
448.455	138.31
448.675	142.31
448.896	139.31
449.117	130.31
449.338	140.31
449.559	148.31
449.779	152.31
450	152.31
450.221	148.31
450.442	143.31
450.662	140.31
450.883	139.31
451.104	132.31
451.324	125.31
451.545	136.31
451.766	129.31
451.986	134.31
452.207	132.31
452.428	130.31
452.648	118.31
452.869	127.31
453.089	124.31
453.31	114.31
453.53	109.31
453.751	115.31
453.971	103.31
454.192	121.31
454.412	113.31
454.633	118.31
454.853	126.31
455.073	119.31
455.294	149.31
455.514	138.31
455.734	126.31
455.955	127.31
456.175	125.31
456.395	114.31
456.616	116.31
456.836	106.31
457.056	104.31
457.276	108.31
457.497	103.31
457.717	121.31
457.937	94.31
458.157	121.31
458.377	115.31
458.598	117.31
458.818	100.31
459.038	85.31
459.258	103.31
459.478	97.31
459.698	90.31
459.918	92.31
460.138	108.31
460.358	116.31
460.578	111.31
460.798	120.31
461.018	120.31
461.238	116.31
461.458	116.31
461.678	119.31
461.898	108.31
462.118	127.31
462.338	140.31
462.558	118.31
462.777	111.31
462.997	119.31
463.217	123.31
463.437	117.31
463.657	109.31
463.876	115.31
464.096	115.31
464.316	109.31
464.536	118.31
464.755	117.31
464.975	125.31
465.195	134.31
465.414	112.31
465.634	126.31
465.854	121.31
466.073	134.31
466.293	126.31
466.512	118.31
466.732	124.31
466.951	136.31
467.171	144.31
467.391	150.31
467.61	135.31
467.829	138.31
468.049	124.31
468.268	124.31
468.488	144.31
468.707	138.31
468.927	152.31
469.146	136.31
469.365	138.31
469.585	148.31
469.804	139.31
470.023	144.31
470.243	133.31
470.462	164.31
470.681	143.31
470.901	147.31
471.12	148.31
471.339	131.31
471.558	149.31
471.777	133.31
471.997	149.31
472.216	129.31
472.435	129.31
472.654	103.31
472.873	105.31
473.092	112.31
473.311	116.31
473.53	130.31
473.749	139.31
473.968	148.31
474.187	123.31
474.406	118.31
474.625	126.31
474.844	127.31
475.063	136.31
475.282	109.31
475.501	118.31
475.72	132.31
475.939	123.31
476.158	129.31
476.377	142.31
476.596	125.31
476.814	117.31
477.033	114.31
477.252	117.31
477.471	112.31
477.69	136.31
477.908	131.31
478.127	147.31
478.346	127.31
478.564	142.31
478.783	156.31
479.002	152.31
479.22	139.31
479.439	136.31
479.658	128.31
479.876	109.31
480.095	105.31
480.313	112.31
480.532	123.31
480.751	104.31
480.969	100.31
481.188	95.31
481.406	100.31
481.624	77.31
481.843	87.31
482.061	95.31
482.28	124.31
482.498	123.31
482.717	120.31
482.935	137.31
483.153	139.31
483.372	149.31
483.59	142.31
483.808	138.31
484.027	147.31
484.245	136.31
484.463	135.31
484.681	138.31
484.9	144.31
485.118	141.31
485.336	125.31
485.554	116.31
485.772	88.31
485.99	96.31
486.209	120.31
486.427	122.31
486.645	120.31
486.863	140.31
487.081	154.31
487.299	142.31
487.517	148.31
487.735	165.31
487.953	182.31
488.171	184.31
488.389	174.31
488.607	167.31
488.825	147.31
489.043	142.31
489.261	143.31
489.479	142.31
489.696	151.31
489.914	129.31
490.132	148.31
490.35	134.31
490.568	162.31
490.786	186.31
491.003	164.31
491.221	180.31
491.439	200.31
491.657	193.31
491.874	220.31
492.092	220.31
492.31	228.31
492.527	234.31
492.745	204.31
492.963	203.31
493.18	195.31
493.398	174.31
493.615	188.31
493.833	178.31
494.05	170.31
494.268	182.31
494.485	172.31
494.703	168.31
494.92	178.31
495.138	167.31
495.355	170.31
495.573	175.31
495.79	165.31
496.008	164.31
496.225	169.31
496.442	158.31
496.66	164.31
496.877	173.31
497.094	174.31
497.312	153.31
497.529	162.31
497.746	148.31
497.963	137.31
498.181	139.31
498.398	119.31
498.615	120.31
498.832	130.31
499.049	127.31
499.267	127.31
499.484	137.31
499.701	140.31
499.918	125.31
500.135	145.31
500.352	158.31
500.569	150.31
500.786	150.31
501.003	125.31
501.22	148.31
501.437	163.31
501.654	154.31
501.871	143.31
502.088	133.31
502.305	117.31
502.522	123.31
502.739	112.31
502.956	146.31
503.172	136.31
503.389	120.31
503.606	117.31
503.823	123.31
504.04	125.31
504.256	111.31
504.473	125.31
504.69	116.31
504.907	119.31
505.123	123.31
505.34	126.31
505.557	128.31
505.773	116.31
505.99	130.31
506.207	119.31
506.423	127.31
506.64	124.31
506.856	136.31
507.073	135.31
507.289	127.31
507.506	120.31
507.722	121.31
507.939	130.31
508.155	122.31
508.372	125.31
508.588	124.31
508.805	121.31
509.021	118.31
509.238	118.31
509.454	98.31
509.67	111.31
509.887	106.31
510.103	108.31
510.319	102.31
510.536	80.31
510.752	94.31
510.968	78.31
