Data from Location2.07152019.Energy5.Lamp.07192019.3%Agarose_HRD10591_14-57-37-359.txt Node
Date: Fri Jul 19 14:57:37 EDT 2019
User: cochatt
Spectrometer: HR+D1059
Trigger mode: 1
Integration Time (sec): 1.000000E-1
Scans to average: 1
Electric dark correction enabled: true
Nonlinearity correction enabled: false
Boxcar width: 0
XAxis mode: Wavelengths
Number of Pixels in Spectrum: 2048
>>>>>Begin Spectral Data<<<<<
223.165	-14.75
223.4	-14.75
223.635	-14.75
223.869	-4.75
224.104	-9.75
224.338	-14.75
224.573	-17.75
224.808	-23.75
225.042	-3.75
225.277	-17.75
225.511	2.25
225.746	-4.75
225.98	16.25
226.215	2.25
226.449	17.25
226.683	16.25
226.918	33.25
227.152	24.25
227.387	18.25
227.621	44.25
227.856	46.25
228.09	54.25
228.324	48.25
228.559	66.25
228.793	50.25
229.027	52.25
229.262	68.25
229.496	63.25
229.73	85.25
229.964	67.25
230.199	72.25
230.433	60.25
230.667	74.25
230.901	68.25
231.136	83.25
231.37	71.25
231.604	81.25
231.838	82.25
232.072	69.25
232.306	80.25
232.541	85.25
232.775	79.25
233.009	95.25
233.243	68.25
233.477	78.25
233.711	85.25
233.945	78.25
234.179	75.25
234.413	68.25
234.647	73.25
234.881	73.25
235.115	74.25
235.349	73.25
235.583	65.25
235.817	71.25
236.051	93.25
236.285	66.25
236.519	69.25
236.753	74.25
236.987	74.25
237.221	89.25
237.455	74.25
237.689	79.25
237.922	82.25
238.156	76.25
238.39	76.25
238.624	65.25
238.858	71.25
239.091	87.25
239.325	69.25
239.559	72.25
239.793	67.25
240.027	76.25
240.26	64.25
240.494	90.25
240.728	80.25
240.961	77.25
241.195	75.25
241.429	70.25
241.662	78.25
241.896	75.25
242.13	69.25
242.363	86.25
242.597	60.25
242.83	79.25
243.064	74.25
243.298	70.25
243.531	68.25
243.765	91.25
243.998	76.25
244.232	72.25
244.465	76.25
244.699	67.25
244.932	79.25
245.166	76.25
245.399	74.25
245.633	73.25
245.866	74.25
246.099	65.25
246.333	79.25
246.566	83.25
246.8	72.25
247.033	69.25
247.266	65.25
247.5	79.25
247.733	72.25
247.966	64.25
248.2	71.25
248.433	90.25
248.666	79.25
248.899	64.25
249.133	82.25
249.366	87.25
249.599	81.25
249.832	67.25
250.066	68.25
250.299	73.25
250.532	84.25
250.765	85.25
250.998	79.25
251.231	92.25
251.465	59.25
251.698	80.25
251.931	77.25
252.164	75.25
252.397	80.25
252.63	92.25
252.863	68.25
253.096	79.25
253.329	76.25
253.562	73.25
253.795	87.25
254.028	78.25
254.261	77.25
254.494	69.25
254.727	73.25
254.96	81.25
255.193	78.25
255.426	75.25
255.659	86.25
255.892	72.25
256.124	81.25
256.357	83.25
256.59	86.25
256.823	73.25
257.056	73.25
257.289	79.25
257.521	81.25
257.754	89.25
257.987	80.25
258.22	93.25
258.452	76.25
258.685	72.25
258.918	80.25
259.151	82.25
259.383	80.25
259.616	81.25
259.849	67.25
260.081	74.25
260.314	79.25
260.547	87.25
260.779	77.25
261.012	67.25
261.244	72.25
261.477	78.25
261.71	74.25
261.942	70.25
262.175	74.25
262.407	80.25
262.64	95.25
262.872	82.25
263.105	84.25
263.337	77.25
263.57	74.25
263.802	72.25
264.035	65.25
264.267	83.25
264.499	66.25
264.732	74.25
264.964	76.25
265.197	82.25
265.429	73.25
265.661	79.25
265.894	71.25
266.126	84.25
266.358	77.25
266.591	64.25
266.823	88.25
267.055	84.25
267.287	89.25
267.52	82.25
267.752	74.25
267.984	87.25
268.216	84.25
268.448	72.25
268.681	77.25
268.913	68.25
269.145	75.25
269.377	77.25
269.609	88.25
269.841	72.25
270.073	93.25
270.306	77.25
270.538	70.25
270.77	82.25
271.002	74.25
271.234	84.25
271.466	77.25
271.698	75.25
271.93	68.25
272.162	95.25
272.394	66.25
272.626	76.25
272.858	74.25
273.09	83.25
273.322	73.25
273.553	78.25
273.785	76.25
274.017	75.25
274.249	57.25
274.481	80.25
274.713	94.25
274.945	87.25
275.176	82.25
275.408	93.25
275.64	90.25
275.872	80.25
276.104	79.25
276.335	85.25
276.567	76.25
276.799	83.25
277.031	84.25
277.262	83.25
277.494	78.25
277.726	76.25
277.957	68.25
278.189	84.25
278.421	73.25
278.652	63.25
278.884	63.25
279.115	81.25
279.347	79.25
279.579	70.25
279.81	90.25
280.042	102.25
280.273	69.25
280.505	73.25
280.736	71.25
280.968	88.25
281.199	99.25
281.431	80.25
281.662	78.25
281.894	99.25
282.125	82.25
282.356	78.25
282.588	69.25
282.819	79.25
283.051	84.25
283.282	81.25
283.513	81.25
283.745	77.25
283.976	72.25
284.207	73.25
284.439	70.25
284.67	81.25
284.901	75.25
285.132	76.25
285.364	80.25
285.595	77.25
285.826	81.25
286.057	93.25
286.288	71.25
286.52	79.25
286.751	76.25
286.982	77.25
287.213	84.25
287.444	82.25
287.675	88.25
287.906	80.25
288.138	93.25
288.369	81.25
288.6	95.25
288.831	82.25
289.062	79.25
289.293	76.25
289.524	69.25
289.755	74.25
289.986	91.25
290.217	76.25
290.448	71.25
290.679	82.25
290.91	74.25
291.141	78.25
291.371	94.25
291.602	99.25
291.833	81.25
292.064	80.25
292.295	78.25
292.526	82.25
292.757	86.25
292.987	76.25
293.218	84.25
293.449	88.25
293.68	82.25
293.91	93.25
294.141	78.25
294.372	84.25
294.603	83.25
294.833	80.25
295.064	78.25
295.295	77.25
295.525	87.25
295.756	92.25
295.987	78.25
296.217	65.25
296.448	87.25
296.679	73.25
296.909	82.25
297.14	89.25
297.37	88.25
297.601	85.25
297.831	92.25
298.062	79.25
298.292	79.25
298.523	87.25
298.753	77.25
298.984	80.25
299.214	74.25
299.445	82.25
299.675	93.25
299.905	97.25
300.136	86.25
300.366	78.25
300.597	90.25
300.827	61.25
301.057	91.25
301.288	89.25
301.518	75.25
301.748	90.25
301.979	80.25
302.209	70.25
302.439	84.25
302.669	79.25
302.9	81.25
303.13	82.25
303.36	86.25
303.59	87.25
303.82	90.25
304.051	74.25
304.281	96.25
304.511	78.25
304.741	75.25
304.971	82.25
305.201	93.25
305.431	94.25
305.661	88.25
305.891	96.25
306.121	79.25
306.352	88.25
306.582	93.25
306.812	87.25
307.042	86.25
307.272	81.25
307.502	84.25
307.731	86.25
307.961	89.25
308.191	81.25
308.421	82.25
308.651	87.25
308.881	98.25
309.111	94.25
309.341	86.25
309.571	79.25
309.8	86.25
310.03	100.25
310.26	78.25
310.49	77.25
310.72	74.25
310.949	77.25
311.179	73.25
311.409	80.25
311.639	103.25
311.868	84.25
312.098	81.25
312.328	70.25
312.557	81.25
312.787	89.25
313.017	88.25
313.246	88.25
313.476	89.25
313.706	97.25
313.935	63.25
314.165	68.25
314.394	92.25
314.624	72.25
314.853	81.25
315.083	74.25
315.312	79.25
315.542	69.25
315.771	81.25
316.001	84.25
316.23	83.25
316.46	78.25
316.689	71.25
316.919	81.25
317.148	78.25
317.377	76.25
317.607	88.25
317.836	65.25
318.065	72.25
318.295	85.25
318.524	94.25
318.753	72.25
318.983	74.25
319.212	90.25
319.441	78.25
319.67	72.25
319.9	90.25
320.129	86.25
320.358	89.25
320.587	80.25
320.816	77.25
321.046	83.25
321.275	79.25
321.504	86.25
321.733	80.25
321.962	58.25
322.191	72.25
322.42	84.25
322.649	75.25
322.878	90.25
323.108	82.25
323.337	69.25
323.566	72.25
323.795	92.25
324.024	75.25
324.253	76.25
324.482	77.25
324.71	61.25
324.939	82.25
325.168	80.25
325.397	87.25
325.626	75.25
325.855	87.25
326.084	90.25
326.313	74.25
326.542	87.25
326.77	78.25
326.999	82.25
327.228	75.25
327.457	86.25
327.686	73.25
327.914	80.25
328.143	79.25
328.372	88.25
328.6	94.25
328.829	94.25
329.058	72.25
329.287	73.25
329.515	90.25
329.744	89.25
329.972	74.25
330.201	104.25
330.43	72.25
330.658	74.25
330.887	85.25
331.115	68.25
331.344	88.25
331.572	95.25
331.801	81.25
332.03	64.25
332.258	99.25
332.486	72.25
332.715	82.25
332.943	82.25
333.172	70.25
333.4	89.25
333.629	82.25
333.857	75.25
334.085	88.25
334.314	79.25
334.542	97.25
334.771	95.25
334.999	87.25
335.227	89.25
335.455	92.25
335.684	87.25
335.912	82.25
336.14	67.25
336.369	82.25
336.597	84.25
336.825	91.25
337.053	83.25
337.281	90.25
337.51	86.25
337.738	86.25
337.966	98.25
338.194	74.25
338.422	86.25
338.65	87.25
338.878	79.25
339.106	69.25
339.334	83.25
339.562	86.25
339.79	81.25
340.018	67.25
340.246	80.25
340.474	92.25
340.702	73.25
340.93	84.25
341.158	78.25
341.386	77.25
341.614	79.25
341.842	74.25
342.07	77.25
342.298	78.25
342.526	74.25
342.754	75.25
342.981	68.25
343.209	80.25
343.437	96.25
343.665	86.25
343.893	80.25
344.12	88.25
344.348	84.25
344.576	86.25
344.804	89.25
345.031	94.25
345.259	77.25
345.487	78.25
345.714	84.25
345.942	87.25
346.17	88.25
346.397	90.25
346.625	101.25
346.853	80.25
347.08	84.25
347.308	76.25
347.535	80.25
347.763	82.25
347.99	83.25
348.218	75.25
348.445	66.25
348.673	71.25
348.9	83.25
349.128	79.25
349.355	99.25
349.583	77.25
349.81	77.25
350.037	78.25
350.265	74.25
350.492	77.25
350.72	92.25
350.947	73.25
351.174	88.25
351.402	94.25
351.629	95.25
351.856	82.25
352.083	70.25
352.311	77.25
352.538	83.25
352.765	72.25
352.992	86.25
353.22	88.25
353.447	73.25
353.674	79.25
353.901	89.25
354.128	72.25
354.355	85.25
354.583	82.25
354.81	80.25
355.037	90.25
355.264	85.25
355.491	74.25
355.718	74.25
355.945	80.25
356.172	80.25
356.399	83.25
356.626	70.25
356.853	83.25
357.08	81.25
357.307	76.25
357.534	83.25
357.761	79.25
357.988	86.25
358.215	76.25
358.441	88.25
358.668	78.25
358.895	74.25
359.122	84.25
359.349	87.25
359.576	97.25
359.802	87.25
360.029	81.25
360.256	96.25
360.483	94.25
360.709	81.25
360.936	73.25
361.163	84.25
361.39	93.25
361.616	84.25
361.843	80.25
362.07	85.25
362.296	88.25
362.523	86.25
362.749	82.25
362.976	86.25
363.203	93.25
363.429	88.25
363.656	88.25
363.882	75.25
364.109	80.25
364.335	85.25
364.562	85.25
364.788	98.25
365.015	74.25
365.241	78.25
365.468	85.25
365.694	96.25
365.92	72.25
366.147	80.25
366.373	83.25
366.599	91.25
366.826	99.25
367.052	100.25
367.278	85.25
367.505	92.25
367.731	94.25
367.957	106.25
368.184	85.25
368.41	81.25
368.636	89.25
368.862	94.25
369.089	71.25
369.315	101.25
369.541	93.25
369.767	88.25
369.993	80.25
370.219	98.25
370.445	84.25
370.672	80.25
370.898	84.25
371.124	83.25
371.35	83.25
371.576	86.25
371.802	85.25
372.028	84.25
372.254	82.25
372.48	96.25
372.706	87.25
372.932	90.25
373.158	84.25
373.384	82.25
373.61	101.25
373.835	101.25
374.061	96.25
374.287	84.25
374.513	90.25
374.739	94.25
374.965	82.25
375.191	97.25
375.416	90.25
375.642	89.25
375.868	90.25
376.094	92.25
376.319	82.25
376.545	86.25
376.771	85.25
376.997	102.25
377.222	91.25
377.448	98.25
377.674	92.25
377.899	102.25
378.125	94.25
378.35	86.25
378.576	94.25
378.802	92.25
379.027	95.25
379.253	101.25
379.478	83.25
379.704	101.25
379.929	77.25
380.155	93.25
380.38	90.25
380.606	92.25
380.831	99.25
381.057	95.25
381.282	90.25
381.507	102.25
381.733	87.25
381.958	100.25
382.184	95.25
382.409	104.25
382.634	108.25
382.86	94.25
383.085	92.25
383.31	81.25
383.535	104.25
383.761	84.25
383.986	110.25
384.211	105.25
384.436	97.25
384.662	93.25
384.887	96.25
385.112	97.25
385.337	98.25
385.562	96.25
385.787	91.25
386.013	99.25
386.238	103.25
386.463	100.25
386.688	82.25
386.913	101.25
387.138	96.25
387.363	80.25
387.588	87.25
387.813	95.25
388.038	102.25
388.263	99.25
388.488	107.25
388.713	101.25
388.938	114.25
389.163	102.25
389.387	96.25
389.612	102.25
389.837	103.25
390.062	105.25
390.287	99.25
390.512	83.25
390.736	90.25
390.961	110.25
391.186	90.25
391.411	97.25
391.636	90.25
391.86	95.25
392.085	104.25
392.31	109.25
392.534	98.25
392.759	104.25
392.984	91.25
393.208	106.25
393.433	108.25
393.658	110.25
393.882	94.25
394.107	94.25
394.331	97.25
394.556	109.25
394.78	111.25
395.005	98.25
395.229	114.25
395.454	105.25
395.678	113.25
395.903	114.25
396.127	100.25
396.352	98.25
396.576	110.25
396.801	92.25
397.025	108.25
397.249	116.25
397.474	103.25
397.698	87.25
397.922	104.25
398.147	109.25
398.371	94.25
398.595	110.25
398.82	103.25
399.044	86.25
399.268	119.25
399.492	109.25
399.717	117.25
399.941	117.25
400.165	109.25
400.389	109.25
400.613	105.25
400.837	106.25
401.062	105.25
401.286	103.25
401.51	101.25
401.734	110.25
401.958	104.25
402.182	111.25
402.406	109.25
402.63	95.25
402.854	108.25
403.078	111.25
403.302	105.25
403.526	106.25
403.75	98.25
403.974	114.25
404.198	102.25
404.422	110.25
404.645	117.25
404.869	116.25
405.093	120.25
405.317	105.25
405.541	124.25
405.765	108.25
405.988	118.25
406.212	119.25
406.436	106.25
406.66	123.25
406.883	108.25
407.107	117.25
407.331	111.25
407.555	118.25
407.778	120.25
408.002	120.25
408.226	123.25
408.449	120.25
408.673	110.25
408.896	130.25
409.12	113.25
409.344	113.25
409.567	116.25
409.791	124.25
410.014	123.25
410.238	121.25
410.461	116.25
410.685	128.25
410.908	130.25
411.132	141.25
411.355	123.25
411.578	122.25
411.802	114.25
412.025	109.25
412.249	130.25
412.472	122.25
412.695	126.25
412.919	119.25
413.142	103.25
413.365	111.25
413.589	115.25
413.812	120.25
414.035	117.25
414.258	112.25
414.482	123.25
414.705	122.25
414.928	126.25
415.151	122.25
415.374	127.25
415.597	124.25
415.821	122.25
416.044	115.25
416.267	121.25
416.49	111.25
416.713	122.25
416.936	101.25
417.159	120.25
417.382	128.25
417.605	121.25
417.828	121.25
418.051	129.25
418.274	137.25
418.497	110.25
418.72	138.25
418.943	132.25
419.166	129.25
419.389	126.25
419.611	138.25
419.834	138.25
420.057	141.25
420.28	111.25
420.503	126.25
420.726	127.25
420.948	124.25
421.171	130.25
421.394	131.25
421.617	125.25
421.839	133.25
422.062	132.25
422.285	138.25
422.507	128.25
422.73	126.25
422.953	126.25
423.175	119.25
423.398	112.25
423.621	136.25
423.843	130.25
424.066	133.25
424.288	130.25
424.511	141.25
424.733	147.25
424.956	145.25
425.178	130.25
425.401	146.25
425.623	133.25
425.846	126.25
426.068	135.25
426.291	120.25
426.513	132.25
426.735	124.25
426.958	127.25
427.18	115.25
427.402	124.25
427.625	117.25
427.847	126.25
428.069	125.25
428.292	137.25
428.514	129.25
428.736	124.25
428.958	120.25
429.181	124.25
429.403	122.25
429.625	122.25
429.847	122.25
430.069	121.25
430.292	132.25
430.514	135.25
430.736	111.25
430.958	118.25
431.18	135.25
431.402	124.25
431.624	124.25
431.846	97.25
432.068	95.25
432.29	95.25
432.512	101.25
432.734	126.25
432.956	112.25
433.178	123.25
433.4	132.25
433.622	134.25
433.844	124.25
434.066	131.25
434.287	108.25
434.509	103.25
434.731	97.25
434.953	102.25
435.175	124.25
435.397	124.25
435.618	128.25
435.84	110.25
436.062	124.25
436.284	112.25
436.505	112.25
436.727	141.25
436.949	133.25
437.17	115.25
437.392	125.25
437.614	128.25
437.835	117.25
438.057	105.25
438.278	112.25
438.5	118.25
438.721	130.25
438.943	137.25
439.165	138.25
439.386	146.25
439.608	148.25
439.829	138.25
440.05	139.25
440.272	152.25
440.493	149.25
440.715	133.25
440.936	150.25
441.158	154.25
441.379	136.25
441.6	136.25
441.822	139.25
442.043	129.25
442.264	142.25
442.486	154.25
442.707	143.25
442.928	136.25
443.149	122.25
443.371	130.25
443.592	138.25
443.813	127.25
444.034	136.25
444.255	140.25
444.476	135.25
444.698	134.25
444.919	143.25
445.14	231.25
445.361	194.25
445.582	140.25
445.803	132.25
446.024	125.25
446.245	147.25
446.466	150.25
446.687	147.25
446.908	159.25
447.129	164.25
447.35	164.25
447.571	151.25
447.792	131.25
448.013	151.25
448.234	141.25
448.455	158.25
448.675	148.25
448.896	143.25
449.117	132.25
449.338	132.25
449.559	120.25
449.779	127.25
450	116.25
450.221	141.25
450.442	140.25
450.662	139.25
450.883	135.25
451.104	139.25
451.324	115.25
451.545	120.25
451.766	115.25
451.986	114.25
452.207	124.25
452.428	120.25
452.648	118.25
452.869	116.25
453.089	100.25
453.31	114.25
453.53	108.25
453.751	91.25
453.971	120.25
454.192	111.25
454.412	106.25
454.633	113.25
454.853	120.25
455.073	135.25
455.294	117.25
455.514	142.25
455.734	126.25
455.955	119.25
456.175	99.25
456.395	99.25
456.616	116.25
456.836	103.25
457.056	117.25
457.276	103.25
457.497	95.25
457.717	97.25
457.937	101.25
458.157	97.25
458.377	92.25
458.598	96.25
458.818	89.25
459.038	94.25
459.258	83.25
459.478	90.25
459.698	81.25
459.918	101.25
460.138	109.25
460.358	115.25
460.578	119.25
460.798	108.25
461.018	128.25
461.238	119.25
461.458	96.25
461.678	114.25
461.898	117.25
462.118	98.25
462.338	102.25
462.558	99.25
462.777	106.25
462.997	101.25
463.217	110.25
463.437	103.25
463.657	112.25
463.876	117.25
464.096	111.25
464.316	96.25
464.536	113.25
464.755	107.25
464.975	112.25
465.195	121.25
465.414	113.25
465.634	115.25
465.854	114.25
466.073	127.25
466.293	128.25
466.512	116.25
466.732	120.25
466.951	121.25
467.171	126.25
467.391	113.25
467.61	127.25
467.829	125.25
468.049	115.25
468.268	114.25
468.488	128.25
468.707	138.25
468.927	130.25
469.146	131.25
469.365	152.25
469.585	132.25
469.804	150.25
470.023	131.25
470.243	140.25
470.462	154.25
470.681	122.25
470.901	150.25
471.12	134.25
471.339	135.25
471.558	131.25
471.777	135.25
471.997	129.25
472.216	119.25
472.435	108.25
472.654	114.25
472.873	115.25
473.092	101.25
473.311	120.25
473.53	120.25
473.749	106.25
473.968	121.25
474.187	118.25
474.406	123.25
474.625	121.25
474.844	124.25
475.063	136.25
475.282	119.25
475.501	108.25
475.72	117.25
475.939	110.25
476.158	116.25
476.377	120.25
476.596	128.25
476.814	108.25
477.033	105.25
477.252	108.25
477.471	124.25
477.69	140.25
477.908	149.25
478.127	154.25
478.346	135.25
478.564	121.25
478.783	133.25
479.002	132.25
479.22	126.25
479.439	130.25
479.658	122.25
479.876	99.25
480.095	107.25
480.313	103.25
480.532	113.25
480.751	102.25
480.969	85.25
481.188	92.25
481.406	92.25
481.624	96.25
481.843	94.25
482.061	92.25
482.28	116.25
482.498	112.25
482.717	101.25
482.935	112.25
483.153	136.25
483.372	152.25
483.59	142.25
483.808	137.25
484.027	136.25
484.245	126.25
484.463	146.25
484.681	143.25
484.9	142.25
485.118	134.25
485.336	134.25
485.554	122.25
485.772	112.25
485.99	101.25
486.209	116.25
486.427	103.25
486.645	121.25
486.863	122.25
487.081	135.25
487.299	129.25
487.517	132.25
487.735	158.25
487.953	169.25
488.171	166.25
488.389	160.25
488.607	147.25
488.825	145.25
489.043	120.25
489.261	121.25
489.479	127.25
489.696	137.25
489.914	135.25
490.132	144.25
490.35	148.25
490.568	164.25
490.786	156.25
491.003	169.25
491.221	168.25
491.439	185.25
491.657	192.25
491.874	194.25
492.092	214.25
492.31	246.25
492.527	220.25
492.745	204.25
492.963	188.25
493.18	182.25
493.398	176.25
493.615	174.25
493.833	167.25
494.05	162.25
494.268	181.25
494.485	174.25
494.703	175.25
494.92	165.25
495.138	155.25
495.355	169.25
495.573	171.25
495.79	168.25
496.008	148.25
496.225	161.25
496.442	156.25
496.66	163.25
496.877	164.25
497.094	162.25
497.312	146.25
497.529	153.25
497.746	137.25
497.963	137.25
498.181	136.25
498.398	123.25
498.615	121.25
498.832	103.25
499.049	116.25
499.267	111.25
499.484	124.25
499.701	122.25
499.918	138.25
500.135	119.25
500.352	142.25
500.569	161.25
500.786	142.25
501.003	150.25
501.22	142.25
501.437	136.25
501.654	136.25
501.871	140.25
502.088	137.25
502.305	139.25
502.522	134.25
502.739	130.25
502.956	132.25
503.172	123.25
503.389	121.25
503.606	105.25
503.823	126.25
504.04	114.25
504.256	122.25
504.473	123.25
504.69	134.25
504.907	125.25
505.123	114.25
505.34	122.25
505.557	124.25
505.773	118.25
505.99	124.25
506.207	112.25
506.423	111.25
506.64	116.25
506.856	118.25
507.073	113.25
507.289	124.25
507.506	122.25
507.722	110.25
507.939	114.25
508.155	110.25
508.372	114.25
508.588	120.25
508.805	116.25
509.021	113.25
509.238	97.25
509.454	117.25
509.67	112.25
509.887	109.25
510.103	95.25
510.319	100.25
510.536	94.25
510.752	86.25
510.968	95.25
511.184	92.25
511.401	75.25
511.617	78.25
511.833	85.25
