Data from Location2.07152019.Energy5.Lamp.07192019.3%Agarose_HRD10591_14-57-57-359.txt Node
Date: Fri Jul 19 14:57:57 EDT 2019
User: cochatt
Spectrometer: HR+D1059
Trigger mode: 1
Integration Time (sec): 1.000000E-1
Scans to average: 1
Electric dark correction enabled: true
Nonlinearity correction enabled: false
Boxcar width: 0
XAxis mode: Wavelengths
Number of Pixels in Spectrum: 2048
>>>>>Begin Spectral Data<<<<<
223.165	-19.19
223.4	-19.19
223.635	-19.19
223.869	-7.19
224.104	-14.19
224.338	-18.19
224.573	-4.19
224.808	-18.19
225.042	-8.19
225.277	-5.19
225.511	1.81
225.746	0.81
225.98	8.81
226.215	12.81
226.449	11.81
226.683	9.81
226.918	23.81
227.152	24.81
227.387	32.81
227.621	28.81
227.856	23.81
228.09	57.81
228.324	42.81
228.559	58.81
228.793	49.81
229.027	55.81
229.262	57.81
229.496	62.81
229.73	68.81
229.964	64.81
230.199	74.81
230.433	67.81
230.667	64.81
230.901	61.81
231.136	73.81
231.37	77.81
231.604	92.81
231.838	58.81
232.072	74.81
232.306	84.81
232.541	81.81
232.775	95.81
233.009	82.81
233.243	80.81
233.477	85.81
233.711	81.81
233.945	83.81
234.179	75.81
234.413	59.81
234.647	95.81
234.881	73.81
235.115	81.81
235.349	87.81
235.583	84.81
235.817	70.81
236.051	70.81
236.285	77.81
236.519	81.81
236.753	83.81
236.987	77.81
237.221	65.81
237.455	77.81
237.689	78.81
237.922	79.81
238.156	84.81
238.39	74.81
238.624	81.81
238.858	69.81
239.091	83.81
239.325	77.81
239.559	80.81
239.793	72.81
240.027	88.81
240.26	70.81
240.494	77.81
240.728	80.81
240.961	84.81
241.195	71.81
241.429	70.81
241.662	75.81
241.896	87.81
242.13	70.81
242.363	80.81
242.597	85.81
242.83	84.81
243.064	70.81
243.298	71.81
243.531	69.81
243.765	84.81
243.998	78.81
244.232	93.81
244.465	79.81
244.699	72.81
244.932	71.81
245.166	60.81
245.399	71.81
245.633	75.81
245.866	81.81
246.099	76.81
246.333	77.81
246.566	87.81
246.8	71.81
247.033	73.81
247.266	88.81
247.5	85.81
247.733	73.81
247.966	77.81
248.2	71.81
248.433	75.81
248.666	69.81
248.899	74.81
249.133	85.81
249.366	88.81
249.599	85.81
249.832	86.81
250.066	90.81
250.299	83.81
250.532	66.81
250.765	76.81
250.998	72.81
251.231	76.81
251.465	85.81
251.698	95.81
251.931	78.81
252.164	68.81
252.397	74.81
252.63	80.81
252.863	76.81
253.096	86.81
253.329	87.81
253.562	63.81
253.795	81.81
254.028	75.81
254.261	78.81
254.494	86.81
254.727	70.81
254.96	76.81
255.193	79.81
255.426	83.81
255.659	76.81
255.892	83.81
256.124	76.81
256.357	66.81
256.59	86.81
256.823	78.81
257.056	88.81
257.289	77.81
257.521	75.81
257.754	71.81
257.987	72.81
258.22	86.81
258.452	73.81
258.685	78.81
258.918	95.81
259.151	78.81
259.383	58.81
259.616	65.81
259.849	76.81
260.081	87.81
260.314	83.81
260.547	83.81
260.779	72.81
261.012	77.81
261.244	80.81
261.477	91.81
261.71	83.81
261.942	85.81
262.175	77.81
262.407	84.81
262.64	86.81
262.872	73.81
263.105	72.81
263.337	86.81
263.57	69.81
263.802	89.81
264.035	55.81
264.267	69.81
264.499	82.81
264.732	74.81
264.964	74.81
265.197	82.81
265.429	87.81
265.661	84.81
265.894	88.81
266.126	86.81
266.358	81.81
266.591	68.81
266.823	65.81
267.055	82.81
267.287	69.81
267.52	76.81
267.752	83.81
267.984	79.81
268.216	81.81
268.448	87.81
268.681	66.81
268.913	81.81
269.145	81.81
269.377	92.81
269.609	76.81
269.841	86.81
270.073	72.81
270.306	84.81
270.538	73.81
270.77	69.81
271.002	100.81
271.234	82.81
271.466	75.81
271.698	79.81
271.93	85.81
272.162	84.81
272.394	83.81
272.626	86.81
272.858	72.81
273.09	82.81
273.322	85.81
273.553	73.81
273.785	81.81
274.017	81.81
274.249	74.81
274.481	91.81
274.713	71.81
274.945	84.81
275.176	75.81
275.408	77.81
275.64	64.81
275.872	91.81
276.104	89.81
276.335	84.81
276.567	79.81
276.799	75.81
277.031	72.81
277.262	80.81
277.494	81.81
277.726	82.81
277.957	74.81
278.189	78.81
278.421	83.81
278.652	77.81
278.884	86.81
279.115	101.81
279.347	85.81
279.579	82.81
279.81	72.81
280.042	65.81
280.273	79.81
280.505	74.81
280.736	80.81
280.968	85.81
281.199	83.81
281.431	84.81
281.662	85.81
281.894	85.81
282.125	83.81
282.356	96.81
282.588	73.81
282.819	86.81
283.051	79.81
283.282	85.81
283.513	87.81
283.745	79.81
283.976	67.81
284.207	80.81
284.439	95.81
284.67	77.81
284.901	87.81
285.132	79.81
285.364	69.81
285.595	74.81
285.826	86.81
286.057	95.81
286.288	81.81
286.52	95.81
286.751	81.81
286.982	71.81
287.213	70.81
287.444	77.81
287.675	82.81
287.906	70.81
288.138	85.81
288.369	85.81
288.6	93.81
288.831	73.81
289.062	89.81
289.293	86.81
289.524	81.81
289.755	90.81
289.986	79.81
290.217	95.81
290.448	87.81
290.679	85.81
290.91	95.81
291.141	77.81
291.371	86.81
291.602	78.81
291.833	76.81
292.064	76.81
292.295	90.81
292.526	73.81
292.757	70.81
292.987	104.81
293.218	78.81
293.449	77.81
293.68	84.81
293.91	74.81
294.141	82.81
294.372	94.81
294.603	87.81
294.833	76.81
295.064	79.81
295.295	88.81
295.525	83.81
295.756	79.81
295.987	87.81
296.217	71.81
296.448	77.81
296.679	67.81
296.909	82.81
297.14	81.81
297.37	81.81
297.601	72.81
297.831	77.81
298.062	78.81
298.292	92.81
298.523	81.81
298.753	90.81
298.984	95.81
299.214	81.81
299.445	89.81
299.675	65.81
299.905	74.81
300.136	80.81
300.366	75.81
300.597	78.81
300.827	89.81
301.057	81.81
301.288	73.81
301.518	87.81
301.748	99.81
301.979	86.81
302.209	71.81
302.439	79.81
302.669	71.81
302.9	79.81
303.13	63.81
303.36	83.81
303.59	92.81
303.82	76.81
304.051	83.81
304.281	86.81
304.511	91.81
304.741	93.81
304.971	78.81
305.201	76.81
305.431	90.81
305.661	67.81
305.891	73.81
306.121	93.81
306.352	85.81
306.582	73.81
306.812	84.81
307.042	94.81
307.272	81.81
307.502	86.81
307.731	79.81
307.961	92.81
308.191	92.81
308.421	90.81
308.651	81.81
308.881	91.81
309.111	71.81
309.341	78.81
309.571	87.81
309.8	85.81
310.03	75.81
310.26	82.81
310.49	77.81
310.72	97.81
310.949	75.81
311.179	83.81
311.409	82.81
311.639	82.81
311.868	89.81
312.098	85.81
312.328	89.81
312.557	89.81
312.787	66.81
313.017	84.81
313.246	66.81
313.476	88.81
313.706	92.81
313.935	98.81
314.165	82.81
314.394	81.81
314.624	90.81
314.853	89.81
315.083	83.81
315.312	87.81
315.542	79.81
315.771	84.81
316.001	84.81
316.23	84.81
316.46	91.81
316.689	73.81
316.919	73.81
317.148	93.81
317.377	101.81
317.607	74.81
317.836	82.81
318.065	82.81
318.295	82.81
318.524	75.81
318.753	84.81
318.983	90.81
319.212	71.81
319.441	81.81
319.67	83.81
319.9	88.81
320.129	95.81
320.358	95.81
320.587	93.81
320.816	90.81
321.046	95.81
321.275	83.81
321.504	84.81
321.733	95.81
321.962	101.81
322.191	80.81
322.42	74.81
322.649	80.81
322.878	81.81
323.108	66.81
323.337	84.81
323.566	76.81
323.795	73.81
324.024	80.81
324.253	87.81
324.482	102.81
324.71	83.81
324.939	83.81
325.168	93.81
325.397	68.81
325.626	82.81
325.855	97.81
326.084	81.81
326.313	72.81
326.542	81.81
326.77	82.81
326.999	75.81
327.228	89.81
327.457	93.81
327.686	94.81
327.914	82.81
328.143	87.81
328.372	88.81
328.6	79.81
328.829	89.81
329.058	89.81
329.287	91.81
329.515	86.81
329.744	88.81
329.972	75.81
330.201	84.81
330.43	71.81
330.658	74.81
330.887	85.81
331.115	91.81
331.344	81.81
331.572	89.81
331.801	82.81
332.03	89.81
332.258	78.81
332.486	95.81
332.715	86.81
332.943	76.81
333.172	92.81
333.4	88.81
333.629	90.81
333.857	71.81
334.085	79.81
334.314	72.81
334.542	81.81
334.771	82.81
334.999	90.81
335.227	87.81
335.455	79.81
335.684	93.81
335.912	79.81
336.14	80.81
336.369	90.81
336.597	84.81
336.825	73.81
337.053	70.81
337.281	88.81
337.51	74.81
337.738	83.81
337.966	87.81
338.194	77.81
338.422	67.81
338.65	89.81
338.878	92.81
339.106	92.81
339.334	84.81
339.562	72.81
339.79	91.81
340.018	91.81
340.246	96.81
340.474	89.81
340.702	65.81
340.93	86.81
341.158	78.81
341.386	81.81
341.614	73.81
341.842	93.81
342.07	75.81
342.298	91.81
342.526	83.81
342.754	81.81
342.981	84.81
343.209	93.81
343.437	92.81
343.665	77.81
343.893	83.81
344.12	84.81
344.348	92.81
344.576	84.81
344.804	84.81
345.031	95.81
345.259	75.81
345.487	68.81
345.714	77.81
345.942	84.81
346.17	79.81
346.397	73.81
346.625	91.81
346.853	92.81
347.08	77.81
347.308	92.81
347.535	83.81
347.763	81.81
347.99	76.81
348.218	95.81
348.445	90.81
348.673	83.81
348.9	89.81
349.128	89.81
349.355	89.81
349.583	85.81
349.81	69.81
350.037	75.81
350.265	88.81
350.492	87.81
350.72	96.81
350.947	84.81
351.174	81.81
351.402	76.81
351.629	90.81
351.856	79.81
352.083	86.81
352.311	89.81
352.538	70.81
352.765	68.81
352.992	81.81
353.22	80.81
353.447	84.81
353.674	85.81
353.901	86.81
354.128	79.81
354.355	97.81
354.583	80.81
354.81	92.81
355.037	82.81
355.264	85.81
355.491	79.81
355.718	75.81
355.945	84.81
356.172	81.81
356.399	81.81
356.626	85.81
356.853	86.81
357.08	84.81
357.307	85.81
357.534	89.81
357.761	77.81
357.988	69.81
358.215	83.81
358.441	77.81
358.668	89.81
358.895	75.81
359.122	76.81
359.349	76.81
359.576	85.81
359.802	100.81
360.029	73.81
360.256	86.81
360.483	87.81
360.709	83.81
360.936	78.81
361.163	75.81
361.39	82.81
361.616	64.81
361.843	69.81
362.07	76.81
362.296	81.81
362.523	71.81
362.749	93.81
362.976	80.81
363.203	87.81
363.429	69.81
363.656	83.81
363.882	73.81
364.109	90.81
364.335	70.81
364.562	96.81
364.788	83.81
365.015	93.81
365.241	100.81
365.468	79.81
365.694	76.81
365.92	81.81
366.147	81.81
366.373	87.81
366.599	85.81
366.826	91.81
367.052	87.81
367.278	94.81
367.505	95.81
367.731	84.81
367.957	96.81
368.184	78.81
368.41	96.81
368.636	84.81
368.862	83.81
369.089	88.81
369.315	87.81
369.541	93.81
369.767	96.81
369.993	93.81
370.219	102.81
370.445	82.81
370.672	99.81
370.898	85.81
371.124	78.81
371.35	84.81
371.576	82.81
371.802	87.81
372.028	87.81
372.254	83.81
372.48	104.81
372.706	82.81
372.932	86.81
373.158	89.81
373.384	100.81
373.61	94.81
373.835	97.81
374.061	91.81
374.287	98.81
374.513	93.81
374.739	90.81
374.965	97.81
375.191	96.81
375.416	90.81
375.642	82.81
375.868	99.81
376.094	92.81
376.319	91.81
376.545	97.81
376.771	93.81
376.997	94.81
377.222	82.81
377.448	87.81
377.674	82.81
377.899	95.81
378.125	106.81
378.35	83.81
378.576	90.81
378.802	93.81
379.027	79.81
379.253	93.81
379.478	103.81
379.704	101.81
379.929	101.81
380.155	88.81
380.38	82.81
380.606	96.81
380.831	100.81
381.057	89.81
381.282	103.81
381.507	105.81
381.733	95.81
381.958	101.81
382.184	103.81
382.409	105.81
382.634	99.81
382.86	108.81
383.085	89.81
383.31	105.81
383.535	89.81
383.761	103.81
383.986	83.81
384.211	84.81
384.436	106.81
384.662	91.81
384.887	108.81
385.112	90.81
385.337	97.81
385.562	95.81
385.787	104.81
386.013	98.81
386.238	110.81
386.463	107.81
386.688	96.81
386.913	101.81
387.138	92.81
387.363	106.81
387.588	102.81
387.813	96.81
388.038	88.81
388.263	93.81
388.488	106.81
388.713	93.81
388.938	113.81
389.163	97.81
389.387	106.81
389.612	111.81
389.837	104.81
390.062	96.81
390.287	104.81
390.512	111.81
390.736	106.81
390.961	103.81
391.186	116.81
391.411	101.81
391.636	109.81
391.86	98.81
392.085	104.81
392.31	101.81
392.534	103.81
392.759	109.81
392.984	97.81
393.208	105.81
393.433	92.81
393.658	105.81
393.882	105.81
394.107	117.81
394.331	109.81
394.556	101.81
394.78	97.81
395.005	113.81
395.229	104.81
395.454	95.81
395.678	111.81
395.903	99.81
396.127	98.81
396.352	100.81
396.576	103.81
396.801	107.81
397.025	116.81
397.249	115.81
397.474	114.81
397.698	122.81
397.922	109.81
398.147	91.81
398.371	112.81
398.595	111.81
398.82	108.81
399.044	116.81
399.268	111.81
399.492	107.81
399.717	100.81
399.941	105.81
400.165	115.81
400.389	122.81
400.613	112.81
400.837	108.81
401.062	123.81
401.286	115.81
401.51	106.81
401.734	108.81
401.958	118.81
402.182	103.81
402.406	102.81
402.63	102.81
402.854	104.81
403.078	100.81
403.302	119.81
403.526	124.81
403.75	113.81
403.974	129.81
404.198	125.81
404.422	126.81
404.645	117.81
404.869	116.81
405.093	131.81
405.317	129.81
405.541	116.81
405.765	107.81
405.988	121.81
406.212	108.81
406.436	116.81
406.66	137.81
406.883	119.81
407.107	117.81
407.331	134.81
407.555	124.81
407.778	118.81
408.002	127.81
408.226	99.81
408.449	105.81
408.673	131.81
408.896	127.81
409.12	123.81
409.344	117.81
409.567	113.81
409.791	116.81
410.014	123.81
410.238	137.81
410.461	130.81
410.685	116.81
410.908	123.81
411.132	114.81
411.355	121.81
411.578	124.81
411.802	123.81
412.025	105.81
412.249	119.81
412.472	103.81
412.695	127.81
412.919	130.81
413.142	124.81
413.365	133.81
413.589	124.81
413.812	123.81
414.035	118.81
414.258	124.81
414.482	123.81
414.705	140.81
414.928	131.81
415.151	135.81
415.374	122.81
415.597	120.81
415.821	129.81
416.044	141.81
416.267	134.81
416.49	119.81
416.713	127.81
416.936	128.81
417.159	128.81
417.382	116.81
417.605	122.81
417.828	131.81
418.051	115.81
418.274	122.81
418.497	128.81
418.72	121.81
418.943	132.81
419.166	129.81
419.389	144.81
419.611	130.81
419.834	132.81
420.057	139.81
420.28	128.81
420.503	147.81
420.726	141.81
420.948	127.81
421.171	140.81
421.394	130.81
421.617	128.81
421.839	140.81
422.062	146.81
422.285	139.81
422.507	113.81
422.73	128.81
422.953	132.81
423.175	112.81
423.398	131.81
423.621	125.81
423.843	132.81
424.066	117.81
424.288	147.81
424.511	134.81
424.733	136.81
424.956	146.81
425.178	138.81
425.401	133.81
425.623	133.81
425.846	130.81
426.068	138.81
426.291	124.81
426.513	131.81
426.735	129.81
426.958	120.81
427.18	135.81
427.402	128.81
427.625	121.81
427.847	131.81
428.069	133.81
428.292	117.81
428.514	123.81
428.736	127.81
428.958	126.81
429.181	132.81
429.403	119.81
429.625	113.81
429.847	129.81
430.069	112.81
430.292	127.81
430.514	131.81
430.736	108.81
430.958	127.81
431.18	125.81
431.402	115.81
431.624	126.81
431.846	111.81
432.068	103.81
432.29	108.81
432.512	98.81
432.734	129.81
432.956	126.81
433.178	135.81
433.4	129.81
433.622	138.81
433.844	116.81
434.066	112.81
434.287	107.81
434.509	93.81
434.731	96.81
434.953	106.81
435.175	111.81
435.397	129.81
435.618	124.81
435.84	103.81
436.062	98.81
436.284	127.81
436.505	129.81
436.727	142.81
436.949	129.81
437.17	135.81
437.392	135.81
437.614	114.81
437.835	92.81
438.057	115.81
438.278	117.81
438.5	100.81
438.721	127.81
438.943	130.81
439.165	131.81
439.386	151.81
439.608	127.81
439.829	151.81
440.05	142.81
440.272	141.81
440.493	148.81
440.715	131.81
440.936	137.81
441.158	137.81
441.379	133.81
441.6	157.81
441.822	145.81
442.043	141.81
442.264	144.81
442.486	135.81
442.707	125.81
442.928	123.81
443.149	123.81
443.371	151.81
443.592	151.81
443.813	141.81
444.034	139.81
444.255	141.81
444.476	141.81
444.698	136.81
444.919	139.81
445.14	209.81
445.361	183.81
445.582	159.81
445.803	144.81
446.024	154.81
446.245	153.81
446.466	147.81
446.687	163.81
446.908	158.81
447.129	155.81
447.35	149.81
447.571	146.81
447.792	147.81
448.013	147.81
448.234	127.81
448.455	151.81
448.675	133.81
448.896	145.81
449.117	128.81
449.338	147.81
449.559	141.81
449.779	131.81
450	139.81
450.221	133.81
450.442	123.81
450.662	123.81
450.883	124.81
451.104	131.81
451.324	135.81
451.545	141.81
451.766	121.81
451.986	131.81
452.207	115.81
452.428	127.81
452.648	129.81
452.869	127.81
453.089	119.81
453.31	113.81
453.53	105.81
453.751	113.81
453.971	105.81
454.192	104.81
454.412	113.81
454.633	114.81
454.853	111.81
455.073	123.81
455.294	117.81
455.514	116.81
455.734	131.81
455.955	115.81
456.175	115.81
456.395	113.81
456.616	107.81
456.836	97.81
457.056	95.81
457.276	113.81
457.497	111.81
457.717	118.81
457.937	122.81
458.157	97.81
458.377	102.81
458.598	89.81
458.818	94.81
459.038	93.81
459.258	104.81
459.478	100.81
459.698	90.81
459.918	112.81
460.138	112.81
460.358	113.81
460.578	116.81
460.798	107.81
461.018	108.81
461.238	133.81
461.458	125.81
461.678	114.81
461.898	107.81
462.118	105.81
462.338	104.81
462.558	108.81
462.777	102.81
462.997	93.81
463.217	114.81
463.437	115.81
463.657	104.81
463.876	107.81
464.096	104.81
464.316	117.81
464.536	111.81
464.755	105.81
464.975	97.81
465.195	120.81
465.414	106.81
465.634	114.81
465.854	118.81
466.073	113.81
466.293	119.81
466.512	119.81
466.732	120.81
466.951	125.81
467.171	135.81
467.391	128.81
467.61	134.81
467.829	141.81
468.049	122.81
468.268	139.81
468.488	149.81
468.707	147.81
468.927	119.81
469.146	131.81
469.365	149.81
469.585	126.81
469.804	122.81
470.023	135.81
470.243	137.81
470.462	140.81
470.681	132.81
470.901	133.81
471.12	135.81
471.339	140.81
471.558	148.81
471.777	133.81
471.997	135.81
472.216	140.81
472.435	104.81
472.654	102.81
472.873	107.81
473.092	101.81
473.311	122.81
473.53	115.81
473.749	122.81
473.968	137.81
474.187	127.81
474.406	104.81
474.625	126.81
474.844	139.81
475.063	129.81
475.282	141.81
475.501	118.81
475.72	124.81
475.939	123.81
476.158	123.81
476.377	131.81
476.596	132.81
476.814	124.81
477.033	114.81
477.252	117.81
477.471	131.81
477.69	130.81
477.908	134.81
478.127	120.81
478.346	122.81
478.564	124.81
478.783	134.81
479.002	132.81
479.22	136.81
479.439	115.81
479.658	132.81
479.876	116.81
480.095	111.81
480.313	116.81
480.532	105.81
480.751	93.81
480.969	91.81
481.188	85.81
481.406	92.81
481.624	90.81
481.843	89.81
482.061	87.81
482.28	111.81
482.498	120.81
482.717	121.81
482.935	115.81
483.153	121.81
483.372	154.81
483.59	150.81
483.808	142.81
484.027	140.81
484.245	147.81
484.463	147.81
484.681	138.81
484.9	150.81
485.118	137.81
485.336	112.81
485.554	113.81
485.772	115.81
485.99	102.81
486.209	110.81
486.427	103.81
486.645	113.81
486.863	140.81
487.081	141.81
487.299	135.81
487.517	136.81
487.735	168.81
487.953	160.81
488.171	165.81
488.389	181.81
488.607	162.81
488.825	128.81
489.043	131.81
489.261	126.81
489.479	145.81
489.696	135.81
489.914	147.81
490.132	138.81
490.35	160.81
490.568	167.81
490.786	173.81
491.003	167.81
491.221	175.81
491.439	171.81
491.657	192.81
491.874	188.81
492.092	239.81
492.31	230.81
492.527	225.81
492.745	193.81
492.963	215.81
493.18	169.81
493.398	180.81
493.615	187.81
493.833	176.81
494.05	169.81
494.268	177.81
494.485	170.81
494.703	170.81
494.92	162.81
495.138	163.81
495.355	180.81
495.573	159.81
495.79	171.81
496.008	181.81
496.225	172.81
496.442	172.81
496.66	169.81
496.877	163.81
497.094	165.81
497.312	165.81
497.529	143.81
497.746	144.81
497.963	153.81
498.181	130.81
498.398	130.81
498.615	116.81
498.832	123.81
499.049	130.81
499.267	121.81
499.484	122.81
499.701	128.81
499.918	123.81
500.135	132.81
500.352	147.81
500.569	155.81
500.786	140.81
501.003	138.81
501.22	134.81
501.437	130.81
501.654	147.81
501.871	140.81
502.088	132.81
502.305	121.81
502.522	125.81
502.739	127.81
502.956	132.81
503.172	134.81
503.389	130.81
503.606	122.81
503.823	109.81
504.04	122.81
504.256	113.81
504.473	119.81
504.69	125.81
504.907	123.81
505.123	133.81
505.34	132.81
505.557	123.81
505.773	113.81
505.99	120.81
506.207	125.81
506.423	123.81
506.64	114.81
506.856	123.81
507.073	107.81
507.289	117.81
507.506	124.81
507.722	124.81
507.939	121.81
508.155	110.81
508.372	107.81
508.588	102.81
508.805	112.81
509.021	105.81
509.238	89.81
509.454	96.81
509.67	103.81
509.887	98.81
510.103	86.81
510.319	108.81
510.536	99.81
510.752	91.81
510.968	77.81
511.184	81.81
511.401	74.81
511.617	90.81
