Data from Location2.07152019.Energy5.Lamp.07192019.3%Agarose_HRD10591_14-58-46-359.txt Node
Date: Fri Jul 19 14:58:46 EDT 2019
User: cochatt
Spectrometer: HR+D1059
Trigger mode: 1
Integration Time (sec): 1.000000E-1
Scans to average: 1
Electric dark correction enabled: true
Nonlinearity correction enabled: false
Boxcar width: 0
XAxis mode: Wavelengths
Number of Pixels in Spectrum: 2048
>>>>>Begin Spectral Data<<<<<
223.165	-16.38
223.4	-16.38
223.635	-16.38
223.869	-8.38
224.104	-18.38
224.338	-17.38
224.573	-21.38
224.808	-34.38
225.042	-16.38
225.277	-0.38
225.511	-0.38
225.746	0.62
225.98	8.62
226.215	7.62
226.449	8.62
226.683	31.62
226.918	43.62
227.152	32.62
227.387	41.62
227.621	45.62
227.856	45.62
228.09	32.62
228.324	40.62
228.559	50.62
228.793	61.62
229.027	44.62
229.262	62.62
229.496	60.62
229.73	71.62
229.964	59.62
230.199	59.62
230.433	66.62
230.667	68.62
230.901	73.62
231.136	73.62
231.37	73.62
231.604	70.62
231.838	78.62
232.072	79.62
232.306	81.62
232.541	71.62
232.775	79.62
233.009	82.62
233.243	88.62
233.477	77.62
233.711	72.62
233.945	70.62
234.179	91.62
234.413	81.62
234.647	91.62
234.881	74.62
235.115	62.62
235.349	80.62
235.583	67.62
235.817	73.62
236.051	78.62
236.285	72.62
236.519	64.62
236.753	72.62
236.987	70.62
237.221	62.62
237.455	73.62
237.689	72.62
237.922	74.62
238.156	88.62
238.39	72.62
238.624	86.62
238.858	71.62
239.091	70.62
239.325	77.62
239.559	77.62
239.793	64.62
240.027	78.62
240.26	59.62
240.494	69.62
240.728	79.62
240.961	79.62
241.195	82.62
241.429	73.62
241.662	66.62
241.896	72.62
242.13	81.62
242.363	71.62
242.597	74.62
242.83	73.62
243.064	62.62
243.298	73.62
243.531	73.62
243.765	61.62
243.998	63.62
244.232	79.62
244.465	75.62
244.699	70.62
244.932	75.62
245.166	71.62
245.399	74.62
245.633	71.62
245.866	68.62
246.099	69.62
246.333	94.62
246.566	66.62
246.8	76.62
247.033	60.62
247.266	73.62
247.5	86.62
247.733	89.62
247.966	71.62
248.2	64.62
248.433	63.62
248.666	69.62
248.899	71.62
249.133	83.62
249.366	108.62
249.599	80.62
249.832	84.62
250.066	71.62
250.299	87.62
250.532	78.62
250.765	72.62
250.998	73.62
251.231	88.62
251.465	85.62
251.698	71.62
251.931	70.62
252.164	74.62
252.397	79.62
252.63	68.62
252.863	70.62
253.096	70.62
253.329	67.62
253.562	80.62
253.795	88.62
254.028	83.62
254.261	66.62
254.494	68.62
254.727	77.62
254.96	71.62
255.193	73.62
255.426	89.62
255.659	82.62
255.892	77.62
256.124	82.62
256.357	76.62
256.59	69.62
256.823	87.62
257.056	64.62
257.289	91.62
257.521	83.62
257.754	73.62
257.987	77.62
258.22	79.62
258.452	68.62
258.685	83.62
258.918	82.62
259.151	68.62
259.383	76.62
259.616	81.62
259.849	70.62
260.081	72.62
260.314	79.62
260.547	84.62
260.779	83.62
261.012	87.62
261.244	80.62
261.477	85.62
261.71	77.62
261.942	76.62
262.175	72.62
262.407	89.62
262.64	65.62
262.872	80.62
263.105	74.62
263.337	74.62
263.57	77.62
263.802	69.62
264.035	68.62
264.267	76.62
264.499	65.62
264.732	88.62
264.964	81.62
265.197	71.62
265.429	73.62
265.661	72.62
265.894	76.62
266.126	77.62
266.358	92.62
266.591	90.62
266.823	80.62
267.055	59.62
267.287	84.62
267.52	80.62
267.752	79.62
267.984	80.62
268.216	73.62
268.448	82.62
268.681	73.62
268.913	89.62
269.145	78.62
269.377	97.62
269.609	80.62
269.841	75.62
270.073	92.62
270.306	67.62
270.538	77.62
270.77	77.62
271.002	81.62
271.234	64.62
271.466	83.62
271.698	75.62
271.93	67.62
272.162	83.62
272.394	77.62
272.626	76.62
272.858	71.62
273.09	75.62
273.322	77.62
273.553	71.62
273.785	78.62
274.017	77.62
274.249	71.62
274.481	85.62
274.713	76.62
274.945	76.62
275.176	77.62
275.408	82.62
275.64	69.62
275.872	86.62
276.104	85.62
276.335	98.62
276.567	81.62
276.799	73.62
277.031	81.62
277.262	84.62
277.494	77.62
277.726	84.62
277.957	78.62
278.189	77.62
278.421	81.62
278.652	56.62
278.884	87.62
279.115	82.62
279.347	86.62
279.579	73.62
279.81	77.62
280.042	71.62
280.273	78.62
280.505	68.62
280.736	83.62
280.968	77.62
281.199	91.62
281.431	86.62
281.662	83.62
281.894	89.62
282.125	74.62
282.356	77.62
282.588	63.62
282.819	79.62
283.051	81.62
283.282	79.62
283.513	76.62
283.745	79.62
283.976	65.62
284.207	86.62
284.439	82.62
284.67	86.62
284.901	69.62
285.132	64.62
285.364	78.62
285.595	77.62
285.826	80.62
286.057	91.62
286.288	91.62
286.52	60.62
286.751	71.62
286.982	84.62
287.213	83.62
287.444	93.62
287.675	73.62
287.906	80.62
288.138	84.62
288.369	97.62
288.6	76.62
288.831	87.62
289.062	79.62
289.293	84.62
289.524	76.62
289.755	77.62
289.986	76.62
290.217	80.62
290.448	81.62
290.679	84.62
290.91	79.62
291.141	80.62
291.371	78.62
291.602	76.62
291.833	66.62
292.064	101.62
292.295	84.62
292.526	86.62
292.757	82.62
292.987	87.62
293.218	76.62
293.449	79.62
293.68	77.62
293.91	82.62
294.141	92.62
294.372	77.62
294.603	71.62
294.833	78.62
295.064	92.62
295.295	80.62
295.525	78.62
295.756	75.62
295.987	78.62
296.217	74.62
296.448	77.62
296.679	88.62
296.909	81.62
297.14	81.62
297.37	87.62
297.601	78.62
297.831	79.62
298.062	90.62
298.292	77.62
298.523	83.62
298.753	85.62
298.984	86.62
299.214	80.62
299.445	91.62
299.675	76.62
299.905	75.62
300.136	92.62
300.366	80.62
300.597	81.62
300.827	86.62
301.057	81.62
301.288	73.62
301.518	81.62
301.748	89.62
301.979	77.62
302.209	73.62
302.439	81.62
302.669	79.62
302.9	88.62
303.13	87.62
303.36	80.62
303.59	82.62
303.82	86.62
304.051	85.62
304.281	92.62
304.511	76.62
304.741	62.62
304.971	71.62
305.201	82.62
305.431	74.62
305.661	80.62
305.891	86.62
306.121	77.62
306.352	63.62
306.582	80.62
306.812	87.62
307.042	82.62
307.272	87.62
307.502	83.62
307.731	76.62
307.961	75.62
308.191	81.62
308.421	83.62
308.651	72.62
308.881	69.62
309.111	72.62
309.341	68.62
309.571	67.62
309.8	89.62
310.03	81.62
310.26	85.62
310.49	72.62
310.72	76.62
310.949	78.62
311.179	77.62
311.409	73.62
311.639	76.62
311.868	80.62
312.098	77.62
312.328	85.62
312.557	86.62
312.787	81.62
313.017	73.62
313.246	81.62
313.476	71.62
313.706	60.62
313.935	73.62
314.165	84.62
314.394	77.62
314.624	96.62
314.853	71.62
315.083	72.62
315.312	84.62
315.542	97.62
315.771	83.62
316.001	84.62
316.23	89.62
316.46	75.62
316.689	80.62
316.919	84.62
317.148	100.62
317.377	84.62
317.607	72.62
317.836	88.62
318.065	70.62
318.295	73.62
318.524	86.62
318.753	79.62
318.983	77.62
319.212	92.62
319.441	71.62
319.67	85.62
319.9	78.62
320.129	84.62
320.358	86.62
320.587	85.62
320.816	81.62
321.046	77.62
321.275	86.62
321.504	84.62
321.733	91.62
321.962	80.62
322.191	72.62
322.42	66.62
322.649	80.62
322.878	79.62
323.108	72.62
323.337	85.62
323.566	65.62
323.795	91.62
324.024	73.62
324.253	75.62
324.482	81.62
324.71	77.62
324.939	79.62
325.168	81.62
325.397	85.62
325.626	80.62
325.855	69.62
326.084	78.62
326.313	76.62
326.542	82.62
326.77	77.62
326.999	78.62
327.228	81.62
327.457	80.62
327.686	81.62
327.914	79.62
328.143	83.62
328.372	75.62
328.6	86.62
328.829	68.62
329.058	79.62
329.287	78.62
329.515	81.62
329.744	79.62
329.972	93.62
330.201	75.62
330.43	71.62
330.658	72.62
330.887	84.62
331.115	96.62
331.344	92.62
331.572	62.62
331.801	79.62
332.03	83.62
332.258	80.62
332.486	68.62
332.715	82.62
332.943	74.62
333.172	76.62
333.4	67.62
333.629	86.62
333.857	73.62
334.085	76.62
334.314	88.62
334.542	73.62
334.771	80.62
334.999	84.62
335.227	99.62
335.455	81.62
335.684	75.62
335.912	74.62
336.14	71.62
336.369	77.62
336.597	66.62
336.825	78.62
337.053	80.62
337.281	70.62
337.51	84.62
337.738	79.62
337.966	86.62
338.194	72.62
338.422	79.62
338.65	83.62
338.878	84.62
339.106	84.62
339.334	80.62
339.562	76.62
339.79	90.62
340.018	72.62
340.246	82.62
340.474	89.62
340.702	85.62
340.93	76.62
341.158	82.62
341.386	95.62
341.614	77.62
341.842	73.62
342.07	82.62
342.298	90.62
342.526	92.62
342.754	91.62
342.981	79.62
343.209	67.62
343.437	84.62
343.665	74.62
343.893	85.62
344.12	91.62
344.348	94.62
344.576	82.62
344.804	82.62
345.031	78.62
345.259	79.62
345.487	72.62
345.714	76.62
345.942	89.62
346.17	72.62
346.397	91.62
346.625	86.62
346.853	80.62
347.08	79.62
347.308	89.62
347.535	69.62
347.763	74.62
347.99	81.62
348.218	89.62
348.445	88.62
348.673	96.62
348.9	75.62
349.128	95.62
349.355	79.62
349.583	79.62
349.81	81.62
350.037	80.62
350.265	72.62
350.492	66.62
350.72	82.62
350.947	85.62
351.174	75.62
351.402	92.62
351.629	86.62
351.856	88.62
352.083	76.62
352.311	64.62
352.538	70.62
352.765	72.62
352.992	74.62
353.22	85.62
353.447	84.62
353.674	87.62
353.901	79.62
354.128	89.62
354.355	84.62
354.583	85.62
354.81	73.62
355.037	90.62
355.264	81.62
355.491	70.62
355.718	81.62
355.945	72.62
356.172	83.62
356.399	99.62
356.626	74.62
356.853	89.62
357.08	82.62
357.307	87.62
357.534	89.62
357.761	78.62
357.988	81.62
358.215	72.62
358.441	77.62
358.668	74.62
358.895	76.62
359.122	79.62
359.349	73.62
359.576	93.62
359.802	74.62
360.029	76.62
360.256	73.62
360.483	80.62
360.709	81.62
360.936	92.62
361.163	78.62
361.39	73.62
361.616	84.62
361.843	81.62
362.07	75.62
362.296	87.62
362.523	79.62
362.749	81.62
362.976	63.62
363.203	71.62
363.429	82.62
363.656	83.62
363.882	84.62
364.109	71.62
364.335	87.62
364.562	63.62
364.788	75.62
365.015	80.62
365.241	82.62
365.468	80.62
365.694	81.62
365.92	71.62
366.147	88.62
366.373	97.62
366.599	84.62
366.826	71.62
367.052	85.62
367.278	71.62
367.505	77.62
367.731	88.62
367.957	75.62
368.184	79.62
368.41	80.62
368.636	73.62
368.862	92.62
369.089	86.62
369.315	83.62
369.541	103.62
369.767	79.62
369.993	74.62
370.219	82.62
370.445	98.62
370.672	92.62
370.898	75.62
371.124	93.62
371.35	89.62
371.576	98.62
371.802	96.62
372.028	97.62
372.254	85.62
372.48	92.62
372.706	84.62
372.932	83.62
373.158	75.62
373.384	90.62
373.61	106.62
373.835	79.62
374.061	103.62
374.287	94.62
374.513	80.62
374.739	110.62
374.965	94.62
375.191	92.62
375.416	94.62
375.642	89.62
375.868	74.62
376.094	89.62
376.319	100.62
376.545	78.62
376.771	81.62
376.997	89.62
377.222	77.62
377.448	85.62
377.674	82.62
377.899	93.62
378.125	84.62
378.35	100.62
378.576	85.62
378.802	90.62
379.027	101.62
379.253	111.62
379.478	75.62
379.704	98.62
379.929	97.62
380.155	92.62
380.38	96.62
380.606	88.62
380.831	90.62
381.057	93.62
381.282	79.62
381.507	81.62
381.733	88.62
381.958	95.62
382.184	96.62
382.409	91.62
382.634	100.62
382.86	86.62
383.085	100.62
383.31	96.62
383.535	87.62
383.761	94.62
383.986	87.62
384.211	95.62
384.436	82.62
384.662	117.62
384.887	106.62
385.112	99.62
385.337	95.62
385.562	84.62
385.787	88.62
386.013	99.62
386.238	100.62
386.463	120.62
386.688	109.62
386.913	96.62
387.138	101.62
387.363	90.62
387.588	100.62
387.813	108.62
388.038	97.62
388.263	94.62
388.488	98.62
388.713	87.62
388.938	107.62
389.163	108.62
389.387	102.62
389.612	102.62
389.837	97.62
390.062	99.62
390.287	91.62
390.512	99.62
390.736	85.62
390.961	108.62
391.186	101.62
391.411	93.62
391.636	110.62
391.86	94.62
392.085	95.62
392.31	110.62
392.534	100.62
392.759	100.62
392.984	102.62
393.208	100.62
393.433	93.62
393.658	95.62
393.882	109.62
394.107	101.62
394.331	107.62
394.556	104.62
394.78	115.62
395.005	123.62
395.229	87.62
395.454	95.62
395.678	93.62
395.903	108.62
396.127	111.62
396.352	102.62
396.576	116.62
396.801	98.62
397.025	108.62
397.249	109.62
397.474	109.62
397.698	113.62
397.922	96.62
398.147	103.62
398.371	105.62
398.595	121.62
398.82	88.62
399.044	92.62
399.268	107.62
399.492	94.62
399.717	118.62
399.941	108.62
400.165	108.62
400.389	101.62
400.613	112.62
400.837	93.62
401.062	104.62
401.286	104.62
401.51	99.62
401.734	111.62
401.958	88.62
402.182	109.62
402.406	124.62
402.63	112.62
402.854	124.62
403.078	104.62
403.302	111.62
403.526	111.62
403.75	120.62
403.974	113.62
404.198	102.62
404.422	118.62
404.645	122.62
404.869	118.62
405.093	107.62
405.317	104.62
405.541	119.62
405.765	117.62
405.988	108.62
406.212	116.62
406.436	112.62
406.66	137.62
406.883	102.62
407.107	123.62
407.331	105.62
407.555	113.62
407.778	105.62
408.002	115.62
408.226	120.62
408.449	108.62
408.673	117.62
408.896	119.62
409.12	108.62
409.344	124.62
409.567	120.62
409.791	116.62
410.014	119.62
410.238	109.62
410.461	112.62
410.685	117.62
410.908	131.62
411.132	118.62
411.355	114.62
411.578	118.62
411.802	101.62
412.025	117.62
412.249	119.62
412.472	120.62
412.695	125.62
412.919	124.62
413.142	127.62
413.365	129.62
413.589	117.62
413.812	125.62
414.035	111.62
414.258	121.62
414.482	120.62
414.705	112.62
414.928	129.62
415.151	134.62
415.374	116.62
415.597	123.62
415.821	132.62
416.044	124.62
416.267	126.62
416.49	126.62
416.713	115.62
416.936	131.62
417.159	141.62
417.382	132.62
417.605	120.62
417.828	130.62
418.051	128.62
418.274	120.62
418.497	108.62
418.72	135.62
418.943	127.62
419.166	129.62
419.389	119.62
419.611	136.62
419.834	128.62
420.057	125.62
420.28	134.62
420.503	113.62
420.726	135.62
420.948	127.62
421.171	129.62
421.394	134.62
421.617	133.62
421.839	145.62
422.062	132.62
422.285	123.62
422.507	119.62
422.73	123.62
422.953	130.62
423.175	112.62
423.398	105.62
423.621	119.62
423.843	130.62
424.066	132.62
424.288	131.62
424.511	131.62
424.733	138.62
424.956	142.62
425.178	157.62
425.401	117.62
425.623	130.62
425.846	117.62
426.068	120.62
426.291	119.62
426.513	131.62
426.735	127.62
426.958	127.62
427.18	118.62
427.402	132.62
427.625	129.62
427.847	119.62
428.069	136.62
428.292	128.62
428.514	136.62
428.736	126.62
428.958	122.62
429.181	125.62
429.403	129.62
429.625	122.62
429.847	111.62
430.069	124.62
430.292	126.62
430.514	131.62
430.736	116.62
430.958	119.62
431.18	113.62
431.402	119.62
431.624	101.62
431.846	104.62
432.068	101.62
432.29	96.62
432.512	107.62
432.734	118.62
432.956	127.62
433.178	128.62
433.4	134.62
433.622	137.62
433.844	130.62
434.066	104.62
434.287	91.62
434.509	99.62
434.731	102.62
434.953	103.62
435.175	109.62
435.397	120.62
435.618	109.62
435.84	107.62
436.062	113.62
436.284	116.62
436.505	114.62
436.727	116.62
436.949	139.62
437.17	123.62
437.392	123.62
437.614	112.62
437.835	98.62
438.057	113.62
438.278	115.62
438.5	126.62
438.721	133.62
438.943	126.62
439.165	131.62
439.386	131.62
439.608	136.62
439.829	128.62
440.05	147.62
440.272	151.62
440.493	128.62
440.715	147.62
440.936	152.62
441.158	143.62
441.379	137.62
441.6	142.62
441.822	131.62
442.043	135.62
442.264	120.62
442.486	134.62
442.707	133.62
442.928	141.62
443.149	134.62
443.371	141.62
443.592	134.62
443.813	131.62
444.034	162.62
444.255	140.62
444.476	135.62
444.698	137.62
444.919	153.62
445.14	261.62
445.361	199.62
445.582	149.62
445.803	139.62
446.024	135.62
446.245	143.62
446.466	144.62
446.687	156.62
446.908	148.62
447.129	150.62
447.35	152.62
447.571	153.62
447.792	149.62
448.013	125.62
448.234	143.62
448.455	144.62
448.675	137.62
448.896	124.62
449.117	127.62
449.338	129.62
449.559	137.62
449.779	136.62
450	132.62
450.221	128.62
450.442	138.62
450.662	129.62
450.883	119.62
451.104	140.62
451.324	131.62
451.545	139.62
451.766	127.62
451.986	117.62
452.207	124.62
452.428	125.62
452.648	131.62
452.869	101.62
453.089	119.62
453.31	116.62
453.53	111.62
453.751	100.62
453.971	109.62
454.192	98.62
454.412	107.62
454.633	115.62
454.853	120.62
455.073	109.62
455.294	120.62
455.514	117.62
455.734	124.62
455.955	113.62
456.175	93.62
456.395	109.62
456.616	123.62
456.836	99.62
457.056	99.62
457.276	93.62
457.497	88.62
457.717	99.62
457.937	113.62
458.157	99.62
458.377	100.62
458.598	109.62
458.818	93.62
459.038	78.62
459.258	86.62
459.478	94.62
459.698	87.62
459.918	113.62
460.138	98.62
460.358	109.62
460.578	104.62
460.798	116.62
461.018	115.62
461.238	118.62
461.458	104.62
461.678	94.62
461.898	112.62
462.118	117.62
462.338	119.62
462.558	111.62
462.777	93.62
462.997	107.62
463.217	101.62
463.437	98.62
463.657	112.62
463.876	117.62
464.096	103.62
464.316	109.62
464.536	117.62
464.755	110.62
464.975	109.62
465.195	121.62
465.414	117.62
465.634	120.62
465.854	104.62
466.073	96.62
466.293	115.62
466.512	123.62
466.732	126.62
466.951	129.62
467.171	126.62
467.391	129.62
467.61	135.62
467.829	134.62
468.049	126.62
468.268	116.62
468.488	127.62
468.707	128.62
468.927	136.62
469.146	142.62
469.365	126.62
469.585	122.62
469.804	123.62
470.023	136.62
470.243	145.62
470.462	154.62
470.681	136.62
470.901	143.62
471.12	133.62
471.339	138.62
471.558	140.62
471.777	149.62
471.997	120.62
472.216	122.62
472.435	112.62
472.654	99.62
472.873	104.62
473.092	112.62
473.311	124.62
473.53	116.62
473.749	129.62
473.968	120.62
474.187	112.62
474.406	100.62
474.625	143.62
474.844	138.62
475.063	137.62
475.282	122.62
475.501	126.62
475.72	114.62
475.939	114.62
476.158	113.62
476.377	144.62
476.596	120.62
476.814	114.62
477.033	106.62
477.252	109.62
477.471	108.62
477.69	108.62
477.908	127.62
478.127	145.62
478.346	134.62
478.564	128.62
478.783	120.62
479.002	137.62
479.22	131.62
479.439	135.62
479.658	120.62
479.876	118.62
480.095	112.62
480.313	107.62
480.532	109.62
480.751	109.62
480.969	92.62
481.188	105.62
481.406	102.62
481.624	72.62
481.843	97.62
482.061	108.62
482.28	101.62
482.498	121.62
482.717	104.62
482.935	111.62
483.153	127.62
483.372	137.62
483.59	134.62
483.808	146.62
484.027	139.62
484.245	133.62
484.463	128.62
484.681	158.62
484.9	140.62
485.118	127.62
485.336	137.62
485.554	120.62
485.772	119.62
485.99	109.62
486.209	102.62
486.427	103.62
486.645	108.62
486.863	121.62
487.081	137.62
487.299	128.62
487.517	132.62
487.735	157.62
487.953	175.62
488.171	171.62
488.389	175.62
488.607	158.62
488.825	131.62
489.043	128.62
489.261	135.62
489.479	127.62
489.696	124.62
489.914	149.62
490.132	137.62
490.35	143.62
490.568	153.62
490.786	163.62
491.003	190.62
491.221	163.62
491.439	183.62
491.657	182.62
491.874	184.62
492.092	219.62
492.31	218.62
492.527	222.62
492.745	205.62
492.963	191.62
493.18	177.62
493.398	157.62
493.615	166.62
493.833	166.62
494.05	169.62
494.268	160.62
494.485	178.62
494.703	171.62
494.92	172.62
495.138	149.62
495.355	156.62
495.573	161.62
495.79	152.62
496.008	157.62
496.225	175.62
496.442	157.62
496.66	159.62
496.877	163.62
497.094	170.62
497.312	176.62
497.529	150.62
497.746	157.62
497.963	131.62
498.181	123.62
498.398	124.62
498.615	124.62
498.832	124.62
499.049	121.62
499.267	123.62
499.484	132.62
499.701	129.62
499.918	133.62
500.135	138.62
500.352	131.62
500.569	126.62
500.786	145.62
501.003	138.62
501.22	151.62
501.437	141.62
501.654	118.62
501.871	127.62
502.088	136.62
502.305	124.62
502.522	128.62
502.739	135.62
502.956	142.62
503.172	119.62
503.389	118.62
503.606	111.62
503.823	109.62
504.04	122.62
504.256	127.62
504.473	104.62
504.69	118.62
504.907	129.62
505.123	117.62
505.34	113.62
505.557	126.62
505.773	118.62
505.99	113.62
506.207	114.62
506.423	121.62
506.64	125.62
506.856	124.62
507.073	117.62
507.289	123.62
507.506	135.62
507.722	116.62
507.939	104.62
508.155	129.62
508.372	109.62
508.588	103.62
508.805	106.62
509.021	107.62
509.238	112.62
509.454	94.62
509.67	84.62
509.887	103.62
510.103	106.62
510.319	98.62
510.536	92.62
510.752	84.62
510.968	82.62
511.184	88.62
511.401	84.62
511.617	86.62
511.833	100.62
512.049	97.62
