Data from Location2.07152019.Energy5.Lamp.07192019.3%Agarose_HRD10591_14-58-49-359.txt Node
Date: Fri Jul 19 14:58:49 EDT 2019
User: cochatt
Spectrometer: HR+D1059
Trigger mode: 1
Integration Time (sec): 1.000000E-1
Scans to average: 1
Electric dark correction enabled: true
Nonlinearity correction enabled: false
Boxcar width: 0
XAxis mode: Wavelengths
Number of Pixels in Spectrum: 2048
>>>>>Begin Spectral Data<<<<<
223.165	-18.56
223.4	-18.56
223.635	-18.56
223.869	-22.56
224.104	-19.56
224.338	-23.56
224.573	-24.56
224.808	-11.56
225.042	-4.56
225.277	-11.56
225.511	-6.56
225.746	15.44
225.98	15.44
226.215	16.44
226.449	10.44
226.683	40.44
226.918	22.44
227.152	22.44
227.387	47.44
227.621	46.44
227.856	43.44
228.09	58.44
228.324	53.44
228.559	61.44
228.793	64.44
229.027	57.44
229.262	62.44
229.496	70.44
229.73	71.44
229.964	80.44
230.199	71.44
230.433	72.44
230.667	80.44
230.901	69.44
231.136	72.44
231.37	69.44
231.604	94.44
231.838	77.44
232.072	88.44
232.306	84.44
232.541	71.44
232.775	97.44
233.009	63.44
233.243	79.44
233.477	72.44
233.711	86.44
233.945	74.44
234.179	64.44
234.413	74.44
234.647	75.44
234.881	86.44
235.115	80.44
235.349	84.44
235.583	72.44
235.817	56.44
236.051	74.44
236.285	87.44
236.519	74.44
236.753	78.44
236.987	68.44
237.221	66.44
237.455	93.44
237.689	74.44
237.922	89.44
238.156	74.44
238.39	74.44
238.624	79.44
238.858	80.44
239.091	79.44
239.325	79.44
239.559	72.44
239.793	81.44
240.027	67.44
240.26	87.44
240.494	67.44
240.728	79.44
240.961	80.44
241.195	77.44
241.429	72.44
241.662	62.44
241.896	79.44
242.13	71.44
242.363	77.44
242.597	72.44
242.83	92.44
243.064	62.44
243.298	85.44
243.531	96.44
243.765	78.44
243.998	68.44
244.232	79.44
244.465	78.44
244.699	81.44
244.932	74.44
245.166	76.44
245.399	71.44
245.633	66.44
245.866	79.44
246.099	91.44
246.333	87.44
246.566	90.44
246.8	78.44
247.033	70.44
247.266	80.44
247.5	64.44
247.733	79.44
247.966	75.44
248.2	76.44
248.433	77.44
248.666	72.44
248.899	78.44
249.133	77.44
249.366	80.44
249.599	84.44
249.832	82.44
250.066	79.44
250.299	78.44
250.532	89.44
250.765	80.44
250.998	68.44
251.231	84.44
251.465	74.44
251.698	87.44
251.931	70.44
252.164	70.44
252.397	74.44
252.63	70.44
252.863	80.44
253.096	78.44
253.329	87.44
253.562	81.44
253.795	73.44
254.028	77.44
254.261	88.44
254.494	75.44
254.727	77.44
254.96	88.44
255.193	76.44
255.426	96.44
255.659	81.44
255.892	76.44
256.124	72.44
256.357	89.44
256.59	74.44
256.823	93.44
257.056	72.44
257.289	72.44
257.521	89.44
257.754	83.44
257.987	76.44
258.22	73.44
258.452	82.44
258.685	66.44
258.918	79.44
259.151	84.44
259.383	81.44
259.616	83.44
259.849	78.44
260.081	90.44
260.314	79.44
260.547	102.44
260.779	78.44
261.012	93.44
261.244	66.44
261.477	80.44
261.71	82.44
261.942	81.44
262.175	78.44
262.407	72.44
262.64	71.44
262.872	74.44
263.105	69.44
263.337	84.44
263.57	83.44
263.802	85.44
264.035	92.44
264.267	78.44
264.499	86.44
264.732	90.44
264.964	61.44
265.197	70.44
265.429	85.44
265.661	72.44
265.894	71.44
266.126	92.44
266.358	88.44
266.591	83.44
266.823	83.44
267.055	77.44
267.287	81.44
267.52	84.44
267.752	77.44
267.984	81.44
268.216	75.44
268.448	89.44
268.681	89.44
268.913	95.44
269.145	82.44
269.377	81.44
269.609	72.44
269.841	86.44
270.073	78.44
270.306	85.44
270.538	76.44
270.77	81.44
271.002	87.44
271.234	75.44
271.466	71.44
271.698	81.44
271.93	82.44
272.162	87.44
272.394	77.44
272.626	74.44
272.858	78.44
273.09	78.44
273.322	75.44
273.553	74.44
273.785	89.44
274.017	72.44
274.249	77.44
274.481	83.44
274.713	82.44
274.945	82.44
275.176	58.44
275.408	76.44
275.64	68.44
275.872	79.44
276.104	81.44
276.335	78.44
276.567	82.44
276.799	88.44
277.031	88.44
277.262	66.44
277.494	75.44
277.726	61.44
277.957	87.44
278.189	72.44
278.421	76.44
278.652	70.44
278.884	84.44
279.115	67.44
279.347	80.44
279.579	88.44
279.81	80.44
280.042	71.44
280.273	88.44
280.505	90.44
280.736	89.44
280.968	86.44
281.199	86.44
281.431	72.44
281.662	75.44
281.894	76.44
282.125	84.44
282.356	80.44
282.588	86.44
282.819	89.44
283.051	91.44
283.282	96.44
283.513	98.44
283.745	76.44
283.976	78.44
284.207	86.44
284.439	85.44
284.67	95.44
284.901	81.44
285.132	84.44
285.364	81.44
285.595	83.44
285.826	83.44
286.057	81.44
286.288	71.44
286.52	87.44
286.751	79.44
286.982	72.44
287.213	75.44
287.444	77.44
287.675	88.44
287.906	89.44
288.138	90.44
288.369	87.44
288.6	94.44
288.831	73.44
289.062	78.44
289.293	83.44
289.524	87.44
289.755	80.44
289.986	83.44
290.217	81.44
290.448	75.44
290.679	84.44
290.91	73.44
291.141	82.44
291.371	103.44
291.602	103.44
291.833	71.44
292.064	79.44
292.295	79.44
292.526	71.44
292.757	77.44
292.987	79.44
293.218	74.44
293.449	84.44
293.68	78.44
293.91	84.44
294.141	83.44
294.372	88.44
294.603	94.44
294.833	97.44
295.064	73.44
295.295	77.44
295.525	78.44
295.756	78.44
295.987	92.44
296.217	83.44
296.448	87.44
296.679	87.44
296.909	84.44
297.14	88.44
297.37	78.44
297.601	65.44
297.831	79.44
298.062	84.44
298.292	81.44
298.523	75.44
298.753	83.44
298.984	80.44
299.214	89.44
299.445	94.44
299.675	80.44
299.905	88.44
300.136	70.44
300.366	89.44
300.597	87.44
300.827	82.44
301.057	84.44
301.288	95.44
301.518	93.44
301.748	84.44
301.979	73.44
302.209	85.44
302.439	69.44
302.669	74.44
302.9	81.44
303.13	85.44
303.36	88.44
303.59	70.44
303.82	92.44
304.051	89.44
304.281	87.44
304.511	83.44
304.741	71.44
304.971	93.44
305.201	92.44
305.431	86.44
305.661	84.44
305.891	84.44
306.121	84.44
306.352	88.44
306.582	88.44
306.812	74.44
307.042	74.44
307.272	75.44
307.502	88.44
307.731	72.44
307.961	80.44
308.191	86.44
308.421	83.44
308.651	88.44
308.881	77.44
309.111	79.44
309.341	76.44
309.571	75.44
309.8	78.44
310.03	66.44
310.26	82.44
310.49	73.44
310.72	72.44
310.949	68.44
311.179	62.44
311.409	75.44
311.639	72.44
311.868	97.44
312.098	85.44
312.328	92.44
312.557	81.44
312.787	81.44
313.017	89.44
313.246	86.44
313.476	66.44
313.706	72.44
313.935	79.44
314.165	84.44
314.394	89.44
314.624	92.44
314.853	99.44
315.083	75.44
315.312	88.44
315.542	83.44
315.771	82.44
316.001	83.44
316.23	95.44
316.46	86.44
316.689	72.44
316.919	89.44
317.148	76.44
317.377	83.44
317.607	97.44
317.836	89.44
318.065	93.44
318.295	78.44
318.524	82.44
318.753	82.44
318.983	77.44
319.212	91.44
319.441	85.44
319.67	88.44
319.9	82.44
320.129	96.44
320.358	86.44
320.587	82.44
320.816	76.44
321.046	84.44
321.275	81.44
321.504	76.44
321.733	79.44
321.962	78.44
322.191	81.44
322.42	85.44
322.649	82.44
322.878	83.44
323.108	83.44
323.337	73.44
323.566	81.44
323.795	94.44
324.024	73.44
324.253	91.44
324.482	74.44
324.71	80.44
324.939	77.44
325.168	80.44
325.397	86.44
325.626	86.44
325.855	99.44
326.084	88.44
326.313	105.44
326.542	84.44
326.77	71.44
326.999	81.44
327.228	78.44
327.457	75.44
327.686	83.44
327.914	74.44
328.143	94.44
328.372	79.44
328.6	84.44
328.829	72.44
329.058	81.44
329.287	74.44
329.515	78.44
329.744	79.44
329.972	84.44
330.201	84.44
330.43	71.44
330.658	81.44
330.887	99.44
331.115	92.44
331.344	83.44
331.572	98.44
331.801	93.44
332.03	68.44
332.258	80.44
332.486	91.44
332.715	88.44
332.943	71.44
333.172	82.44
333.4	80.44
333.629	78.44
333.857	91.44
334.085	82.44
334.314	82.44
334.542	87.44
334.771	88.44
334.999	77.44
335.227	83.44
335.455	70.44
335.684	88.44
335.912	80.44
336.14	86.44
336.369	75.44
336.597	79.44
336.825	72.44
337.053	78.44
337.281	89.44
337.51	81.44
337.738	94.44
337.966	87.44
338.194	82.44
338.422	90.44
338.65	88.44
338.878	93.44
339.106	86.44
339.334	82.44
339.562	74.44
339.79	77.44
340.018	70.44
340.246	92.44
340.474	88.44
340.702	93.44
340.93	83.44
341.158	88.44
341.386	82.44
341.614	78.44
341.842	80.44
342.07	77.44
342.298	84.44
342.526	81.44
342.754	86.44
342.981	75.44
343.209	69.44
343.437	98.44
343.665	76.44
343.893	89.44
344.12	96.44
344.348	81.44
344.576	87.44
344.804	96.44
345.031	89.44
345.259	84.44
345.487	72.44
345.714	86.44
345.942	86.44
346.17	80.44
346.397	90.44
346.625	73.44
346.853	85.44
347.08	80.44
347.308	80.44
347.535	71.44
347.763	96.44
347.99	85.44
348.218	89.44
348.445	77.44
348.673	94.44
348.9	80.44
349.128	85.44
349.355	84.44
349.583	86.44
349.81	83.44
350.037	79.44
350.265	97.44
350.492	71.44
350.72	75.44
350.947	88.44
351.174	79.44
351.402	68.44
351.629	82.44
351.856	93.44
352.083	87.44
352.311	82.44
352.538	74.44
352.765	73.44
352.992	74.44
353.22	87.44
353.447	84.44
353.674	84.44
353.901	72.44
354.128	79.44
354.355	88.44
354.583	84.44
354.81	93.44
355.037	78.44
355.264	80.44
355.491	82.44
355.718	95.44
355.945	85.44
356.172	82.44
356.399	80.44
356.626	90.44
356.853	68.44
357.08	94.44
357.307	82.44
357.534	73.44
357.761	80.44
357.988	79.44
358.215	86.44
358.441	100.44
358.668	87.44
358.895	87.44
359.122	83.44
359.349	67.44
359.576	70.44
359.802	91.44
360.029	85.44
360.256	79.44
360.483	85.44
360.709	86.44
360.936	89.44
361.163	85.44
361.39	88.44
361.616	88.44
361.843	89.44
362.07	83.44
362.296	76.44
362.523	77.44
362.749	68.44
362.976	73.44
363.203	88.44
363.429	80.44
363.656	86.44
363.882	93.44
364.109	94.44
364.335	96.44
364.562	83.44
364.788	88.44
365.015	87.44
365.241	87.44
365.468	79.44
365.694	84.44
365.92	85.44
366.147	80.44
366.373	81.44
366.599	69.44
366.826	87.44
367.052	92.44
367.278	87.44
367.505	99.44
367.731	95.44
367.957	93.44
368.184	82.44
368.41	91.44
368.636	84.44
368.862	93.44
369.089	76.44
369.315	69.44
369.541	81.44
369.767	80.44
369.993	75.44
370.219	96.44
370.445	85.44
370.672	81.44
370.898	73.44
371.124	78.44
371.35	78.44
371.576	88.44
371.802	84.44
372.028	93.44
372.254	93.44
372.48	94.44
372.706	90.44
372.932	96.44
373.158	90.44
373.384	93.44
373.61	86.44
373.835	84.44
374.061	82.44
374.287	84.44
374.513	78.44
374.739	94.44
374.965	86.44
375.191	77.44
375.416	93.44
375.642	84.44
375.868	89.44
376.094	90.44
376.319	92.44
376.545	98.44
376.771	87.44
376.997	103.44
377.222	85.44
377.448	93.44
377.674	84.44
377.899	91.44
378.125	95.44
378.35	102.44
378.576	91.44
378.802	78.44
379.027	81.44
379.253	111.44
379.478	84.44
379.704	83.44
379.929	95.44
380.155	94.44
380.38	97.44
380.606	84.44
380.831	91.44
381.057	90.44
381.282	98.44
381.507	90.44
381.733	89.44
381.958	86.44
382.184	90.44
382.409	87.44
382.634	104.44
382.86	89.44
383.085	84.44
383.31	85.44
383.535	80.44
383.761	97.44
383.986	105.44
384.211	93.44
384.436	94.44
384.662	96.44
384.887	100.44
385.112	89.44
385.337	79.44
385.562	90.44
385.787	96.44
386.013	119.44
386.238	84.44
386.463	103.44
386.688	97.44
386.913	89.44
387.138	102.44
387.363	91.44
387.588	89.44
387.813	103.44
388.038	85.44
388.263	81.44
388.488	96.44
388.713	96.44
388.938	104.44
389.163	96.44
389.387	98.44
389.612	96.44
389.837	97.44
390.062	86.44
390.287	97.44
390.512	92.44
390.736	96.44
390.961	104.44
391.186	111.44
391.411	97.44
391.636	115.44
391.86	96.44
392.085	105.44
392.31	92.44
392.534	80.44
392.759	118.44
392.984	94.44
393.208	102.44
393.433	90.44
393.658	89.44
393.882	100.44
394.107	104.44
394.331	108.44
394.556	100.44
394.78	113.44
395.005	88.44
395.229	87.44
395.454	113.44
395.678	113.44
395.903	120.44
396.127	105.44
396.352	112.44
396.576	112.44
396.801	103.44
397.025	100.44
397.249	100.44
397.474	110.44
397.698	95.44
397.922	112.44
398.147	112.44
398.371	109.44
398.595	109.44
398.82	96.44
399.044	114.44
399.268	98.44
399.492	111.44
399.717	100.44
399.941	108.44
400.165	120.44
400.389	98.44
400.613	122.44
400.837	112.44
401.062	100.44
401.286	110.44
401.51	104.44
401.734	84.44
401.958	117.44
402.182	106.44
402.406	104.44
402.63	113.44
402.854	106.44
403.078	124.44
403.302	93.44
403.526	120.44
403.75	110.44
403.974	132.44
404.198	108.44
404.422	116.44
404.645	104.44
404.869	118.44
405.093	114.44
405.317	109.44
405.541	112.44
405.765	98.44
405.988	105.44
406.212	119.44
406.436	120.44
406.66	109.44
406.883	123.44
407.107	110.44
407.331	122.44
407.555	113.44
407.778	110.44
408.002	105.44
408.226	126.44
408.449	114.44
408.673	114.44
408.896	127.44
409.12	126.44
409.344	111.44
409.567	115.44
409.791	118.44
410.014	113.44
410.238	118.44
410.461	122.44
410.685	110.44
410.908	120.44
411.132	120.44
411.355	127.44
411.578	118.44
411.802	129.44
412.025	102.44
412.249	118.44
412.472	122.44
412.695	118.44
412.919	130.44
413.142	109.44
413.365	110.44
413.589	115.44
413.812	119.44
414.035	138.44
414.258	120.44
414.482	126.44
414.705	130.44
414.928	118.44
415.151	113.44
415.374	116.44
415.597	114.44
415.821	130.44
416.044	133.44
416.267	124.44
416.49	128.44
416.713	119.44
416.936	119.44
417.159	128.44
417.382	119.44
417.605	128.44
417.828	124.44
418.051	117.44
418.274	132.44
418.497	127.44
418.72	128.44
418.943	139.44
419.166	127.44
419.389	126.44
419.611	124.44
419.834	128.44
420.057	134.44
420.28	131.44
420.503	130.44
420.726	123.44
420.948	135.44
421.171	113.44
421.394	130.44
421.617	135.44
421.839	133.44
422.062	130.44
422.285	122.44
422.507	125.44
422.73	116.44
422.953	129.44
423.175	110.44
423.398	124.44
423.621	126.44
423.843	120.44
424.066	126.44
424.288	128.44
424.511	152.44
424.733	150.44
424.956	120.44
425.178	144.44
425.401	137.44
425.623	143.44
425.846	119.44
426.068	130.44
426.291	122.44
426.513	122.44
426.735	134.44
426.958	137.44
427.18	137.44
427.402	123.44
427.625	121.44
427.847	116.44
428.069	130.44
428.292	124.44
428.514	128.44
428.736	129.44
428.958	128.44
429.181	126.44
429.403	134.44
429.625	126.44
429.847	112.44
430.069	124.44
430.292	130.44
430.514	134.44
430.736	121.44
430.958	126.44
431.18	125.44
431.402	140.44
431.624	123.44
431.846	125.44
432.068	104.44
432.29	80.44
432.512	112.44
432.734	121.44
432.956	133.44
433.178	122.44
433.4	135.44
433.622	130.44
433.844	115.44
434.066	116.44
434.287	108.44
434.509	88.44
434.731	91.44
434.953	117.44
435.175	112.44
435.397	120.44
435.618	113.44
435.84	105.44
436.062	111.44
436.284	128.44
436.505	139.44
436.727	128.44
436.949	126.44
437.17	126.44
437.392	108.44
437.614	111.44
437.835	106.44
438.057	105.44
438.278	121.44
438.5	121.44
438.721	127.44
438.943	136.44
439.165	136.44
439.386	128.44
439.608	149.44
439.829	132.44
440.05	128.44
440.272	136.44
440.493	133.44
440.715	141.44
440.936	134.44
441.158	127.44
441.379	144.44
441.6	148.44
441.822	145.44
442.043	122.44
442.264	147.44
442.486	137.44
442.707	127.44
442.928	123.44
443.149	129.44
443.371	143.44
443.592	128.44
443.813	138.44
444.034	124.44
444.255	127.44
444.476	143.44
444.698	136.44
444.919	146.44
445.14	254.44
445.361	187.44
445.582	159.44
445.803	140.44
446.024	142.44
446.245	137.44
446.466	140.44
446.687	153.44
446.908	164.44
447.129	158.44
447.35	154.44
447.571	134.44
447.792	162.44
448.013	148.44
448.234	143.44
448.455	135.44
448.675	146.44
448.896	137.44
449.117	138.44
449.338	148.44
449.559	129.44
449.779	124.44
450	131.44
450.221	125.44
450.442	117.44
450.662	133.44
450.883	131.44
451.104	135.44
451.324	125.44
451.545	130.44
451.766	119.44
451.986	124.44
452.207	127.44
452.428	120.44
452.648	120.44
452.869	128.44
453.089	124.44
453.31	104.44
453.53	103.44
453.751	120.44
453.971	95.44
454.192	92.44
454.412	86.44
454.633	117.44
454.853	109.44
455.073	116.44
455.294	130.44
455.514	120.44
455.734	120.44
455.955	103.44
456.175	120.44
456.395	96.44
456.616	109.44
456.836	104.44
457.056	112.44
457.276	103.44
457.497	112.44
457.717	105.44
457.937	98.44
458.157	112.44
458.377	96.44
458.598	100.44
458.818	93.44
459.038	110.44
459.258	87.44
459.478	75.44
459.698	84.44
459.918	110.44
460.138	110.44
460.358	121.44
460.578	106.44
460.798	111.44
461.018	102.44
461.238	118.44
461.458	108.44
461.678	101.44
461.898	97.44
462.118	112.44
462.338	115.44
462.558	131.44
462.777	118.44
462.997	110.44
463.217	114.44
463.437	104.44
463.657	110.44
463.876	106.44
464.096	108.44
464.316	114.44
464.536	112.44
464.755	102.44
464.975	121.44
465.195	110.44
465.414	111.44
465.634	100.44
465.854	118.44
466.073	122.44
466.293	124.44
466.512	118.44
466.732	130.44
466.951	133.44
467.171	133.44
467.391	135.44
467.61	125.44
467.829	134.44
468.049	132.44
468.268	137.44
468.488	136.44
468.707	139.44
468.927	140.44
469.146	121.44
469.365	144.44
469.585	141.44
469.804	135.44
470.023	126.44
470.243	126.44
470.462	149.44
470.681	142.44
470.901	124.44
471.12	121.44
471.339	152.44
471.558	136.44
471.777	130.44
471.997	137.44
472.216	147.44
472.435	129.44
472.654	108.44
472.873	103.44
473.092	121.44
473.311	126.44
473.53	126.44
473.749	127.44
473.968	113.44
474.187	119.44
474.406	116.44
474.625	124.44
474.844	123.44
475.063	140.44
475.282	102.44
475.501	96.44
475.72	126.44
475.939	116.44
476.158	119.44
476.377	133.44
476.596	127.44
476.814	129.44
477.033	113.44
477.252	114.44
477.471	117.44
477.69	121.44
477.908	141.44
478.127	143.44
478.346	115.44
478.564	122.44
478.783	116.44
479.002	143.44
479.22	131.44
479.439	113.44
479.658	124.44
479.876	116.44
480.095	109.44
480.313	96.44
480.532	117.44
480.751	104.44
480.969	104.44
481.188	89.44
481.406	89.44
481.624	92.44
481.843	89.44
482.061	96.44
482.28	102.44
482.498	89.44
482.717	92.44
482.935	118.44
483.153	136.44
483.372	135.44
483.59	147.44
483.808	145.44
484.027	128.44
484.245	132.44
484.463	152.44
484.681	140.44
484.9	126.44
485.118	131.44
485.336	108.44
485.554	96.44
485.772	101.44
485.99	97.44
486.209	113.44
486.427	116.44
486.645	117.44
486.863	133.44
487.081	154.44
487.299	132.44
487.517	142.44
487.735	161.44
487.953	178.44
488.171	192.44
488.389	156.44
488.607	152.44
488.825	150.44
489.043	132.44
489.261	130.44
489.479	132.44
489.696	132.44
489.914	138.44
490.132	147.44
490.35	139.44
490.568	156.44
490.786	172.44
491.003	172.44
491.221	177.44
491.439	183.44
491.657	172.44
491.874	192.44
492.092	212.44
492.31	250.44
492.527	229.44
492.745	210.44
492.963	190.44
493.18	184.44
493.398	183.44
493.615	180.44
493.833	175.44
494.05	190.44
494.268	180.44
494.485	172.44
494.703	167.44
494.92	178.44
495.138	170.44
495.355	176.44
495.573	183.44
495.79	162.44
496.008	175.44
496.225	169.44
496.442	158.44
496.66	162.44
496.877	168.44
497.094	156.44
497.312	152.44
497.529	162.44
497.746	143.44
497.963	135.44
498.181	137.44
498.398	118.44
498.615	125.44
498.832	110.44
499.049	138.44
499.267	125.44
499.484	114.44
499.701	125.44
499.918	135.44
500.135	140.44
500.352	134.44
500.569	151.44
500.786	153.44
501.003	143.44
501.22	121.44
501.437	125.44
501.654	119.44
501.871	128.44
502.088	133.44
502.305	121.44
502.522	130.44
502.739	133.44
502.956	130.44
503.172	126.44
503.389	133.44
503.606	120.44
503.823	115.44
504.04	104.44
504.256	122.44
504.473	114.44
504.69	110.44
504.907	130.44
505.123	109.44
505.34	119.44
505.557	124.44
505.773	134.44
505.99	122.44
506.207	116.44
506.423	113.44
506.64	98.44
506.856	112.44
507.073	117.44
507.289	109.44
507.506	129.44
507.722	118.44
507.939	121.44
508.155	113.44
508.372	108.44
508.588	114.44
508.805	108.44
509.021	96.44
509.238	108.44
509.454	112.44
509.67	97.44
509.887	99.44
510.103	99.44
510.319	110.44
510.536	87.44
510.752	80.44
510.968	87.44
511.184	82.44
511.401	69.44
511.617	78.44
511.833	82.44
512.049	82.44
