Data from Location2.07152019.Energy5.Lamp.07192019.3%Agarose_HRD10591_14-58-32-360.txt Node
Date: Fri Jul 19 14:58:32 EDT 2019
User: cochatt
Spectrometer: HR+D1059
Trigger mode: 1
Integration Time (sec): 1.000000E-1
Scans to average: 1
Electric dark correction enabled: true
Nonlinearity correction enabled: false
Boxcar width: 0
XAxis mode: Wavelengths
Number of Pixels in Spectrum: 2048
>>>>>Begin Spectral Data<<<<<
223.165	-14
223.4	-14
223.635	-14
223.869	-11
224.104	3
224.338	-15
224.573	-11
224.808	-19
225.042	-4
225.277	-1
225.511	-9
225.746	-10
225.98	14
226.215	10
226.449	3
226.683	15
226.918	22
227.152	27
227.387	29
227.621	32
227.856	55
228.09	47
228.324	69
228.559	59
228.793	74
229.027	65
229.262	72
229.496	65
229.73	69
229.964	74
230.199	78
230.433	80
230.667	81
230.901	84
231.136	92
231.37	84
231.604	95
231.838	89
232.072	80
232.306	84
232.541	98
232.775	87
233.009	85
233.243	103
233.477	88
233.711	83
233.945	77
234.179	77
234.413	78
234.647	86
234.881	84
235.115	89
235.349	93
235.583	80
235.817	81
236.051	79
236.285	93
236.519	75
236.753	79
236.987	97
237.221	78
237.455	83
237.689	76
237.922	75
238.156	85
238.39	66
238.624	69
238.858	75
239.091	85
239.325	73
239.559	65
239.793	87
240.027	78
240.26	78
240.494	75
240.728	77
240.961	73
241.195	78
241.429	89
241.662	77
241.896	89
242.13	71
242.363	74
242.597	76
242.83	81
243.064	81
243.298	79
243.531	59
243.765	73
243.998	88
244.232	82
244.465	80
244.699	71
244.932	73
245.166	64
245.399	83
245.633	83
245.866	76
246.099	83
246.333	74
246.566	77
246.8	90
247.033	79
247.266	104
247.5	82
247.733	76
247.966	69
248.2	80
248.433	78
248.666	84
248.899	84
249.133	71
249.366	91
249.599	70
249.832	89
250.066	65
250.299	80
250.532	88
250.765	72
250.998	69
251.231	79
251.465	73
251.698	84
251.931	81
252.164	65
252.397	84
252.63	82
252.863	78
253.096	79
253.329	85
253.562	70
253.795	94
254.028	70
254.261	79
254.494	76
254.727	85
254.96	81
255.193	79
255.426	87
255.659	82
255.892	79
256.124	78
256.357	87
256.59	77
256.823	75
257.056	81
257.289	66
257.521	72
257.754	75
257.987	83
258.22	81
258.452	85
258.685	90
258.918	90
259.151	86
259.383	89
259.616	78
259.849	78
260.081	74
260.314	82
260.547	88
260.779	77
261.012	89
261.244	78
261.477	85
261.71	87
261.942	82
262.175	76
262.407	67
262.64	73
262.872	90
263.105	88
263.337	81
263.57	80
263.802	74
264.035	102
264.267	90
264.499	92
264.732	91
264.964	71
265.197	77
265.429	82
265.661	83
265.894	90
266.126	89
266.358	90
266.591	87
266.823	84
267.055	83
267.287	88
267.52	83
267.752	84
267.984	88
268.216	85
268.448	87
268.681	82
268.913	82
269.145	80
269.377	76
269.609	78
269.841	90
270.073	73
270.306	78
270.538	83
270.77	85
271.002	90
271.234	75
271.466	80
271.698	78
271.93	74
272.162	82
272.394	93
272.626	77
272.858	85
273.09	93
273.322	76
273.553	87
273.785	92
274.017	76
274.249	87
274.481	80
274.713	87
274.945	91
275.176	100
275.408	88
275.64	81
275.872	80
276.104	82
276.335	87
276.567	100
276.799	85
277.031	88
277.262	80
277.494	97
277.726	62
277.957	85
278.189	97
278.421	85
278.652	84
278.884	79
279.115	77
279.347	79
279.579	83
279.81	90
280.042	81
280.273	79
280.505	86
280.736	79
280.968	90
281.199	86
281.431	86
281.662	90
281.894	85
282.125	75
282.356	94
282.588	78
282.819	89
283.051	81
283.282	81
283.513	87
283.745	85
283.976	82
284.207	97
284.439	93
284.67	89
284.901	91
285.132	87
285.364	86
285.595	92
285.826	92
286.057	90
286.288	89
286.52	68
286.751	87
286.982	89
287.213	80
287.444	84
287.675	58
287.906	83
288.138	80
288.369	84
288.6	88
288.831	92
289.062	90
289.293	78
289.524	99
289.755	90
289.986	78
290.217	73
290.448	75
290.679	98
290.91	99
291.141	83
291.371	84
291.602	72
291.833	85
292.064	91
292.295	91
292.526	77
292.757	86
292.987	92
293.218	85
293.449	85
293.68	88
293.91	83
294.141	91
294.372	86
294.603	89
294.833	89
295.064	89
295.295	84
295.525	92
295.756	94
295.987	99
296.217	98
296.448	90
296.679	93
296.909	72
297.14	78
297.37	104
297.601	96
297.831	88
298.062	96
298.292	70
298.523	83
298.753	83
298.984	79
299.214	94
299.445	85
299.675	91
299.905	88
300.136	96
300.366	75
300.597	94
300.827	88
301.057	81
301.288	90
301.518	88
301.748	91
301.979	75
302.209	82
302.439	81
302.669	94
302.9	86
303.13	84
303.36	86
303.59	82
303.82	81
304.051	75
304.281	89
304.511	75
304.741	70
304.971	89
305.201	89
305.431	88
305.661	74
305.891	90
306.121	89
306.352	75
306.582	95
306.812	85
307.042	88
307.272	79
307.502	85
307.731	87
307.961	82
308.191	92
308.421	85
308.651	93
308.881	80
309.111	89
309.341	83
309.571	78
309.8	91
310.03	80
310.26	93
310.49	91
310.72	98
310.949	91
311.179	99
311.409	94
311.639	92
311.868	92
312.098	94
312.328	100
312.557	94
312.787	62
313.017	88
313.246	81
313.476	88
313.706	83
313.935	88
314.165	79
314.394	84
314.624	83
314.853	102
315.083	87
315.312	87
315.542	83
315.771	85
316.001	84
316.23	93
316.46	75
316.689	85
316.919	91
317.148	86
317.377	90
317.607	91
317.836	79
318.065	82
318.295	93
318.524	82
318.753	73
318.983	93
319.212	84
319.441	92
319.67	84
319.9	74
320.129	87
320.358	84
320.587	87
320.816	93
321.046	99
321.275	88
321.504	81
321.733	84
321.962	86
322.191	79
322.42	90
322.649	84
322.878	88
323.108	77
323.337	80
323.566	104
323.795	87
324.024	87
324.253	82
324.482	87
324.71	71
324.939	84
325.168	97
325.397	98
325.626	91
325.855	85
326.084	88
326.313	77
326.542	90
326.77	99
326.999	83
327.228	92
327.457	77
327.686	83
327.914	85
328.143	104
328.372	100
328.6	90
328.829	86
329.058	89
329.287	94
329.515	79
329.744	87
329.972	87
330.201	91
330.43	74
330.658	92
330.887	86
331.115	87
331.344	87
331.572	87
331.801	89
332.03	90
332.258	97
332.486	88
332.715	85
332.943	78
333.172	85
333.4	85
333.629	85
333.857	68
334.085	82
334.314	89
334.542	105
334.771	88
334.999	83
335.227	77
335.455	80
335.684	89
335.912	74
336.14	96
336.369	85
336.597	91
336.825	75
337.053	75
337.281	71
337.51	90
337.738	68
337.966	90
338.194	77
338.422	99
338.65	85
338.878	94
339.106	90
339.334	95
339.562	87
339.79	91
340.018	86
340.246	97
340.474	92
340.702	73
340.93	96
341.158	85
341.386	78
341.614	81
341.842	73
342.07	75
342.298	88
342.526	100
342.754	88
342.981	77
343.209	78
343.437	87
343.665	86
343.893	85
344.12	92
344.348	69
344.576	71
344.804	113
345.031	95
345.259	82
345.487	105
345.714	92
345.942	90
346.17	79
346.397	77
346.625	84
346.853	86
347.08	86
347.308	87
347.535	85
347.763	86
347.99	90
348.218	83
348.445	89
348.673	86
348.9	70
349.128	88
349.355	84
349.583	82
349.81	86
350.037	86
350.265	90
350.492	90
350.72	87
350.947	85
351.174	76
351.402	83
351.629	80
351.856	77
352.083	75
352.311	83
352.538	83
352.765	99
352.992	81
353.22	94
353.447	83
353.674	80
353.901	79
354.128	98
354.355	76
354.583	91
354.81	89
355.037	96
355.264	75
355.491	91
355.718	91
355.945	89
356.172	82
356.399	94
356.626	89
356.853	89
357.08	99
357.307	86
357.534	89
357.761	92
357.988	72
358.215	68
358.441	86
358.668	79
358.895	75
359.122	92
359.349	83
359.576	88
359.802	90
360.029	73
360.256	91
360.483	95
360.709	93
360.936	89
361.163	93
361.39	71
361.616	88
361.843	88
362.07	87
362.296	88
362.523	79
362.749	91
362.976	76
363.203	77
363.429	98
363.656	92
363.882	82
364.109	78
364.335	91
364.562	88
364.788	79
365.015	100
365.241	82
365.468	99
365.694	82
365.92	87
366.147	91
366.373	93
366.599	88
366.826	85
367.052	97
367.278	89
367.505	86
367.731	82
367.957	85
368.184	81
368.41	88
368.636	102
368.862	91
369.089	69
369.315	94
369.541	85
369.767	94
369.993	90
370.219	95
370.445	108
370.672	95
370.898	94
371.124	97
371.35	92
371.576	92
371.802	105
372.028	84
372.254	100
372.48	98
372.706	96
372.932	87
373.158	100
373.384	105
373.61	90
373.835	92
374.061	97
374.287	88
374.513	88
374.739	92
374.965	93
375.191	93
375.416	92
375.642	89
375.868	98
376.094	93
376.319	101
376.545	78
376.771	96
376.997	89
377.222	88
377.448	88
377.674	101
377.899	93
378.125	88
378.35	97
378.576	102
378.802	98
379.027	95
379.253	105
379.478	110
379.704	109
379.929	88
380.155	93
380.38	103
380.606	98
380.831	95
381.057	84
381.282	99
381.507	103
381.733	101
381.958	96
382.184	77
382.409	107
382.634	95
382.86	101
383.085	100
383.31	98
383.535	113
383.761	110
383.986	100
384.211	96
384.436	97
384.662	102
384.887	106
385.112	88
385.337	105
385.562	89
385.787	113
386.013	106
386.238	113
386.463	104
386.688	90
386.913	101
387.138	96
387.363	88
387.588	91
387.813	115
388.038	102
388.263	107
388.488	107
388.713	99
388.938	111
389.163	101
389.387	100
389.612	94
389.837	104
390.062	103
390.287	99
390.512	102
390.736	99
390.961	105
391.186	99
391.411	109
391.636	117
391.86	107
392.085	102
392.31	87
392.534	105
392.759	99
392.984	100
393.208	116
393.433	111
393.658	117
393.882	101
394.107	109
394.331	114
394.556	103
394.78	109
395.005	106
395.229	115
395.454	107
395.678	112
395.903	115
396.127	114
396.352	108
396.576	105
396.801	108
397.025	116
397.249	107
397.474	118
397.698	107
397.922	110
398.147	103
398.371	103
398.595	108
398.82	102
399.044	118
399.268	105
399.492	113
399.717	107
399.941	98
400.165	112
400.389	113
400.613	113
400.837	106
401.062	121
401.286	122
401.51	120
401.734	120
401.958	121
402.182	112
402.406	117
402.63	101
402.854	119
403.078	113
403.302	113
403.526	114
403.75	115
403.974	118
404.198	122
404.422	102
404.645	113
404.869	116
405.093	116
405.317	119
405.541	122
405.765	125
405.988	115
406.212	108
406.436	125
406.66	113
406.883	110
407.107	119
407.331	117
407.555	134
407.778	113
408.002	118
408.226	126
408.449	108
408.673	114
408.896	125
409.12	108
409.344	123
409.567	115
409.791	125
410.014	116
410.238	115
410.461	105
410.685	119
410.908	119
411.132	117
411.355	121
411.578	118
411.802	115
412.025	120
412.249	122
412.472	127
412.695	116
412.919	129
413.142	127
413.365	133
413.589	131
413.812	115
414.035	114
414.258	100
414.482	133
414.705	122
414.928	140
415.151	134
415.374	121
415.597	96
415.821	117
416.044	125
416.267	126
416.49	129
416.713	128
416.936	133
417.159	131
417.382	129
417.605	126
417.828	134
418.051	137
418.274	146
418.497	121
418.72	133
418.943	126
419.166	137
419.389	144
419.611	133
419.834	118
420.057	123
420.28	133
420.503	140
420.726	126
420.948	116
421.171	131
421.394	128
421.617	142
421.839	139
422.062	130
422.285	137
422.507	106
422.73	122
422.953	127
423.175	131
423.398	125
423.621	127
423.843	138
424.066	135
424.288	123
424.511	131
424.733	135
424.956	148
425.178	135
425.401	140
425.623	147
425.846	146
426.068	131
426.291	145
426.513	134
426.735	139
426.958	138
427.18	119
427.402	135
427.625	115
427.847	124
428.069	133
428.292	124
428.514	130
428.736	133
428.958	125
429.181	122
429.403	119
429.625	117
429.847	131
430.069	119
430.292	129
430.514	121
430.736	124
430.958	134
431.18	124
431.402	117
431.624	115
431.846	102
432.068	96
432.29	96
432.512	106
432.734	126
432.956	127
433.178	129
433.4	123
433.622	142
433.844	138
434.066	114
434.287	92
434.509	98
434.731	88
434.953	123
435.175	125
435.397	130
435.618	111
435.84	117
436.062	105
436.284	126
436.505	135
436.727	127
436.949	139
437.17	127
437.392	136
437.614	117
437.835	99
438.057	109
438.278	119
438.5	118
438.721	135
438.943	149
439.165	130
439.386	149
439.608	142
439.829	143
440.05	153
440.272	131
440.493	140
440.715	141
440.936	125
441.158	151
441.379	143
441.6	141
441.822	146
442.043	131
442.264	139
442.486	134
442.707	143
442.928	147
443.149	151
443.371	156
443.592	145
443.813	127
444.034	137
444.255	140
444.476	132
444.698	136
444.919	155
445.14	231
445.361	204
445.582	139
445.803	141
446.024	155
446.245	143
446.466	141
446.687	151
446.908	149
447.129	153
447.35	151
447.571	140
447.792	138
448.013	154
448.234	143
448.455	133
448.675	123
448.896	143
449.117	134
449.338	140
449.559	147
449.779	141
450	137
450.221	147
450.442	138
450.662	135
450.883	135
451.104	151
451.324	127
451.545	129
451.766	122
451.986	119
452.207	128
452.428	122
452.648	108
452.869	131
453.089	134
453.31	138
453.53	109
453.751	110
453.971	110
454.192	111
454.412	118
454.633	121
454.853	119
455.073	117
455.294	131
455.514	129
455.734	124
455.955	135
456.175	120
456.395	115
456.616	115
456.836	107
457.056	103
457.276	116
457.497	102
457.717	111
457.937	110
458.157	106
458.377	110
458.598	102
458.818	105
459.038	99
459.258	93
459.478	80
459.698	95
459.918	89
460.138	101
460.358	106
460.578	114
460.798	123
461.018	117
461.238	115
461.458	116
461.678	107
461.898	102
462.118	105
462.338	102
462.558	103
462.777	107
462.997	115
463.217	119
463.437	120
463.657	111
463.876	113
464.096	110
464.316	114
464.536	118
464.755	119
464.975	123
465.195	116
465.414	127
465.634	113
465.854	121
466.073	125
466.293	124
466.512	116
466.732	105
466.951	140
467.171	149
467.391	129
467.61	142
467.829	135
468.049	133
468.268	126
468.488	125
468.707	133
468.927	161
469.146	140
469.365	135
469.585	158
469.804	141
470.023	137
470.243	143
470.462	141
470.681	139
470.901	138
471.12	132
471.339	147
471.558	141
471.777	142
471.997	123
472.216	129
472.435	124
472.654	124
472.873	125
473.092	124
473.311	125
473.53	119
473.749	132
473.968	127
474.187	120
474.406	123
474.625	141
474.844	131
475.063	129
475.282	124
475.501	124
475.72	114
475.939	115
476.158	137
476.377	128
476.596	135
476.814	109
477.033	117
477.252	108
477.471	115
477.69	127
477.908	133
478.127	144
478.346	128
478.564	131
478.783	149
479.002	130
479.22	133
479.439	134
479.658	136
479.876	127
480.095	123
480.313	108
480.532	125
480.751	106
480.969	96
481.188	102
481.406	86
481.624	102
481.843	73
482.061	89
482.28	112
482.498	125
482.717	122
482.935	124
483.153	132
483.372	135
483.59	147
483.808	135
484.027	136
484.245	137
484.463	134
484.681	168
484.9	137
485.118	145
485.336	130
485.554	122
485.772	93
485.99	106
486.209	110
486.427	109
486.645	108
486.863	135
487.081	135
487.299	130
487.517	131
487.735	164
487.953	187
488.171	162
488.389	177
488.607	153
488.825	143
489.043	140
489.261	128
489.479	133
489.696	140
489.914	141
490.132	149
490.35	143
490.568	166
490.786	178
491.003	173
491.221	184
491.439	179
491.657	193
491.874	193
492.092	212
492.31	231
492.527	221
492.745	185
492.963	183
493.18	183
493.398	167
493.615	173
493.833	168
494.05	161
494.268	165
494.485	159
494.703	161
494.92	181
495.138	178
495.355	188
495.573	163
495.79	167
496.008	174
496.225	161
496.442	149
496.66	162
496.877	152
497.094	162
497.312	169
497.529	161
497.746	142
497.963	142
498.181	132
498.398	124
498.615	125
498.832	117
499.049	107
499.267	124
499.484	129
499.701	113
499.918	129
500.135	139
500.352	135
500.569	143
500.786	158
501.003	141
501.22	132
501.437	124
501.654	135
501.871	143
502.088	137
502.305	147
502.522	133
502.739	125
502.956	120
503.172	121
503.389	112
503.606	135
503.823	111
504.04	114
504.256	125
504.473	110
504.69	118
504.907	113
505.123	118
505.34	114
505.557	125
505.773	138
505.99	129
506.207	123
506.423	123
506.64	121
506.856	125
507.073	112
507.289	115
507.506	120
507.722	123
507.939	122
508.155	116
508.372	113
508.588	109
508.805	125
509.021	111
509.238	119
509.454	117
509.67	105
509.887	106
510.103	82
510.319	88
510.536	87
510.752	91
510.968	85
511.184	85
511.401	81
511.617	83
511.833	106
512.049	97
512.265	89
512.481	106
512.698	83
512.914	96
513.13	97
513.346	78
513.562	87
513.778	81
513.994	92
514.21	90
514.426	99
514.642	95
514.858	80
515.074	90
515.29	78
515.506	103
515.721	88
515.937	97
516.153	86
516.369	83
516.585	78
516.801	93
517.016	101
517.232	100
517.448	99
517.664	86
517.879	103
518.095	98
518.311	102
518.527	96
518.742	87
518.958	96
519.173	101
519.389	98
519.605	115
519.82	113
520.036	99
520.251	96
520.467	106
520.682	107
520.898	96
521.113	98
521.329	89
521.544	86
521.76	89
521.975	93
522.19	99
522.406	89
522.621	105
522.836	121
523.052	115
523.267	113
523.482	114
523.698	125
523.913	125
524.128	119
524.343	131
524.559	122
524.774	117
524.989	121
525.204	115
525.419	110
525.634	118
525.849	101
526.064	106
526.28	107
526.495	86
526.71	94
526.925	85
527.14	94
527.355	104
527.57	96
527.785	83
527.999	119
528.214	98
528.429	111
528.644	123
528.859	122
529.074	141
529.289	159
529.503	161
529.718	127
529.933	121
530.148	115
530.363	99
530.577	97
530.792	82
531.007	88
531.221	87
531.436	91
531.651	103
531.865	83
532.08	89
532.295	87
532.509	76
532.724	94
532.938	102
533.153	98
533.367	107
533.582	130
533.796	118
534.011	118
534.225	104
534.44	88
534.654	94
534.868	82
535.083	93
535.297	98
535.511	101
535.726	96
535.94	99
536.154	84
536.369	76
536.583	82
536.797	78
537.011	91
537.225	83
537.44	106
537.654	99
537.868	105
538.082	91
538.296	103
538.51	105
538.724	116
538.938	117
539.153	125
539.367	128
539.581	100
539.795	102
540.009	101
540.222	104
540.436	109
540.65	125
540.864	124
541.078	133
541.292	155
541.506	159
541.72	174
541.934	172
542.147	175
542.361	181
542.575	175
542.789	153
543.002	131
543.216	124
543.43	116
543.644	130
543.857	144
544.071	145
544.285	160
544.498	161
544.712	154
544.925	180
545.139	174
545.352	149
545.566	155
545.779	166
545.993	146
546.206	174
546.42	168
546.633	181
546.847	166
547.06	157
547.274	173
547.487	172
547.7	171
547.914	169
548.127	163
548.34	166
548.554	149
548.767	176
548.98	163
549.193	170
549.407	160
549.62	162
549.833	142
550.046	153
550.259	140
550.473	153
550.686	153
550.899	152
551.112	154
551.325	156
551.538	131
551.751	129
551.964	120
552.177	141
552.39	154
552.603	141
552.816	157
553.029	158
553.242	159
553.455	167
553.667	173
553.88	150
554.093	155
554.306	160
554.519	150
554.732	148
554.944	146
555.157	155
555.37	147
555.583	147
555.795	144
556.008	147
556.221	133
556.433	129
556.646	135
556.859	127
557.071	147
557.284	138
557.496	135
557.709	136
557.921	145
558.134	133
558.346	131
558.559	133
558.771	127
558.984	123
559.196	138
559.409	151
559.621	142
559.833	134
560.046	125
560.258	127
560.47	122
560.683	136
560.895	138
561.107	151
561.32	135
561.532	122
561.744	135
561.956	121
562.168	133
562.381	130
562.593	150
562.805	132
563.017	137
563.229	122
563.441	131
563.653	122
563.865	119
564.077	116
564.289	123
564.501	123
564.713	115
564.925	118
565.137	113
565.349	121
565.561	120
565.773	125
565.985	129
566.197	115
566.408	115
566.62	122
566.832	131
567.044	124
567.255	123
567.467	121
567.679	120
567.891	96
568.102	108
568.314	93
568.526	80
568.737	93
568.949	102
569.161	90
569.372	86
569.584	88
569.795	93
570.007	92
570.218	95
570.43	78
570.641	104
570.853	90
571.064	117
571.276	110
571.487	101
571.698	99
571.91	109
572.121	108
572.333	105
572.544	99
572.755	99
572.966	94
573.178	78
573.389	94
573.6	100
573.811	91
574.023	88
574.234	102
574.445	102
574.656	99
574.867	79
575.078	94
575.289	94
575.501	81
575.712	102
575.923	95
576.134	98
576.345	103
