Data from Location2.07152019.Energy5.Lamp.07192019.3%Agarose_HRD10591_14-56-11-359.txt Node
Date: Fri Jul 19 14:56:11 EDT 2019
User: cochatt
Spectrometer: HR+D1059
Trigger mode: 1
Integration Time (sec): 1.000000E-1
Scans to average: 1
Electric dark correction enabled: true
Nonlinearity correction enabled: false
Boxcar width: 0
XAxis mode: Wavelengths
Number of Pixels in Spectrum: 2048
>>>>>Begin Spectral Data<<<<<
223.165	-20.56
223.4	-20.56
223.635	-20.56
223.869	-15.56
224.104	-17.56
224.338	-17.56
224.573	-33.56
224.808	-11.56
225.042	3.44
225.277	-2.56
225.511	-1.56
225.746	7.44
225.98	9.44
226.215	9.44
226.449	10.44
226.683	17.44
226.918	26.44
227.152	36.44
227.387	29.44
227.621	39.44
227.856	37.44
228.09	32.44
228.324	31.44
228.559	47.44
228.793	69.44
229.027	79.44
229.262	51.44
229.496	59.44
229.73	57.44
229.964	66.44
230.199	55.44
230.433	75.44
230.667	68.44
230.901	63.44
231.136	65.44
231.37	78.44
231.604	95.44
231.838	67.44
232.072	67.44
232.306	73.44
232.541	84.44
232.775	64.44
233.009	68.44
233.243	76.44
233.477	76.44
233.711	85.44
233.945	73.44
234.179	75.44
234.413	63.44
234.647	78.44
234.881	97.44
235.115	90.44
235.349	59.44
235.583	77.44
235.817	74.44
236.051	77.44
236.285	63.44
236.519	64.44
236.753	80.44
236.987	85.44
237.221	83.44
237.455	74.44
237.689	66.44
237.922	67.44
238.156	75.44
238.39	75.44
238.624	75.44
238.858	74.44
239.091	78.44
239.325	79.44
239.559	62.44
239.793	77.44
240.027	65.44
240.26	80.44
240.494	92.44
240.728	65.44
240.961	73.44
241.195	82.44
241.429	79.44
241.662	79.44
241.896	78.44
242.13	76.44
242.363	77.44
242.597	76.44
242.83	84.44
243.064	61.44
243.298	69.44
243.531	80.44
243.765	70.44
243.998	79.44
244.232	77.44
244.465	76.44
244.699	76.44
244.932	80.44
245.166	77.44
245.399	77.44
245.633	74.44
245.866	84.44
246.099	87.44
246.333	69.44
246.566	72.44
246.8	60.44
247.033	84.44
247.266	77.44
247.5	83.44
247.733	79.44
247.966	87.44
248.2	63.44
248.433	66.44
248.666	72.44
248.899	66.44
249.133	75.44
249.366	82.44
249.599	71.44
249.832	73.44
250.066	56.44
250.299	74.44
250.532	80.44
250.765	63.44
250.998	78.44
251.231	67.44
251.465	64.44
251.698	73.44
251.931	77.44
252.164	79.44
252.397	72.44
252.63	79.44
252.863	69.44
253.096	69.44
253.329	75.44
253.562	73.44
253.795	78.44
254.028	63.44
254.261	71.44
254.494	72.44
254.727	82.44
254.96	63.44
255.193	77.44
255.426	77.44
255.659	68.44
255.892	83.44
256.124	70.44
256.357	71.44
256.59	77.44
256.823	63.44
257.056	80.44
257.289	78.44
257.521	69.44
257.754	66.44
257.987	87.44
258.22	65.44
258.452	68.44
258.685	81.44
258.918	74.44
259.151	55.44
259.383	83.44
259.616	84.44
259.849	76.44
260.081	68.44
260.314	74.44
260.547	69.44
260.779	67.44
261.012	88.44
261.244	69.44
261.477	70.44
261.71	66.44
261.942	79.44
262.175	71.44
262.407	67.44
262.64	76.44
262.872	88.44
263.105	82.44
263.337	73.44
263.57	79.44
263.802	80.44
264.035	69.44
264.267	79.44
264.499	73.44
264.732	86.44
264.964	77.44
265.197	91.44
265.429	75.44
265.661	74.44
265.894	85.44
266.126	64.44
266.358	93.44
266.591	80.44
266.823	76.44
267.055	86.44
267.287	79.44
267.52	68.44
267.752	72.44
267.984	73.44
268.216	71.44
268.448	68.44
268.681	66.44
268.913	83.44
269.145	65.44
269.377	70.44
269.609	83.44
269.841	77.44
270.073	73.44
270.306	82.44
270.538	80.44
270.77	72.44
271.002	68.44
271.234	77.44
271.466	87.44
271.698	57.44
271.93	84.44
272.162	83.44
272.394	87.44
272.626	72.44
272.858	68.44
273.09	78.44
273.322	86.44
273.553	76.44
273.785	85.44
274.017	81.44
274.249	72.44
274.481	75.44
274.713	79.44
274.945	88.44
275.176	80.44
275.408	68.44
275.64	86.44
275.872	83.44
276.104	88.44
276.335	84.44
276.567	80.44
276.799	80.44
277.031	74.44
277.262	81.44
277.494	86.44
277.726	73.44
277.957	81.44
278.189	62.44
278.421	99.44
278.652	84.44
278.884	77.44
279.115	86.44
279.347	85.44
279.579	81.44
279.81	61.44
280.042	85.44
280.273	82.44
280.505	81.44
280.736	78.44
280.968	79.44
281.199	82.44
281.431	82.44
281.662	79.44
281.894	69.44
282.125	75.44
282.356	79.44
282.588	70.44
282.819	84.44
283.051	86.44
283.282	75.44
283.513	81.44
283.745	80.44
283.976	75.44
284.207	84.44
284.439	81.44
284.67	75.44
284.901	79.44
285.132	71.44
285.364	80.44
285.595	78.44
285.826	86.44
286.057	76.44
286.288	81.44
286.52	84.44
286.751	83.44
286.982	80.44
287.213	88.44
287.444	78.44
287.675	76.44
287.906	84.44
288.138	84.44
288.369	76.44
288.6	73.44
288.831	73.44
289.062	76.44
289.293	100.44
289.524	78.44
289.755	85.44
289.986	75.44
290.217	77.44
290.448	77.44
290.679	93.44
290.91	77.44
291.141	73.44
291.371	69.44
291.602	93.44
291.833	84.44
292.064	72.44
292.295	71.44
292.526	83.44
292.757	80.44
292.987	87.44
293.218	83.44
293.449	78.44
293.68	78.44
293.91	64.44
294.141	85.44
294.372	79.44
294.603	89.44
294.833	79.44
295.064	87.44
295.295	91.44
295.525	72.44
295.756	80.44
295.987	74.44
296.217	74.44
296.448	95.44
296.679	86.44
296.909	83.44
297.14	81.44
297.37	84.44
297.601	95.44
297.831	76.44
298.062	84.44
298.292	76.44
298.523	84.44
298.753	81.44
298.984	79.44
299.214	72.44
299.445	76.44
299.675	77.44
299.905	75.44
300.136	70.44
300.366	66.44
300.597	69.44
300.827	87.44
301.057	79.44
301.288	94.44
301.518	80.44
301.748	86.44
301.979	70.44
302.209	86.44
302.439	79.44
302.669	85.44
302.9	78.44
303.13	78.44
303.36	81.44
303.59	65.44
303.82	96.44
304.051	80.44
304.281	80.44
304.511	86.44
304.741	74.44
304.971	83.44
305.201	85.44
305.431	87.44
305.661	84.44
305.891	83.44
306.121	91.44
306.352	86.44
306.582	86.44
306.812	69.44
307.042	86.44
307.272	75.44
307.502	82.44
307.731	87.44
307.961	82.44
308.191	89.44
308.421	76.44
308.651	71.44
308.881	71.44
309.111	78.44
309.341	78.44
309.571	77.44
309.8	75.44
310.03	83.44
310.26	81.44
310.49	83.44
310.72	74.44
310.949	82.44
311.179	75.44
311.409	83.44
311.639	67.44
311.868	65.44
312.098	76.44
312.328	78.44
312.557	78.44
312.787	96.44
313.017	80.44
313.246	84.44
313.476	70.44
313.706	76.44
313.935	73.44
314.165	79.44
314.394	91.44
314.624	79.44
314.853	86.44
315.083	81.44
315.312	76.44
315.542	75.44
315.771	83.44
316.001	81.44
316.23	90.44
316.46	81.44
316.689	75.44
316.919	75.44
317.148	84.44
317.377	85.44
317.607	88.44
317.836	73.44
318.065	88.44
318.295	78.44
318.524	84.44
318.753	90.44
318.983	80.44
319.212	91.44
319.441	86.44
319.67	77.44
319.9	77.44
320.129	86.44
320.358	69.44
320.587	84.44
320.816	72.44
321.046	86.44
321.275	87.44
321.504	79.44
321.733	77.44
321.962	85.44
322.191	96.44
322.42	77.44
322.649	86.44
322.878	65.44
323.108	81.44
323.337	83.44
323.566	90.44
323.795	98.44
324.024	67.44
324.253	78.44
324.482	81.44
324.71	74.44
324.939	97.44
325.168	80.44
325.397	84.44
325.626	75.44
325.855	89.44
326.084	74.44
326.313	80.44
326.542	61.44
326.77	71.44
326.999	63.44
327.228	80.44
327.457	78.44
327.686	73.44
327.914	68.44
328.143	81.44
328.372	84.44
328.6	68.44
328.829	76.44
329.058	74.44
329.287	72.44
329.515	80.44
329.744	81.44
329.972	76.44
330.201	81.44
330.43	72.44
330.658	81.44
330.887	81.44
331.115	71.44
331.344	63.44
331.572	83.44
331.801	75.44
332.03	80.44
332.258	82.44
332.486	86.44
332.715	72.44
332.943	86.44
333.172	81.44
333.4	86.44
333.629	80.44
333.857	85.44
334.085	79.44
334.314	88.44
334.542	96.44
334.771	85.44
334.999	74.44
335.227	77.44
335.455	71.44
335.684	109.44
335.912	75.44
336.14	85.44
336.369	82.44
336.597	85.44
336.825	80.44
337.053	79.44
337.281	79.44
337.51	70.44
337.738	77.44
337.966	83.44
338.194	73.44
338.422	92.44
338.65	81.44
338.878	80.44
339.106	80.44
339.334	72.44
339.562	71.44
339.79	83.44
340.018	77.44
340.246	94.44
340.474	84.44
340.702	87.44
340.93	81.44
341.158	71.44
341.386	82.44
341.614	70.44
341.842	71.44
342.07	73.44
342.298	89.44
342.526	74.44
342.754	80.44
342.981	73.44
343.209	80.44
343.437	79.44
343.665	95.44
343.893	68.44
344.12	90.44
344.348	76.44
344.576	98.44
344.804	71.44
345.031	81.44
345.259	92.44
345.487	91.44
345.714	85.44
345.942	78.44
346.17	83.44
346.397	83.44
346.625	76.44
346.853	79.44
347.08	64.44
347.308	79.44
347.535	71.44
347.763	79.44
347.99	72.44
348.218	71.44
348.445	87.44
348.673	84.44
348.9	93.44
349.128	78.44
349.355	84.44
349.583	93.44
349.81	95.44
350.037	85.44
350.265	83.44
350.492	70.44
350.72	73.44
350.947	80.44
351.174	70.44
351.402	77.44
351.629	79.44
351.856	72.44
352.083	73.44
352.311	72.44
352.538	92.44
352.765	80.44
352.992	81.44
353.22	81.44
353.447	96.44
353.674	84.44
353.901	86.44
354.128	82.44
354.355	75.44
354.583	84.44
354.81	77.44
355.037	79.44
355.264	66.44
355.491	85.44
355.718	83.44
355.945	83.44
356.172	91.44
356.399	80.44
356.626	73.44
356.853	87.44
357.08	83.44
357.307	80.44
357.534	78.44
357.761	71.44
357.988	84.44
358.215	78.44
358.441	81.44
358.668	91.44
358.895	75.44
359.122	77.44
359.349	68.44
359.576	73.44
359.802	80.44
360.029	76.44
360.256	85.44
360.483	74.44
360.709	76.44
360.936	74.44
361.163	84.44
361.39	82.44
361.616	84.44
361.843	85.44
362.07	73.44
362.296	87.44
362.523	80.44
362.749	74.44
362.976	87.44
363.203	63.44
363.429	75.44
363.656	67.44
363.882	77.44
364.109	90.44
364.335	92.44
364.562	70.44
364.788	67.44
365.015	87.44
365.241	82.44
365.468	95.44
365.694	77.44
365.92	75.44
366.147	85.44
366.373	67.44
366.599	83.44
366.826	93.44
367.052	68.44
367.278	103.44
367.505	98.44
367.731	81.44
367.957	87.44
368.184	91.44
368.41	89.44
368.636	92.44
368.862	65.44
369.089	73.44
369.315	92.44
369.541	76.44
369.767	104.44
369.993	89.44
370.219	90.44
370.445	88.44
370.672	75.44
370.898	97.44
371.124	92.44
371.35	83.44
371.576	85.44
371.802	93.44
372.028	85.44
372.254	87.44
372.48	96.44
372.706	95.44
372.932	94.44
373.158	88.44
373.384	94.44
373.61	85.44
373.835	97.44
374.061	83.44
374.287	92.44
374.513	78.44
374.739	89.44
374.965	82.44
375.191	82.44
375.416	81.44
375.642	98.44
375.868	95.44
376.094	101.44
376.319	105.44
376.545	84.44
376.771	89.44
376.997	89.44
377.222	86.44
377.448	96.44
377.674	84.44
377.899	83.44
378.125	90.44
378.35	100.44
378.576	87.44
378.802	84.44
379.027	100.44
379.253	92.44
379.478	92.44
379.704	94.44
379.929	101.44
380.155	84.44
380.38	91.44
380.606	81.44
380.831	86.44
381.057	103.44
381.282	93.44
381.507	102.44
381.733	95.44
381.958	90.44
382.184	94.44
382.409	96.44
382.634	98.44
382.86	103.44
383.085	103.44
383.31	99.44
383.535	94.44
383.761	98.44
383.986	89.44
384.211	86.44
384.436	80.44
384.662	91.44
384.887	93.44
385.112	97.44
385.337	100.44
385.562	86.44
385.787	96.44
386.013	101.44
386.238	90.44
386.463	99.44
386.688	92.44
386.913	90.44
387.138	86.44
387.363	107.44
387.588	94.44
387.813	106.44
388.038	99.44
388.263	86.44
388.488	86.44
388.713	110.44
388.938	100.44
389.163	100.44
389.387	98.44
389.612	98.44
389.837	106.44
390.062	105.44
390.287	87.44
390.512	102.44
390.736	96.44
390.961	94.44
391.186	86.44
391.411	109.44
391.636	100.44
391.86	100.44
392.085	80.44
392.31	89.44
392.534	109.44
392.759	96.44
392.984	99.44
393.208	102.44
393.433	112.44
393.658	103.44
393.882	100.44
394.107	93.44
394.331	91.44
394.556	105.44
394.78	99.44
395.005	107.44
395.229	88.44
395.454	104.44
395.678	105.44
395.903	113.44
396.127	103.44
396.352	107.44
396.576	100.44
396.801	109.44
397.025	99.44
397.249	118.44
397.474	107.44
397.698	114.44
397.922	121.44
398.147	103.44
398.371	111.44
398.595	103.44
398.82	116.44
399.044	114.44
399.268	99.44
399.492	98.44
399.717	110.44
399.941	107.44
400.165	108.44
400.389	103.44
400.613	100.44
400.837	113.44
401.062	122.44
401.286	107.44
401.51	109.44
401.734	105.44
401.958	123.44
402.182	89.44
402.406	120.44
402.63	101.44
402.854	119.44
403.078	109.44
403.302	103.44
403.526	107.44
403.75	91.44
403.974	117.44
404.198	109.44
404.422	118.44
404.645	119.44
404.869	119.44
405.093	112.44
405.317	121.44
405.541	100.44
405.765	94.44
405.988	112.44
406.212	105.44
406.436	95.44
406.66	119.44
406.883	111.44
407.107	112.44
407.331	129.44
407.555	118.44
407.778	109.44
408.002	111.44
408.226	114.44
408.449	120.44
408.673	109.44
408.896	107.44
409.12	114.44
409.344	123.44
409.567	118.44
409.791	121.44
410.014	127.44
410.238	113.44
410.461	114.44
410.685	123.44
410.908	118.44
411.132	108.44
411.355	120.44
411.578	127.44
411.802	123.44
412.025	121.44
412.249	118.44
412.472	115.44
412.695	119.44
412.919	125.44
413.142	114.44
413.365	113.44
413.589	120.44
413.812	117.44
414.035	115.44
414.258	119.44
414.482	110.44
414.705	122.44
414.928	100.44
415.151	119.44
415.374	128.44
415.597	129.44
415.821	120.44
416.044	125.44
416.267	133.44
416.49	125.44
416.713	133.44
416.936	127.44
417.159	128.44
417.382	123.44
417.605	125.44
417.828	124.44
418.051	118.44
418.274	122.44
418.497	124.44
418.72	135.44
418.943	122.44
419.166	121.44
419.389	124.44
419.611	124.44
419.834	133.44
420.057	136.44
420.28	121.44
420.503	128.44
420.726	126.44
420.948	135.44
421.171	133.44
421.394	137.44
421.617	132.44
421.839	137.44
422.062	136.44
422.285	118.44
422.507	126.44
422.73	133.44
422.953	111.44
423.175	129.44
423.398	147.44
423.621	112.44
423.843	127.44
424.066	133.44
424.288	129.44
424.511	144.44
424.733	135.44
424.956	114.44
425.178	138.44
425.401	141.44
425.623	119.44
425.846	113.44
426.068	126.44
426.291	125.44
426.513	125.44
426.735	110.44
426.958	137.44
427.18	135.44
427.402	131.44
427.625	126.44
427.847	123.44
428.069	131.44
428.292	138.44
428.514	117.44
428.736	131.44
428.958	133.44
429.181	124.44
429.403	123.44
429.625	123.44
429.847	135.44
430.069	108.44
430.292	131.44
430.514	120.44
430.736	132.44
430.958	133.44
431.18	122.44
431.402	126.44
431.624	110.44
431.846	104.44
432.068	94.44
432.29	91.44
432.512	115.44
432.734	117.44
432.956	121.44
433.178	140.44
433.4	130.44
433.622	135.44
433.844	130.44
434.066	124.44
434.287	109.44
434.509	113.44
434.731	106.44
434.953	122.44
435.175	116.44
435.397	128.44
435.618	105.44
435.84	117.44
436.062	115.44
436.284	110.44
436.505	116.44
436.727	129.44
436.949	121.44
437.17	130.44
437.392	117.44
437.614	105.44
437.835	111.44
438.057	112.44
438.278	112.44
438.5	131.44
438.721	121.44
438.943	137.44
439.165	128.44
439.386	155.44
439.608	143.44
439.829	136.44
440.05	137.44
440.272	136.44
440.493	133.44
440.715	136.44
440.936	133.44
441.158	146.44
441.379	128.44
441.6	139.44
441.822	147.44
442.043	147.44
442.264	142.44
442.486	150.44
442.707	141.44
442.928	138.44
443.149	133.44
443.371	132.44
443.592	147.44
443.813	128.44
444.034	144.44
444.255	145.44
444.476	139.44
444.698	124.44
444.919	143.44
445.14	271.44
445.361	180.44
445.582	151.44
445.803	136.44
446.024	132.44
446.245	165.44
446.466	134.44
446.687	170.44
446.908	150.44
447.129	143.44
447.35	146.44
447.571	151.44
447.792	141.44
448.013	137.44
448.234	132.44
448.455	137.44
448.675	139.44
448.896	134.44
449.117	135.44
449.338	140.44
449.559	117.44
449.779	131.44
450	129.44
450.221	136.44
450.442	135.44
450.662	143.44
450.883	117.44
451.104	115.44
451.324	125.44
451.545	135.44
451.766	125.44
451.986	118.44
452.207	129.44
452.428	121.44
452.648	119.44
452.869	123.44
453.089	124.44
453.31	122.44
453.53	108.44
453.751	93.44
453.971	107.44
454.192	111.44
454.412	100.44
454.633	105.44
454.853	112.44
455.073	124.44
455.294	132.44
455.514	118.44
455.734	133.44
455.955	120.44
456.175	99.44
456.395	111.44
456.616	107.44
456.836	99.44
457.056	99.44
457.276	104.44
457.497	108.44
457.717	111.44
457.937	111.44
458.157	98.44
458.377	89.44
458.598	86.44
458.818	85.44
459.038	90.44
459.258	65.44
459.478	82.44
459.698	99.44
459.918	87.44
460.138	109.44
460.358	104.44
460.578	112.44
460.798	111.44
461.018	112.44
461.238	109.44
461.458	115.44
461.678	115.44
461.898	106.44
462.118	114.44
462.338	109.44
462.558	104.44
462.777	113.44
462.997	98.44
463.217	87.44
463.437	128.44
463.657	107.44
463.876	98.44
464.096	102.44
464.316	104.44
464.536	122.44
464.755	110.44
464.975	128.44
465.195	109.44
465.414	111.44
465.634	99.44
465.854	117.44
466.073	118.44
466.293	109.44
466.512	123.44
466.732	121.44
466.951	123.44
467.171	129.44
467.391	145.44
467.61	123.44
467.829	126.44
468.049	143.44
468.268	136.44
468.488	141.44
468.707	138.44
468.927	137.44
469.146	117.44
469.365	123.44
469.585	131.44
469.804	133.44
470.023	144.44
470.243	133.44
470.462	139.44
470.681	131.44
470.901	147.44
471.12	131.44
471.339	130.44
471.558	143.44
471.777	115.44
471.997	133.44
472.216	120.44
472.435	118.44
472.654	114.44
472.873	121.44
473.092	105.44
473.311	104.44
473.53	120.44
473.749	113.44
473.968	107.44
474.187	118.44
474.406	118.44
474.625	119.44
474.844	123.44
475.063	126.44
475.282	118.44
475.501	117.44
475.72	126.44
475.939	119.44
476.158	119.44
476.377	125.44
476.596	115.44
476.814	105.44
477.033	104.44
477.252	94.44
477.471	121.44
477.69	120.44
477.908	145.44
478.127	110.44
478.346	145.44
478.564	133.44
478.783	132.44
479.002	144.44
479.22	145.44
479.439	141.44
479.658	118.44
479.876	117.44
480.095	120.44
480.313	125.44
480.532	116.44
480.751	93.44
480.969	88.44
481.188	78.44
481.406	90.44
481.624	88.44
481.843	94.44
482.061	99.44
482.28	104.44
482.498	104.44
482.717	97.44
482.935	126.44
483.153	135.44
483.372	149.44
483.59	144.44
483.808	130.44
484.027	129.44
484.245	129.44
484.463	150.44
484.681	155.44
484.9	137.44
485.118	129.44
485.336	128.44
485.554	117.44
485.772	94.44
485.99	101.44
486.209	101.44
486.427	101.44
486.645	125.44
486.863	137.44
487.081	143.44
487.299	135.44
487.517	123.44
487.735	156.44
487.953	178.44
488.171	191.44
488.389	169.44
488.607	147.44
488.825	129.44
489.043	131.44
489.261	127.44
489.479	133.44
489.696	140.44
489.914	140.44
490.132	129.44
490.35	143.44
490.568	152.44
490.786	157.44
491.003	171.44
491.221	156.44
491.439	187.44
491.657	193.44
491.874	212.44
492.092	231.44
492.31	232.44
492.527	225.44
492.745	181.44
492.963	185.44
493.18	164.44
493.398	180.44
493.615	173.44
493.833	166.44
494.05	172.44
494.268	169.44
494.485	179.44
494.703	174.44
494.92	180.44
495.138	151.44
495.355	165.44
495.573	171.44
495.79	167.44
496.008	154.44
496.225	159.44
496.442	164.44
496.66	163.44
496.877	161.44
497.094	171.44
497.312	171.44
497.529	155.44
497.746	144.44
497.963	139.44
498.181	133.44
498.398	108.44
498.615	120.44
498.832	121.44
499.049	96.44
499.267	119.44
499.484	131.44
499.701	139.44
499.918	133.44
500.135	147.44
500.352	141.44
500.569	139.44
500.786	136.44
501.003	134.44
501.22	122.44
501.437	133.44
501.654	119.44
501.871	119.44
502.088	121.44
502.305	121.44
502.522	117.44
502.739	124.44
502.956	133.44
503.172	120.44
503.389	115.44
503.606	127.44
503.823	112.44
504.04	131.44
504.256	119.44
504.473	111.44
504.69	117.44
504.907	113.44
505.123	118.44
505.34	110.44
505.557	126.44
505.773	122.44
505.99	102.44
506.207	111.44
506.423	132.44
506.64	121.44
506.856	120.44
507.073	111.44
507.289	98.44
507.506	117.44
507.722	117.44
507.939	102.44
508.155	120.44
508.372	113.44
508.588	109.44
508.805	104.44
509.021	102.44
509.238	117.44
509.454	113.44
509.67	102.44
509.887	84.44
510.103	101.44
510.319	92.44
510.536	96.44
510.752	95.44
510.968	85.44
511.184	76.44
511.401	77.44
511.617	77.44
511.833	73.44
512.049	93.44
