Data from Location2.07152019.Energy5.Lamp.07192019.3%Agarose_HRD10591_14-56-22-358.txt Node
Date: Fri Jul 19 14:56:22 EDT 2019
User: cochatt
Spectrometer: HR+D1059
Trigger mode: 1
Integration Time (sec): 1.000000E-1
Scans to average: 1
Electric dark correction enabled: true
Nonlinearity correction enabled: false
Boxcar width: 0
XAxis mode: Wavelengths
Number of Pixels in Spectrum: 2048
>>>>>Begin Spectral Data<<<<<
223.165	-15.5
223.4	-15.5
223.635	-15.5
223.869	-28.5
224.104	-10.5
224.338	-18.5
224.573	-8.5
224.808	-1.5
225.042	-15.5
225.277	-6.5
225.511	0.5
225.746	17.5
225.98	-3.5
226.215	15.5
226.449	16.5
226.683	8.5
226.918	27.5
227.152	22.5
227.387	34.5
227.621	31.5
227.856	46.5
228.09	46.5
228.324	41.5
228.559	58.5
228.793	35.5
229.027	62.5
229.262	61.5
229.496	66.5
229.73	57.5
229.964	75.5
230.199	78.5
230.433	89.5
230.667	76.5
230.901	78.5
231.136	73.5
231.37	67.5
231.604	69.5
231.838	79.5
232.072	76.5
232.306	74.5
232.541	80.5
232.775	85.5
233.009	88.5
233.243	65.5
233.477	72.5
233.711	78.5
233.945	70.5
234.179	85.5
234.413	86.5
234.647	78.5
234.881	78.5
235.115	84.5
235.349	72.5
235.583	61.5
235.817	76.5
236.051	72.5
236.285	69.5
236.519	67.5
236.753	72.5
236.987	87.5
237.221	76.5
237.455	82.5
237.689	83.5
237.922	75.5
238.156	77.5
238.39	72.5
238.624	79.5
238.858	79.5
239.091	82.5
239.325	84.5
239.559	76.5
239.793	81.5
240.027	86.5
240.26	71.5
240.494	77.5
240.728	70.5
240.961	76.5
241.195	68.5
241.429	84.5
241.662	73.5
241.896	80.5
242.13	80.5
242.363	79.5
242.597	86.5
242.83	57.5
243.064	86.5
243.298	72.5
243.531	80.5
243.765	86.5
243.998	89.5
244.232	73.5
244.465	66.5
244.699	71.5
244.932	68.5
245.166	69.5
245.399	81.5
245.633	82.5
245.866	76.5
246.099	74.5
246.333	77.5
246.566	79.5
246.8	76.5
247.033	68.5
247.266	87.5
247.5	82.5
247.733	86.5
247.966	81.5
248.2	87.5
248.433	70.5
248.666	74.5
248.899	66.5
249.133	86.5
249.366	76.5
249.599	88.5
249.832	79.5
250.066	79.5
250.299	78.5
250.532	57.5
250.765	68.5
250.998	77.5
251.231	82.5
251.465	87.5
251.698	69.5
251.931	81.5
252.164	85.5
252.397	89.5
252.63	79.5
252.863	64.5
253.096	74.5
253.329	88.5
253.562	82.5
253.795	69.5
254.028	74.5
254.261	79.5
254.494	80.5
254.727	84.5
254.96	73.5
255.193	76.5
255.426	74.5
255.659	90.5
255.892	88.5
256.124	89.5
256.357	91.5
256.59	84.5
256.823	75.5
257.056	84.5
257.289	83.5
257.521	88.5
257.754	93.5
257.987	81.5
258.22	82.5
258.452	86.5
258.685	72.5
258.918	77.5
259.151	74.5
259.383	74.5
259.616	64.5
259.849	72.5
260.081	84.5
260.314	68.5
260.547	69.5
260.779	82.5
261.012	71.5
261.244	81.5
261.477	81.5
261.71	79.5
261.942	74.5
262.175	77.5
262.407	70.5
262.64	69.5
262.872	103.5
263.105	91.5
263.337	81.5
263.57	86.5
263.802	75.5
264.035	88.5
264.267	85.5
264.499	72.5
264.732	69.5
264.964	84.5
265.197	78.5
265.429	75.5
265.661	76.5
265.894	82.5
266.126	78.5
266.358	84.5
266.591	60.5
266.823	79.5
267.055	85.5
267.287	75.5
267.52	85.5
267.752	74.5
267.984	85.5
268.216	82.5
268.448	82.5
268.681	76.5
268.913	78.5
269.145	83.5
269.377	83.5
269.609	80.5
269.841	92.5
270.073	87.5
270.306	86.5
270.538	83.5
270.77	83.5
271.002	81.5
271.234	85.5
271.466	87.5
271.698	72.5
271.93	76.5
272.162	89.5
272.394	79.5
272.626	88.5
272.858	81.5
273.09	76.5
273.322	94.5
273.553	102.5
273.785	92.5
274.017	75.5
274.249	90.5
274.481	82.5
274.713	76.5
274.945	75.5
275.176	66.5
275.408	68.5
275.64	82.5
275.872	82.5
276.104	80.5
276.335	85.5
276.567	84.5
276.799	94.5
277.031	68.5
277.262	86.5
277.494	91.5
277.726	83.5
277.957	87.5
278.189	82.5
278.421	68.5
278.652	72.5
278.884	94.5
279.115	85.5
279.347	89.5
279.579	66.5
279.81	72.5
280.042	75.5
280.273	83.5
280.505	77.5
280.736	80.5
280.968	86.5
281.199	76.5
281.431	94.5
281.662	80.5
281.894	83.5
282.125	85.5
282.356	78.5
282.588	80.5
282.819	76.5
283.051	90.5
283.282	84.5
283.513	81.5
283.745	86.5
283.976	95.5
284.207	83.5
284.439	91.5
284.67	88.5
284.901	87.5
285.132	73.5
285.364	76.5
285.595	90.5
285.826	84.5
286.057	79.5
286.288	81.5
286.52	98.5
286.751	82.5
286.982	89.5
287.213	94.5
287.444	95.5
287.675	89.5
287.906	78.5
288.138	87.5
288.369	90.5
288.6	87.5
288.831	92.5
289.062	81.5
289.293	86.5
289.524	84.5
289.755	84.5
289.986	63.5
290.217	74.5
290.448	73.5
290.679	85.5
290.91	87.5
291.141	78.5
291.371	78.5
291.602	75.5
291.833	84.5
292.064	77.5
292.295	84.5
292.526	81.5
292.757	92.5
292.987	74.5
293.218	88.5
293.449	72.5
293.68	83.5
293.91	70.5
294.141	72.5
294.372	85.5
294.603	82.5
294.833	96.5
295.064	84.5
295.295	97.5
295.525	87.5
295.756	88.5
295.987	82.5
296.217	83.5
296.448	90.5
296.679	69.5
296.909	82.5
297.14	74.5
297.37	72.5
297.601	71.5
297.831	88.5
298.062	89.5
298.292	91.5
298.523	90.5
298.753	84.5
298.984	80.5
299.214	81.5
299.445	82.5
299.675	78.5
299.905	83.5
300.136	90.5
300.366	82.5
300.597	81.5
300.827	74.5
301.057	76.5
301.288	83.5
301.518	96.5
301.748	83.5
301.979	85.5
302.209	86.5
302.439	91.5
302.669	81.5
302.9	82.5
303.13	86.5
303.36	82.5
303.59	81.5
303.82	77.5
304.051	81.5
304.281	83.5
304.511	87.5
304.741	83.5
304.971	80.5
305.201	79.5
305.431	89.5
305.661	80.5
305.891	94.5
306.121	88.5
306.352	78.5
306.582	76.5
306.812	75.5
307.042	93.5
307.272	89.5
307.502	86.5
307.731	87.5
307.961	85.5
308.191	82.5
308.421	80.5
308.651	85.5
308.881	67.5
309.111	88.5
309.341	83.5
309.571	71.5
309.8	81.5
310.03	88.5
310.26	86.5
310.49	84.5
310.72	86.5
310.949	90.5
311.179	94.5
311.409	81.5
311.639	85.5
311.868	78.5
312.098	89.5
312.328	80.5
312.557	88.5
312.787	77.5
313.017	73.5
313.246	72.5
313.476	73.5
313.706	79.5
313.935	84.5
314.165	67.5
314.394	79.5
314.624	98.5
314.853	99.5
315.083	82.5
315.312	94.5
315.542	87.5
315.771	71.5
316.001	73.5
316.23	80.5
316.46	87.5
316.689	78.5
316.919	84.5
317.148	95.5
317.377	88.5
317.607	78.5
317.836	95.5
318.065	79.5
318.295	66.5
318.524	75.5
318.753	70.5
318.983	77.5
319.212	96.5
319.441	73.5
319.67	80.5
319.9	84.5
320.129	86.5
320.358	91.5
320.587	92.5
320.816	86.5
321.046	83.5
321.275	86.5
321.504	80.5
321.733	88.5
321.962	78.5
322.191	86.5
322.42	102.5
322.649	84.5
322.878	91.5
323.108	85.5
323.337	82.5
323.566	91.5
323.795	99.5
324.024	89.5
324.253	95.5
324.482	82.5
324.71	74.5
324.939	82.5
325.168	78.5
325.397	89.5
325.626	79.5
325.855	82.5
326.084	64.5
326.313	92.5
326.542	85.5
326.77	94.5
326.999	82.5
327.228	76.5
327.457	92.5
327.686	99.5
327.914	86.5
328.143	92.5
328.372	96.5
328.6	87.5
328.829	94.5
329.058	90.5
329.287	82.5
329.515	90.5
329.744	96.5
329.972	82.5
330.201	78.5
330.43	86.5
330.658	80.5
330.887	82.5
331.115	73.5
331.344	88.5
331.572	72.5
331.801	88.5
332.03	75.5
332.258	91.5
332.486	89.5
332.715	74.5
332.943	90.5
333.172	98.5
333.4	96.5
333.629	94.5
333.857	82.5
334.085	85.5
334.314	75.5
334.542	88.5
334.771	97.5
334.999	85.5
335.227	82.5
335.455	74.5
335.684	83.5
335.912	89.5
336.14	95.5
336.369	80.5
336.597	66.5
336.825	89.5
337.053	92.5
337.281	87.5
337.51	77.5
337.738	83.5
337.966	74.5
338.194	82.5
338.422	88.5
338.65	86.5
338.878	79.5
339.106	89.5
339.334	82.5
339.562	88.5
339.79	86.5
340.018	65.5
340.246	70.5
340.474	72.5
340.702	84.5
340.93	94.5
341.158	81.5
341.386	82.5
341.614	81.5
341.842	81.5
342.07	97.5
342.298	87.5
342.526	81.5
342.754	84.5
342.981	79.5
343.209	81.5
343.437	76.5
343.665	78.5
343.893	90.5
344.12	87.5
344.348	88.5
344.576	90.5
344.804	77.5
345.031	71.5
345.259	87.5
345.487	88.5
345.714	90.5
345.942	90.5
346.17	73.5
346.397	93.5
346.625	84.5
346.853	81.5
347.08	72.5
347.308	89.5
347.535	85.5
347.763	82.5
347.99	90.5
348.218	82.5
348.445	80.5
348.673	83.5
348.9	77.5
349.128	100.5
349.355	86.5
349.583	92.5
349.81	82.5
350.037	79.5
350.265	89.5
350.492	88.5
350.72	95.5
350.947	75.5
351.174	96.5
351.402	77.5
351.629	79.5
351.856	79.5
352.083	77.5
352.311	90.5
352.538	93.5
352.765	62.5
352.992	92.5
353.22	88.5
353.447	81.5
353.674	85.5
353.901	86.5
354.128	74.5
354.355	85.5
354.583	80.5
354.81	83.5
355.037	87.5
355.264	98.5
355.491	81.5
355.718	82.5
355.945	94.5
356.172	67.5
356.399	72.5
356.626	78.5
356.853	81.5
357.08	96.5
357.307	67.5
357.534	88.5
357.761	89.5
357.988	75.5
358.215	91.5
358.441	85.5
358.668	87.5
358.895	86.5
359.122	83.5
359.349	88.5
359.576	84.5
359.802	94.5
360.029	93.5
360.256	79.5
360.483	94.5
360.709	97.5
360.936	82.5
361.163	76.5
361.39	82.5
361.616	79.5
361.843	84.5
362.07	83.5
362.296	84.5
362.523	75.5
362.749	84.5
362.976	82.5
363.203	75.5
363.429	82.5
363.656	76.5
363.882	77.5
364.109	73.5
364.335	96.5
364.562	82.5
364.788	72.5
365.015	90.5
365.241	77.5
365.468	92.5
365.694	72.5
365.92	89.5
366.147	87.5
366.373	83.5
366.599	77.5
366.826	83.5
367.052	92.5
367.278	78.5
367.505	83.5
367.731	70.5
367.957	86.5
368.184	84.5
368.41	93.5
368.636	87.5
368.862	100.5
369.089	97.5
369.315	83.5
369.541	92.5
369.767	94.5
369.993	102.5
370.219	92.5
370.445	88.5
370.672	107.5
370.898	83.5
371.124	95.5
371.35	85.5
371.576	80.5
371.802	98.5
372.028	88.5
372.254	82.5
372.48	94.5
372.706	89.5
372.932	84.5
373.158	94.5
373.384	98.5
373.61	91.5
373.835	98.5
374.061	100.5
374.287	85.5
374.513	84.5
374.739	82.5
374.965	94.5
375.191	103.5
375.416	87.5
375.642	91.5
375.868	96.5
376.094	89.5
376.319	87.5
376.545	80.5
376.771	87.5
376.997	91.5
377.222	79.5
377.448	79.5
377.674	78.5
377.899	96.5
378.125	94.5
378.35	92.5
378.576	90.5
378.802	91.5
379.027	80.5
379.253	102.5
379.478	101.5
379.704	76.5
379.929	95.5
380.155	87.5
380.38	104.5
380.606	104.5
380.831	87.5
381.057	95.5
381.282	98.5
381.507	92.5
381.733	89.5
381.958	75.5
382.184	95.5
382.409	99.5
382.634	93.5
382.86	93.5
383.085	93.5
383.31	87.5
383.535	91.5
383.761	99.5
383.986	93.5
384.211	95.5
384.436	89.5
384.662	116.5
384.887	102.5
385.112	106.5
385.337	86.5
385.562	103.5
385.787	101.5
386.013	94.5
386.238	103.5
386.463	108.5
386.688	99.5
386.913	100.5
387.138	98.5
387.363	107.5
387.588	91.5
387.813	103.5
388.038	102.5
388.263	106.5
388.488	93.5
388.713	96.5
388.938	95.5
389.163	87.5
389.387	92.5
389.612	104.5
389.837	87.5
390.062	101.5
390.287	104.5
390.512	102.5
390.736	115.5
390.961	97.5
391.186	102.5
391.411	94.5
391.636	98.5
391.86	112.5
392.085	99.5
392.31	106.5
392.534	112.5
392.759	100.5
392.984	112.5
393.208	108.5
393.433	88.5
393.658	95.5
393.882	99.5
394.107	99.5
394.331	104.5
394.556	112.5
394.78	112.5
395.005	97.5
395.229	110.5
395.454	106.5
395.678	121.5
395.903	115.5
396.127	116.5
396.352	91.5
396.576	96.5
396.801	107.5
397.025	104.5
397.249	115.5
397.474	111.5
397.698	98.5
397.922	96.5
398.147	97.5
398.371	100.5
398.595	99.5
398.82	111.5
399.044	89.5
399.268	104.5
399.492	94.5
399.717	98.5
399.941	95.5
400.165	107.5
400.389	104.5
400.613	103.5
400.837	97.5
401.062	105.5
401.286	115.5
401.51	110.5
401.734	114.5
401.958	95.5
402.182	108.5
402.406	118.5
402.63	120.5
402.854	132.5
403.078	99.5
403.302	110.5
403.526	128.5
403.75	122.5
403.974	104.5
404.198	119.5
404.422	121.5
404.645	122.5
404.869	120.5
405.093	113.5
405.317	112.5
405.541	120.5
405.765	116.5
405.988	116.5
406.212	115.5
406.436	131.5
406.66	125.5
406.883	138.5
407.107	118.5
407.331	117.5
407.555	112.5
407.778	112.5
408.002	117.5
408.226	103.5
408.449	104.5
408.673	104.5
408.896	125.5
409.12	121.5
409.344	135.5
409.567	125.5
409.791	116.5
410.014	128.5
410.238	118.5
410.461	122.5
410.685	134.5
410.908	136.5
411.132	122.5
411.355	128.5
411.578	116.5
411.802	124.5
412.025	118.5
412.249	110.5
412.472	128.5
412.695	124.5
412.919	119.5
413.142	124.5
413.365	110.5
413.589	122.5
413.812	130.5
414.035	122.5
414.258	124.5
414.482	114.5
414.705	108.5
414.928	117.5
415.151	128.5
415.374	126.5
415.597	113.5
415.821	110.5
416.044	126.5
416.267	123.5
416.49	123.5
416.713	122.5
416.936	120.5
417.159	118.5
417.382	117.5
417.605	128.5
417.828	124.5
418.051	122.5
418.274	117.5
418.497	131.5
418.72	130.5
418.943	117.5
419.166	137.5
419.389	133.5
419.611	127.5
419.834	130.5
420.057	131.5
420.28	126.5
420.503	130.5
420.726	111.5
420.948	132.5
421.171	137.5
421.394	127.5
421.617	128.5
421.839	143.5
422.062	139.5
422.285	135.5
422.507	131.5
422.73	119.5
422.953	119.5
423.175	135.5
423.398	123.5
423.621	132.5
423.843	133.5
424.066	126.5
424.288	141.5
424.511	132.5
424.733	136.5
424.956	138.5
425.178	134.5
425.401	128.5
425.623	135.5
425.846	114.5
426.068	131.5
426.291	128.5
426.513	118.5
426.735	134.5
426.958	134.5
427.18	128.5
427.402	147.5
427.625	140.5
427.847	118.5
428.069	135.5
428.292	119.5
428.514	126.5
428.736	135.5
428.958	135.5
429.181	133.5
429.403	121.5
429.625	122.5
429.847	122.5
430.069	119.5
430.292	122.5
430.514	130.5
430.736	123.5
430.958	109.5
431.18	124.5
431.402	136.5
431.624	115.5
431.846	114.5
432.068	95.5
432.29	94.5
432.512	91.5
432.734	123.5
432.956	128.5
433.178	130.5
433.4	143.5
433.622	133.5
433.844	130.5
434.066	124.5
434.287	103.5
434.509	100.5
434.731	96.5
434.953	108.5
435.175	115.5
435.397	112.5
435.618	115.5
435.84	126.5
436.062	118.5
436.284	120.5
436.505	127.5
436.727	134.5
436.949	138.5
437.17	131.5
437.392	128.5
437.614	124.5
437.835	121.5
438.057	114.5
438.278	104.5
438.5	119.5
438.721	128.5
438.943	133.5
439.165	146.5
439.386	134.5
439.608	146.5
439.829	147.5
440.05	148.5
440.272	146.5
440.493	154.5
440.715	149.5
440.936	151.5
441.158	143.5
441.379	142.5
441.6	146.5
441.822	130.5
442.043	136.5
442.264	151.5
442.486	135.5
442.707	140.5
442.928	136.5
443.149	130.5
443.371	113.5
443.592	140.5
443.813	141.5
444.034	122.5
444.255	136.5
444.476	150.5
444.698	135.5
444.919	129.5
445.14	258.5
445.361	196.5
445.582	141.5
445.803	148.5
446.024	158.5
446.245	149.5
446.466	147.5
446.687	142.5
446.908	168.5
447.129	167.5
447.35	152.5
447.571	141.5
447.792	131.5
448.013	138.5
448.234	138.5
448.455	144.5
448.675	136.5
448.896	149.5
449.117	132.5
449.338	132.5
449.559	125.5
449.779	117.5
450	147.5
450.221	132.5
450.442	145.5
450.662	140.5
450.883	137.5
451.104	137.5
451.324	127.5
451.545	112.5
451.766	133.5
451.986	124.5
452.207	130.5
452.428	121.5
452.648	138.5
452.869	123.5
453.089	116.5
453.31	110.5
453.53	119.5
453.751	111.5
453.971	110.5
454.192	110.5
454.412	113.5
454.633	115.5
454.853	113.5
455.073	129.5
455.294	120.5
455.514	127.5
455.734	128.5
455.955	115.5
456.175	119.5
456.395	115.5
456.616	114.5
456.836	129.5
457.056	112.5
457.276	119.5
457.497	112.5
457.717	92.5
457.937	108.5
458.157	107.5
458.377	108.5
458.598	105.5
458.818	84.5
459.038	94.5
459.258	78.5
459.478	91.5
459.698	88.5
459.918	95.5
460.138	102.5
460.358	106.5
460.578	107.5
460.798	114.5
461.018	126.5
461.238	123.5
461.458	103.5
461.678	111.5
461.898	115.5
462.118	106.5
462.338	120.5
462.558	113.5
462.777	105.5
462.997	96.5
463.217	103.5
463.437	113.5
463.657	114.5
463.876	103.5
464.096	99.5
464.316	101.5
464.536	119.5
464.755	120.5
464.975	118.5
465.195	117.5
465.414	123.5
465.634	127.5
465.854	114.5
466.073	114.5
466.293	119.5
466.512	118.5
466.732	130.5
466.951	115.5
467.171	138.5
467.391	126.5
467.61	129.5
467.829	118.5
468.049	142.5
468.268	140.5
468.488	132.5
468.707	128.5
468.927	119.5
469.146	136.5
469.365	135.5
469.585	121.5
469.804	143.5
470.023	137.5
470.243	138.5
470.462	144.5
470.681	158.5
470.901	128.5
471.12	141.5
471.339	128.5
471.558	125.5
471.777	150.5
471.997	126.5
472.216	124.5
472.435	122.5
472.654	113.5
472.873	105.5
473.092	116.5
473.311	130.5
473.53	126.5
473.749	123.5
473.968	122.5
474.187	135.5
474.406	116.5
474.625	139.5
474.844	131.5
475.063	136.5
475.282	129.5
475.501	116.5
475.72	117.5
475.939	126.5
476.158	139.5
476.377	138.5
476.596	122.5
476.814	123.5
477.033	118.5
477.252	121.5
477.471	125.5
477.69	133.5
477.908	131.5
478.127	151.5
478.346	136.5
478.564	133.5
478.783	133.5
479.002	130.5
479.22	132.5
479.439	130.5
479.658	118.5
479.876	110.5
480.095	112.5
480.313	124.5
480.532	127.5
480.751	107.5
480.969	97.5
481.188	98.5
481.406	99.5
481.624	85.5
481.843	92.5
482.061	77.5
482.28	107.5
482.498	122.5
482.717	108.5
482.935	115.5
483.153	150.5
483.372	146.5
483.59	153.5
483.808	135.5
484.027	140.5
484.245	122.5
484.463	154.5
484.681	150.5
484.9	145.5
485.118	154.5
485.336	130.5
485.554	121.5
485.772	114.5
485.99	114.5
486.209	113.5
486.427	96.5
486.645	140.5
486.863	147.5
487.081	136.5
487.299	136.5
487.517	149.5
487.735	163.5
487.953	186.5
488.171	180.5
488.389	163.5
488.607	157.5
488.825	144.5
489.043	139.5
489.261	134.5
489.479	148.5
489.696	134.5
489.914	142.5
490.132	149.5
490.35	155.5
490.568	156.5
490.786	176.5
491.003	191.5
491.221	181.5
491.439	195.5
491.657	200.5
491.874	208.5
492.092	217.5
492.31	232.5
492.527	223.5
492.745	193.5
492.963	214.5
493.18	194.5
493.398	177.5
493.615	189.5
493.833	175.5
494.05	175.5
494.268	175.5
494.485	166.5
494.703	159.5
494.92	182.5
495.138	152.5
495.355	168.5
495.573	157.5
495.79	182.5
496.008	174.5
496.225	176.5
496.442	170.5
496.66	161.5
496.877	160.5
497.094	159.5
497.312	156.5
497.529	163.5
497.746	155.5
497.963	135.5
498.181	124.5
498.398	134.5
498.615	110.5
498.832	121.5
499.049	102.5
499.267	128.5
499.484	108.5
499.701	119.5
499.918	147.5
500.135	144.5
500.352	136.5
500.569	144.5
500.786	140.5
501.003	144.5
501.22	141.5
501.437	136.5
501.654	143.5
501.871	137.5
502.088	114.5
502.305	133.5
502.522	128.5
502.739	120.5
502.956	126.5
503.172	119.5
503.389	121.5
503.606	124.5
503.823	126.5
504.04	116.5
504.256	132.5
504.473	111.5
504.69	117.5
504.907	111.5
505.123	124.5
505.34	132.5
505.557	136.5
505.773	125.5
505.99	125.5
506.207	128.5
506.423	127.5
506.64	121.5
506.856	109.5
507.073	122.5
507.289	118.5
507.506	119.5
507.722	110.5
507.939	125.5
508.155	131.5
508.372	110.5
508.588	106.5
508.805	100.5
509.021	118.5
509.238	101.5
509.454	96.5
509.67	110.5
509.887	97.5
510.103	88.5
510.319	97.5
510.536	92.5
510.752	90.5
510.968	76.5
511.184	89.5
511.401	86.5
511.617	83.5
511.833	83.5
512.049	94.5
512.265	102.5
512.481	102.5
512.698	99.5
512.914	88.5
513.13	101.5
513.346	103.5
513.562	98.5
513.778	91.5
513.994	90.5
514.21	82.5
514.426	91.5
514.642	82.5
514.858	90.5
515.074	77.5
515.29	85.5
515.506	83.5
515.721	88.5
515.937	76.5
516.153	94.5
516.369	95.5
516.585	84.5
516.801	83.5
517.016	98.5
517.232	93.5
517.448	101.5
517.664	92.5
517.879	90.5
518.095	97.5
518.311	113.5
518.527	90.5
518.742	88.5
518.958	98.5
519.173	102.5
519.389	111.5
519.605	102.5
519.82	100.5
520.036	108.5
520.251	98.5
520.467	91.5
520.682	83.5
520.898	100.5
521.113	93.5
521.329	92.5
521.544	82.5
521.76	98.5
521.975	87.5
522.19	98.5
522.406	104.5
522.621	99.5
522.836	102.5
523.052	105.5
523.267	127.5
523.482	120.5
523.698	102.5
523.913	99.5
524.128	106.5
524.343	129.5
524.559	120.5
524.774	116.5
524.989	114.5
525.204	118.5
525.419	108.5
525.634	113.5
525.849	106.5
526.064	105.5
526.28	101.5
526.495	80.5
526.71	89.5
526.925	89.5
527.14	89.5
527.355	82.5
527.57	105.5
527.785	71.5
527.999	95.5
528.214	107.5
528.429	108.5
528.644	98.5
528.859	130.5
529.074	136.5
529.289	159.5
529.503	153.5
529.718	128.5
529.933	126.5
530.148	107.5
530.363	96.5
530.577	91.5
530.792	88.5
531.007	83.5
531.221	81.5
