Data from Location2.07152019.Energy5.Lamp.07192019.3%Agarose_HRD10591_14-58-26-359.txt Node
Date: Fri Jul 19 14:58:26 EDT 2019
User: cochatt
Spectrometer: HR+D1059
Trigger mode: 1
Integration Time (sec): 1.000000E-1
Scans to average: 1
Electric dark correction enabled: true
Nonlinearity correction enabled: false
Boxcar width: 0
XAxis mode: Wavelengths
Number of Pixels in Spectrum: 2048
>>>>>Begin Spectral Data<<<<<
223.165	-21.94
223.4	-21.94
223.635	-21.94
223.869	-15.94
224.104	-25.94
224.338	-1.94
224.573	-7.94
224.808	-0.94
225.042	-8.94
225.277	-11.94
225.511	0.06
225.746	3.06
225.98	10.06
226.215	4.06
226.449	13.06
226.683	10.06
226.918	19.06
227.152	36.06
227.387	40.06
227.621	32.06
227.856	45.06
228.09	46.06
228.324	46.06
228.559	50.06
228.793	55.06
229.027	66.06
229.262	76.06
229.496	67.06
229.73	51.06
229.964	73.06
230.199	77.06
230.433	72.06
230.667	85.06
230.901	79.06
231.136	74.06
231.37	94.06
231.604	91.06
231.838	87.06
232.072	89.06
232.306	92.06
232.541	77.06
232.775	93.06
233.009	73.06
233.243	96.06
233.477	77.06
233.711	86.06
233.945	66.06
234.179	75.06
234.413	78.06
234.647	83.06
234.881	74.06
235.115	90.06
235.349	72.06
235.583	86.06
235.817	84.06
236.051	82.06
236.285	101.06
236.519	76.06
236.753	82.06
236.987	80.06
237.221	83.06
237.455	93.06
237.689	87.06
237.922	71.06
238.156	77.06
238.39	90.06
238.624	85.06
238.858	78.06
239.091	64.06
239.325	83.06
239.559	90.06
239.793	74.06
240.027	74.06
240.26	80.06
240.494	76.06
240.728	67.06
240.961	83.06
241.195	86.06
241.429	82.06
241.662	79.06
241.896	82.06
242.13	76.06
242.363	63.06
242.597	96.06
242.83	71.06
243.064	98.06
243.298	81.06
243.531	71.06
243.765	72.06
243.998	71.06
244.232	85.06
244.465	75.06
244.699	71.06
244.932	83.06
245.166	81.06
245.399	77.06
245.633	86.06
245.866	73.06
246.099	78.06
246.333	71.06
246.566	77.06
246.8	82.06
247.033	83.06
247.266	74.06
247.5	76.06
247.733	88.06
247.966	78.06
248.2	75.06
248.433	79.06
248.666	84.06
248.899	94.06
249.133	90.06
249.366	77.06
249.599	92.06
249.832	90.06
250.066	69.06
250.299	78.06
250.532	86.06
250.765	80.06
250.998	80.06
251.231	81.06
251.465	80.06
251.698	84.06
251.931	85.06
252.164	78.06
252.397	77.06
252.63	80.06
252.863	74.06
253.096	98.06
253.329	103.06
253.562	75.06
253.795	78.06
254.028	78.06
254.261	76.06
254.494	80.06
254.727	89.06
254.96	78.06
255.193	76.06
255.426	81.06
255.659	82.06
255.892	79.06
256.124	78.06
256.357	76.06
256.59	77.06
256.823	86.06
257.056	94.06
257.289	102.06
257.521	89.06
257.754	74.06
257.987	83.06
258.22	84.06
258.452	95.06
258.685	97.06
258.918	95.06
259.151	74.06
259.383	76.06
259.616	79.06
259.849	80.06
260.081	80.06
260.314	76.06
260.547	75.06
260.779	76.06
261.012	85.06
261.244	90.06
261.477	80.06
261.71	73.06
261.942	82.06
262.175	83.06
262.407	89.06
262.64	85.06
262.872	73.06
263.105	88.06
263.337	79.06
263.57	76.06
263.802	81.06
264.035	97.06
264.267	70.06
264.499	76.06
264.732	88.06
264.964	80.06
265.197	77.06
265.429	91.06
265.661	87.06
265.894	78.06
266.126	74.06
266.358	75.06
266.591	76.06
266.823	83.06
267.055	86.06
267.287	76.06
267.52	79.06
267.752	94.06
267.984	102.06
268.216	76.06
268.448	87.06
268.681	88.06
268.913	84.06
269.145	76.06
269.377	88.06
269.609	86.06
269.841	86.06
270.073	72.06
270.306	80.06
270.538	83.06
270.77	88.06
271.002	94.06
271.234	84.06
271.466	88.06
271.698	87.06
271.93	89.06
272.162	98.06
272.394	100.06
272.626	62.06
272.858	84.06
273.09	98.06
273.322	94.06
273.553	87.06
273.785	77.06
274.017	84.06
274.249	90.06
274.481	76.06
274.713	87.06
274.945	86.06
275.176	88.06
275.408	82.06
275.64	101.06
275.872	86.06
276.104	86.06
276.335	82.06
276.567	78.06
276.799	84.06
277.031	88.06
277.262	91.06
277.494	99.06
277.726	90.06
277.957	79.06
278.189	77.06
278.421	66.06
278.652	90.06
278.884	82.06
279.115	81.06
279.347	81.06
279.579	86.06
279.81	94.06
280.042	79.06
280.273	78.06
280.505	77.06
280.736	79.06
280.968	93.06
281.199	90.06
281.431	66.06
281.662	94.06
281.894	90.06
282.125	87.06
282.356	78.06
282.588	84.06
282.819	92.06
283.051	78.06
283.282	77.06
283.513	91.06
283.745	94.06
283.976	85.06
284.207	101.06
284.439	96.06
284.67	89.06
284.901	84.06
285.132	97.06
285.364	79.06
285.595	90.06
285.826	86.06
286.057	77.06
286.288	91.06
286.52	69.06
286.751	84.06
286.982	81.06
287.213	80.06
287.444	80.06
287.675	94.06
287.906	99.06
288.138	99.06
288.369	80.06
288.6	85.06
288.831	86.06
289.062	87.06
289.293	74.06
289.524	89.06
289.755	88.06
289.986	80.06
290.217	79.06
290.448	79.06
290.679	85.06
290.91	90.06
291.141	106.06
291.371	103.06
291.602	94.06
291.833	86.06
292.064	90.06
292.295	95.06
292.526	73.06
292.757	88.06
292.987	101.06
293.218	92.06
293.449	84.06
293.68	80.06
293.91	80.06
294.141	104.06
294.372	103.06
294.603	80.06
294.833	88.06
295.064	86.06
295.295	86.06
295.525	88.06
295.756	76.06
295.987	92.06
296.217	86.06
296.448	75.06
296.679	93.06
296.909	84.06
297.14	87.06
297.37	91.06
297.601	87.06
297.831	76.06
298.062	93.06
298.292	92.06
298.523	86.06
298.753	95.06
298.984	85.06
299.214	74.06
299.445	86.06
299.675	74.06
299.905	76.06
300.136	85.06
300.366	84.06
300.597	92.06
300.827	71.06
301.057	81.06
301.288	90.06
301.518	91.06
301.748	74.06
301.979	77.06
302.209	84.06
302.439	81.06
302.669	78.06
302.9	78.06
303.13	92.06
303.36	80.06
303.59	93.06
303.82	96.06
304.051	97.06
304.281	81.06
304.511	85.06
304.741	87.06
304.971	88.06
305.201	92.06
305.431	100.06
305.661	76.06
305.891	87.06
306.121	88.06
306.352	83.06
306.582	97.06
306.812	90.06
307.042	70.06
307.272	91.06
307.502	90.06
307.731	79.06
307.961	79.06
308.191	95.06
308.421	74.06
308.651	86.06
308.881	91.06
309.111	89.06
309.341	99.06
309.571	94.06
309.8	77.06
310.03	75.06
310.26	80.06
310.49	78.06
310.72	82.06
310.949	80.06
311.179	88.06
311.409	98.06
311.639	95.06
311.868	93.06
312.098	80.06
312.328	82.06
312.557	94.06
312.787	90.06
313.017	95.06
313.246	86.06
313.476	92.06
313.706	81.06
313.935	94.06
314.165	90.06
314.394	96.06
314.624	86.06
314.853	72.06
315.083	75.06
315.312	78.06
315.542	102.06
315.771	83.06
316.001	86.06
316.23	81.06
316.46	84.06
316.689	95.06
316.919	88.06
317.148	100.06
317.377	92.06
317.607	89.06
317.836	90.06
318.065	85.06
318.295	95.06
318.524	92.06
318.753	84.06
318.983	74.06
319.212	79.06
319.441	74.06
319.67	101.06
319.9	79.06
320.129	81.06
320.358	82.06
320.587	81.06
320.816	98.06
321.046	89.06
321.275	92.06
321.504	87.06
321.733	86.06
321.962	82.06
322.191	89.06
322.42	91.06
322.649	87.06
322.878	79.06
323.108	88.06
323.337	77.06
323.566	81.06
323.795	79.06
324.024	91.06
324.253	88.06
324.482	88.06
324.71	83.06
324.939	83.06
325.168	85.06
325.397	90.06
325.626	83.06
325.855	86.06
326.084	96.06
326.313	78.06
326.542	71.06
326.77	96.06
326.999	86.06
327.228	79.06
327.457	78.06
327.686	85.06
327.914	87.06
328.143	84.06
328.372	84.06
328.6	89.06
328.829	83.06
329.058	81.06
329.287	91.06
329.515	85.06
329.744	85.06
329.972	89.06
330.201	98.06
330.43	80.06
330.658	92.06
330.887	86.06
331.115	94.06
331.344	98.06
331.572	98.06
331.801	93.06
332.03	89.06
332.258	91.06
332.486	84.06
332.715	80.06
332.943	88.06
333.172	77.06
333.4	92.06
333.629	89.06
333.857	87.06
334.085	84.06
334.314	94.06
334.542	82.06
334.771	96.06
334.999	80.06
335.227	91.06
335.455	92.06
335.684	92.06
335.912	92.06
336.14	84.06
336.369	98.06
336.597	101.06
336.825	83.06
337.053	89.06
337.281	75.06
337.51	76.06
337.738	86.06
337.966	94.06
338.194	85.06
338.422	98.06
338.65	86.06
338.878	88.06
339.106	95.06
339.334	79.06
339.562	87.06
339.79	88.06
340.018	78.06
340.246	88.06
340.474	88.06
340.702	78.06
340.93	90.06
341.158	86.06
341.386	90.06
341.614	93.06
341.842	84.06
342.07	78.06
342.298	97.06
342.526	74.06
342.754	75.06
342.981	88.06
343.209	100.06
343.437	91.06
343.665	98.06
343.893	83.06
344.12	77.06
344.348	91.06
344.576	85.06
344.804	98.06
345.031	99.06
345.259	92.06
345.487	94.06
345.714	87.06
345.942	80.06
346.17	83.06
346.397	88.06
346.625	80.06
346.853	80.06
347.08	95.06
347.308	90.06
347.535	88.06
347.763	75.06
347.99	94.06
348.218	94.06
348.445	78.06
348.673	83.06
348.9	78.06
349.128	94.06
349.355	87.06
349.583	91.06
349.81	87.06
350.037	77.06
350.265	80.06
350.492	75.06
350.72	94.06
350.947	79.06
351.174	95.06
351.402	92.06
351.629	82.06
351.856	101.06
352.083	93.06
352.311	87.06
352.538	84.06
352.765	94.06
352.992	82.06
353.22	87.06
353.447	79.06
353.674	95.06
353.901	91.06
354.128	95.06
354.355	76.06
354.583	78.06
354.81	84.06
355.037	88.06
355.264	79.06
355.491	86.06
355.718	84.06
355.945	84.06
356.172	86.06
356.399	74.06
356.626	74.06
356.853	75.06
357.08	87.06
357.307	84.06
357.534	89.06
357.761	89.06
357.988	85.06
358.215	70.06
358.441	85.06
358.668	85.06
358.895	87.06
359.122	85.06
359.349	71.06
359.576	83.06
359.802	86.06
360.029	91.06
360.256	85.06
360.483	72.06
360.709	78.06
360.936	90.06
361.163	78.06
361.39	80.06
361.616	98.06
361.843	78.06
362.07	77.06
362.296	77.06
362.523	79.06
362.749	88.06
362.976	75.06
363.203	84.06
363.429	85.06
363.656	83.06
363.882	80.06
364.109	86.06
364.335	76.06
364.562	76.06
364.788	93.06
365.015	88.06
365.241	84.06
365.468	89.06
365.694	76.06
365.92	84.06
366.147	86.06
366.373	96.06
366.599	88.06
366.826	90.06
367.052	80.06
367.278	93.06
367.505	90.06
367.731	97.06
367.957	88.06
368.184	109.06
368.41	100.06
368.636	78.06
368.862	84.06
369.089	95.06
369.315	80.06
369.541	101.06
369.767	82.06
369.993	79.06
370.219	87.06
370.445	89.06
370.672	92.06
370.898	86.06
371.124	86.06
371.35	93.06
371.576	89.06
371.802	104.06
372.028	94.06
372.254	100.06
372.48	88.06
372.706	86.06
372.932	98.06
373.158	96.06
373.384	95.06
373.61	88.06
373.835	94.06
374.061	94.06
374.287	106.06
374.513	98.06
374.739	101.06
374.965	97.06
375.191	98.06
375.416	88.06
375.642	83.06
375.868	98.06
376.094	107.06
376.319	102.06
376.545	101.06
376.771	104.06
376.997	105.06
377.222	90.06
377.448	99.06
377.674	85.06
377.899	91.06
378.125	101.06
378.35	106.06
378.576	90.06
378.802	90.06
379.027	108.06
379.253	89.06
379.478	101.06
379.704	107.06
379.929	107.06
380.155	92.06
380.38	95.06
380.606	100.06
380.831	114.06
381.057	98.06
381.282	98.06
381.507	107.06
381.733	95.06
381.958	96.06
382.184	99.06
382.409	101.06
382.634	102.06
382.86	85.06
383.085	107.06
383.31	112.06
383.535	107.06
383.761	96.06
383.986	94.06
384.211	106.06
384.436	100.06
384.662	112.06
384.887	92.06
385.112	93.06
385.337	117.06
385.562	103.06
385.787	98.06
386.013	99.06
386.238	107.06
386.463	93.06
386.688	99.06
386.913	97.06
387.138	107.06
387.363	94.06
387.588	110.06
387.813	95.06
388.038	96.06
388.263	110.06
388.488	119.06
388.713	119.06
388.938	96.06
389.163	108.06
389.387	105.06
389.612	116.06
389.837	118.06
390.062	116.06
390.287	109.06
390.512	95.06
390.736	99.06
390.961	84.06
391.186	108.06
391.411	118.06
391.636	109.06
391.86	106.06
392.085	106.06
392.31	107.06
392.534	98.06
392.759	107.06
392.984	111.06
393.208	111.06
393.433	105.06
393.658	114.06
393.882	107.06
394.107	110.06
394.331	110.06
394.556	111.06
394.78	111.06
395.005	116.06
395.229	101.06
395.454	99.06
395.678	105.06
395.903	115.06
396.127	106.06
396.352	111.06
396.576	99.06
396.801	92.06
397.025	104.06
397.249	104.06
397.474	115.06
397.698	116.06
397.922	106.06
398.147	104.06
398.371	105.06
398.595	124.06
398.82	104.06
399.044	95.06
399.268	95.06
399.492	108.06
399.717	116.06
399.941	114.06
400.165	119.06
400.389	112.06
400.613	107.06
400.837	99.06
401.062	109.06
401.286	122.06
401.51	111.06
401.734	102.06
401.958	95.06
402.182	107.06
402.406	115.06
402.63	115.06
402.854	106.06
403.078	110.06
403.302	116.06
403.526	128.06
403.75	127.06
403.974	105.06
404.198	109.06
404.422	109.06
404.645	122.06
404.869	128.06
405.093	116.06
405.317	115.06
405.541	120.06
405.765	119.06
405.988	109.06
406.212	136.06
406.436	130.06
406.66	129.06
406.883	124.06
407.107	120.06
407.331	120.06
407.555	111.06
407.778	117.06
408.002	107.06
408.226	130.06
408.449	122.06
408.673	111.06
408.896	108.06
409.12	126.06
409.344	132.06
409.567	123.06
409.791	121.06
410.014	114.06
410.238	119.06
410.461	125.06
410.685	117.06
410.908	117.06
411.132	114.06
411.355	110.06
411.578	123.06
411.802	109.06
412.025	119.06
412.249	114.06
412.472	118.06
412.695	109.06
412.919	121.06
413.142	118.06
413.365	139.06
413.589	130.06
413.812	113.06
414.035	117.06
414.258	123.06
414.482	122.06
414.705	115.06
414.928	131.06
415.151	124.06
415.374	132.06
415.597	144.06
415.821	130.06
416.044	126.06
416.267	120.06
416.49	135.06
416.713	132.06
416.936	140.06
417.159	126.06
417.382	126.06
417.605	124.06
417.828	130.06
418.051	123.06
418.274	128.06
418.497	132.06
418.72	134.06
418.943	120.06
419.166	130.06
419.389	134.06
419.611	125.06
419.834	135.06
420.057	125.06
420.28	124.06
420.503	128.06
420.726	117.06
420.948	128.06
421.171	132.06
421.394	126.06
421.617	128.06
421.839	137.06
422.062	130.06
422.285	130.06
422.507	143.06
422.73	126.06
422.953	131.06
423.175	121.06
423.398	120.06
423.621	134.06
423.843	135.06
424.066	146.06
424.288	145.06
424.511	148.06
424.733	145.06
424.956	147.06
425.178	145.06
425.401	142.06
425.623	152.06
425.846	135.06
426.068	127.06
426.291	130.06
426.513	113.06
426.735	143.06
426.958	122.06
427.18	138.06
427.402	130.06
427.625	134.06
427.847	123.06
428.069	143.06
428.292	123.06
428.514	136.06
428.736	134.06
428.958	117.06
429.181	139.06
429.403	122.06
429.625	134.06
429.847	134.06
430.069	126.06
430.292	129.06
430.514	132.06
430.736	130.06
430.958	121.06
431.18	139.06
431.402	139.06
431.624	118.06
431.846	102.06
432.068	105.06
432.29	98.06
432.512	116.06
432.734	137.06
432.956	142.06
433.178	132.06
433.4	145.06
433.622	136.06
433.844	137.06
434.066	112.06
434.287	119.06
434.509	100.06
434.731	102.06
434.953	124.06
435.175	126.06
435.397	123.06
435.618	121.06
435.84	107.06
436.062	102.06
436.284	132.06
436.505	123.06
436.727	128.06
436.949	137.06
437.17	144.06
437.392	141.06
437.614	136.06
437.835	110.06
438.057	102.06
438.278	126.06
438.5	112.06
438.721	157.06
438.943	148.06
439.165	151.06
439.386	147.06
439.608	145.06
439.829	139.06
440.05	150.06
440.272	154.06
440.493	130.06
440.715	152.06
440.936	144.06
441.158	142.06
441.379	153.06
441.6	154.06
441.822	137.06
442.043	141.06
442.264	141.06
442.486	144.06
442.707	153.06
442.928	141.06
443.149	140.06
443.371	141.06
443.592	139.06
443.813	130.06
444.034	129.06
444.255	153.06
444.476	129.06
444.698	151.06
444.919	135.06
445.14	256.06
445.361	192.06
445.582	136.06
445.803	143.06
446.024	142.06
446.245	158.06
446.466	146.06
446.687	150.06
446.908	157.06
447.129	160.06
447.35	147.06
447.571	148.06
447.792	136.06
448.013	132.06
448.234	148.06
448.455	129.06
448.675	136.06
448.896	152.06
449.117	139.06
449.338	143.06
449.559	136.06
449.779	137.06
450	136.06
450.221	132.06
450.442	141.06
450.662	132.06
450.883	136.06
451.104	136.06
451.324	127.06
451.545	133.06
451.766	134.06
451.986	113.06
452.207	139.06
452.428	127.06
452.648	135.06
452.869	127.06
453.089	115.06
453.31	118.06
453.53	115.06
453.751	104.06
453.971	106.06
454.192	103.06
454.412	100.06
454.633	103.06
454.853	127.06
455.073	127.06
455.294	129.06
455.514	125.06
455.734	120.06
455.955	116.06
456.175	108.06
456.395	114.06
456.616	102.06
456.836	116.06
457.056	126.06
457.276	109.06
457.497	107.06
457.717	111.06
457.937	109.06
458.157	115.06
458.377	116.06
458.598	93.06
458.818	106.06
459.038	93.06
459.258	96.06
459.478	86.06
459.698	103.06
459.918	103.06
460.138	103.06
460.358	107.06
460.578	113.06
460.798	107.06
461.018	122.06
461.238	124.06
461.458	128.06
461.678	132.06
461.898	120.06
462.118	105.06
462.338	111.06
462.558	114.06
462.777	97.06
462.997	120.06
463.217	102.06
463.437	117.06
463.657	117.06
463.876	122.06
464.096	108.06
464.316	118.06
464.536	117.06
464.755	123.06
464.975	125.06
465.195	123.06
465.414	130.06
465.634	124.06
465.854	118.06
466.073	131.06
466.293	146.06
466.512	121.06
466.732	126.06
466.951	133.06
467.171	123.06
467.391	149.06
467.61	130.06
467.829	138.06
468.049	141.06
468.268	141.06
468.488	142.06
468.707	139.06
468.927	139.06
469.146	144.06
469.365	134.06
469.585	139.06
469.804	120.06
470.023	144.06
470.243	150.06
470.462	155.06
470.681	148.06
470.901	134.06
471.12	145.06
471.339	150.06
471.558	138.06
471.777	134.06
471.997	140.06
472.216	130.06
472.435	107.06
472.654	112.06
472.873	109.06
473.092	119.06
473.311	121.06
473.53	127.06
473.749	123.06
473.968	143.06
474.187	130.06
474.406	128.06
474.625	126.06
474.844	131.06
475.063	131.06
475.282	143.06
475.501	123.06
475.72	108.06
475.939	119.06
476.158	114.06
476.377	115.06
476.596	113.06
476.814	113.06
477.033	98.06
477.252	106.06
477.471	133.06
477.69	134.06
477.908	142.06
478.127	141.06
478.346	138.06
478.564	147.06
478.783	140.06
479.002	144.06
479.22	134.06
479.439	134.06
479.658	128.06
479.876	119.06
480.095	114.06
480.313	112.06
480.532	123.06
480.751	129.06
480.969	106.06
481.188	80.06
481.406	102.06
481.624	101.06
481.843	94.06
482.061	91.06
482.28	105.06
482.498	115.06
482.717	111.06
482.935	128.06
483.153	147.06
483.372	162.06
483.59	146.06
483.808	144.06
484.027	140.06
484.245	141.06
484.463	152.06
484.681	150.06
484.9	145.06
485.118	154.06
485.336	119.06
485.554	111.06
485.772	102.06
485.99	92.06
486.209	110.06
486.427	107.06
486.645	118.06
486.863	140.06
487.081	140.06
487.299	141.06
487.517	146.06
487.735	154.06
487.953	191.06
488.171	175.06
488.389	165.06
488.607	150.06
488.825	134.06
489.043	128.06
489.261	130.06
489.479	143.06
489.696	144.06
489.914	158.06
490.132	143.06
490.35	148.06
490.568	154.06
490.786	164.06
491.003	166.06
491.221	186.06
491.439	193.06
491.657	190.06
491.874	198.06
492.092	207.06
492.31	228.06
492.527	223.06
492.745	213.06
492.963	201.06
493.18	202.06
493.398	182.06
493.615	180.06
493.833	180.06
494.05	169.06
494.268	166.06
494.485	178.06
494.703	178.06
494.92	171.06
495.138	170.06
495.355	180.06
495.573	165.06
495.79	183.06
496.008	168.06
496.225	174.06
496.442	179.06
496.66	160.06
496.877	174.06
497.094	157.06
497.312	167.06
497.529	160.06
497.746	165.06
497.963	154.06
498.181	132.06
498.398	124.06
498.615	122.06
498.832	126.06
499.049	123.06
499.267	115.06
499.484	142.06
499.701	114.06
499.918	136.06
500.135	127.06
500.352	132.06
500.569	150.06
500.786	149.06
501.003	142.06
501.22	128.06
501.437	147.06
501.654	141.06
501.871	156.06
502.088	129.06
502.305	118.06
502.522	135.06
502.739	143.06
502.956	132.06
503.172	125.06
503.389	132.06
503.606	120.06
503.823	127.06
504.04	135.06
504.256	126.06
504.473	120.06
504.69	122.06
504.907	121.06
505.123	127.06
505.34	118.06
505.557	134.06
505.773	108.06
505.99	118.06
506.207	121.06
506.423	121.06
506.64	122.06
506.856	130.06
507.073	125.06
507.289	123.06
507.506	122.06
507.722	121.06
507.939	118.06
508.155	145.06
508.372	114.06
508.588	124.06
508.805	116.06
509.021	125.06
509.238	102.06
509.454	108.06
509.67	87.06
509.887	97.06
510.103	99.06
510.319	95.06
510.536	81.06
510.752	75.06
510.968	77.06
511.184	92.06
