Data from Location2.07152019.Energy5.Lamp.07192019.3%Agarose_HRD10591_14-58-39-360.txt Node
Date: Fri Jul 19 14:58:39 EDT 2019
User: cochatt
Spectrometer: HR+D1059
Trigger mode: 1
Integration Time (sec): 1.000000E-1
Scans to average: 1
Electric dark correction enabled: true
Nonlinearity correction enabled: false
Boxcar width: 0
XAxis mode: Wavelengths
Number of Pixels in Spectrum: 2048
>>>>>Begin Spectral Data<<<<<
223.165	-15.19
223.4	-15.19
223.635	-15.19
223.869	-21.19
224.104	-29.19
224.338	-22.19
224.573	-1.19
224.808	-24.19
225.042	-2.19
225.277	-7.19
225.511	-8.19
225.746	6.81
225.98	20.81
226.215	4.81
226.449	37.81
226.683	34.81
226.918	-0.19
227.152	25.81
227.387	43.81
227.621	34.81
227.856	46.81
228.09	36.81
228.324	53.81
228.559	47.81
228.793	49.81
229.027	50.81
229.262	68.81
229.496	60.81
229.73	64.81
229.964	65.81
230.199	81.81
230.433	68.81
230.667	88.81
230.901	76.81
231.136	88.81
231.37	89.81
231.604	57.81
231.838	81.81
232.072	80.81
232.306	94.81
232.541	86.81
232.775	91.81
233.009	78.81
233.243	77.81
233.477	82.81
233.711	85.81
233.945	75.81
234.179	62.81
234.413	85.81
234.647	84.81
234.881	80.81
235.115	87.81
235.349	84.81
235.583	85.81
235.817	72.81
236.051	82.81
236.285	83.81
236.519	71.81
236.753	74.81
236.987	73.81
237.221	90.81
237.455	75.81
237.689	76.81
237.922	82.81
238.156	85.81
238.39	89.81
238.624	76.81
238.858	79.81
239.091	78.81
239.325	87.81
239.559	72.81
239.793	72.81
240.027	86.81
240.26	70.81
240.494	88.81
240.728	74.81
240.961	66.81
241.195	72.81
241.429	79.81
241.662	84.81
241.896	79.81
242.13	63.81
242.363	70.81
242.597	98.81
242.83	61.81
243.064	80.81
243.298	82.81
243.531	69.81
243.765	79.81
243.998	88.81
244.232	74.81
244.465	75.81
244.699	93.81
244.932	94.81
245.166	76.81
245.399	72.81
245.633	73.81
245.866	88.81
246.099	75.81
246.333	78.81
246.566	75.81
246.8	88.81
247.033	77.81
247.266	80.81
247.5	84.81
247.733	83.81
247.966	75.81
248.2	76.81
248.433	72.81
248.666	64.81
248.899	70.81
249.133	64.81
249.366	83.81
249.599	76.81
249.832	76.81
250.066	79.81
250.299	66.81
250.532	73.81
250.765	82.81
250.998	73.81
251.231	75.81
251.465	69.81
251.698	79.81
251.931	91.81
252.164	79.81
252.397	85.81
252.63	90.81
252.863	76.81
253.096	59.81
253.329	87.81
253.562	87.81
253.795	71.81
254.028	81.81
254.261	87.81
254.494	85.81
254.727	77.81
254.96	91.81
255.193	76.81
255.426	95.81
255.659	86.81
255.892	74.81
256.124	105.81
256.357	80.81
256.59	80.81
256.823	76.81
257.056	62.81
257.289	81.81
257.521	84.81
257.754	84.81
257.987	79.81
258.22	87.81
258.452	86.81
258.685	75.81
258.918	81.81
259.151	73.81
259.383	91.81
259.616	82.81
259.849	84.81
260.081	88.81
260.314	79.81
260.547	80.81
260.779	87.81
261.012	82.81
261.244	86.81
261.477	94.81
261.71	73.81
261.942	78.81
262.175	79.81
262.407	89.81
262.64	89.81
262.872	83.81
263.105	84.81
263.337	88.81
263.57	76.81
263.802	79.81
264.035	86.81
264.267	77.81
264.499	92.81
264.732	84.81
264.964	83.81
265.197	76.81
265.429	84.81
265.661	82.81
265.894	79.81
266.126	82.81
266.358	82.81
266.591	85.81
266.823	80.81
267.055	69.81
267.287	79.81
267.52	68.81
267.752	89.81
267.984	81.81
268.216	73.81
268.448	86.81
268.681	90.81
268.913	79.81
269.145	82.81
269.377	88.81
269.609	88.81
269.841	89.81
270.073	84.81
270.306	87.81
270.538	75.81
270.77	82.81
271.002	86.81
271.234	78.81
271.466	82.81
271.698	76.81
271.93	88.81
272.162	88.81
272.394	88.81
272.626	88.81
272.858	86.81
273.09	82.81
273.322	75.81
273.553	80.81
273.785	84.81
274.017	87.81
274.249	84.81
274.481	84.81
274.713	79.81
274.945	66.81
275.176	84.81
275.408	86.81
275.64	86.81
275.872	79.81
276.104	92.81
276.335	87.81
276.567	82.81
276.799	85.81
277.031	87.81
277.262	86.81
277.494	81.81
277.726	77.81
277.957	71.81
278.189	92.81
278.421	77.81
278.652	91.81
278.884	97.81
279.115	78.81
279.347	85.81
279.579	69.81
279.81	77.81
280.042	75.81
280.273	88.81
280.505	98.81
280.736	103.81
280.968	88.81
281.199	85.81
281.431	88.81
281.662	87.81
281.894	98.81
282.125	82.81
282.356	79.81
282.588	82.81
282.819	76.81
283.051	81.81
283.282	91.81
283.513	81.81
283.745	85.81
283.976	84.81
284.207	99.81
284.439	105.81
284.67	95.81
284.901	82.81
285.132	83.81
285.364	75.81
285.595	89.81
285.826	94.81
286.057	91.81
286.288	83.81
286.52	71.81
286.751	95.81
286.982	75.81
287.213	89.81
287.444	92.81
287.675	84.81
287.906	98.81
288.138	81.81
288.369	74.81
288.6	75.81
288.831	74.81
289.062	70.81
289.293	81.81
289.524	74.81
289.755	88.81
289.986	80.81
290.217	85.81
290.448	94.81
290.679	80.81
290.91	66.81
291.141	66.81
291.371	72.81
291.602	71.81
291.833	83.81
292.064	79.81
292.295	89.81
292.526	87.81
292.757	97.81
292.987	88.81
293.218	91.81
293.449	71.81
293.68	84.81
293.91	78.81
294.141	79.81
294.372	79.81
294.603	86.81
294.833	81.81
295.064	73.81
295.295	89.81
295.525	78.81
295.756	90.81
295.987	85.81
296.217	76.81
296.448	74.81
296.679	93.81
296.909	83.81
297.14	86.81
297.37	96.81
297.601	82.81
297.831	73.81
298.062	89.81
298.292	78.81
298.523	74.81
298.753	86.81
298.984	73.81
299.214	97.81
299.445	92.81
299.675	79.81
299.905	82.81
300.136	74.81
300.366	89.81
300.597	87.81
300.827	85.81
301.057	76.81
301.288	73.81
301.518	92.81
301.748	85.81
301.979	98.81
302.209	78.81
302.439	81.81
302.669	80.81
302.9	86.81
303.13	90.81
303.36	82.81
303.59	91.81
303.82	87.81
304.051	76.81
304.281	85.81
304.511	72.81
304.741	91.81
304.971	85.81
305.201	76.81
305.431	73.81
305.661	82.81
305.891	92.81
306.121	82.81
306.352	82.81
306.582	85.81
306.812	84.81
307.042	77.81
307.272	75.81
307.502	68.81
307.731	66.81
307.961	81.81
308.191	80.81
308.421	72.81
308.651	73.81
308.881	72.81
309.111	87.81
309.341	105.81
309.571	78.81
309.8	80.81
310.03	89.81
310.26	79.81
310.49	82.81
310.72	88.81
310.949	87.81
311.179	79.81
311.409	79.81
311.639	90.81
311.868	70.81
312.098	80.81
312.328	87.81
312.557	79.81
312.787	96.81
313.017	85.81
313.246	83.81
313.476	85.81
313.706	87.81
313.935	89.81
314.165	86.81
314.394	87.81
314.624	80.81
314.853	92.81
315.083	88.81
315.312	93.81
315.542	92.81
315.771	94.81
316.001	76.81
316.23	77.81
316.46	82.81
316.689	72.81
316.919	88.81
317.148	97.81
317.377	88.81
317.607	93.81
317.836	78.81
318.065	82.81
318.295	91.81
318.524	68.81
318.753	91.81
318.983	76.81
319.212	78.81
319.441	83.81
319.67	78.81
319.9	84.81
320.129	91.81
320.358	93.81
320.587	82.81
320.816	82.81
321.046	83.81
321.275	73.81
321.504	88.81
321.733	88.81
321.962	91.81
322.191	79.81
322.42	77.81
322.649	87.81
322.878	81.81
323.108	79.81
323.337	78.81
323.566	83.81
323.795	88.81
324.024	89.81
324.253	89.81
324.482	70.81
324.71	81.81
324.939	88.81
325.168	97.81
325.397	89.81
325.626	84.81
325.855	66.81
326.084	79.81
326.313	74.81
326.542	72.81
326.77	81.81
326.999	87.81
327.228	84.81
327.457	79.81
327.686	85.81
327.914	81.81
328.143	95.81
328.372	80.81
328.6	88.81
328.829	75.81
329.058	80.81
329.287	80.81
329.515	88.81
329.744	81.81
329.972	79.81
330.201	85.81
330.43	68.81
330.658	82.81
330.887	75.81
331.115	74.81
331.344	76.81
331.572	90.81
331.801	89.81
332.03	80.81
332.258	89.81
332.486	89.81
332.715	80.81
332.943	80.81
333.172	85.81
333.4	75.81
333.629	91.81
333.857	73.81
334.085	82.81
334.314	76.81
334.542	62.81
334.771	89.81
334.999	81.81
335.227	82.81
335.455	86.81
335.684	92.81
335.912	87.81
336.14	87.81
336.369	75.81
336.597	72.81
336.825	82.81
337.053	86.81
337.281	91.81
337.51	82.81
337.738	81.81
337.966	100.81
338.194	77.81
338.422	77.81
338.65	104.81
338.878	79.81
339.106	79.81
339.334	89.81
339.562	80.81
339.79	81.81
340.018	100.81
340.246	84.81
340.474	81.81
340.702	92.81
340.93	75.81
341.158	72.81
341.386	77.81
341.614	83.81
341.842	95.81
342.07	90.81
342.298	92.81
342.526	84.81
342.754	89.81
342.981	83.81
343.209	88.81
343.437	97.81
343.665	85.81
343.893	70.81
344.12	82.81
344.348	75.81
344.576	87.81
344.804	70.81
345.031	80.81
345.259	86.81
345.487	79.81
345.714	80.81
345.942	74.81
346.17	71.81
346.397	76.81
346.625	87.81
346.853	96.81
347.08	68.81
347.308	93.81
347.535	76.81
347.763	95.81
347.99	78.81
348.218	90.81
348.445	83.81
348.673	86.81
348.9	82.81
349.128	88.81
349.355	80.81
349.583	77.81
349.81	82.81
350.037	82.81
350.265	90.81
350.492	95.81
350.72	68.81
350.947	79.81
351.174	79.81
351.402	86.81
351.629	90.81
351.856	83.81
352.083	88.81
352.311	77.81
352.538	76.81
352.765	95.81
352.992	86.81
353.22	85.81
353.447	75.81
353.674	84.81
353.901	82.81
354.128	92.81
354.355	93.81
354.583	75.81
354.81	82.81
355.037	92.81
355.264	85.81
355.491	88.81
355.718	82.81
355.945	78.81
356.172	83.81
356.399	100.81
356.626	72.81
356.853	90.81
357.08	71.81
357.307	85.81
357.534	74.81
357.761	88.81
357.988	86.81
358.215	80.81
358.441	79.81
358.668	78.81
358.895	88.81
359.122	90.81
359.349	86.81
359.576	75.81
359.802	92.81
360.029	86.81
360.256	96.81
360.483	89.81
360.709	86.81
360.936	97.81
361.163	66.81
361.39	67.81
361.616	86.81
361.843	85.81
362.07	69.81
362.296	90.81
362.523	79.81
362.749	83.81
362.976	83.81
363.203	89.81
363.429	73.81
363.656	96.81
363.882	85.81
364.109	89.81
364.335	92.81
364.562	83.81
364.788	79.81
365.015	73.81
365.241	92.81
365.468	87.81
365.694	77.81
365.92	85.81
366.147	86.81
366.373	91.81
366.599	79.81
366.826	86.81
367.052	83.81
367.278	92.81
367.505	85.81
367.731	79.81
367.957	84.81
368.184	95.81
368.41	92.81
368.636	98.81
368.862	98.81
369.089	99.81
369.315	85.81
369.541	100.81
369.767	84.81
369.993	86.81
370.219	90.81
370.445	71.81
370.672	86.81
370.898	80.81
371.124	91.81
371.35	79.81
371.576	91.81
371.802	90.81
372.028	86.81
372.254	95.81
372.48	78.81
372.706	97.81
372.932	79.81
373.158	94.81
373.384	104.81
373.61	94.81
373.835	85.81
374.061	92.81
374.287	98.81
374.513	95.81
374.739	86.81
374.965	90.81
375.191	86.81
375.416	83.81
375.642	83.81
375.868	68.81
376.094	102.81
376.319	92.81
376.545	105.81
376.771	89.81
376.997	104.81
377.222	84.81
377.448	78.81
377.674	82.81
377.899	91.81
378.125	92.81
378.35	99.81
378.576	92.81
378.802	94.81
379.027	85.81
379.253	100.81
379.478	102.81
379.704	82.81
379.929	76.81
380.155	92.81
380.38	94.81
380.606	106.81
380.831	105.81
381.057	106.81
381.282	84.81
381.507	98.81
381.733	107.81
381.958	100.81
382.184	97.81
382.409	110.81
382.634	108.81
382.86	100.81
383.085	100.81
383.31	104.81
383.535	101.81
383.761	101.81
383.986	110.81
384.211	105.81
384.436	92.81
384.662	98.81
384.887	99.81
385.112	88.81
385.337	100.81
385.562	91.81
385.787	88.81
386.013	94.81
386.238	91.81
386.463	100.81
386.688	84.81
386.913	100.81
387.138	105.81
387.363	103.81
387.588	109.81
387.813	88.81
388.038	94.81
388.263	92.81
388.488	86.81
388.713	91.81
388.938	93.81
389.163	83.81
389.387	120.81
389.612	92.81
389.837	84.81
390.062	72.81
390.287	85.81
390.512	99.81
390.736	94.81
390.961	108.81
391.186	94.81
391.411	97.81
391.636	101.81
391.86	112.81
392.085	97.81
392.31	104.81
392.534	100.81
392.759	110.81
392.984	96.81
393.208	92.81
393.433	108.81
393.658	92.81
393.882	107.81
394.107	119.81
394.331	120.81
394.556	96.81
394.78	115.81
395.005	102.81
395.229	110.81
395.454	95.81
395.678	96.81
395.903	107.81
396.127	95.81
396.352	105.81
396.576	93.81
396.801	94.81
397.025	104.81
397.249	100.81
397.474	104.81
397.698	110.81
397.922	105.81
398.147	107.81
398.371	104.81
398.595	93.81
398.82	105.81
399.044	97.81
399.268	109.81
399.492	93.81
399.717	111.81
399.941	110.81
400.165	102.81
400.389	103.81
400.613	121.81
400.837	116.81
401.062	117.81
401.286	114.81
401.51	115.81
401.734	110.81
401.958	110.81
402.182	115.81
402.406	116.81
402.63	103.81
402.854	99.81
403.078	110.81
403.302	104.81
403.526	106.81
403.75	121.81
403.974	89.81
404.198	114.81
404.422	116.81
404.645	126.81
404.869	117.81
405.093	98.81
405.317	118.81
405.541	110.81
405.765	116.81
405.988	114.81
406.212	124.81
406.436	112.81
406.66	119.81
406.883	123.81
407.107	121.81
407.331	127.81
407.555	128.81
407.778	116.81
408.002	124.81
408.226	112.81
408.449	103.81
408.673	117.81
408.896	111.81
409.12	120.81
409.344	123.81
409.567	112.81
409.791	122.81
410.014	127.81
410.238	112.81
410.461	111.81
410.685	117.81
410.908	121.81
411.132	108.81
411.355	110.81
411.578	104.81
411.802	110.81
412.025	118.81
412.249	117.81
412.472	117.81
412.695	139.81
412.919	115.81
413.142	126.81
413.365	121.81
413.589	119.81
413.812	121.81
414.035	124.81
414.258	118.81
414.482	119.81
414.705	110.81
414.928	117.81
415.151	122.81
415.374	112.81
415.597	119.81
415.821	120.81
416.044	111.81
416.267	124.81
416.49	127.81
416.713	122.81
416.936	115.81
417.159	132.81
417.382	125.81
417.605	132.81
417.828	130.81
418.051	122.81
418.274	142.81
418.497	125.81
418.72	136.81
418.943	128.81
419.166	142.81
419.389	128.81
419.611	123.81
419.834	111.81
420.057	133.81
420.28	137.81
420.503	118.81
420.726	124.81
420.948	136.81
421.171	148.81
421.394	126.81
421.617	138.81
421.839	128.81
422.062	119.81
422.285	129.81
422.507	121.81
422.73	139.81
422.953	138.81
423.175	138.81
423.398	133.81
423.621	115.81
423.843	124.81
424.066	130.81
424.288	131.81
424.511	138.81
424.733	130.81
424.956	140.81
425.178	131.81
425.401	113.81
425.623	140.81
425.846	122.81
426.068	131.81
426.291	123.81
426.513	135.81
426.735	138.81
426.958	127.81
427.18	133.81
427.402	135.81
427.625	123.81
427.847	131.81
428.069	126.81
428.292	124.81
428.514	126.81
428.736	123.81
428.958	121.81
429.181	118.81
429.403	135.81
429.625	123.81
429.847	139.81
430.069	130.81
430.292	124.81
430.514	129.81
430.736	130.81
430.958	130.81
431.18	120.81
431.402	135.81
431.624	121.81
431.846	113.81
432.068	90.81
432.29	83.81
432.512	100.81
432.734	119.81
432.956	139.81
433.178	137.81
433.4	129.81
433.622	134.81
433.844	133.81
434.066	122.81
434.287	102.81
434.509	102.81
434.731	85.81
434.953	103.81
435.175	110.81
435.397	126.81
435.618	120.81
435.84	115.81
436.062	119.81
436.284	120.81
436.505	129.81
436.727	139.81
436.949	136.81
437.17	125.81
437.392	122.81
437.614	110.81
437.835	113.81
438.057	108.81
438.278	95.81
438.5	115.81
438.721	120.81
438.943	139.81
439.165	146.81
439.386	124.81
439.608	136.81
439.829	143.81
440.05	157.81
440.272	130.81
440.493	138.81
440.715	145.81
440.936	167.81
441.158	130.81
441.379	139.81
441.6	138.81
441.822	156.81
442.043	123.81
442.264	120.81
442.486	138.81
442.707	135.81
442.928	138.81
443.149	129.81
443.371	144.81
443.592	134.81
443.813	126.81
444.034	137.81
444.255	144.81
444.476	135.81
444.698	132.81
444.919	143.81
445.14	267.81
445.361	189.81
445.582	158.81
445.803	142.81
446.024	134.81
446.245	159.81
446.466	154.81
446.687	158.81
446.908	161.81
447.129	137.81
447.35	153.81
447.571	147.81
447.792	135.81
448.013	146.81
448.234	155.81
448.455	129.81
448.675	146.81
448.896	141.81
449.117	140.81
449.338	133.81
449.559	151.81
449.779	140.81
450	123.81
450.221	121.81
450.442	125.81
450.662	144.81
450.883	147.81
451.104	155.81
451.324	130.81
451.545	132.81
451.766	125.81
451.986	126.81
452.207	104.81
452.428	126.81
452.648	126.81
452.869	133.81
453.089	106.81
453.31	100.81
453.53	113.81
453.751	102.81
453.971	114.81
454.192	100.81
454.412	114.81
454.633	114.81
454.853	121.81
455.073	117.81
455.294	113.81
455.514	122.81
455.734	120.81
455.955	121.81
456.175	105.81
456.395	111.81
456.616	102.81
456.836	107.81
457.056	100.81
457.276	114.81
457.497	99.81
457.717	117.81
457.937	100.81
458.157	110.81
458.377	106.81
458.598	101.81
458.818	83.81
459.038	91.81
459.258	83.81
459.478	85.81
459.698	93.81
459.918	94.81
460.138	102.81
460.358	99.81
460.578	113.81
460.798	114.81
461.018	110.81
461.238	115.81
461.458	134.81
461.678	120.81
461.898	120.81
462.118	118.81
462.338	118.81
462.558	121.81
462.777	106.81
462.997	100.81
463.217	89.81
463.437	102.81
463.657	119.81
463.876	106.81
464.096	110.81
464.316	106.81
464.536	113.81
464.755	107.81
464.975	102.81
465.195	126.81
465.414	123.81
465.634	102.81
465.854	105.81
466.073	107.81
466.293	122.81
466.512	129.81
466.732	131.81
466.951	143.81
467.171	118.81
467.391	133.81
467.61	132.81
467.829	139.81
468.049	130.81
468.268	126.81
468.488	127.81
468.707	120.81
468.927	121.81
469.146	123.81
469.365	139.81
469.585	138.81
469.804	140.81
470.023	139.81
470.243	134.81
470.462	158.81
470.681	137.81
470.901	142.81
471.12	147.81
471.339	152.81
471.558	125.81
471.777	123.81
471.997	131.81
472.216	131.81
472.435	112.81
472.654	103.81
472.873	114.81
473.092	117.81
473.311	134.81
473.53	135.81
473.749	128.81
473.968	118.81
474.187	126.81
474.406	117.81
474.625	131.81
474.844	120.81
475.063	127.81
475.282	122.81
475.501	121.81
475.72	116.81
475.939	129.81
476.158	142.81
476.377	105.81
476.596	121.81
476.814	116.81
477.033	90.81
477.252	106.81
477.471	120.81
477.69	124.81
477.908	155.81
478.127	133.81
478.346	119.81
478.564	137.81
478.783	131.81
479.002	130.81
479.22	136.81
479.439	132.81
479.658	122.81
479.876	112.81
480.095	105.81
480.313	126.81
480.532	102.81
480.751	107.81
480.969	86.81
481.188	86.81
481.406	100.81
481.624	91.81
481.843	94.81
482.061	111.81
482.28	108.81
482.498	102.81
482.717	95.81
482.935	119.81
483.153	144.81
483.372	146.81
483.59	148.81
483.808	144.81
484.027	125.81
484.245	135.81
484.463	131.81
484.681	155.81
484.9	126.81
485.118	135.81
485.336	129.81
485.554	112.81
485.772	86.81
485.99	107.81
486.209	100.81
486.427	97.81
486.645	111.81
486.863	133.81
487.081	136.81
487.299	132.81
487.517	143.81
487.735	150.81
487.953	180.81
488.171	187.81
488.389	170.81
488.607	167.81
488.825	146.81
489.043	135.81
489.261	128.81
489.479	136.81
489.696	148.81
489.914	146.81
490.132	156.81
490.35	155.81
490.568	161.81
490.786	160.81
491.003	169.81
491.221	170.81
491.439	191.81
491.657	178.81
491.874	178.81
492.092	195.81
492.31	231.81
492.527	235.81
492.745	218.81
492.963	210.81
493.18	191.81
493.398	177.81
493.615	174.81
493.833	174.81
494.05	181.81
494.268	165.81
494.485	166.81
494.703	165.81
494.92	179.81
495.138	178.81
495.355	168.81
495.573	180.81
495.79	178.81
496.008	177.81
496.225	160.81
496.442	166.81
496.66	183.81
496.877	167.81
497.094	169.81
497.312	174.81
497.529	161.81
497.746	140.81
497.963	144.81
498.181	132.81
498.398	117.81
498.615	122.81
498.832	126.81
499.049	119.81
499.267	123.81
499.484	117.81
499.701	129.81
499.918	132.81
500.135	130.81
500.352	140.81
500.569	137.81
500.786	136.81
501.003	137.81
501.22	150.81
501.437	144.81
501.654	136.81
501.871	128.81
502.088	126.81
502.305	131.81
502.522	120.81
502.739	135.81
502.956	132.81
503.172	126.81
503.389	113.81
503.606	120.81
503.823	116.81
504.04	123.81
504.256	132.81
504.473	116.81
504.69	106.81
504.907	116.81
505.123	126.81
505.34	127.81
505.557	117.81
505.773	122.81
505.99	127.81
506.207	113.81
506.423	128.81
506.64	123.81
506.856	120.81
507.073	123.81
507.289	107.81
507.506	126.81
507.722	118.81
507.939	111.81
508.155	118.81
508.372	107.81
508.588	119.81
508.805	110.81
509.021	118.81
509.238	105.81
509.454	101.81
509.67	107.81
509.887	103.81
510.103	97.81
510.319	88.81
510.536	90.81
510.752	87.81
510.968	89.81
511.184	77.81
511.401	84.81
511.617	87.81
511.833	92.81
