Data from Location2.07152019.Energy5.Lamp.07192019.3%Agarose_HRD10591_14-56-28-359.txt Node
Date: Fri Jul 19 14:56:28 EDT 2019
User: cochatt
Spectrometer: HR+D1059
Trigger mode: 1
Integration Time (sec): 1.000000E-1
Scans to average: 1
Electric dark correction enabled: true
Nonlinearity correction enabled: false
Boxcar width: 0
XAxis mode: Wavelengths
Number of Pixels in Spectrum: 2048
>>>>>Begin Spectral Data<<<<<
223.165	-14.12
223.4	-14.12
223.635	-14.12
223.869	-17.12
224.104	-14.12
224.338	-5.12
224.573	-23.12
224.808	-14.12
225.042	-5.12
225.277	-9.12
225.511	8.88
225.746	6.88
225.98	-8.12
226.215	4.88
226.449	16.88
226.683	29.88
226.918	27.88
227.152	14.88
227.387	24.88
227.621	29.88
227.856	47.88
228.09	49.88
228.324	38.88
228.559	52.88
228.793	49.88
229.027	56.88
229.262	61.88
229.496	81.88
229.73	65.88
229.964	70.88
230.199	78.88
230.433	81.88
230.667	77.88
230.901	62.88
231.136	79.88
231.37	87.88
231.604	87.88
231.838	69.88
232.072	77.88
232.306	82.88
232.541	82.88
232.775	89.88
233.009	85.88
233.243	83.88
233.477	79.88
233.711	78.88
233.945	77.88
234.179	83.88
234.413	92.88
234.647	78.88
234.881	84.88
235.115	67.88
235.349	81.88
235.583	72.88
235.817	70.88
236.051	65.88
236.285	78.88
236.519	82.88
236.753	80.88
236.987	90.88
237.221	63.88
237.455	66.88
237.689	74.88
237.922	75.88
238.156	56.88
238.39	67.88
238.624	75.88
238.858	78.88
239.091	83.88
239.325	71.88
239.559	66.88
239.793	69.88
240.027	85.88
240.26	89.88
240.494	70.88
240.728	66.88
240.961	68.88
241.195	69.88
241.429	83.88
241.662	77.88
241.896	88.88
242.13	80.88
242.363	67.88
242.597	76.88
242.83	80.88
243.064	71.88
243.298	87.88
243.531	72.88
243.765	88.88
243.998	80.88
244.232	86.88
244.465	67.88
244.699	76.88
244.932	72.88
245.166	77.88
245.399	89.88
245.633	85.88
245.866	91.88
246.099	73.88
246.333	72.88
246.566	64.88
246.8	79.88
247.033	75.88
247.266	68.88
247.5	63.88
247.733	73.88
247.966	77.88
248.2	69.88
248.433	82.88
248.666	70.88
248.899	65.88
249.133	72.88
249.366	79.88
249.599	71.88
249.832	91.88
250.066	84.88
250.299	73.88
250.532	84.88
250.765	64.88
250.998	83.88
251.231	73.88
251.465	83.88
251.698	72.88
251.931	80.88
252.164	67.88
252.397	85.88
252.63	68.88
252.863	76.88
253.096	64.88
253.329	88.88
253.562	80.88
253.795	77.88
254.028	70.88
254.261	68.88
254.494	78.88
254.727	62.88
254.96	78.88
255.193	66.88
255.426	69.88
255.659	78.88
255.892	84.88
256.124	66.88
256.357	83.88
256.59	70.88
256.823	78.88
257.056	86.88
257.289	69.88
257.521	74.88
257.754	78.88
257.987	80.88
258.22	78.88
258.452	81.88
258.685	85.88
258.918	68.88
259.151	83.88
259.383	73.88
259.616	70.88
259.849	99.88
260.081	64.88
260.314	71.88
260.547	101.88
260.779	66.88
261.012	80.88
261.244	69.88
261.477	77.88
261.71	79.88
261.942	77.88
262.175	82.88
262.407	81.88
262.64	91.88
262.872	86.88
263.105	74.88
263.337	80.88
263.57	63.88
263.802	72.88
264.035	69.88
264.267	69.88
264.499	70.88
264.732	78.88
264.964	76.88
265.197	79.88
265.429	91.88
265.661	79.88
265.894	72.88
266.126	72.88
266.358	85.88
266.591	78.88
266.823	81.88
267.055	69.88
267.287	78.88
267.52	79.88
267.752	85.88
267.984	91.88
268.216	81.88
268.448	84.88
268.681	79.88
268.913	87.88
269.145	73.88
269.377	67.88
269.609	74.88
269.841	80.88
270.073	88.88
270.306	86.88
270.538	92.88
270.77	77.88
271.002	81.88
271.234	79.88
271.466	87.88
271.698	72.88
271.93	73.88
272.162	79.88
272.394	85.88
272.626	81.88
272.858	69.88
273.09	82.88
273.322	71.88
273.553	74.88
273.785	71.88
274.017	82.88
274.249	79.88
274.481	84.88
274.713	82.88
274.945	74.88
275.176	75.88
275.408	92.88
275.64	77.88
275.872	92.88
276.104	74.88
276.335	83.88
276.567	87.88
276.799	88.88
277.031	77.88
277.262	89.88
277.494	84.88
277.726	78.88
277.957	78.88
278.189	86.88
278.421	91.88
278.652	68.88
278.884	75.88
279.115	73.88
279.347	85.88
279.579	59.88
279.81	66.88
280.042	84.88
280.273	88.88
280.505	68.88
280.736	94.88
280.968	81.88
281.199	86.88
281.431	78.88
281.662	74.88
281.894	80.88
282.125	74.88
282.356	84.88
282.588	78.88
282.819	87.88
283.051	79.88
283.282	78.88
283.513	76.88
283.745	73.88
283.976	93.88
284.207	77.88
284.439	83.88
284.67	86.88
284.901	82.88
285.132	91.88
285.364	88.88
285.595	87.88
285.826	83.88
286.057	80.88
286.288	93.88
286.52	84.88
286.751	71.88
286.982	79.88
287.213	70.88
287.444	66.88
287.675	78.88
287.906	82.88
288.138	78.88
288.369	80.88
288.6	90.88
288.831	88.88
289.062	85.88
289.293	78.88
289.524	83.88
289.755	81.88
289.986	80.88
290.217	65.88
290.448	75.88
290.679	63.88
290.91	73.88
291.141	84.88
291.371	84.88
291.602	75.88
291.833	88.88
292.064	78.88
292.295	89.88
292.526	79.88
292.757	78.88
292.987	96.88
293.218	93.88
293.449	89.88
293.68	65.88
293.91	80.88
294.141	78.88
294.372	74.88
294.603	91.88
294.833	85.88
295.064	76.88
295.295	80.88
295.525	69.88
295.756	76.88
295.987	84.88
296.217	80.88
296.448	77.88
296.679	83.88
296.909	73.88
297.14	82.88
297.37	74.88
297.601	89.88
297.831	86.88
298.062	81.88
298.292	69.88
298.523	98.88
298.753	97.88
298.984	86.88
299.214	83.88
299.445	78.88
299.675	86.88
299.905	86.88
300.136	79.88
300.366	74.88
300.597	82.88
300.827	77.88
301.057	77.88
301.288	80.88
301.518	80.88
301.748	79.88
301.979	76.88
302.209	78.88
302.439	82.88
302.669	85.88
302.9	73.88
303.13	85.88
303.36	82.88
303.59	80.88
303.82	86.88
304.051	77.88
304.281	78.88
304.511	88.88
304.741	101.88
304.971	80.88
305.201	87.88
305.431	80.88
305.661	85.88
305.891	83.88
306.121	88.88
306.352	86.88
306.582	75.88
306.812	79.88
307.042	82.88
307.272	85.88
307.502	88.88
307.731	78.88
307.961	75.88
308.191	73.88
308.421	80.88
308.651	70.88
308.881	88.88
309.111	79.88
309.341	78.88
309.571	103.88
309.8	79.88
310.03	96.88
310.26	75.88
310.49	71.88
310.72	85.88
310.949	84.88
311.179	85.88
311.409	48.88
311.639	99.88
311.868	68.88
312.098	89.88
312.328	92.88
312.557	76.88
312.787	84.88
313.017	79.88
313.246	87.88
313.476	88.88
313.706	89.88
313.935	78.88
314.165	80.88
314.394	80.88
314.624	81.88
314.853	90.88
315.083	92.88
315.312	77.88
315.542	79.88
315.771	71.88
316.001	75.88
316.23	80.88
316.46	84.88
316.689	80.88
316.919	84.88
317.148	70.88
317.377	77.88
317.607	74.88
317.836	68.88
318.065	79.88
318.295	84.88
318.524	86.88
318.753	75.88
318.983	73.88
319.212	84.88
319.441	81.88
319.67	77.88
319.9	90.88
320.129	69.88
320.358	94.88
320.587	80.88
320.816	87.88
321.046	79.88
321.275	84.88
321.504	89.88
321.733	86.88
321.962	81.88
322.191	100.88
322.42	76.88
322.649	64.88
322.878	91.88
323.108	75.88
323.337	86.88
323.566	81.88
323.795	87.88
324.024	83.88
324.253	80.88
324.482	81.88
324.71	73.88
324.939	83.88
325.168	78.88
325.397	78.88
325.626	76.88
325.855	84.88
326.084	74.88
326.313	91.88
326.542	77.88
326.77	82.88
326.999	76.88
327.228	69.88
327.457	83.88
327.686	95.88
327.914	93.88
328.143	84.88
328.372	82.88
328.6	68.88
328.829	87.88
329.058	86.88
329.287	78.88
329.515	85.88
329.744	76.88
329.972	72.88
330.201	94.88
330.43	101.88
330.658	101.88
330.887	85.88
331.115	78.88
331.344	61.88
331.572	75.88
331.801	88.88
332.03	79.88
332.258	74.88
332.486	74.88
332.715	83.88
332.943	94.88
333.172	86.88
333.4	87.88
333.629	86.88
333.857	70.88
334.085	71.88
334.314	77.88
334.542	88.88
334.771	90.88
334.999	87.88
335.227	78.88
335.455	68.88
335.684	82.88
335.912	76.88
336.14	83.88
336.369	79.88
336.597	68.88
336.825	90.88
337.053	77.88
337.281	98.88
337.51	89.88
337.738	95.88
337.966	77.88
338.194	76.88
338.422	79.88
338.65	86.88
338.878	97.88
339.106	86.88
339.334	88.88
339.562	82.88
339.79	70.88
340.018	82.88
340.246	105.88
340.474	78.88
340.702	72.88
340.93	60.88
341.158	65.88
341.386	86.88
341.614	79.88
341.842	81.88
342.07	81.88
342.298	75.88
342.526	82.88
342.754	80.88
342.981	65.88
343.209	88.88
343.437	93.88
343.665	78.88
343.893	74.88
344.12	96.88
344.348	78.88
344.576	72.88
344.804	82.88
345.031	85.88
345.259	78.88
345.487	80.88
345.714	90.88
345.942	82.88
346.17	75.88
346.397	88.88
346.625	92.88
346.853	72.88
347.08	76.88
347.308	73.88
347.535	89.88
347.763	79.88
347.99	73.88
348.218	86.88
348.445	73.88
348.673	93.88
348.9	85.88
349.128	87.88
349.355	85.88
349.583	87.88
349.81	81.88
350.037	87.88
350.265	69.88
350.492	87.88
350.72	100.88
350.947	83.88
351.174	85.88
351.402	87.88
351.629	78.88
351.856	79.88
352.083	90.88
352.311	87.88
352.538	98.88
352.765	79.88
352.992	94.88
353.22	97.88
353.447	87.88
353.674	100.88
353.901	82.88
354.128	86.88
354.355	79.88
354.583	84.88
354.81	78.88
355.037	80.88
355.264	66.88
355.491	81.88
355.718	88.88
355.945	77.88
356.172	95.88
356.399	83.88
356.626	79.88
356.853	74.88
357.08	66.88
357.307	68.88
357.534	78.88
357.761	70.88
357.988	99.88
358.215	82.88
358.441	96.88
358.668	87.88
358.895	80.88
359.122	63.88
359.349	80.88
359.576	73.88
359.802	83.88
360.029	80.88
360.256	86.88
360.483	85.88
360.709	74.88
360.936	105.88
361.163	87.88
361.39	79.88
361.616	73.88
361.843	72.88
362.07	83.88
362.296	96.88
362.523	73.88
362.749	82.88
362.976	67.88
363.203	60.88
363.429	71.88
363.656	67.88
363.882	74.88
364.109	71.88
364.335	77.88
364.562	81.88
364.788	88.88
365.015	79.88
365.241	66.88
365.468	87.88
365.694	81.88
365.92	85.88
366.147	87.88
366.373	77.88
366.599	69.88
366.826	83.88
367.052	71.88
367.278	86.88
367.505	80.88
367.731	82.88
367.957	80.88
368.184	87.88
368.41	74.88
368.636	95.88
368.862	102.88
369.089	84.88
369.315	74.88
369.541	78.88
369.767	91.88
369.993	97.88
370.219	91.88
370.445	83.88
370.672	88.88
370.898	80.88
371.124	101.88
371.35	97.88
371.576	94.88
371.802	77.88
372.028	81.88
372.254	97.88
372.48	83.88
372.706	90.88
372.932	88.88
373.158	76.88
373.384	95.88
373.61	103.88
373.835	99.88
374.061	91.88
374.287	80.88
374.513	87.88
374.739	85.88
374.965	80.88
375.191	96.88
375.416	108.88
375.642	83.88
375.868	82.88
376.094	73.88
376.319	84.88
376.545	84.88
376.771	83.88
376.997	79.88
377.222	68.88
377.448	113.88
377.674	86.88
377.899	94.88
378.125	101.88
378.35	101.88
378.576	89.88
378.802	72.88
379.027	76.88
379.253	96.88
379.478	94.88
379.704	94.88
379.929	86.88
380.155	85.88
380.38	84.88
380.606	91.88
380.831	99.88
381.057	105.88
381.282	110.88
381.507	99.88
381.733	86.88
381.958	84.88
382.184	108.88
382.409	82.88
382.634	87.88
382.86	92.88
383.085	98.88
383.31	108.88
383.535	98.88
383.761	84.88
383.986	98.88
384.211	88.88
384.436	101.88
384.662	87.88
384.887	102.88
385.112	97.88
385.337	104.88
385.562	84.88
385.787	96.88
386.013	98.88
386.238	100.88
386.463	90.88
386.688	93.88
386.913	100.88
387.138	90.88
387.363	108.88
387.588	109.88
387.813	111.88
388.038	94.88
388.263	99.88
388.488	87.88
388.713	93.88
388.938	107.88
389.163	84.88
389.387	78.88
389.612	96.88
389.837	89.88
390.062	101.88
390.287	109.88
390.512	102.88
390.736	104.88
390.961	101.88
391.186	90.88
391.411	96.88
391.636	92.88
391.86	86.88
392.085	108.88
392.31	98.88
392.534	102.88
392.759	104.88
392.984	103.88
393.208	114.88
393.433	101.88
393.658	103.88
393.882	102.88
394.107	103.88
394.331	105.88
394.556	88.88
394.78	101.88
395.005	97.88
395.229	116.88
395.454	103.88
395.678	110.88
395.903	99.88
396.127	92.88
396.352	99.88
396.576	94.88
396.801	97.88
397.025	98.88
397.249	111.88
397.474	90.88
397.698	108.88
397.922	116.88
398.147	109.88
398.371	97.88
398.595	91.88
398.82	96.88
399.044	99.88
399.268	103.88
399.492	114.88
399.717	110.88
399.941	116.88
400.165	102.88
400.389	95.88
400.613	121.88
400.837	107.88
401.062	108.88
401.286	110.88
401.51	104.88
401.734	109.88
401.958	101.88
402.182	116.88
402.406	111.88
402.63	108.88
402.854	118.88
403.078	111.88
403.302	104.88
403.526	111.88
403.75	120.88
403.974	104.88
404.198	106.88
404.422	119.88
404.645	122.88
404.869	108.88
405.093	115.88
405.317	95.88
405.541	120.88
405.765	113.88
405.988	121.88
406.212	116.88
406.436	97.88
406.66	120.88
406.883	112.88
407.107	115.88
407.331	105.88
407.555	116.88
407.778	112.88
408.002	110.88
408.226	118.88
408.449	124.88
408.673	128.88
408.896	116.88
409.12	112.88
409.344	116.88
409.567	128.88
409.791	117.88
410.014	116.88
410.238	112.88
410.461	119.88
410.685	113.88
410.908	112.88
411.132	116.88
411.355	120.88
411.578	125.88
411.802	136.88
412.025	115.88
412.249	122.88
412.472	117.88
412.695	134.88
412.919	123.88
413.142	130.88
413.365	110.88
413.589	123.88
413.812	109.88
414.035	98.88
414.258	121.88
414.482	119.88
414.705	114.88
414.928	120.88
415.151	116.88
415.374	110.88
415.597	120.88
415.821	127.88
416.044	114.88
416.267	118.88
416.49	128.88
416.713	122.88
416.936	115.88
417.159	118.88
417.382	136.88
417.605	122.88
417.828	130.88
418.051	122.88
418.274	112.88
418.497	128.88
418.72	127.88
418.943	120.88
419.166	129.88
419.389	120.88
419.611	118.88
419.834	128.88
420.057	117.88
420.28	128.88
420.503	122.88
420.726	114.88
420.948	120.88
421.171	145.88
421.394	145.88
421.617	141.88
421.839	144.88
422.062	135.88
422.285	126.88
422.507	122.88
422.73	120.88
422.953	133.88
423.175	124.88
423.398	122.88
423.621	136.88
423.843	127.88
424.066	129.88
424.288	133.88
424.511	138.88
424.733	144.88
424.956	147.88
425.178	137.88
425.401	126.88
425.623	146.88
425.846	132.88
426.068	144.88
426.291	135.88
426.513	141.88
426.735	124.88
426.958	122.88
427.18	124.88
427.402	138.88
427.625	145.88
427.847	128.88
428.069	126.88
428.292	129.88
428.514	134.88
428.736	120.88
428.958	119.88
429.181	127.88
429.403	129.88
429.625	113.88
429.847	117.88
430.069	132.88
430.292	124.88
430.514	137.88
430.736	124.88
430.958	121.88
431.18	134.88
431.402	131.88
431.624	112.88
431.846	97.88
432.068	104.88
432.29	93.88
432.512	95.88
432.734	111.88
432.956	118.88
433.178	132.88
433.4	128.88
433.622	133.88
433.844	134.88
434.066	123.88
434.287	112.88
434.509	89.88
434.731	105.88
434.953	101.88
435.175	123.88
435.397	136.88
435.618	136.88
435.84	108.88
436.062	97.88
436.284	118.88
436.505	128.88
436.727	120.88
436.949	121.88
437.17	127.88
437.392	106.88
437.614	126.88
437.835	105.88
438.057	98.88
438.278	113.88
438.5	114.88
438.721	126.88
438.943	126.88
439.165	142.88
439.386	143.88
439.608	149.88
439.829	144.88
440.05	134.88
440.272	140.88
440.493	137.88
440.715	138.88
440.936	128.88
441.158	135.88
441.379	135.88
441.6	146.88
441.822	139.88
442.043	151.88
442.264	128.88
442.486	126.88
442.707	135.88
442.928	149.88
443.149	142.88
443.371	134.88
443.592	142.88
443.813	133.88
444.034	148.88
444.255	140.88
444.476	132.88
444.698	124.88
444.919	128.88
445.14	274.88
445.361	213.88
445.582	134.88
445.803	136.88
446.024	141.88
446.245	146.88
446.466	137.88
446.687	150.88
446.908	144.88
447.129	136.88
447.35	150.88
447.571	160.88
447.792	138.88
448.013	132.88
448.234	136.88
448.455	135.88
448.675	145.88
448.896	134.88
449.117	155.88
449.338	126.88
449.559	148.88
449.779	131.88
450	126.88
450.221	133.88
450.442	131.88
450.662	122.88
450.883	122.88
451.104	142.88
451.324	126.88
451.545	128.88
451.766	128.88
451.986	138.88
452.207	132.88
452.428	119.88
452.648	120.88
452.869	104.88
453.089	110.88
453.31	108.88
453.53	87.88
453.751	108.88
453.971	92.88
454.192	85.88
454.412	96.88
454.633	110.88
454.853	113.88
455.073	122.88
455.294	118.88
455.514	120.88
455.734	103.88
455.955	122.88
456.175	116.88
456.395	113.88
456.616	118.88
456.836	107.88
457.056	108.88
457.276	101.88
457.497	112.88
457.717	100.88
457.937	102.88
458.157	110.88
458.377	92.88
458.598	94.88
458.818	87.88
459.038	96.88
459.258	89.88
459.478	77.88
459.698	93.88
459.918	84.88
460.138	114.88
460.358	96.88
460.578	97.88
460.798	117.88
461.018	115.88
461.238	115.88
461.458	108.88
461.678	120.88
461.898	116.88
462.118	113.88
462.338	114.88
462.558	117.88
462.777	103.88
462.997	128.88
463.217	98.88
463.437	104.88
463.657	104.88
463.876	106.88
464.096	106.88
464.316	93.88
464.536	103.88
464.755	101.88
464.975	129.88
465.195	104.88
465.414	108.88
465.634	122.88
465.854	121.88
466.073	118.88
466.293	119.88
466.512	114.88
466.732	121.88
466.951	112.88
467.171	129.88
467.391	148.88
467.61	120.88
467.829	127.88
468.049	131.88
468.268	129.88
468.488	133.88
468.707	141.88
468.927	139.88
469.146	139.88
469.365	136.88
469.585	131.88
469.804	133.88
470.023	155.88
470.243	138.88
470.462	128.88
470.681	133.88
470.901	135.88
471.12	152.88
471.339	132.88
471.558	144.88
471.777	157.88
471.997	146.88
472.216	137.88
472.435	124.88
472.654	117.88
472.873	95.88
473.092	120.88
473.311	122.88
473.53	118.88
473.749	141.88
473.968	112.88
474.187	125.88
474.406	113.88
474.625	124.88
474.844	128.88
475.063	133.88
475.282	128.88
475.501	114.88
475.72	120.88
475.939	129.88
476.158	122.88
476.377	122.88
476.596	117.88
476.814	104.88
477.033	98.88
477.252	105.88
477.471	117.88
477.69	119.88
477.908	147.88
478.127	135.88
478.346	139.88
478.564	124.88
478.783	144.88
479.002	120.88
479.22	131.88
479.439	130.88
479.658	110.88
479.876	117.88
480.095	116.88
480.313	120.88
480.532	104.88
480.751	111.88
480.969	101.88
481.188	108.88
481.406	93.88
481.624	76.88
481.843	82.88
482.061	98.88
482.28	105.88
482.498	118.88
482.717	110.88
482.935	118.88
483.153	138.88
483.372	141.88
483.59	136.88
483.808	130.88
484.027	136.88
484.245	138.88
484.463	142.88
484.681	158.88
484.9	146.88
485.118	123.88
485.336	126.88
485.554	105.88
485.772	93.88
485.99	103.88
486.209	85.88
486.427	103.88
486.645	117.88
486.863	131.88
487.081	134.88
487.299	130.88
487.517	137.88
487.735	153.88
487.953	164.88
488.171	176.88
488.389	169.88
488.607	167.88
488.825	142.88
489.043	130.88
489.261	136.88
489.479	144.88
489.696	143.88
489.914	136.88
490.132	132.88
490.35	139.88
490.568	170.88
490.786	175.88
491.003	175.88
491.221	177.88
491.439	182.88
491.657	191.88
491.874	196.88
492.092	205.88
492.31	239.88
492.527	225.88
492.745	196.88
492.963	178.88
493.18	188.88
493.398	177.88
493.615	180.88
493.833	177.88
494.05	166.88
494.268	160.88
494.485	174.88
494.703	162.88
494.92	158.88
495.138	172.88
495.355	168.88
495.573	153.88
495.79	158.88
496.008	169.88
496.225	159.88
496.442	155.88
496.66	160.88
496.877	160.88
497.094	157.88
497.312	167.88
497.529	172.88
497.746	164.88
497.963	141.88
498.181	124.88
498.398	123.88
498.615	117.88
498.832	134.88
499.049	119.88
499.267	112.88
499.484	130.88
499.701	130.88
499.918	143.88
500.135	139.88
500.352	127.88
500.569	149.88
500.786	130.88
501.003	124.88
501.22	143.88
501.437	135.88
501.654	134.88
501.871	124.88
502.088	120.88
502.305	146.88
502.522	117.88
502.739	135.88
502.956	123.88
503.172	120.88
503.389	116.88
503.606	117.88
503.823	130.88
504.04	112.88
504.256	118.88
504.473	116.88
504.69	109.88
504.907	116.88
505.123	105.88
505.34	116.88
505.557	129.88
505.773	111.88
505.99	114.88
506.207	120.88
506.423	114.88
506.64	105.88
506.856	122.88
507.073	114.88
507.289	114.88
507.506	120.88
507.722	111.88
507.939	96.88
508.155	114.88
508.372	113.88
508.588	114.88
508.805	110.88
509.021	102.88
509.238	93.88
509.454	107.88
509.67	102.88
509.887	90.88
510.103	96.88
510.319	83.88
510.536	78.88
510.752	84.88
510.968	93.88
511.184	77.88
511.401	89.88
511.617	84.88
511.833	89.88
512.049	93.88
