Data from Location2.07152019.Energy5.Lamp.07192019.3%Agarose_HRD10591_14-57-23-359.txt Node
Date: Fri Jul 19 14:57:23 EDT 2019
User: cochatt
Spectrometer: HR+D1059
Trigger mode: 1
Integration Time (sec): 1.000000E-1
Scans to average: 1
Electric dark correction enabled: true
Nonlinearity correction enabled: false
Boxcar width: 0
XAxis mode: Wavelengths
Number of Pixels in Spectrum: 2048
>>>>>Begin Spectral Data<<<<<
223.165	-7.25
223.4	-7.25
223.635	-7.25
223.869	-34.25
224.104	-36.25
224.338	-11.25
224.573	1.75
224.808	-7.25
225.042	0.75
225.277	-9.25
225.511	8.75
225.746	-11.25
225.98	6.75
226.215	31.75
226.449	12.75
226.683	6.75
226.918	25.75
227.152	21.75
227.387	32.75
227.621	40.75
227.856	45.75
228.09	40.75
228.324	40.75
228.559	62.75
228.793	59.75
229.027	43.75
229.262	68.75
229.496	52.75
229.73	69.75
229.964	63.75
230.199	68.75
230.433	60.75
230.667	54.75
230.901	80.75
231.136	76.75
231.37	70.75
231.604	85.75
231.838	77.75
232.072	94.75
232.306	69.75
232.541	82.75
232.775	82.75
233.009	81.75
233.243	76.75
233.477	71.75
233.711	87.75
233.945	72.75
234.179	82.75
234.413	72.75
234.647	72.75
234.881	70.75
235.115	77.75
235.349	90.75
235.583	72.75
235.817	73.75
236.051	79.75
236.285	83.75
236.519	90.75
236.753	82.75
236.987	72.75
237.221	68.75
237.455	62.75
237.689	68.75
237.922	77.75
238.156	74.75
238.39	73.75
238.624	78.75
238.858	69.75
239.091	71.75
239.325	80.75
239.559	87.75
239.793	72.75
240.027	82.75
240.26	82.75
240.494	80.75
240.728	55.75
240.961	74.75
241.195	70.75
241.429	74.75
241.662	78.75
241.896	68.75
242.13	76.75
242.363	74.75
242.597	88.75
242.83	71.75
243.064	84.75
243.298	65.75
243.531	77.75
243.765	67.75
243.998	81.75
244.232	75.75
244.465	81.75
244.699	69.75
244.932	78.75
245.166	89.75
245.399	78.75
245.633	67.75
245.866	78.75
246.099	79.75
246.333	76.75
246.566	93.75
246.8	79.75
247.033	87.75
247.266	77.75
247.5	88.75
247.733	66.75
247.966	75.75
248.2	85.75
248.433	78.75
248.666	83.75
248.899	81.75
249.133	78.75
249.366	89.75
249.599	74.75
249.832	70.75
250.066	76.75
250.299	71.75
250.532	74.75
250.765	72.75
250.998	77.75
251.231	78.75
251.465	82.75
251.698	61.75
251.931	67.75
252.164	74.75
252.397	79.75
252.63	87.75
252.863	73.75
253.096	84.75
253.329	82.75
253.562	85.75
253.795	81.75
254.028	71.75
254.261	73.75
254.494	79.75
254.727	64.75
254.96	78.75
255.193	91.75
255.426	71.75
255.659	81.75
255.892	88.75
256.124	76.75
256.357	74.75
256.59	73.75
256.823	89.75
257.056	78.75
257.289	84.75
257.521	71.75
257.754	73.75
257.987	82.75
258.22	95.75
258.452	87.75
258.685	85.75
258.918	77.75
259.151	65.75
259.383	88.75
259.616	57.75
259.849	88.75
260.081	66.75
260.314	88.75
260.547	79.75
260.779	70.75
261.012	72.75
261.244	80.75
261.477	81.75
261.71	94.75
261.942	81.75
262.175	80.75
262.407	94.75
262.64	76.75
262.872	74.75
263.105	76.75
263.337	72.75
263.57	87.75
263.802	90.75
264.035	79.75
264.267	72.75
264.499	72.75
264.732	78.75
264.964	77.75
265.197	78.75
265.429	81.75
265.661	71.75
265.894	78.75
266.126	75.75
266.358	68.75
266.591	86.75
266.823	71.75
267.055	69.75
267.287	88.75
267.52	84.75
267.752	68.75
267.984	94.75
268.216	71.75
268.448	92.75
268.681	77.75
268.913	75.75
269.145	97.75
269.377	83.75
269.609	71.75
269.841	87.75
270.073	71.75
270.306	93.75
270.538	74.75
270.77	68.75
271.002	78.75
271.234	92.75
271.466	61.75
271.698	72.75
271.93	87.75
272.162	85.75
272.394	89.75
272.626	87.75
272.858	95.75
273.09	87.75
273.322	80.75
273.553	85.75
273.785	88.75
274.017	73.75
274.249	72.75
274.481	89.75
274.713	73.75
274.945	82.75
275.176	83.75
275.408	81.75
275.64	77.75
275.872	74.75
276.104	72.75
276.335	80.75
276.567	81.75
276.799	88.75
277.031	84.75
277.262	84.75
277.494	85.75
277.726	73.75
277.957	85.75
278.189	84.75
278.421	86.75
278.652	83.75
278.884	73.75
279.115	78.75
279.347	81.75
279.579	84.75
279.81	81.75
280.042	78.75
280.273	75.75
280.505	73.75
280.736	75.75
280.968	72.75
281.199	81.75
281.431	89.75
281.662	73.75
281.894	77.75
282.125	80.75
282.356	95.75
282.588	80.75
282.819	79.75
283.051	85.75
283.282	83.75
283.513	89.75
283.745	78.75
283.976	69.75
284.207	78.75
284.439	95.75
284.67	77.75
284.901	82.75
285.132	74.75
285.364	76.75
285.595	87.75
285.826	98.75
286.057	84.75
286.288	92.75
286.52	81.75
286.751	84.75
286.982	97.75
287.213	81.75
287.444	79.75
287.675	80.75
287.906	83.75
288.138	86.75
288.369	81.75
288.6	95.75
288.831	85.75
289.062	88.75
289.293	88.75
289.524	90.75
289.755	81.75
289.986	77.75
290.217	77.75
290.448	82.75
290.679	86.75
290.91	73.75
291.141	93.75
291.371	88.75
291.602	90.75
291.833	60.75
292.064	68.75
292.295	78.75
292.526	71.75
292.757	78.75
292.987	76.75
293.218	77.75
293.449	97.75
293.68	94.75
293.91	68.75
294.141	89.75
294.372	94.75
294.603	87.75
294.833	84.75
295.064	79.75
295.295	89.75
295.525	68.75
295.756	93.75
295.987	79.75
296.217	76.75
296.448	68.75
296.679	78.75
296.909	80.75
297.14	91.75
297.37	79.75
297.601	89.75
297.831	82.75
298.062	92.75
298.292	81.75
298.523	89.75
298.753	86.75
298.984	81.75
299.214	82.75
299.445	74.75
299.675	85.75
299.905	75.75
300.136	81.75
300.366	83.75
300.597	87.75
300.827	94.75
301.057	71.75
301.288	77.75
301.518	84.75
301.748	87.75
301.979	80.75
302.209	82.75
302.439	94.75
302.669	88.75
302.9	84.75
303.13	89.75
303.36	74.75
303.59	84.75
303.82	89.75
304.051	87.75
304.281	93.75
304.511	86.75
304.741	82.75
304.971	93.75
305.201	84.75
305.431	86.75
305.661	86.75
305.891	85.75
306.121	84.75
306.352	100.75
306.582	89.75
306.812	78.75
307.042	97.75
307.272	95.75
307.502	68.75
307.731	74.75
307.961	85.75
308.191	76.75
308.421	87.75
308.651	85.75
308.881	87.75
309.111	83.75
309.341	85.75
309.571	69.75
309.8	74.75
310.03	65.75
310.26	79.75
310.49	85.75
310.72	67.75
310.949	76.75
311.179	93.75
311.409	75.75
311.639	92.75
311.868	78.75
312.098	88.75
312.328	90.75
312.557	67.75
312.787	91.75
313.017	70.75
313.246	86.75
313.476	107.75
313.706	72.75
313.935	90.75
314.165	89.75
314.394	76.75
314.624	66.75
314.853	83.75
315.083	84.75
315.312	82.75
315.542	80.75
315.771	81.75
316.001	79.75
316.23	73.75
316.46	74.75
316.689	79.75
316.919	91.75
317.148	56.75
317.377	75.75
317.607	77.75
317.836	86.75
318.065	80.75
318.295	86.75
318.524	79.75
318.753	83.75
318.983	57.75
319.212	83.75
319.441	89.75
319.67	82.75
319.9	81.75
320.129	93.75
320.358	76.75
320.587	81.75
320.816	94.75
321.046	93.75
321.275	79.75
321.504	87.75
321.733	76.75
321.962	88.75
322.191	66.75
322.42	86.75
322.649	85.75
322.878	81.75
323.108	86.75
323.337	87.75
323.566	87.75
323.795	81.75
324.024	68.75
324.253	84.75
324.482	78.75
324.71	74.75
324.939	86.75
325.168	85.75
325.397	83.75
325.626	83.75
325.855	81.75
326.084	79.75
326.313	82.75
326.542	81.75
326.77	69.75
326.999	78.75
327.228	92.75
327.457	75.75
327.686	84.75
327.914	82.75
328.143	101.75
328.372	73.75
328.6	81.75
328.829	81.75
329.058	89.75
329.287	84.75
329.515	91.75
329.744	89.75
329.972	77.75
330.201	88.75
330.43	85.75
330.658	70.75
330.887	73.75
331.115	84.75
331.344	82.75
331.572	80.75
331.801	82.75
332.03	90.75
332.258	77.75
332.486	88.75
332.715	90.75
332.943	91.75
333.172	79.75
333.4	79.75
333.629	80.75
333.857	87.75
334.085	73.75
334.314	84.75
334.542	93.75
334.771	73.75
334.999	77.75
335.227	92.75
335.455	82.75
335.684	88.75
335.912	92.75
336.14	81.75
336.369	87.75
336.597	67.75
336.825	73.75
337.053	83.75
337.281	80.75
337.51	72.75
337.738	81.75
337.966	83.75
338.194	77.75
338.422	82.75
338.65	79.75
338.878	75.75
339.106	86.75
339.334	81.75
339.562	74.75
339.79	76.75
340.018	94.75
340.246	86.75
340.474	83.75
340.702	92.75
340.93	80.75
341.158	85.75
341.386	65.75
341.614	78.75
341.842	88.75
342.07	80.75
342.298	85.75
342.526	77.75
342.754	92.75
342.981	82.75
343.209	80.75
343.437	78.75
343.665	79.75
343.893	90.75
344.12	100.75
344.348	96.75
344.576	81.75
344.804	74.75
345.031	89.75
345.259	85.75
345.487	80.75
345.714	89.75
345.942	70.75
346.17	99.75
346.397	84.75
346.625	74.75
346.853	72.75
347.08	88.75
347.308	88.75
347.535	86.75
347.763	69.75
347.99	86.75
348.218	74.75
348.445	81.75
348.673	90.75
348.9	80.75
349.128	78.75
349.355	84.75
349.583	87.75
349.81	85.75
350.037	64.75
350.265	94.75
350.492	86.75
350.72	81.75
350.947	79.75
351.174	82.75
351.402	70.75
351.629	89.75
351.856	82.75
352.083	74.75
352.311	89.75
352.538	72.75
352.765	85.75
352.992	82.75
353.22	87.75
353.447	78.75
353.674	89.75
353.901	84.75
354.128	93.75
354.355	88.75
354.583	99.75
354.81	81.75
355.037	87.75
355.264	83.75
355.491	93.75
355.718	77.75
355.945	83.75
356.172	88.75
356.399	89.75
356.626	82.75
356.853	78.75
357.08	81.75
357.307	83.75
357.534	76.75
357.761	82.75
357.988	67.75
358.215	95.75
358.441	64.75
358.668	87.75
358.895	76.75
359.122	90.75
359.349	77.75
359.576	87.75
359.802	70.75
360.029	86.75
360.256	90.75
360.483	70.75
360.709	78.75
360.936	77.75
361.163	66.75
361.39	81.75
361.616	83.75
361.843	77.75
362.07	87.75
362.296	102.75
362.523	99.75
362.749	88.75
362.976	80.75
363.203	81.75
363.429	74.75
363.656	88.75
363.882	77.75
364.109	81.75
364.335	78.75
364.562	86.75
364.788	79.75
365.015	82.75
365.241	85.75
365.468	78.75
365.694	76.75
365.92	78.75
366.147	82.75
366.373	77.75
366.599	93.75
366.826	83.75
367.052	88.75
367.278	83.75
367.505	95.75
367.731	95.75
367.957	93.75
368.184	90.75
368.41	88.75
368.636	85.75
368.862	87.75
369.089	81.75
369.315	74.75
369.541	82.75
369.767	95.75
369.993	90.75
370.219	82.75
370.445	90.75
370.672	94.75
370.898	86.75
371.124	75.75
371.35	85.75
371.576	85.75
371.802	85.75
372.028	91.75
372.254	94.75
372.48	95.75
372.706	100.75
372.932	86.75
373.158	92.75
373.384	68.75
373.61	93.75
373.835	92.75
374.061	90.75
374.287	99.75
374.513	77.75
374.739	100.75
374.965	88.75
375.191	93.75
375.416	88.75
375.642	92.75
375.868	85.75
376.094	101.75
376.319	101.75
376.545	79.75
376.771	90.75
376.997	87.75
377.222	101.75
377.448	93.75
377.674	88.75
377.899	92.75
378.125	96.75
378.35	92.75
378.576	94.75
378.802	80.75
379.027	84.75
379.253	89.75
379.478	82.75
379.704	88.75
379.929	94.75
380.155	85.75
380.38	90.75
380.606	86.75
380.831	87.75
381.057	97.75
381.282	88.75
381.507	91.75
381.733	98.75
381.958	108.75
382.184	88.75
382.409	82.75
382.634	88.75
382.86	96.75
383.085	102.75
383.31	90.75
383.535	107.75
383.761	100.75
383.986	90.75
384.211	75.75
384.436	86.75
384.662	81.75
384.887	100.75
385.112	109.75
385.337	88.75
385.562	110.75
385.787	112.75
386.013	113.75
386.238	101.75
386.463	108.75
386.688	82.75
386.913	97.75
387.138	109.75
387.363	105.75
387.588	93.75
387.813	98.75
388.038	106.75
388.263	105.75
388.488	96.75
388.713	106.75
388.938	87.75
389.163	100.75
389.387	103.75
389.612	93.75
389.837	113.75
390.062	107.75
390.287	98.75
390.512	98.75
390.736	101.75
390.961	85.75
391.186	96.75
391.411	97.75
391.636	92.75
391.86	103.75
392.085	97.75
392.31	104.75
392.534	119.75
392.759	106.75
392.984	109.75
393.208	96.75
393.433	88.75
393.658	100.75
393.882	97.75
394.107	93.75
394.331	95.75
394.556	101.75
394.78	106.75
395.005	111.75
395.229	106.75
395.454	97.75
395.678	98.75
395.903	102.75
396.127	110.75
396.352	117.75
396.576	105.75
396.801	116.75
397.025	118.75
397.249	101.75
397.474	82.75
397.698	107.75
397.922	108.75
398.147	104.75
398.371	107.75
398.595	96.75
398.82	112.75
399.044	104.75
399.268	110.75
399.492	102.75
399.717	114.75
399.941	116.75
400.165	105.75
400.389	108.75
400.613	105.75
400.837	105.75
401.062	108.75
401.286	126.75
401.51	110.75
401.734	100.75
401.958	99.75
402.182	112.75
402.406	116.75
402.63	114.75
402.854	112.75
403.078	121.75
403.302	104.75
403.526	122.75
403.75	126.75
403.974	118.75
404.198	106.75
404.422	101.75
404.645	110.75
404.869	103.75
405.093	116.75
405.317	117.75
405.541	104.75
405.765	111.75
405.988	117.75
406.212	124.75
406.436	132.75
406.66	122.75
406.883	121.75
407.107	96.75
407.331	116.75
407.555	109.75
407.778	119.75
408.002	131.75
408.226	112.75
408.449	99.75
408.673	102.75
408.896	130.75
409.12	112.75
409.344	118.75
409.567	119.75
409.791	125.75
410.014	108.75
410.238	120.75
410.461	128.75
410.685	124.75
410.908	116.75
411.132	122.75
411.355	114.75
411.578	132.75
411.802	118.75
412.025	117.75
412.249	109.75
412.472	120.75
412.695	117.75
412.919	120.75
413.142	109.75
413.365	119.75
413.589	110.75
413.812	111.75
414.035	129.75
414.258	123.75
414.482	113.75
414.705	110.75
414.928	132.75
415.151	114.75
415.374	126.75
415.597	125.75
415.821	136.75
416.044	115.75
416.267	129.75
416.49	125.75
416.713	124.75
416.936	131.75
417.159	138.75
417.382	130.75
417.605	114.75
417.828	123.75
418.051	125.75
418.274	127.75
418.497	132.75
418.72	120.75
418.943	117.75
419.166	122.75
419.389	131.75
419.611	138.75
419.834	118.75
420.057	125.75
420.28	128.75
420.503	126.75
420.726	120.75
420.948	140.75
421.171	128.75
421.394	126.75
421.617	139.75
421.839	139.75
422.062	142.75
422.285	131.75
422.507	116.75
422.73	120.75
422.953	117.75
423.175	121.75
423.398	133.75
423.621	121.75
423.843	126.75
424.066	128.75
424.288	145.75
424.511	130.75
424.733	146.75
424.956	134.75
425.178	135.75
425.401	145.75
425.623	129.75
425.846	139.75
426.068	128.75
426.291	110.75
426.513	116.75
426.735	130.75
426.958	138.75
427.18	127.75
427.402	123.75
427.625	120.75
427.847	125.75
428.069	126.75
428.292	129.75
428.514	120.75
428.736	133.75
428.958	133.75
429.181	136.75
429.403	125.75
429.625	127.75
429.847	126.75
430.069	113.75
430.292	120.75
430.514	126.75
430.736	126.75
430.958	133.75
431.18	134.75
431.402	106.75
431.624	127.75
431.846	97.75
432.068	98.75
432.29	92.75
432.512	118.75
432.734	115.75
432.956	131.75
433.178	124.75
433.4	134.75
433.622	135.75
433.844	119.75
434.066	118.75
434.287	113.75
434.509	105.75
434.731	111.75
434.953	121.75
435.175	105.75
435.397	119.75
435.618	96.75
435.84	117.75
436.062	118.75
436.284	117.75
436.505	137.75
436.727	132.75
436.949	137.75
437.17	136.75
437.392	116.75
437.614	124.75
437.835	111.75
438.057	104.75
438.278	100.75
438.5	114.75
438.721	138.75
438.943	121.75
439.165	132.75
439.386	137.75
439.608	136.75
439.829	145.75
440.05	138.75
440.272	129.75
440.493	149.75
440.715	136.75
440.936	131.75
441.158	131.75
441.379	143.75
441.6	144.75
441.822	136.75
442.043	136.75
442.264	134.75
442.486	132.75
442.707	138.75
442.928	123.75
443.149	166.75
443.371	148.75
443.592	146.75
443.813	138.75
444.034	142.75
444.255	138.75
444.476	131.75
444.698	149.75
444.919	130.75
445.14	270.75
445.361	209.75
445.582	144.75
445.803	133.75
446.024	138.75
446.245	144.75
446.466	160.75
446.687	149.75
446.908	144.75
447.129	156.75
447.35	159.75
447.571	156.75
447.792	151.75
448.013	144.75
448.234	132.75
448.455	118.75
448.675	136.75
448.896	136.75
449.117	121.75
449.338	125.75
449.559	136.75
449.779	134.75
450	133.75
450.221	125.75
450.442	117.75
450.662	147.75
450.883	127.75
451.104	134.75
451.324	141.75
451.545	122.75
451.766	118.75
451.986	118.75
452.207	127.75
452.428	133.75
452.648	126.75
452.869	120.75
453.089	119.75
453.31	102.75
453.53	101.75
453.751	94.75
453.971	98.75
454.192	111.75
454.412	105.75
454.633	128.75
454.853	116.75
455.073	116.75
455.294	118.75
455.514	105.75
455.734	102.75
455.955	116.75
456.175	121.75
456.395	118.75
456.616	118.75
456.836	95.75
457.056	112.75
457.276	106.75
457.497	102.75
457.717	104.75
457.937	83.75
458.157	105.75
458.377	103.75
458.598	94.75
458.818	90.75
459.038	100.75
459.258	84.75
459.478	90.75
459.698	88.75
459.918	87.75
460.138	101.75
460.358	111.75
460.578	108.75
460.798	113.75
461.018	105.75
461.238	110.75
461.458	110.75
461.678	112.75
461.898	130.75
462.118	118.75
462.338	117.75
462.558	113.75
462.777	116.75
462.997	118.75
463.217	97.75
463.437	101.75
463.657	99.75
463.876	111.75
464.096	110.75
464.316	103.75
464.536	97.75
464.755	108.75
464.975	99.75
465.195	112.75
465.414	110.75
465.634	126.75
465.854	113.75
466.073	107.75
466.293	111.75
466.512	118.75
466.732	121.75
466.951	120.75
467.171	129.75
467.391	120.75
467.61	120.75
467.829	137.75
468.049	126.75
468.268	136.75
468.488	117.75
468.707	120.75
468.927	126.75
469.146	142.75
469.365	128.75
469.585	131.75
469.804	138.75
470.023	133.75
470.243	146.75
470.462	138.75
470.681	130.75
470.901	140.75
471.12	128.75
471.339	142.75
471.558	140.75
471.777	148.75
471.997	136.75
472.216	132.75
472.435	101.75
472.654	104.75
472.873	106.75
473.092	117.75
473.311	121.75
473.53	118.75
473.749	125.75
473.968	138.75
474.187	134.75
474.406	119.75
474.625	124.75
474.844	120.75
475.063	119.75
475.282	128.75
475.501	111.75
475.72	131.75
475.939	129.75
476.158	108.75
476.377	139.75
476.596	121.75
476.814	112.75
477.033	93.75
477.252	116.75
477.471	118.75
477.69	133.75
477.908	145.75
478.127	134.75
478.346	132.75
478.564	128.75
478.783	114.75
479.002	137.75
479.22	134.75
479.439	130.75
479.658	124.75
479.876	126.75
480.095	117.75
480.313	105.75
480.532	114.75
480.751	101.75
480.969	94.75
481.188	86.75
481.406	82.75
481.624	82.75
481.843	80.75
482.061	85.75
482.28	110.75
482.498	115.75
482.717	101.75
482.935	116.75
483.153	143.75
483.372	141.75
483.59	142.75
483.808	133.75
484.027	128.75
484.245	122.75
484.463	149.75
484.681	152.75
484.9	132.75
485.118	126.75
485.336	136.75
485.554	112.75
485.772	91.75
485.99	104.75
486.209	112.75
486.427	124.75
486.645	115.75
486.863	148.75
487.081	144.75
487.299	136.75
487.517	133.75
487.735	159.75
487.953	184.75
488.171	184.75
488.389	169.75
488.607	144.75
488.825	151.75
489.043	142.75
489.261	130.75
489.479	133.75
489.696	148.75
489.914	121.75
490.132	142.75
490.35	160.75
490.568	159.75
490.786	162.75
491.003	169.75
491.221	183.75
491.439	184.75
491.657	177.75
491.874	210.75
492.092	216.75
492.31	220.75
492.527	216.75
492.745	214.75
492.963	176.75
493.18	180.75
493.398	175.75
493.615	176.75
493.833	181.75
494.05	181.75
494.268	174.75
494.485	173.75
494.703	171.75
494.92	178.75
495.138	156.75
495.355	174.75
495.573	166.75
495.79	169.75
496.008	161.75
496.225	172.75
496.442	168.75
496.66	165.75
496.877	168.75
497.094	158.75
497.312	159.75
497.529	164.75
497.746	154.75
497.963	120.75
498.181	134.75
498.398	122.75
498.615	104.75
498.832	119.75
499.049	112.75
499.267	118.75
499.484	125.75
499.701	118.75
499.918	136.75
500.135	134.75
500.352	143.75
500.569	144.75
500.786	133.75
501.003	150.75
501.22	155.75
501.437	133.75
501.654	152.75
501.871	132.75
502.088	108.75
502.305	110.75
502.522	125.75
502.739	134.75
502.956	135.75
503.172	135.75
503.389	119.75
503.606	107.75
503.823	126.75
504.04	121.75
504.256	129.75
504.473	98.75
504.69	132.75
504.907	120.75
505.123	112.75
505.34	112.75
505.557	117.75
505.773	118.75
505.99	112.75
506.207	133.75
506.423	112.75
506.64	111.75
506.856	121.75
507.073	100.75
507.289	118.75
507.506	135.75
507.722	121.75
507.939	122.75
508.155	124.75
508.372	124.75
508.588	132.75
508.805	111.75
509.021	110.75
509.238	106.75
509.454	98.75
509.67	98.75
509.887	91.75
510.103	87.75
510.319	97.75
510.536	90.75
510.752	83.75
510.968	80.75
511.184	80.75
511.401	93.75
511.617	88.75
511.833	76.75
512.049	76.75
