Data from Location2.07152019.Energy5.Lamp.07192019.3%Agarose_HRD10591_14-56-29-358.txt Node
Date: Fri Jul 19 14:56:29 EDT 2019
User: cochatt
Spectrometer: HR+D1059
Trigger mode: 1
Integration Time (sec): 1.000000E-1
Scans to average: 1
Electric dark correction enabled: true
Nonlinearity correction enabled: false
Boxcar width: 0
XAxis mode: Wavelengths
Number of Pixels in Spectrum: 2048
>>>>>Begin Spectral Data<<<<<
223.165	-11.06
223.4	-11.06
223.635	-11.06
223.869	-10.06
224.104	-31.06
224.338	-12.06
224.573	-13.06
224.808	-21.06
225.042	-10.06
225.277	-2.06
225.511	-14.06
225.746	0.94
225.98	-8.06
226.215	19.94
226.449	27.94
226.683	19.94
226.918	34.94
227.152	28.94
227.387	40.94
227.621	27.94
227.856	46.94
228.09	52.94
228.324	56.94
228.559	53.94
228.793	61.94
229.027	67.94
229.262	71.94
229.496	60.94
229.73	65.94
229.964	69.94
230.199	80.94
230.433	84.94
230.667	91.94
230.901	61.94
231.136	77.94
231.37	75.94
231.604	74.94
231.838	76.94
232.072	75.94
232.306	85.94
232.541	82.94
232.775	81.94
233.009	85.94
233.243	82.94
233.477	82.94
233.711	91.94
233.945	72.94
234.179	92.94
234.413	88.94
234.647	84.94
234.881	75.94
235.115	87.94
235.349	80.94
235.583	85.94
235.817	73.94
236.051	85.94
236.285	74.94
236.519	73.94
236.753	75.94
236.987	75.94
237.221	75.94
237.455	72.94
237.689	82.94
237.922	70.94
238.156	72.94
238.39	70.94
238.624	76.94
238.858	82.94
239.091	77.94
239.325	79.94
239.559	84.94
239.793	81.94
240.027	96.94
240.26	69.94
240.494	65.94
240.728	69.94
240.961	70.94
241.195	81.94
241.429	91.94
241.662	76.94
241.896	69.94
242.13	80.94
242.363	63.94
242.597	83.94
242.83	76.94
243.064	68.94
243.298	77.94
243.531	64.94
243.765	70.94
243.998	75.94
244.232	72.94
244.465	70.94
244.699	81.94
244.932	79.94
245.166	81.94
245.399	89.94
245.633	77.94
245.866	91.94
246.099	74.94
246.333	68.94
246.566	70.94
246.8	88.94
247.033	87.94
247.266	84.94
247.5	81.94
247.733	74.94
247.966	86.94
248.2	85.94
248.433	74.94
248.666	73.94
248.899	91.94
249.133	76.94
249.366	80.94
249.599	95.94
249.832	82.94
250.066	82.94
250.299	85.94
250.532	81.94
250.765	83.94
250.998	64.94
251.231	64.94
251.465	86.94
251.698	70.94
251.931	86.94
252.164	98.94
252.397	77.94
252.63	76.94
252.863	88.94
253.096	85.94
253.329	83.94
253.562	80.94
253.795	93.94
254.028	79.94
254.261	77.94
254.494	89.94
254.727	69.94
254.96	71.94
255.193	89.94
255.426	90.94
255.659	80.94
255.892	89.94
256.124	72.94
256.357	81.94
256.59	73.94
256.823	83.94
257.056	77.94
257.289	90.94
257.521	89.94
257.754	87.94
257.987	70.94
258.22	73.94
258.452	79.94
258.685	77.94
258.918	80.94
259.151	85.94
259.383	80.94
259.616	76.94
259.849	88.94
260.081	76.94
260.314	73.94
260.547	90.94
260.779	79.94
261.012	79.94
261.244	77.94
261.477	92.94
261.71	83.94
261.942	96.94
262.175	80.94
262.407	68.94
262.64	88.94
262.872	84.94
263.105	90.94
263.337	92.94
263.57	73.94
263.802	90.94
264.035	88.94
264.267	98.94
264.499	72.94
264.732	78.94
264.964	81.94
265.197	68.94
265.429	82.94
265.661	83.94
265.894	83.94
266.126	92.94
266.358	79.94
266.591	70.94
266.823	70.94
267.055	78.94
267.287	89.94
267.52	79.94
267.752	82.94
267.984	76.94
268.216	84.94
268.448	81.94
268.681	92.94
268.913	75.94
269.145	90.94
269.377	93.94
269.609	80.94
269.841	69.94
270.073	87.94
270.306	83.94
270.538	90.94
270.77	87.94
271.002	81.94
271.234	79.94
271.466	74.94
271.698	88.94
271.93	86.94
272.162	74.94
272.394	77.94
272.626	89.94
272.858	80.94
273.09	98.94
273.322	87.94
273.553	79.94
273.785	85.94
274.017	75.94
274.249	72.94
274.481	73.94
274.713	82.94
274.945	71.94
275.176	73.94
275.408	84.94
275.64	88.94
275.872	88.94
276.104	94.94
276.335	81.94
276.567	87.94
276.799	75.94
277.031	77.94
277.262	90.94
277.494	74.94
277.726	97.94
277.957	81.94
278.189	85.94
278.421	86.94
278.652	84.94
278.884	88.94
279.115	80.94
279.347	81.94
279.579	75.94
279.81	76.94
280.042	81.94
280.273	82.94
280.505	80.94
280.736	84.94
280.968	81.94
281.199	91.94
281.431	81.94
281.662	79.94
281.894	81.94
282.125	81.94
282.356	70.94
282.588	81.94
282.819	82.94
283.051	84.94
283.282	85.94
283.513	87.94
283.745	80.94
283.976	85.94
284.207	95.94
284.439	79.94
284.67	88.94
284.901	87.94
285.132	81.94
285.364	97.94
285.595	96.94
285.826	87.94
286.057	80.94
286.288	74.94
286.52	92.94
286.751	83.94
286.982	75.94
287.213	77.94
287.444	89.94
287.675	76.94
287.906	85.94
288.138	91.94
288.369	80.94
288.6	92.94
288.831	82.94
289.062	67.94
289.293	88.94
289.524	85.94
289.755	78.94
289.986	80.94
290.217	80.94
290.448	83.94
290.679	85.94
290.91	78.94
291.141	87.94
291.371	93.94
291.602	76.94
291.833	85.94
292.064	78.94
292.295	93.94
292.526	80.94
292.757	90.94
292.987	83.94
293.218	83.94
293.449	82.94
293.68	90.94
293.91	92.94
294.141	88.94
294.372	76.94
294.603	102.94
294.833	81.94
295.064	83.94
295.295	81.94
295.525	92.94
295.756	80.94
295.987	97.94
296.217	76.94
296.448	92.94
296.679	92.94
296.909	85.94
297.14	89.94
297.37	100.94
297.601	80.94
297.831	92.94
298.062	97.94
298.292	84.94
298.523	94.94
298.753	83.94
298.984	90.94
299.214	93.94
299.445	87.94
299.675	91.94
299.905	88.94
300.136	83.94
300.366	93.94
300.597	80.94
300.827	95.94
301.057	80.94
301.288	95.94
301.518	82.94
301.748	75.94
301.979	87.94
302.209	86.94
302.439	72.94
302.669	76.94
302.9	87.94
303.13	80.94
303.36	83.94
303.59	90.94
303.82	92.94
304.051	97.94
304.281	92.94
304.511	89.94
304.741	81.94
304.971	81.94
305.201	100.94
305.431	81.94
305.661	74.94
305.891	85.94
306.121	79.94
306.352	81.94
306.582	78.94
306.812	81.94
307.042	84.94
307.272	83.94
307.502	81.94
307.731	77.94
307.961	97.94
308.191	75.94
308.421	82.94
308.651	83.94
308.881	92.94
309.111	95.94
309.341	80.94
309.571	85.94
309.8	84.94
310.03	80.94
310.26	90.94
310.49	88.94
310.72	95.94
310.949	93.94
311.179	85.94
311.409	76.94
311.639	74.94
311.868	95.94
312.098	76.94
312.328	79.94
312.557	85.94
312.787	82.94
313.017	99.94
313.246	72.94
313.476	74.94
313.706	83.94
313.935	79.94
314.165	87.94
314.394	94.94
314.624	89.94
314.853	72.94
315.083	87.94
315.312	70.94
315.542	75.94
315.771	97.94
316.001	88.94
316.23	76.94
316.46	79.94
316.689	87.94
316.919	71.94
317.148	102.94
317.377	75.94
317.607	87.94
317.836	80.94
318.065	84.94
318.295	95.94
318.524	83.94
318.753	82.94
318.983	91.94
319.212	90.94
319.441	81.94
319.67	74.94
319.9	69.94
320.129	77.94
320.358	82.94
320.587	90.94
320.816	90.94
321.046	91.94
321.275	95.94
321.504	80.94
321.733	86.94
321.962	69.94
322.191	85.94
322.42	92.94
322.649	88.94
322.878	93.94
323.108	89.94
323.337	89.94
323.566	92.94
323.795	76.94
324.024	74.94
324.253	76.94
324.482	74.94
324.71	77.94
324.939	79.94
325.168	86.94
325.397	73.94
325.626	77.94
325.855	83.94
326.084	83.94
326.313	79.94
326.542	92.94
326.77	81.94
326.999	86.94
327.228	88.94
327.457	79.94
327.686	96.94
327.914	95.94
328.143	89.94
328.372	83.94
328.6	76.94
328.829	83.94
329.058	79.94
329.287	91.94
329.515	85.94
329.744	92.94
329.972	91.94
330.201	77.94
330.43	92.94
330.658	87.94
330.887	80.94
331.115	86.94
331.344	91.94
331.572	104.94
331.801	81.94
332.03	86.94
332.258	82.94
332.486	88.94
332.715	77.94
332.943	88.94
333.172	84.94
333.4	83.94
333.629	81.94
333.857	88.94
334.085	81.94
334.314	85.94
334.542	78.94
334.771	88.94
334.999	83.94
335.227	93.94
335.455	98.94
335.684	91.94
335.912	85.94
336.14	89.94
336.369	78.94
336.597	84.94
336.825	85.94
337.053	72.94
337.281	75.94
337.51	84.94
337.738	84.94
337.966	78.94
338.194	86.94
338.422	84.94
338.65	75.94
338.878	82.94
339.106	97.94
339.334	85.94
339.562	100.94
339.79	82.94
340.018	84.94
340.246	89.94
340.474	87.94
340.702	91.94
340.93	86.94
341.158	88.94
341.386	91.94
341.614	75.94
341.842	87.94
342.07	91.94
342.298	80.94
342.526	77.94
342.754	73.94
342.981	86.94
343.209	83.94
343.437	76.94
343.665	88.94
343.893	74.94
344.12	79.94
344.348	85.94
344.576	67.94
344.804	76.94
345.031	93.94
345.259	76.94
345.487	86.94
345.714	89.94
345.942	87.94
346.17	80.94
346.397	66.94
346.625	84.94
346.853	83.94
347.08	93.94
347.308	90.94
347.535	71.94
347.763	93.94
347.99	89.94
348.218	69.94
348.445	75.94
348.673	80.94
348.9	101.94
349.128	96.94
349.355	87.94
349.583	89.94
349.81	94.94
350.037	78.94
350.265	84.94
350.492	79.94
350.72	86.94
350.947	83.94
351.174	86.94
351.402	77.94
351.629	85.94
351.856	81.94
352.083	72.94
352.311	63.94
352.538	85.94
352.765	79.94
352.992	82.94
353.22	87.94
353.447	79.94
353.674	99.94
353.901	76.94
354.128	77.94
354.355	82.94
354.583	79.94
354.81	86.94
355.037	74.94
355.264	97.94
355.491	58.94
355.718	67.94
355.945	84.94
356.172	92.94
356.399	100.94
356.626	96.94
356.853	76.94
357.08	78.94
357.307	77.94
357.534	72.94
357.761	83.94
357.988	90.94
358.215	80.94
358.441	83.94
358.668	70.94
358.895	87.94
359.122	78.94
359.349	80.94
359.576	84.94
359.802	82.94
360.029	78.94
360.256	92.94
360.483	86.94
360.709	88.94
360.936	85.94
361.163	77.94
361.39	82.94
361.616	83.94
361.843	91.94
362.07	76.94
362.296	92.94
362.523	71.94
362.749	77.94
362.976	87.94
363.203	83.94
363.429	74.94
363.656	101.94
363.882	87.94
364.109	76.94
364.335	81.94
364.562	91.94
364.788	86.94
365.015	85.94
365.241	79.94
365.468	99.94
365.694	89.94
365.92	88.94
366.147	87.94
366.373	90.94
366.599	81.94
366.826	84.94
367.052	91.94
367.278	83.94
367.505	94.94
367.731	97.94
367.957	96.94
368.184	96.94
368.41	93.94
368.636	103.94
368.862	85.94
369.089	80.94
369.315	97.94
369.541	90.94
369.767	90.94
369.993	83.94
370.219	88.94
370.445	93.94
370.672	92.94
370.898	82.94
371.124	92.94
371.35	83.94
371.576	94.94
371.802	97.94
372.028	97.94
372.254	97.94
372.48	98.94
372.706	95.94
372.932	82.94
373.158	85.94
373.384	90.94
373.61	93.94
373.835	88.94
374.061	86.94
374.287	94.94
374.513	100.94
374.739	78.94
374.965	88.94
375.191	80.94
375.416	98.94
375.642	87.94
375.868	91.94
376.094	98.94
376.319	95.94
376.545	103.94
376.771	102.94
376.997	71.94
377.222	98.94
377.448	89.94
377.674	93.94
377.899	106.94
378.125	89.94
378.35	104.94
378.576	99.94
378.802	98.94
379.027	97.94
379.253	87.94
379.478	98.94
379.704	92.94
379.929	84.94
380.155	98.94
380.38	80.94
380.606	92.94
380.831	95.94
381.057	101.94
381.282	93.94
381.507	96.94
381.733	96.94
381.958	105.94
382.184	92.94
382.409	112.94
382.634	108.94
382.86	98.94
383.085	95.94
383.31	94.94
383.535	98.94
383.761	91.94
383.986	90.94
384.211	90.94
384.436	102.94
384.662	99.94
384.887	106.94
385.112	113.94
385.337	101.94
385.562	87.94
385.787	103.94
386.013	106.94
386.238	101.94
386.463	114.94
386.688	95.94
386.913	95.94
387.138	97.94
387.363	101.94
387.588	98.94
387.813	100.94
388.038	104.94
388.263	103.94
388.488	98.94
388.713	82.94
388.938	99.94
389.163	91.94
389.387	101.94
389.612	93.94
389.837	105.94
390.062	108.94
390.287	103.94
390.512	99.94
390.736	106.94
390.961	88.94
391.186	100.94
391.411	103.94
391.636	100.94
391.86	96.94
392.085	99.94
392.31	117.94
392.534	113.94
392.759	104.94
392.984	92.94
393.208	86.94
393.433	100.94
393.658	111.94
393.882	97.94
394.107	108.94
394.331	96.94
394.556	90.94
394.78	105.94
395.005	108.94
395.229	80.94
395.454	112.94
395.678	104.94
395.903	116.94
396.127	108.94
396.352	101.94
396.576	103.94
396.801	104.94
397.025	107.94
397.249	106.94
397.474	108.94
397.698	95.94
397.922	116.94
398.147	100.94
398.371	101.94
398.595	116.94
398.82	113.94
399.044	106.94
399.268	95.94
399.492	107.94
399.717	113.94
399.941	104.94
400.165	107.94
400.389	110.94
400.613	107.94
400.837	96.94
401.062	97.94
401.286	113.94
401.51	101.94
401.734	106.94
401.958	109.94
402.182	104.94
402.406	99.94
402.63	97.94
402.854	108.94
403.078	112.94
403.302	121.94
403.526	103.94
403.75	117.94
403.974	119.94
404.198	95.94
404.422	96.94
404.645	106.94
404.869	104.94
405.093	113.94
405.317	129.94
405.541	121.94
405.765	118.94
405.988	117.94
406.212	100.94
406.436	113.94
406.66	125.94
406.883	112.94
407.107	122.94
407.331	120.94
407.555	123.94
407.778	113.94
408.002	120.94
408.226	119.94
408.449	112.94
408.673	112.94
408.896	110.94
409.12	114.94
409.344	128.94
409.567	111.94
409.791	114.94
410.014	133.94
410.238	122.94
410.461	127.94
410.685	116.94
410.908	129.94
411.132	118.94
411.355	130.94
411.578	121.94
411.802	114.94
412.025	121.94
412.249	117.94
412.472	114.94
412.695	127.94
412.919	114.94
413.142	121.94
413.365	131.94
413.589	134.94
413.812	135.94
414.035	123.94
414.258	118.94
414.482	128.94
414.705	122.94
414.928	119.94
415.151	118.94
415.374	127.94
415.597	125.94
415.821	128.94
416.044	105.94
416.267	119.94
416.49	133.94
416.713	118.94
416.936	148.94
417.159	126.94
417.382	120.94
417.605	138.94
417.828	120.94
418.051	133.94
418.274	123.94
418.497	124.94
418.72	138.94
418.943	128.94
419.166	124.94
419.389	132.94
419.611	120.94
419.834	134.94
420.057	113.94
420.28	131.94
420.503	123.94
420.726	140.94
420.948	119.94
421.171	135.94
421.394	129.94
421.617	131.94
421.839	137.94
422.062	136.94
422.285	131.94
422.507	127.94
422.73	126.94
422.953	122.94
423.175	126.94
423.398	124.94
423.621	132.94
423.843	143.94
424.066	133.94
424.288	133.94
424.511	146.94
424.733	143.94
424.956	125.94
425.178	146.94
425.401	131.94
425.623	136.94
425.846	133.94
426.068	142.94
426.291	140.94
426.513	137.94
426.735	145.94
426.958	127.94
427.18	131.94
427.402	121.94
427.625	145.94
427.847	143.94
428.069	134.94
428.292	134.94
428.514	124.94
428.736	129.94
428.958	121.94
429.181	132.94
429.403	120.94
429.625	125.94
429.847	132.94
430.069	148.94
430.292	131.94
430.514	135.94
430.736	131.94
430.958	137.94
431.18	126.94
431.402	125.94
431.624	121.94
431.846	113.94
432.068	97.94
432.29	111.94
432.512	115.94
432.734	119.94
432.956	123.94
433.178	136.94
433.4	124.94
433.622	142.94
433.844	163.94
434.066	120.94
434.287	117.94
434.509	103.94
434.731	90.94
434.953	108.94
435.175	120.94
435.397	124.94
435.618	120.94
435.84	121.94
436.062	122.94
436.284	116.94
436.505	133.94
436.727	128.94
436.949	127.94
437.17	126.94
437.392	131.94
437.614	118.94
437.835	126.94
438.057	108.94
438.278	109.94
438.5	119.94
438.721	137.94
438.943	137.94
439.165	137.94
439.386	147.94
439.608	144.94
439.829	140.94
440.05	151.94
440.272	158.94
440.493	136.94
440.715	153.94
440.936	149.94
441.158	152.94
441.379	137.94
441.6	145.94
441.822	138.94
442.043	132.94
442.264	153.94
442.486	130.94
442.707	123.94
442.928	139.94
443.149	121.94
443.371	147.94
443.592	140.94
443.813	143.94
444.034	137.94
444.255	135.94
444.476	136.94
444.698	148.94
444.919	151.94
445.14	278.94
445.361	217.94
445.582	144.94
445.803	135.94
446.024	157.94
446.245	150.94
446.466	142.94
446.687	149.94
446.908	151.94
447.129	142.94
447.35	142.94
447.571	149.94
447.792	145.94
448.013	138.94
448.234	147.94
448.455	160.94
448.675	121.94
448.896	137.94
449.117	144.94
449.338	142.94
449.559	141.94
449.779	133.94
450	133.94
450.221	141.94
450.442	146.94
450.662	131.94
450.883	127.94
451.104	140.94
451.324	125.94
451.545	125.94
451.766	130.94
451.986	128.94
452.207	132.94
452.428	124.94
452.648	122.94
452.869	116.94
453.089	116.94
453.31	122.94
453.53	115.94
453.751	117.94
453.971	106.94
454.192	110.94
454.412	101.94
454.633	115.94
454.853	111.94
455.073	102.94
455.294	125.94
455.514	125.94
455.734	118.94
455.955	109.94
456.175	114.94
456.395	105.94
456.616	100.94
456.836	102.94
457.056	105.94
457.276	103.94
457.497	103.94
457.717	95.94
457.937	112.94
458.157	102.94
458.377	108.94
458.598	90.94
458.818	90.94
459.038	97.94
459.258	84.94
459.478	92.94
459.698	109.94
459.918	97.94
460.138	107.94
460.358	115.94
460.578	113.94
460.798	105.94
461.018	103.94
461.238	120.94
461.458	101.94
461.678	94.94
461.898	106.94
462.118	106.94
462.338	120.94
462.558	114.94
462.777	103.94
462.997	113.94
463.217	104.94
463.437	100.94
463.657	114.94
463.876	122.94
464.096	115.94
464.316	89.94
464.536	114.94
464.755	123.94
464.975	127.94
465.195	109.94
465.414	115.94
465.634	116.94
465.854	118.94
466.073	117.94
466.293	125.94
466.512	138.94
466.732	131.94
466.951	134.94
467.171	138.94
467.391	135.94
467.61	125.94
467.829	145.94
468.049	135.94
468.268	124.94
468.488	118.94
468.707	139.94
468.927	125.94
469.146	128.94
469.365	135.94
469.585	134.94
469.804	127.94
470.023	130.94
470.243	147.94
470.462	165.94
470.681	136.94
470.901	139.94
471.12	130.94
471.339	153.94
471.558	149.94
471.777	123.94
471.997	138.94
472.216	122.94
472.435	128.94
472.654	115.94
472.873	102.94
473.092	125.94
473.311	131.94
473.53	133.94
473.749	115.94
473.968	127.94
474.187	121.94
474.406	115.94
474.625	144.94
474.844	121.94
475.063	127.94
475.282	120.94
475.501	119.94
475.72	130.94
475.939	127.94
476.158	130.94
476.377	123.94
476.596	136.94
476.814	113.94
477.033	105.94
477.252	111.94
477.471	127.94
477.69	123.94
477.908	142.94
478.127	139.94
478.346	150.94
478.564	129.94
478.783	126.94
479.002	145.94
479.22	142.94
479.439	139.94
479.658	113.94
479.876	116.94
480.095	120.94
480.313	130.94
480.532	129.94
480.751	118.94
480.969	77.94
481.188	92.94
481.406	85.94
481.624	87.94
481.843	72.94
482.061	102.94
482.28	107.94
482.498	112.94
482.717	108.94
482.935	110.94
483.153	142.94
483.372	139.94
483.59	135.94
483.808	134.94
484.027	128.94
484.245	145.94
484.463	133.94
484.681	156.94
484.9	133.94
485.118	128.94
485.336	121.94
485.554	127.94
485.772	90.94
485.99	109.94
486.209	107.94
486.427	128.94
486.645	127.94
486.863	141.94
487.081	145.94
487.299	115.94
487.517	148.94
487.735	159.94
487.953	185.94
488.171	187.94
488.389	179.94
488.607	139.94
488.825	151.94
489.043	131.94
489.261	136.94
489.479	132.94
489.696	148.94
489.914	135.94
490.132	147.94
490.35	156.94
490.568	161.94
490.786	170.94
491.003	178.94
491.221	166.94
491.439	198.94
491.657	165.94
491.874	197.94
492.092	211.94
492.31	230.94
492.527	226.94
492.745	194.94
492.963	194.94
493.18	172.94
493.398	181.94
493.615	180.94
493.833	180.94
494.05	191.94
494.268	184.94
494.485	172.94
494.703	171.94
494.92	181.94
495.138	172.94
495.355	185.94
495.573	156.94
495.79	167.94
496.008	158.94
496.225	166.94
496.442	157.94
496.66	161.94
496.877	167.94
497.094	167.94
497.312	161.94
497.529	162.94
497.746	163.94
497.963	145.94
498.181	139.94
498.398	121.94
498.615	126.94
498.832	109.94
499.049	113.94
499.267	127.94
499.484	109.94
499.701	141.94
499.918	130.94
500.135	127.94
500.352	137.94
500.569	150.94
500.786	152.94
501.003	128.94
501.22	143.94
501.437	117.94
501.654	132.94
501.871	138.94
502.088	144.94
502.305	143.94
502.522	134.94
502.739	120.94
502.956	127.94
503.172	123.94
503.389	125.94
503.606	113.94
503.823	129.94
504.04	131.94
504.256	122.94
504.473	129.94
504.69	119.94
504.907	112.94
505.123	112.94
505.34	137.94
505.557	129.94
505.773	126.94
505.99	130.94
506.207	112.94
506.423	121.94
506.64	108.94
506.856	115.94
507.073	123.94
507.289	112.94
507.506	115.94
507.722	126.94
507.939	130.94
508.155	124.94
508.372	123.94
508.588	99.94
508.805	107.94
509.021	102.94
509.238	113.94
509.454	108.94
509.67	97.94
509.887	102.94
510.103	104.94
510.319	102.94
510.536	108.94
510.752	80.94
510.968	69.94
511.184	84.94
511.401	67.94
511.617	93.94
