Data from Location2.07152019.Energy5.Lamp.07192019.3%Agarose_HRD10591_14-58-08-359.txt Node
Date: Fri Jul 19 14:58:08 EDT 2019
User: cochatt
Spectrometer: HR+D1059
Trigger mode: 1
Integration Time (sec): 1.000000E-1
Scans to average: 1
Electric dark correction enabled: true
Nonlinearity correction enabled: false
Boxcar width: 0
XAxis mode: Wavelengths
Number of Pixels in Spectrum: 2048
>>>>>Begin Spectral Data<<<<<
223.165	-15.44
223.4	-15.44
223.635	-15.44
223.869	-15.44
224.104	-36.44
224.338	-9.44
224.573	-15.44
224.808	-16.44
225.042	-0.44
225.277	1.56
225.511	-8.44
225.746	11.56
225.98	8.56
226.215	16.56
226.449	16.56
226.683	15.56
226.918	14.56
227.152	32.56
227.387	20.56
227.621	31.56
227.856	41.56
228.09	53.56
228.324	47.56
228.559	54.56
228.793	39.56
229.027	40.56
229.262	59.56
229.496	69.56
229.73	62.56
229.964	66.56
230.199	76.56
230.433	65.56
230.667	84.56
230.901	71.56
231.136	74.56
231.37	57.56
231.604	86.56
231.838	69.56
232.072	80.56
232.306	87.56
232.541	70.56
232.775	88.56
233.009	72.56
233.243	76.56
233.477	74.56
233.711	85.56
233.945	77.56
234.179	75.56
234.413	79.56
234.647	60.56
234.881	57.56
235.115	72.56
235.349	75.56
235.583	74.56
235.817	67.56
236.051	57.56
236.285	68.56
236.519	80.56
236.753	91.56
236.987	70.56
237.221	74.56
237.455	72.56
237.689	85.56
237.922	76.56
238.156	80.56
238.39	75.56
238.624	77.56
238.858	75.56
239.091	77.56
239.325	60.56
239.559	76.56
239.793	66.56
240.027	70.56
240.26	74.56
240.494	74.56
240.728	49.56
240.961	77.56
241.195	82.56
241.429	76.56
241.662	74.56
241.896	66.56
242.13	72.56
242.363	60.56
242.597	83.56
242.83	73.56
243.064	78.56
243.298	68.56
243.531	71.56
243.765	73.56
243.998	80.56
244.232	76.56
244.465	68.56
244.699	78.56
244.932	65.56
245.166	73.56
245.399	66.56
245.633	79.56
245.866	78.56
246.099	60.56
246.333	73.56
246.566	79.56
246.8	66.56
247.033	72.56
247.266	76.56
247.5	77.56
247.733	54.56
247.966	73.56
248.2	60.56
248.433	73.56
248.666	84.56
248.899	70.56
249.133	60.56
249.366	80.56
249.599	80.56
249.832	76.56
250.066	70.56
250.299	71.56
250.532	77.56
250.765	74.56
250.998	85.56
251.231	70.56
251.465	74.56
251.698	57.56
251.931	71.56
252.164	60.56
252.397	69.56
252.63	70.56
252.863	82.56
253.096	81.56
253.329	77.56
253.562	72.56
253.795	76.56
254.028	73.56
254.261	67.56
254.494	78.56
254.727	70.56
254.96	71.56
255.193	82.56
255.426	78.56
255.659	65.56
255.892	73.56
256.124	82.56
256.357	70.56
256.59	72.56
256.823	71.56
257.056	68.56
257.289	82.56
257.521	79.56
257.754	84.56
257.987	86.56
258.22	68.56
258.452	73.56
258.685	80.56
258.918	65.56
259.151	77.56
259.383	89.56
259.616	80.56
259.849	74.56
260.081	67.56
260.314	73.56
260.547	92.56
260.779	70.56
261.012	86.56
261.244	79.56
261.477	73.56
261.71	68.56
261.942	83.56
262.175	78.56
262.407	65.56
262.64	81.56
262.872	60.56
263.105	70.56
263.337	69.56
263.57	79.56
263.802	79.56
264.035	83.56
264.267	87.56
264.499	80.56
264.732	89.56
264.964	76.56
265.197	71.56
265.429	83.56
265.661	72.56
265.894	98.56
266.126	80.56
266.358	87.56
266.591	71.56
266.823	78.56
267.055	81.56
267.287	94.56
267.52	65.56
267.752	65.56
267.984	80.56
268.216	64.56
268.448	81.56
268.681	75.56
268.913	67.56
269.145	74.56
269.377	91.56
269.609	88.56
269.841	86.56
270.073	89.56
270.306	68.56
270.538	74.56
270.77	74.56
271.002	77.56
271.234	78.56
271.466	75.56
271.698	79.56
271.93	84.56
272.162	80.56
272.394	87.56
272.626	84.56
272.858	77.56
273.09	77.56
273.322	78.56
273.553	75.56
273.785	76.56
274.017	73.56
274.249	62.56
274.481	74.56
274.713	79.56
274.945	82.56
275.176	74.56
275.408	74.56
275.64	85.56
275.872	78.56
276.104	67.56
276.335	85.56
276.567	111.56
276.799	82.56
277.031	74.56
277.262	84.56
277.494	84.56
277.726	82.56
277.957	80.56
278.189	89.56
278.421	70.56
278.652	81.56
278.884	97.56
279.115	88.56
279.347	71.56
279.579	83.56
279.81	86.56
280.042	78.56
280.273	75.56
280.505	86.56
280.736	95.56
280.968	89.56
281.199	85.56
281.431	95.56
281.662	78.56
281.894	78.56
282.125	83.56
282.356	74.56
282.588	85.56
282.819	90.56
283.051	68.56
283.282	70.56
283.513	82.56
283.745	87.56
283.976	83.56
284.207	85.56
284.439	80.56
284.67	68.56
284.901	65.56
285.132	78.56
285.364	80.56
285.595	94.56
285.826	79.56
286.057	74.56
286.288	75.56
286.52	85.56
286.751	71.56
286.982	71.56
287.213	95.56
287.444	81.56
287.675	71.56
287.906	83.56
288.138	73.56
288.369	92.56
288.6	76.56
288.831	75.56
289.062	72.56
289.293	90.56
289.524	91.56
289.755	78.56
289.986	79.56
290.217	70.56
290.448	80.56
290.679	70.56
290.91	90.56
291.141	76.56
291.371	97.56
291.602	78.56
291.833	74.56
292.064	81.56
292.295	79.56
292.526	82.56
292.757	91.56
292.987	74.56
293.218	88.56
293.449	86.56
293.68	69.56
293.91	92.56
294.141	90.56
294.372	72.56
294.603	89.56
294.833	72.56
295.064	87.56
295.295	86.56
295.525	75.56
295.756	90.56
295.987	81.56
296.217	76.56
296.448	83.56
296.679	79.56
296.909	71.56
297.14	74.56
297.37	78.56
297.601	64.56
297.831	76.56
298.062	72.56
298.292	84.56
298.523	69.56
298.753	96.56
298.984	85.56
299.214	80.56
299.445	82.56
299.675	87.56
299.905	67.56
300.136	92.56
300.366	70.56
300.597	78.56
300.827	86.56
301.057	79.56
301.288	76.56
301.518	89.56
301.748	76.56
301.979	78.56
302.209	81.56
302.439	72.56
302.669	85.56
302.9	78.56
303.13	87.56
303.36	73.56
303.59	57.56
303.82	68.56
304.051	88.56
304.281	73.56
304.511	70.56
304.741	78.56
304.971	87.56
305.201	81.56
305.431	89.56
305.661	57.56
305.891	88.56
306.121	74.56
306.352	82.56
306.582	80.56
306.812	81.56
307.042	86.56
307.272	78.56
307.502	95.56
307.731	80.56
307.961	83.56
308.191	67.56
308.421	99.56
308.651	96.56
308.881	91.56
309.111	88.56
309.341	88.56
309.571	82.56
309.8	68.56
310.03	72.56
310.26	77.56
310.49	73.56
310.72	83.56
310.949	72.56
311.179	85.56
311.409	73.56
311.639	91.56
311.868	95.56
312.098	80.56
312.328	78.56
312.557	90.56
312.787	79.56
313.017	85.56
313.246	87.56
313.476	85.56
313.706	94.56
313.935	97.56
314.165	86.56
314.394	87.56
314.624	75.56
314.853	79.56
315.083	73.56
315.312	74.56
315.542	88.56
315.771	89.56
316.001	88.56
316.23	82.56
316.46	82.56
316.689	81.56
316.919	87.56
317.148	82.56
317.377	83.56
317.607	74.56
317.836	90.56
318.065	78.56
318.295	84.56
318.524	69.56
318.753	88.56
318.983	85.56
319.212	83.56
319.441	63.56
319.67	99.56
319.9	70.56
320.129	85.56
320.358	91.56
320.587	76.56
320.816	89.56
321.046	77.56
321.275	80.56
321.504	83.56
321.733	76.56
321.962	72.56
322.191	77.56
322.42	72.56
322.649	82.56
322.878	88.56
323.108	78.56
323.337	81.56
323.566	93.56
323.795	75.56
324.024	75.56
324.253	84.56
324.482	76.56
324.71	79.56
324.939	92.56
325.168	80.56
325.397	84.56
325.626	72.56
325.855	82.56
326.084	81.56
326.313	82.56
326.542	76.56
326.77	88.56
326.999	89.56
327.228	67.56
327.457	73.56
327.686	79.56
327.914	69.56
328.143	84.56
328.372	74.56
328.6	73.56
328.829	73.56
329.058	73.56
329.287	67.56
329.515	89.56
329.744	80.56
329.972	90.56
330.201	90.56
330.43	77.56
330.658	89.56
330.887	76.56
331.115	84.56
331.344	99.56
331.572	86.56
331.801	83.56
332.03	74.56
332.258	85.56
332.486	87.56
332.715	89.56
332.943	69.56
333.172	79.56
333.4	85.56
333.629	76.56
333.857	76.56
334.085	81.56
334.314	83.56
334.542	74.56
334.771	78.56
334.999	77.56
335.227	85.56
335.455	78.56
335.684	80.56
335.912	80.56
336.14	79.56
336.369	78.56
336.597	79.56
336.825	93.56
337.053	87.56
337.281	88.56
337.51	87.56
337.738	96.56
337.966	78.56
338.194	82.56
338.422	89.56
338.65	79.56
338.878	83.56
339.106	74.56
339.334	78.56
339.562	58.56
339.79	89.56
340.018	98.56
340.246	91.56
340.474	65.56
340.702	83.56
340.93	83.56
341.158	74.56
341.386	68.56
341.614	77.56
341.842	93.56
342.07	92.56
342.298	79.56
342.526	84.56
342.754	84.56
342.981	78.56
343.209	84.56
343.437	79.56
343.665	72.56
343.893	79.56
344.12	85.56
344.348	73.56
344.576	87.56
344.804	80.56
345.031	81.56
345.259	80.56
345.487	76.56
345.714	73.56
345.942	78.56
346.17	81.56
346.397	88.56
346.625	82.56
346.853	82.56
347.08	83.56
347.308	84.56
347.535	84.56
347.763	78.56
347.99	91.56
348.218	87.56
348.445	70.56
348.673	85.56
348.9	83.56
349.128	85.56
349.355	82.56
349.583	89.56
349.81	95.56
350.037	77.56
350.265	87.56
350.492	70.56
350.72	79.56
350.947	86.56
351.174	72.56
351.402	74.56
351.629	78.56
351.856	70.56
352.083	81.56
352.311	81.56
352.538	80.56
352.765	79.56
352.992	81.56
353.22	92.56
353.447	73.56
353.674	94.56
353.901	81.56
354.128	72.56
354.355	81.56
354.583	79.56
354.81	82.56
355.037	78.56
355.264	91.56
355.491	87.56
355.718	79.56
355.945	86.56
356.172	86.56
356.399	73.56
356.626	69.56
356.853	69.56
357.08	84.56
357.307	81.56
357.534	73.56
357.761	85.56
357.988	79.56
358.215	84.56
358.441	76.56
358.668	61.56
358.895	82.56
359.122	87.56
359.349	78.56
359.576	91.56
359.802	86.56
360.029	76.56
360.256	82.56
360.483	83.56
360.709	89.56
360.936	91.56
361.163	82.56
361.39	89.56
361.616	81.56
361.843	94.56
362.07	84.56
362.296	78.56
362.523	77.56
362.749	75.56
362.976	80.56
363.203	91.56
363.429	88.56
363.656	72.56
363.882	88.56
364.109	94.56
364.335	89.56
364.562	77.56
364.788	75.56
365.015	80.56
365.241	67.56
365.468	83.56
365.694	73.56
365.92	81.56
366.147	69.56
366.373	96.56
366.599	87.56
366.826	78.56
367.052	83.56
367.278	82.56
367.505	79.56
367.731	84.56
367.957	72.56
368.184	79.56
368.41	77.56
368.636	82.56
368.862	85.56
369.089	83.56
369.315	89.56
369.541	97.56
369.767	83.56
369.993	84.56
370.219	89.56
370.445	77.56
370.672	89.56
370.898	93.56
371.124	80.56
371.35	99.56
371.576	90.56
371.802	88.56
372.028	84.56
372.254	83.56
372.48	102.56
372.706	88.56
372.932	89.56
373.158	89.56
373.384	89.56
373.61	92.56
373.835	79.56
374.061	78.56
374.287	82.56
374.513	85.56
374.739	85.56
374.965	70.56
375.191	84.56
375.416	93.56
375.642	87.56
375.868	94.56
376.094	88.56
376.319	80.56
376.545	100.56
376.771	98.56
376.997	87.56
377.222	82.56
377.448	97.56
377.674	83.56
377.899	93.56
378.125	84.56
378.35	87.56
378.576	92.56
378.802	92.56
379.027	96.56
379.253	99.56
379.478	92.56
379.704	102.56
379.929	97.56
380.155	99.56
380.38	100.56
380.606	99.56
380.831	85.56
381.057	93.56
381.282	93.56
381.507	93.56
381.733	96.56
381.958	100.56
382.184	98.56
382.409	90.56
382.634	82.56
382.86	78.56
383.085	86.56
383.31	90.56
383.535	101.56
383.761	91.56
383.986	93.56
384.211	100.56
384.436	84.56
384.662	89.56
384.887	92.56
385.112	83.56
385.337	94.56
385.562	80.56
385.787	93.56
386.013	95.56
386.238	85.56
386.463	92.56
386.688	100.56
386.913	101.56
387.138	90.56
387.363	99.56
387.588	88.56
387.813	93.56
388.038	96.56
388.263	109.56
388.488	87.56
388.713	93.56
388.938	95.56
389.163	87.56
389.387	95.56
389.612	92.56
389.837	98.56
390.062	100.56
390.287	108.56
390.512	92.56
390.736	109.56
390.961	86.56
391.186	83.56
391.411	92.56
391.636	96.56
391.86	100.56
392.085	85.56
392.31	101.56
392.534	101.56
392.759	86.56
392.984	109.56
393.208	109.56
393.433	95.56
393.658	91.56
393.882	102.56
394.107	114.56
394.331	96.56
394.556	89.56
394.78	97.56
395.005	98.56
395.229	115.56
395.454	104.56
395.678	102.56
395.903	112.56
396.127	111.56
396.352	102.56
396.576	100.56
396.801	104.56
397.025	94.56
397.249	108.56
397.474	100.56
397.698	108.56
397.922	111.56
398.147	105.56
398.371	96.56
398.595	98.56
398.82	102.56
399.044	108.56
399.268	106.56
399.492	108.56
399.717	119.56
399.941	96.56
400.165	114.56
400.389	116.56
400.613	120.56
400.837	111.56
401.062	108.56
401.286	100.56
401.51	100.56
401.734	117.56
401.958	92.56
402.182	103.56
402.406	112.56
402.63	103.56
402.854	100.56
403.078	116.56
403.302	101.56
403.526	104.56
403.75	99.56
403.974	103.56
404.198	121.56
404.422	106.56
404.645	115.56
404.869	124.56
405.093	124.56
405.317	114.56
405.541	110.56
405.765	101.56
405.988	126.56
406.212	123.56
406.436	115.56
406.66	121.56
406.883	120.56
407.107	128.56
407.331	112.56
407.555	112.56
407.778	128.56
408.002	116.56
408.226	113.56
408.449	114.56
408.673	124.56
408.896	122.56
409.12	109.56
409.344	112.56
409.567	119.56
409.791	118.56
410.014	124.56
410.238	121.56
410.461	119.56
410.685	136.56
410.908	117.56
411.132	111.56
411.355	128.56
411.578	121.56
411.802	118.56
412.025	112.56
412.249	104.56
412.472	112.56
412.695	105.56
412.919	114.56
413.142	122.56
413.365	117.56
413.589	114.56
413.812	113.56
414.035	118.56
414.258	106.56
414.482	118.56
414.705	118.56
414.928	121.56
415.151	112.56
415.374	143.56
415.597	126.56
415.821	116.56
416.044	114.56
416.267	136.56
416.49	119.56
416.713	114.56
416.936	124.56
417.159	118.56
417.382	126.56
417.605	119.56
417.828	126.56
418.051	124.56
418.274	118.56
418.497	140.56
418.72	121.56
418.943	126.56
419.166	140.56
419.389	120.56
419.611	138.56
419.834	117.56
420.057	131.56
420.28	134.56
420.503	122.56
420.726	122.56
420.948	143.56
421.171	130.56
421.394	133.56
421.617	132.56
421.839	126.56
422.062	133.56
422.285	127.56
422.507	125.56
422.73	113.56
422.953	118.56
423.175	119.56
423.398	110.56
423.621	115.56
423.843	122.56
424.066	119.56
424.288	147.56
424.511	134.56
424.733	144.56
424.956	148.56
425.178	130.56
425.401	126.56
425.623	133.56
425.846	128.56
426.068	127.56
426.291	118.56
426.513	124.56
426.735	116.56
426.958	127.56
427.18	128.56
427.402	124.56
427.625	134.56
427.847	121.56
428.069	133.56
428.292	122.56
428.514	122.56
428.736	141.56
428.958	118.56
429.181	132.56
429.403	121.56
429.625	112.56
429.847	128.56
430.069	118.56
430.292	122.56
430.514	131.56
430.736	126.56
430.958	112.56
431.18	124.56
431.402	118.56
431.624	117.56
431.846	114.56
432.068	88.56
432.29	81.56
432.512	107.56
432.734	120.56
432.956	118.56
433.178	127.56
433.4	114.56
433.622	124.56
433.844	149.56
434.066	121.56
434.287	113.56
434.509	111.56
434.731	95.56
434.953	99.56
435.175	128.56
435.397	128.56
435.618	124.56
435.84	114.56
436.062	118.56
436.284	139.56
436.505	126.56
436.727	114.56
436.949	125.56
437.17	133.56
437.392	120.56
437.614	123.56
437.835	112.56
438.057	94.56
438.278	93.56
438.5	100.56
438.721	126.56
438.943	133.56
439.165	134.56
439.386	148.56
439.608	130.56
439.829	143.56
440.05	160.56
440.272	145.56
440.493	129.56
440.715	139.56
440.936	158.56
441.158	140.56
441.379	132.56
441.6	133.56
441.822	154.56
442.043	133.56
442.264	133.56
442.486	136.56
442.707	125.56
442.928	137.56
443.149	126.56
443.371	137.56
443.592	131.56
443.813	132.56
444.034	144.56
444.255	130.56
444.476	138.56
444.698	139.56
444.919	142.56
445.14	256.56
445.361	194.56
445.582	142.56
445.803	130.56
446.024	142.56
446.245	157.56
446.466	148.56
446.687	154.56
446.908	139.56
447.129	144.56
447.35	142.56
447.571	148.56
447.792	137.56
448.013	128.56
448.234	141.56
448.455	152.56
448.675	146.56
448.896	136.56
449.117	136.56
449.338	129.56
449.559	144.56
449.779	132.56
450	119.56
450.221	141.56
450.442	124.56
450.662	133.56
450.883	126.56
451.104	132.56
451.324	106.56
451.545	125.56
451.766	120.56
451.986	117.56
452.207	128.56
452.428	131.56
452.648	134.56
452.869	111.56
453.089	113.56
453.31	119.56
453.53	108.56
453.751	95.56
453.971	105.56
454.192	107.56
454.412	104.56
454.633	109.56
454.853	120.56
455.073	102.56
455.294	111.56
455.514	116.56
455.734	112.56
455.955	120.56
456.175	96.56
456.395	103.56
456.616	117.56
456.836	90.56
457.056	108.56
457.276	96.56
457.497	101.56
457.717	101.56
457.937	106.56
458.157	100.56
458.377	124.56
458.598	102.56
458.818	92.56
459.038	91.56
459.258	91.56
459.478	83.56
459.698	92.56
459.918	103.56
460.138	105.56
460.358	108.56
460.578	111.56
460.798	101.56
461.018	116.56
461.238	99.56
461.458	102.56
461.678	125.56
461.898	112.56
462.118	112.56
462.338	125.56
462.558	112.56
462.777	89.56
462.997	110.56
463.217	108.56
463.437	99.56
463.657	104.56
463.876	111.56
464.096	101.56
464.316	115.56
464.536	107.56
464.755	116.56
464.975	127.56
465.195	130.56
465.414	123.56
465.634	128.56
465.854	108.56
466.073	132.56
466.293	98.56
466.512	128.56
466.732	132.56
466.951	127.56
467.171	132.56
467.391	136.56
467.61	116.56
467.829	132.56
468.049	135.56
468.268	143.56
468.488	126.56
468.707	124.56
468.927	122.56
469.146	136.56
469.365	146.56
469.585	139.56
469.804	136.56
470.023	131.56
470.243	132.56
470.462	140.56
470.681	146.56
470.901	144.56
471.12	128.56
471.339	139.56
471.558	136.56
471.777	150.56
471.997	122.56
472.216	125.56
472.435	116.56
472.654	88.56
472.873	114.56
473.092	111.56
473.311	117.56
473.53	118.56
473.749	129.56
473.968	105.56
474.187	117.56
474.406	117.56
474.625	123.56
474.844	129.56
475.063	117.56
475.282	128.56
475.501	120.56
475.72	126.56
475.939	121.56
476.158	111.56
476.377	141.56
476.596	123.56
476.814	117.56
477.033	113.56
477.252	112.56
477.471	113.56
477.69	111.56
477.908	129.56
478.127	134.56
478.346	142.56
478.564	137.56
478.783	119.56
479.002	134.56
479.22	128.56
479.439	135.56
479.658	120.56
479.876	120.56
480.095	109.56
480.313	122.56
480.532	117.56
480.751	103.56
480.969	78.56
481.188	102.56
481.406	94.56
481.624	80.56
481.843	74.56
482.061	95.56
482.28	111.56
482.498	112.56
482.717	105.56
482.935	98.56
483.153	146.56
483.372	136.56
483.59	148.56
483.808	129.56
484.027	98.56
484.245	124.56
484.463	130.56
484.681	158.56
484.9	130.56
485.118	137.56
485.336	126.56
485.554	100.56
485.772	96.56
485.99	100.56
486.209	110.56
486.427	110.56
486.645	105.56
486.863	130.56
487.081	133.56
487.299	132.56
487.517	136.56
487.735	157.56
487.953	179.56
488.171	174.56
488.389	173.56
488.607	151.56
488.825	138.56
489.043	116.56
489.261	127.56
489.479	119.56
489.696	144.56
489.914	129.56
490.132	126.56
490.35	150.56
490.568	149.56
490.786	165.56
491.003	176.56
491.221	178.56
491.439	185.56
491.657	178.56
491.874	196.56
492.092	216.56
492.31	208.56
492.527	206.56
492.745	181.56
492.963	181.56
493.18	194.56
493.398	184.56
493.615	177.56
493.833	181.56
494.05	180.56
494.268	169.56
494.485	176.56
494.703	178.56
494.92	168.56
495.138	170.56
495.355	162.56
495.573	169.56
495.79	154.56
496.008	146.56
496.225	171.56
496.442	178.56
496.66	178.56
496.877	162.56
497.094	160.56
497.312	164.56
497.529	158.56
497.746	148.56
497.963	138.56
498.181	133.56
498.398	128.56
498.615	118.56
498.832	110.56
499.049	103.56
499.267	112.56
499.484	117.56
499.701	130.56
499.918	124.56
500.135	136.56
500.352	138.56
500.569	138.56
500.786	149.56
501.003	130.56
501.22	137.56
501.437	136.56
501.654	122.56
501.871	116.56
502.088	147.56
502.305	134.56
502.522	123.56
502.739	126.56
502.956	119.56
503.172	136.56
503.389	128.56
503.606	112.56
503.823	116.56
504.04	115.56
504.256	122.56
504.473	129.56
504.69	118.56
504.907	126.56
505.123	121.56
505.34	116.56
505.557	103.56
505.773	132.56
505.99	127.56
506.207	124.56
506.423	119.56
506.64	119.56
506.856	115.56
507.073	108.56
507.289	119.56
507.506	116.56
507.722	105.56
507.939	119.56
508.155	118.56
508.372	112.56
508.588	92.56
508.805	122.56
509.021	99.56
509.238	100.56
509.454	97.56
509.67	96.56
509.887	96.56
510.103	100.56
510.319	89.56
510.536	93.56
510.752	92.56
510.968	96.56
511.184	88.56
511.401	87.56
511.617	77.56
511.833	91.56
512.049	99.56
512.265	96.56
