Data from Location2.07152019.Energy5.Lamp.07192019.3%Agarose_HRD10591_14-57-12-359.txt Node
Date: Fri Jul 19 14:57:12 EDT 2019
User: cochatt
Spectrometer: HR+D1059
Trigger mode: 1
Integration Time (sec): 1.000000E-1
Scans to average: 1
Electric dark correction enabled: true
Nonlinearity correction enabled: false
Boxcar width: 0
XAxis mode: Wavelengths
Number of Pixels in Spectrum: 2048
>>>>>Begin Spectral Data<<<<<
223.165	-6.56
223.4	-6.56
223.635	-6.56
223.869	-8.56
224.104	-17.56
224.338	-22.56
224.573	-12.56
224.808	-19.56
225.042	-13.56
225.277	-4.56
225.511	-7.56
225.746	5.44
225.98	4.44
226.215	18.44
226.449	14.44
226.683	8.44
226.918	26.44
227.152	35.44
227.387	40.44
227.621	32.44
227.856	24.44
228.09	43.44
228.324	64.44
228.559	56.44
228.793	67.44
229.027	52.44
229.262	73.44
229.496	59.44
229.73	69.44
229.964	66.44
230.199	60.44
230.433	83.44
230.667	74.44
230.901	74.44
231.136	67.44
231.37	74.44
231.604	83.44
231.838	84.44
232.072	87.44
232.306	95.44
232.541	81.44
232.775	92.44
233.009	92.44
233.243	95.44
233.477	81.44
233.711	89.44
233.945	84.44
234.179	86.44
234.413	90.44
234.647	74.44
234.881	67.44
235.115	71.44
235.349	86.44
235.583	81.44
235.817	75.44
236.051	95.44
236.285	75.44
236.519	75.44
236.753	86.44
236.987	72.44
237.221	79.44
237.455	70.44
237.689	56.44
237.922	70.44
238.156	62.44
238.39	67.44
238.624	88.44
238.858	74.44
239.091	77.44
239.325	74.44
239.559	70.44
239.793	74.44
240.027	59.44
240.26	70.44
240.494	74.44
240.728	76.44
240.961	75.44
241.195	83.44
241.429	83.44
241.662	79.44
241.896	78.44
242.13	73.44
242.363	76.44
242.597	79.44
242.83	63.44
243.064	89.44
243.298	81.44
243.531	75.44
243.765	91.44
243.998	62.44
244.232	73.44
244.465	76.44
244.699	80.44
244.932	79.44
245.166	86.44
245.399	77.44
245.633	76.44
245.866	92.44
246.099	68.44
246.333	71.44
246.566	76.44
246.8	71.44
247.033	66.44
247.266	76.44
247.5	61.44
247.733	81.44
247.966	87.44
248.2	79.44
248.433	78.44
248.666	70.44
248.899	78.44
249.133	65.44
249.366	78.44
249.599	77.44
249.832	77.44
250.066	77.44
250.299	89.44
250.532	86.44
250.765	65.44
250.998	82.44
251.231	79.44
251.465	87.44
251.698	77.44
251.931	83.44
252.164	68.44
252.397	86.44
252.63	70.44
252.863	90.44
253.096	72.44
253.329	62.44
253.562	72.44
253.795	73.44
254.028	77.44
254.261	91.44
254.494	75.44
254.727	80.44
254.96	78.44
255.193	75.44
255.426	84.44
255.659	85.44
255.892	83.44
256.124	79.44
256.357	62.44
256.59	75.44
256.823	70.44
257.056	82.44
257.289	73.44
257.521	81.44
257.754	80.44
257.987	83.44
258.22	84.44
258.452	75.44
258.685	72.44
258.918	78.44
259.151	92.44
259.383	74.44
259.616	80.44
259.849	85.44
260.081	73.44
260.314	74.44
260.547	77.44
260.779	86.44
261.012	82.44
261.244	79.44
261.477	89.44
261.71	78.44
261.942	88.44
262.175	66.44
262.407	76.44
262.64	70.44
262.872	90.44
263.105	80.44
263.337	80.44
263.57	80.44
263.802	72.44
264.035	91.44
264.267	83.44
264.499	80.44
264.732	84.44
264.964	72.44
265.197	78.44
265.429	84.44
265.661	73.44
265.894	71.44
266.126	75.44
266.358	89.44
266.591	87.44
266.823	71.44
267.055	92.44
267.287	80.44
267.52	87.44
267.752	81.44
267.984	71.44
268.216	76.44
268.448	87.44
268.681	88.44
268.913	91.44
269.145	78.44
269.377	91.44
269.609	69.44
269.841	82.44
270.073	80.44
270.306	78.44
270.538	100.44
270.77	90.44
271.002	76.44
271.234	75.44
271.466	87.44
271.698	87.44
271.93	80.44
272.162	82.44
272.394	83.44
272.626	83.44
272.858	92.44
273.09	90.44
273.322	73.44
273.553	97.44
273.785	80.44
274.017	74.44
274.249	89.44
274.481	91.44
274.713	83.44
274.945	67.44
275.176	91.44
275.408	91.44
275.64	77.44
275.872	86.44
276.104	86.44
276.335	90.44
276.567	78.44
276.799	70.44
277.031	82.44
277.262	87.44
277.494	75.44
277.726	74.44
277.957	83.44
278.189	75.44
278.421	92.44
278.652	73.44
278.884	81.44
279.115	80.44
279.347	75.44
279.579	76.44
279.81	90.44
280.042	80.44
280.273	74.44
280.505	97.44
280.736	87.44
280.968	99.44
281.199	93.44
281.431	80.44
281.662	90.44
281.894	87.44
282.125	93.44
282.356	75.44
282.588	82.44
282.819	77.44
283.051	87.44
283.282	81.44
283.513	89.44
283.745	87.44
283.976	88.44
284.207	83.44
284.439	95.44
284.67	78.44
284.901	69.44
285.132	95.44
285.364	74.44
285.595	88.44
285.826	80.44
286.057	80.44
286.288	77.44
286.52	86.44
286.751	82.44
286.982	96.44
287.213	91.44
287.444	76.44
287.675	89.44
287.906	88.44
288.138	99.44
288.369	80.44
288.6	72.44
288.831	82.44
289.062	90.44
289.293	79.44
289.524	79.44
289.755	98.44
289.986	90.44
290.217	92.44
290.448	79.44
290.679	68.44
290.91	92.44
291.141	83.44
291.371	74.44
291.602	86.44
291.833	76.44
292.064	84.44
292.295	88.44
292.526	73.44
292.757	84.44
292.987	86.44
293.218	88.44
293.449	92.44
293.68	87.44
293.91	76.44
294.141	94.44
294.372	85.44
294.603	96.44
294.833	79.44
295.064	86.44
295.295	85.44
295.525	86.44
295.756	80.44
295.987	76.44
296.217	80.44
296.448	94.44
296.679	86.44
296.909	90.44
297.14	94.44
297.37	84.44
297.601	65.44
297.831	75.44
298.062	76.44
298.292	83.44
298.523	74.44
298.753	90.44
298.984	79.44
299.214	89.44
299.445	102.44
299.675	76.44
299.905	83.44
300.136	83.44
300.366	79.44
300.597	89.44
300.827	96.44
301.057	87.44
301.288	76.44
301.518	83.44
301.748	87.44
301.979	74.44
302.209	92.44
302.439	81.44
302.669	87.44
302.9	74.44
303.13	83.44
303.36	83.44
303.59	91.44
303.82	74.44
304.051	82.44
304.281	86.44
304.511	94.44
304.741	88.44
304.971	83.44
305.201	89.44
305.431	85.44
305.661	95.44
305.891	75.44
306.121	80.44
306.352	88.44
306.582	80.44
306.812	83.44
307.042	97.44
307.272	90.44
307.502	66.44
307.731	79.44
307.961	71.44
308.191	78.44
308.421	84.44
308.651	88.44
308.881	80.44
309.111	81.44
309.341	86.44
309.571	83.44
309.8	73.44
310.03	91.44
310.26	86.44
310.49	83.44
310.72	79.44
310.949	84.44
311.179	88.44
311.409	91.44
311.639	73.44
311.868	75.44
312.098	87.44
312.328	73.44
312.557	96.44
312.787	77.44
313.017	76.44
313.246	76.44
313.476	86.44
313.706	106.44
313.935	86.44
314.165	84.44
314.394	82.44
314.624	99.44
314.853	76.44
315.083	75.44
315.312	83.44
315.542	83.44
315.771	86.44
316.001	99.44
316.23	91.44
316.46	89.44
316.689	81.44
316.919	87.44
317.148	92.44
317.377	74.44
317.607	83.44
317.836	76.44
318.065	85.44
318.295	90.44
318.524	63.44
318.753	72.44
318.983	85.44
319.212	82.44
319.441	83.44
319.67	87.44
319.9	94.44
320.129	84.44
320.358	88.44
320.587	83.44
320.816	91.44
321.046	81.44
321.275	96.44
321.504	77.44
321.733	77.44
321.962	76.44
322.191	90.44
322.42	86.44
322.649	98.44
322.878	88.44
323.108	91.44
323.337	96.44
323.566	75.44
323.795	74.44
324.024	76.44
324.253	80.44
324.482	97.44
324.71	89.44
324.939	91.44
325.168	87.44
325.397	82.44
325.626	80.44
325.855	73.44
326.084	86.44
326.313	87.44
326.542	82.44
326.77	84.44
326.999	78.44
327.228	81.44
327.457	80.44
327.686	74.44
327.914	97.44
328.143	74.44
328.372	66.44
328.6	83.44
328.829	80.44
329.058	75.44
329.287	83.44
329.515	82.44
329.744	83.44
329.972	81.44
330.201	89.44
330.43	103.44
330.658	75.44
330.887	75.44
331.115	81.44
331.344	84.44
331.572	76.44
331.801	80.44
332.03	86.44
332.258	83.44
332.486	85.44
332.715	88.44
332.943	76.44
333.172	80.44
333.4	89.44
333.629	96.44
333.857	81.44
334.085	82.44
334.314	68.44
334.542	81.44
334.771	86.44
334.999	84.44
335.227	64.44
335.455	84.44
335.684	80.44
335.912	74.44
336.14	76.44
336.369	100.44
336.597	87.44
336.825	82.44
337.053	81.44
337.281	95.44
337.51	81.44
337.738	79.44
337.966	81.44
338.194	81.44
338.422	91.44
338.65	75.44
338.878	81.44
339.106	72.44
339.334	88.44
339.562	83.44
339.79	66.44
340.018	79.44
340.246	78.44
340.474	90.44
340.702	82.44
340.93	96.44
341.158	76.44
341.386	79.44
341.614	78.44
341.842	83.44
342.07	65.44
342.298	84.44
342.526	76.44
342.754	80.44
342.981	86.44
343.209	80.44
343.437	87.44
343.665	78.44
343.893	88.44
344.12	96.44
344.348	102.44
344.576	98.44
344.804	96.44
345.031	82.44
345.259	83.44
345.487	80.44
345.714	80.44
345.942	71.44
346.17	83.44
346.397	75.44
346.625	86.44
346.853	72.44
347.08	75.44
347.308	81.44
347.535	82.44
347.763	93.44
347.99	88.44
348.218	96.44
348.445	88.44
348.673	73.44
348.9	83.44
349.128	89.44
349.355	66.44
349.583	90.44
349.81	82.44
350.037	83.44
350.265	97.44
350.492	85.44
350.72	82.44
350.947	85.44
351.174	71.44
351.402	76.44
351.629	80.44
351.856	100.44
352.083	95.44
352.311	86.44
352.538	82.44
352.765	94.44
352.992	82.44
353.22	80.44
353.447	71.44
353.674	78.44
353.901	77.44
354.128	83.44
354.355	104.44
354.583	87.44
354.81	87.44
355.037	87.44
355.264	81.44
355.491	81.44
355.718	71.44
355.945	86.44
356.172	71.44
356.399	91.44
356.626	86.44
356.853	72.44
357.08	86.44
357.307	97.44
357.534	87.44
357.761	74.44
357.988	79.44
358.215	87.44
358.441	95.44
358.668	79.44
358.895	73.44
359.122	76.44
359.349	83.44
359.576	72.44
359.802	101.44
360.029	88.44
360.256	83.44
360.483	88.44
360.709	79.44
360.936	92.44
361.163	99.44
361.39	86.44
361.616	75.44
361.843	81.44
362.07	86.44
362.296	82.44
362.523	83.44
362.749	79.44
362.976	94.44
363.203	79.44
363.429	84.44
363.656	72.44
363.882	83.44
364.109	87.44
364.335	88.44
364.562	72.44
364.788	77.44
365.015	76.44
365.241	79.44
365.468	91.44
365.694	85.44
365.92	87.44
366.147	89.44
366.373	92.44
366.599	91.44
366.826	63.44
367.052	86.44
367.278	80.44
367.505	80.44
367.731	90.44
367.957	92.44
368.184	91.44
368.41	80.44
368.636	84.44
368.862	84.44
369.089	101.44
369.315	94.44
369.541	84.44
369.767	83.44
369.993	89.44
370.219	96.44
370.445	90.44
370.672	83.44
370.898	74.44
371.124	75.44
371.35	98.44
371.576	93.44
371.802	85.44
372.028	88.44
372.254	87.44
372.48	94.44
372.706	101.44
372.932	97.44
373.158	89.44
373.384	87.44
373.61	82.44
373.835	91.44
374.061	101.44
374.287	98.44
374.513	85.44
374.739	94.44
374.965	91.44
375.191	99.44
375.416	90.44
375.642	96.44
375.868	92.44
376.094	97.44
376.319	93.44
376.545	84.44
376.771	81.44
376.997	103.44
377.222	86.44
377.448	101.44
377.674	88.44
377.899	85.44
378.125	83.44
378.35	79.44
378.576	85.44
378.802	95.44
379.027	104.44
379.253	83.44
379.478	96.44
379.704	89.44
379.929	91.44
380.155	85.44
380.38	100.44
380.606	88.44
380.831	86.44
381.057	103.44
381.282	98.44
381.507	94.44
381.733	101.44
381.958	95.44
382.184	81.44
382.409	59.44
382.634	104.44
382.86	85.44
383.085	106.44
383.31	81.44
383.535	99.44
383.761	97.44
383.986	98.44
384.211	90.44
384.436	97.44
384.662	94.44
384.887	89.44
385.112	89.44
385.337	75.44
385.562	99.44
385.787	98.44
386.013	98.44
386.238	86.44
386.463	96.44
386.688	100.44
386.913	98.44
387.138	96.44
387.363	107.44
387.588	106.44
387.813	96.44
388.038	108.44
388.263	97.44
388.488	84.44
388.713	105.44
388.938	93.44
389.163	96.44
389.387	99.44
389.612	86.44
389.837	97.44
390.062	101.44
390.287	88.44
390.512	96.44
390.736	92.44
390.961	92.44
391.186	104.44
391.411	105.44
391.636	95.44
391.86	91.44
392.085	108.44
392.31	97.44
392.534	80.44
392.759	111.44
392.984	108.44
393.208	103.44
393.433	101.44
393.658	102.44
393.882	106.44
394.107	107.44
394.331	108.44
394.556	99.44
394.78	87.44
395.005	120.44
395.229	91.44
395.454	111.44
395.678	120.44
395.903	105.44
396.127	108.44
396.352	95.44
396.576	114.44
396.801	106.44
397.025	105.44
397.249	97.44
397.474	111.44
397.698	108.44
397.922	91.44
398.147	101.44
398.371	99.44
398.595	116.44
398.82	115.44
399.044	114.44
399.268	114.44
399.492	96.44
399.717	118.44
399.941	107.44
400.165	102.44
400.389	104.44
400.613	90.44
400.837	114.44
401.062	114.44
401.286	111.44
401.51	121.44
401.734	113.44
401.958	114.44
402.182	112.44
402.406	103.44
402.63	99.44
402.854	120.44
403.078	107.44
403.302	103.44
403.526	112.44
403.75	118.44
403.974	126.44
404.198	118.44
404.422	112.44
404.645	112.44
404.869	110.44
405.093	116.44
405.317	114.44
405.541	112.44
405.765	107.44
405.988	116.44
406.212	113.44
406.436	112.44
406.66	116.44
406.883	114.44
407.107	107.44
407.331	124.44
407.555	114.44
407.778	122.44
408.002	131.44
408.226	121.44
408.449	119.44
408.673	117.44
408.896	125.44
409.12	111.44
409.344	106.44
409.567	124.44
409.791	122.44
410.014	132.44
410.238	126.44
410.461	121.44
410.685	100.44
410.908	116.44
411.132	112.44
411.355	119.44
411.578	124.44
411.802	131.44
412.025	124.44
412.249	144.44
412.472	119.44
412.695	123.44
412.919	114.44
413.142	111.44
413.365	122.44
413.589	115.44
413.812	119.44
414.035	116.44
414.258	124.44
414.482	123.44
414.705	130.44
414.928	116.44
415.151	120.44
415.374	119.44
415.597	126.44
415.821	128.44
416.044	123.44
416.267	110.44
416.49	132.44
416.713	134.44
416.936	120.44
417.159	120.44
417.382	126.44
417.605	126.44
417.828	118.44
418.051	128.44
418.274	123.44
418.497	133.44
418.72	124.44
418.943	125.44
419.166	133.44
419.389	133.44
419.611	122.44
419.834	138.44
420.057	132.44
420.28	124.44
420.503	130.44
420.726	146.44
420.948	120.44
421.171	139.44
421.394	127.44
421.617	148.44
421.839	132.44
422.062	126.44
422.285	120.44
422.507	137.44
422.73	133.44
422.953	122.44
423.175	135.44
423.398	144.44
423.621	139.44
423.843	134.44
424.066	146.44
424.288	129.44
424.511	148.44
424.733	132.44
424.956	136.44
425.178	135.44
425.401	129.44
425.623	138.44
425.846	122.44
426.068	128.44
426.291	133.44
426.513	130.44
426.735	135.44
426.958	122.44
427.18	136.44
427.402	132.44
427.625	136.44
427.847	117.44
428.069	124.44
428.292	132.44
428.514	115.44
428.736	118.44
428.958	124.44
429.181	114.44
429.403	128.44
429.625	127.44
429.847	132.44
430.069	110.44
430.292	127.44
430.514	134.44
430.736	121.44
430.958	144.44
431.18	131.44
431.402	121.44
431.624	120.44
431.846	95.44
432.068	101.44
432.29	112.44
432.512	100.44
432.734	121.44
432.956	138.44
433.178	140.44
433.4	120.44
433.622	148.44
433.844	138.44
434.066	121.44
434.287	104.44
434.509	91.44
434.731	87.44
434.953	103.44
435.175	122.44
435.397	110.44
435.618	106.44
435.84	103.44
436.062	124.44
436.284	122.44
436.505	115.44
436.727	126.44
436.949	124.44
437.17	143.44
437.392	122.44
437.614	112.44
437.835	123.44
438.057	104.44
438.278	109.44
438.5	121.44
438.721	124.44
438.943	121.44
439.165	137.44
439.386	140.44
439.608	135.44
439.829	141.44
440.05	136.44
440.272	141.44
440.493	152.44
440.715	142.44
440.936	142.44
441.158	146.44
441.379	143.44
441.6	158.44
441.822	158.44
442.043	136.44
442.264	146.44
442.486	134.44
442.707	134.44
442.928	129.44
443.149	134.44
443.371	120.44
443.592	136.44
443.813	132.44
444.034	146.44
444.255	132.44
444.476	132.44
444.698	147.44
444.919	143.44
445.14	267.44
445.361	206.44
445.582	135.44
445.803	154.44
446.024	155.44
446.245	156.44
446.466	128.44
446.687	144.44
446.908	145.44
447.129	158.44
447.35	166.44
447.571	137.44
447.792	134.44
448.013	141.44
448.234	137.44
448.455	134.44
448.675	132.44
448.896	141.44
449.117	131.44
449.338	134.44
449.559	134.44
449.779	143.44
450	144.44
450.221	148.44
450.442	138.44
450.662	119.44
450.883	124.44
451.104	137.44
451.324	123.44
451.545	127.44
451.766	123.44
451.986	141.44
452.207	130.44
452.428	123.44
452.648	128.44
452.869	122.44
453.089	114.44
453.31	111.44
453.53	104.44
453.751	105.44
453.971	111.44
454.192	95.44
454.412	103.44
454.633	107.44
454.853	121.44
455.073	120.44
455.294	119.44
455.514	128.44
455.734	106.44
455.955	116.44
456.175	112.44
456.395	118.44
456.616	98.44
456.836	118.44
457.056	119.44
457.276	105.44
457.497	112.44
457.717	116.44
457.937	103.44
458.157	112.44
458.377	105.44
458.598	104.44
458.818	100.44
459.038	69.44
459.258	78.44
459.478	91.44
459.698	77.44
459.918	100.44
460.138	108.44
460.358	108.44
460.578	116.44
460.798	107.44
461.018	120.44
461.238	107.44
461.458	107.44
461.678	119.44
461.898	123.44
462.118	135.44
462.338	115.44
462.558	107.44
462.777	120.44
462.997	124.44
463.217	100.44
463.437	102.44
463.657	116.44
463.876	121.44
464.096	101.44
464.316	102.44
464.536	119.44
464.755	131.44
464.975	116.44
465.195	119.44
465.414	111.44
465.634	100.44
465.854	120.44
466.073	116.44
466.293	114.44
466.512	127.44
466.732	127.44
466.951	122.44
467.171	129.44
467.391	138.44
467.61	121.44
467.829	136.44
468.049	138.44
468.268	129.44
468.488	135.44
468.707	135.44
468.927	138.44
469.146	132.44
469.365	131.44
469.585	148.44
469.804	134.44
470.023	144.44
470.243	144.44
470.462	146.44
470.681	136.44
470.901	131.44
471.12	133.44
471.339	138.44
471.558	128.44
471.777	149.44
471.997	123.44
472.216	131.44
472.435	100.44
472.654	110.44
472.873	118.44
473.092	115.44
473.311	126.44
473.53	130.44
473.749	117.44
473.968	123.44
474.187	125.44
474.406	114.44
474.625	120.44
474.844	128.44
475.063	125.44
475.282	126.44
475.501	123.44
475.72	102.44
475.939	116.44
476.158	118.44
476.377	116.44
476.596	120.44
476.814	110.44
477.033	96.44
477.252	116.44
477.471	122.44
477.69	139.44
477.908	136.44
478.127	132.44
478.346	147.44
478.564	134.44
478.783	135.44
479.002	142.44
479.22	148.44
479.439	129.44
479.658	135.44
479.876	102.44
480.095	117.44
480.313	122.44
480.532	120.44
480.751	95.44
480.969	94.44
481.188	83.44
481.406	90.44
481.624	93.44
481.843	88.44
482.061	96.44
482.28	114.44
482.498	120.44
482.717	119.44
482.935	116.44
483.153	131.44
483.372	159.44
483.59	146.44
483.808	128.44
484.027	140.44
484.245	132.44
484.463	151.44
484.681	152.44
484.9	143.44
485.118	140.44
485.336	135.44
485.554	109.44
485.772	101.44
485.99	106.44
486.209	110.44
486.427	99.44
486.645	137.44
486.863	138.44
487.081	154.44
487.299	134.44
487.517	137.44
487.735	167.44
487.953	158.44
488.171	167.44
488.389	171.44
488.607	146.44
488.825	150.44
489.043	138.44
489.261	122.44
489.479	139.44
489.696	132.44
489.914	139.44
490.132	139.44
490.35	148.44
490.568	157.44
490.786	164.44
491.003	188.44
491.221	186.44
491.439	182.44
491.657	188.44
491.874	192.44
492.092	221.44
492.31	246.44
492.527	233.44
492.745	208.44
492.963	180.44
493.18	176.44
493.398	177.44
493.615	177.44
493.833	162.44
494.05	176.44
494.268	176.44
494.485	176.44
494.703	170.44
494.92	173.44
495.138	158.44
495.355	174.44
495.573	170.44
495.79	174.44
496.008	176.44
496.225	155.44
496.442	165.44
496.66	170.44
496.877	164.44
497.094	170.44
497.312	166.44
497.529	164.44
497.746	161.44
497.963	152.44
498.181	141.44
498.398	125.44
498.615	113.44
498.832	119.44
499.049	113.44
499.267	132.44
499.484	126.44
499.701	135.44
499.918	130.44
500.135	139.44
500.352	141.44
500.569	126.44
500.786	135.44
501.003	128.44
501.22	130.44
501.437	139.44
501.654	129.44
501.871	128.44
502.088	127.44
502.305	137.44
502.522	123.44
502.739	130.44
502.956	112.44
503.172	124.44
503.389	124.44
503.606	121.44
503.823	123.44
504.04	130.44
504.256	114.44
504.473	107.44
504.69	126.44
504.907	122.44
505.123	123.44
505.34	127.44
505.557	117.44
505.773	131.44
505.99	120.44
506.207	126.44
506.423	121.44
506.64	121.44
506.856	109.44
507.073	122.44
507.289	125.44
507.506	121.44
507.722	114.44
507.939	101.44
508.155	101.44
508.372	104.44
508.588	121.44
508.805	110.44
509.021	110.44
509.238	109.44
509.454	101.44
509.67	106.44
509.887	97.44
510.103	87.44
510.319	99.44
510.536	88.44
510.752	85.44
510.968	77.44
511.184	79.44
511.401	84.44
511.617	96.44
511.833	89.44
