Data from Location2.07152019.Energy5.Lamp.07192019.3%Agarose_HRD10591_14-57-48-359.txt Node
Date: Fri Jul 19 14:57:48 EDT 2019
User: cochatt
Spectrometer: HR+D1059
Trigger mode: 1
Integration Time (sec): 1.000000E-1
Scans to average: 1
Electric dark correction enabled: true
Nonlinearity correction enabled: false
Boxcar width: 0
XAxis mode: Wavelengths
Number of Pixels in Spectrum: 2048
>>>>>Begin Spectral Data<<<<<
223.165	-28
223.4	-28
223.635	-28
223.869	-3
224.104	-28
224.338	-24
224.573	-8
224.808	-16
225.042	-7
225.277	4
225.511	-15
225.746	1
225.98	10
226.215	20
226.449	11
226.683	34
226.918	20
227.152	29
227.387	41
227.621	27
227.856	48
228.09	57
228.324	26
228.559	61
228.793	60
229.027	61
229.262	64
229.496	60
229.73	56
229.964	78
230.199	71
230.433	61
230.667	74
230.901	74
231.136	77
231.37	81
231.604	72
231.838	87
232.072	74
232.306	70
232.541	86
232.775	67
233.009	90
233.243	81
233.477	86
233.711	80
233.945	89
234.179	84
234.413	68
234.647	87
234.881	76
235.115	88
235.349	68
235.583	78
235.817	79
236.051	74
236.285	62
236.519	73
236.753	81
236.987	77
237.221	72
237.455	88
237.689	67
237.922	65
238.156	66
238.39	69
238.624	77
238.858	81
239.091	78
239.325	68
239.559	81
239.793	75
240.027	77
240.26	69
240.494	75
240.728	90
240.961	68
241.195	70
241.429	69
241.662	69
241.896	55
242.13	71
242.363	68
242.597	70
242.83	74
243.064	84
243.298	77
243.531	77
243.765	76
243.998	91
244.232	75
244.465	72
244.699	82
244.932	81
245.166	76
245.399	74
245.633	71
245.866	81
246.099	78
246.333	64
246.566	77
246.8	75
247.033	70
247.266	66
247.5	87
247.733	89
247.966	73
248.2	63
248.433	75
248.666	71
248.899	73
249.133	76
249.366	80
249.599	80
249.832	75
250.066	80
250.299	79
250.532	67
250.765	74
250.998	66
251.231	69
251.465	80
251.698	72
251.931	82
252.164	84
252.397	80
252.63	67
252.863	86
253.096	78
253.329	87
253.562	90
253.795	71
254.028	83
254.261	91
254.494	76
254.727	84
254.96	64
255.193	66
255.426	82
255.659	64
255.892	84
256.124	70
256.357	81
256.59	68
256.823	78
257.056	79
257.289	81
257.521	81
257.754	64
257.987	61
258.22	67
258.452	85
258.685	80
258.918	76
259.151	89
259.383	71
259.616	73
259.849	76
260.081	81
260.314	75
260.547	84
260.779	74
261.012	85
261.244	89
261.477	93
261.71	89
261.942	73
262.175	92
262.407	83
262.64	86
262.872	70
263.105	86
263.337	80
263.57	85
263.802	90
264.035	84
264.267	65
264.499	68
264.732	77
264.964	74
265.197	93
265.429	75
265.661	75
265.894	82
266.126	80
266.358	82
266.591	72
266.823	80
267.055	53
267.287	87
267.52	88
267.752	96
267.984	76
268.216	83
268.448	89
268.681	87
268.913	74
269.145	76
269.377	80
269.609	73
269.841	68
270.073	88
270.306	91
270.538	79
270.77	65
271.002	89
271.234	79
271.466	80
271.698	76
271.93	76
272.162	83
272.394	87
272.626	81
272.858	76
273.09	82
273.322	58
273.553	75
273.785	72
274.017	90
274.249	74
274.481	86
274.713	81
274.945	84
275.176	84
275.408	88
275.64	84
275.872	66
276.104	77
276.335	77
276.567	92
276.799	79
277.031	86
277.262	84
277.494	96
277.726	89
277.957	87
278.189	90
278.421	69
278.652	85
278.884	85
279.115	75
279.347	68
279.579	89
279.81	87
280.042	90
280.273	74
280.505	85
280.736	83
280.968	95
281.199	85
281.431	78
281.662	88
281.894	78
282.125	86
282.356	78
282.588	78
282.819	78
283.051	89
283.282	92
283.513	94
283.745	86
283.976	89
284.207	83
284.439	100
284.67	96
284.901	71
285.132	84
285.364	71
285.595	84
285.826	76
286.057	94
286.288	94
286.52	86
286.751	93
286.982	90
287.213	85
287.444	79
287.675	82
287.906	84
288.138	93
288.369	78
288.6	109
288.831	74
289.062	92
289.293	77
289.524	69
289.755	78
289.986	81
290.217	71
290.448	80
290.679	86
290.91	84
291.141	74
291.371	89
291.602	69
291.833	73
292.064	76
292.295	83
292.526	79
292.757	101
292.987	94
293.218	88
293.449	88
293.68	89
293.91	82
294.141	89
294.372	85
294.603	96
294.833	82
295.064	83
295.295	77
295.525	83
295.756	66
295.987	76
296.217	84
296.448	78
296.679	77
296.909	73
297.14	82
297.37	89
297.601	95
297.831	84
298.062	74
298.292	76
298.523	85
298.753	78
298.984	85
299.214	91
299.445	80
299.675	105
299.905	88
300.136	80
300.366	69
300.597	91
300.827	76
301.057	77
301.288	89
301.518	92
301.748	94
301.979	93
302.209	86
302.439	96
302.669	90
302.9	78
303.13	93
303.36	68
303.59	75
303.82	85
304.051	91
304.281	93
304.511	88
304.741	78
304.971	89
305.201	87
305.431	94
305.661	74
305.891	77
306.121	86
306.352	77
306.582	74
306.812	88
307.042	90
307.272	98
307.502	88
307.731	90
307.961	86
308.191	85
308.421	100
308.651	101
308.881	83
309.111	98
309.341	92
309.571	67
309.8	89
310.03	86
310.26	82
310.49	90
310.72	86
310.949	72
311.179	79
311.409	84
311.639	88
311.868	73
312.098	81
312.328	80
312.557	67
312.787	82
313.017	91
313.246	85
313.476	83
313.706	93
313.935	75
314.165	85
314.394	82
314.624	77
314.853	73
315.083	87
315.312	78
315.542	86
315.771	84
316.001	80
316.23	70
316.46	83
316.689	86
316.919	84
317.148	80
317.377	88
317.607	83
317.836	72
318.065	79
318.295	87
318.524	79
318.753	82
318.983	86
319.212	101
319.441	83
319.67	94
319.9	91
320.129	99
320.358	66
320.587	78
320.816	94
321.046	84
321.275	85
321.504	72
321.733	90
321.962	79
322.191	79
322.42	87
322.649	82
322.878	105
323.108	100
323.337	75
323.566	81
323.795	78
324.024	84
324.253	84
324.482	89
324.71	83
324.939	77
325.168	89
325.397	93
325.626	87
325.855	87
326.084	89
326.313	81
326.542	84
326.77	73
326.999	76
327.228	80
327.457	70
327.686	76
327.914	86
328.143	67
328.372	80
328.6	76
328.829	90
329.058	94
329.287	85
329.515	77
329.744	86
329.972	89
330.201	81
330.43	90
330.658	80
330.887	84
331.115	73
331.344	78
331.572	92
331.801	90
332.03	90
332.258	80
332.486	79
332.715	81
332.943	101
333.172	77
333.4	82
333.629	106
333.857	81
334.085	82
334.314	76
334.542	85
334.771	70
334.999	91
335.227	96
335.455	88
335.684	85
335.912	92
336.14	77
336.369	87
336.597	83
336.825	78
337.053	84
337.281	82
337.51	80
337.738	96
337.966	75
338.194	91
338.422	84
338.65	75
338.878	77
339.106	91
339.334	86
339.562	90
339.79	93
340.018	94
340.246	81
340.474	84
340.702	81
340.93	93
341.158	60
341.386	89
341.614	86
341.842	89
342.07	81
342.298	86
342.526	90
342.754	87
342.981	96
343.209	89
343.437	79
343.665	90
343.893	74
344.12	89
344.348	76
344.576	79
344.804	78
345.031	101
345.259	97
345.487	86
345.714	90
345.942	83
346.17	85
346.397	90
346.625	80
346.853	77
347.08	89
347.308	83
347.535	89
347.763	84
347.99	90
348.218	94
348.445	81
348.673	82
348.9	87
349.128	87
349.355	94
349.583	81
349.81	82
350.037	90
350.265	96
350.492	88
350.72	101
350.947	89
351.174	69
351.402	79
351.629	86
351.856	89
352.083	92
352.311	85
352.538	87
352.765	89
352.992	74
353.22	91
353.447	96
353.674	73
353.901	69
354.128	80
354.355	82
354.583	83
354.81	86
355.037	86
355.264	87
355.491	85
355.718	81
355.945	74
356.172	86
356.399	88
356.626	85
356.853	82
357.08	81
357.307	99
357.534	91
357.761	90
357.988	96
358.215	92
358.441	78
358.668	88
358.895	80
359.122	83
359.349	97
359.576	68
359.802	74
360.029	87
360.256	81
360.483	80
360.709	77
360.936	96
361.163	84
361.39	83
361.616	86
361.843	72
362.07	80
362.296	92
362.523	84
362.749	75
362.976	72
363.203	84
363.429	94
363.656	85
363.882	86
364.109	76
364.335	92
364.562	84
364.788	87
365.015	72
365.241	85
365.468	85
365.694	80
365.92	81
366.147	82
366.373	99
366.599	72
366.826	78
367.052	82
367.278	78
367.505	97
367.731	106
367.957	80
368.184	82
368.41	77
368.636	88
368.862	98
369.089	78
369.315	88
369.541	96
369.767	90
369.993	87
370.219	92
370.445	91
370.672	92
370.898	80
371.124	94
371.35	90
371.576	83
371.802	92
372.028	85
372.254	102
372.48	99
372.706	93
372.932	88
373.158	90
373.384	77
373.61	88
373.835	98
374.061	89
374.287	91
374.513	87
374.739	84
374.965	97
375.191	104
375.416	102
375.642	87
375.868	97
376.094	89
376.319	92
376.545	91
376.771	115
376.997	99
377.222	100
377.448	93
377.674	93
377.899	79
378.125	80
378.35	79
378.576	90
378.802	76
379.027	88
379.253	99
379.478	99
379.704	85
379.929	110
380.155	96
380.38	82
380.606	104
380.831	94
381.057	103
381.282	110
381.507	73
381.733	98
381.958	97
382.184	90
382.409	113
382.634	114
382.86	105
383.085	105
383.31	83
383.535	95
383.761	94
383.986	100
384.211	82
384.436	97
384.662	99
384.887	109
385.112	107
385.337	98
385.562	103
385.787	95
386.013	88
386.238	106
386.463	116
386.688	97
386.913	104
387.138	97
387.363	100
387.588	92
387.813	101
388.038	124
388.263	91
388.488	104
388.713	92
388.938	94
389.163	97
389.387	91
389.612	109
389.837	101
390.062	112
390.287	102
390.512	93
390.736	94
390.961	105
391.186	105
391.411	107
391.636	121
391.86	104
392.085	106
392.31	106
392.534	111
392.759	99
392.984	118
393.208	109
393.433	106
393.658	98
393.882	88
394.107	107
394.331	107
394.556	88
394.78	105
395.005	98
395.229	101
395.454	126
395.678	97
395.903	110
396.127	118
396.352	100
396.576	101
396.801	116
397.025	112
397.249	124
397.474	115
397.698	102
397.922	104
398.147	106
398.371	99
398.595	105
398.82	106
399.044	114
399.268	114
399.492	110
399.717	116
399.941	105
400.165	89
400.389	104
400.613	115
400.837	118
401.062	100
401.286	105
401.51	107
401.734	120
401.958	120
402.182	106
402.406	109
402.63	120
402.854	110
403.078	121
403.302	112
403.526	118
403.75	124
403.974	123
404.198	104
404.422	110
404.645	108
404.869	112
405.093	136
405.317	121
405.541	103
405.765	113
405.988	121
406.212	101
406.436	118
406.66	120
406.883	125
407.107	120
407.331	116
407.555	102
407.778	120
408.002	120
408.226	121
408.449	119
408.673	104
408.896	114
409.12	128
409.344	116
409.567	121
409.791	128
410.014	119
410.238	120
410.461	139
410.685	130
410.908	123
411.132	131
411.355	120
411.578	126
411.802	120
412.025	102
412.249	122
412.472	105
412.695	108
412.919	123
413.142	110
413.365	130
413.589	124
413.812	116
414.035	119
414.258	106
414.482	110
414.705	126
414.928	122
415.151	108
415.374	121
415.597	115
415.821	124
416.044	122
416.267	138
416.49	121
416.713	133
416.936	128
417.159	116
417.382	121
417.605	117
417.828	122
418.051	137
418.274	128
418.497	124
418.72	142
418.943	143
419.166	140
419.389	134
419.611	122
419.834	136
420.057	130
420.28	123
420.503	138
420.726	144
420.948	117
421.171	139
421.394	127
421.617	131
421.839	146
422.062	122
422.285	127
422.507	126
422.73	129
422.953	124
423.175	118
423.398	133
423.621	131
423.843	143
424.066	115
424.288	148
424.511	146
424.733	142
424.956	136
425.178	124
425.401	124
425.623	139
425.846	122
426.068	124
426.291	144
426.513	134
426.735	131
426.958	124
427.18	138
427.402	143
427.625	120
427.847	125
428.069	133
428.292	123
428.514	135
428.736	117
428.958	132
429.181	126
429.403	132
429.625	123
429.847	127
430.069	135
430.292	131
430.514	128
430.736	121
430.958	134
431.18	122
431.402	134
431.624	125
431.846	104
432.068	101
432.29	80
432.512	106
432.734	123
432.956	123
433.178	140
433.4	136
433.622	141
433.844	118
434.066	123
434.287	115
434.509	104
434.731	114
434.953	122
435.175	133
435.397	134
435.618	125
435.84	105
436.062	114
436.284	105
436.505	124
436.727	131
436.949	132
437.17	125
437.392	110
437.614	134
437.835	126
438.057	108
438.278	105
438.5	132
438.721	128
438.943	139
439.165	131
439.386	136
439.608	163
439.829	137
440.05	142
440.272	140
440.493	146
440.715	136
440.936	132
441.158	153
441.379	125
441.6	154
441.822	148
442.043	135
442.264	134
442.486	128
442.707	160
442.928	145
443.149	140
443.371	137
443.592	140
443.813	148
444.034	134
444.255	133
444.476	132
444.698	126
444.919	132
445.14	223
445.361	186
445.582	154
445.803	133
446.024	143
446.245	149
446.466	149
446.687	148
446.908	150
447.129	149
447.35	157
447.571	143
447.792	150
448.013	146
448.234	125
448.455	130
448.675	143
448.896	143
449.117	150
449.338	125
449.559	128
449.779	128
450	142
450.221	132
450.442	138
450.662	124
450.883	126
451.104	128
451.324	142
451.545	147
451.766	132
451.986	118
452.207	138
452.428	137
452.648	130
452.869	115
453.089	108
453.31	104
453.53	101
453.751	105
453.971	110
454.192	94
454.412	90
454.633	97
454.853	115
455.073	110
455.294	132
455.514	113
455.734	122
455.955	120
456.175	109
456.395	100
456.616	111
456.836	108
457.056	112
457.276	95
457.497	102
457.717	101
457.937	122
458.157	123
458.377	117
458.598	93
458.818	101
459.038	90
459.258	75
459.478	79
459.698	86
459.918	83
460.138	102
460.358	115
460.578	116
460.798	115
461.018	114
461.238	125
461.458	105
461.678	120
461.898	114
462.118	111
462.338	114
462.558	121
462.777	114
462.997	114
463.217	104
463.437	107
463.657	110
463.876	100
464.096	112
464.316	117
464.536	110
464.755	123
464.975	120
465.195	113
465.414	104
465.634	120
465.854	121
466.073	118
466.293	128
466.512	138
466.732	136
466.951	135
467.171	116
467.391	138
467.61	129
467.829	117
468.049	130
468.268	133
468.488	124
468.707	145
468.927	136
469.146	122
469.365	143
469.585	140
469.804	139
470.023	148
470.243	140
470.462	131
470.681	160
470.901	141
471.12	135
471.339	127
471.558	140
471.777	141
471.997	133
472.216	133
472.435	109
472.654	126
472.873	123
473.092	124
473.311	131
473.53	132
473.749	119
473.968	134
474.187	121
474.406	114
474.625	135
474.844	148
475.063	132
475.282	135
475.501	110
475.72	121
475.939	120
476.158	124
476.377	138
476.596	117
476.814	116
477.033	108
477.252	100
477.471	129
477.69	130
477.908	137
478.127	146
478.346	125
478.564	142
478.783	122
479.002	133
479.22	149
479.439	130
479.658	110
479.876	112
480.095	128
480.313	120
480.532	116
480.751	109
480.969	103
481.188	99
481.406	91
481.624	93
481.843	94
482.061	104
482.28	109
482.498	129
482.717	121
482.935	122
483.153	138
483.372	156
483.59	152
483.808	123
484.027	136
484.245	125
484.463	142
484.681	154
484.9	139
485.118	141
485.336	122
485.554	104
485.772	114
485.99	105
486.209	115
486.427	116
486.645	114
486.863	116
487.081	134
487.299	132
487.517	138
487.735	171
487.953	178
488.171	173
488.389	171
488.607	148
488.825	125
489.043	126
489.261	135
489.479	138
489.696	149
489.914	135
490.132	161
490.35	163
490.568	181
490.786	178
491.003	164
491.221	188
491.439	176
491.657	179
491.874	186
492.092	224
492.31	258
492.527	211
492.745	203
492.963	194
493.18	195
493.398	174
493.615	180
493.833	198
494.05	171
494.268	161
494.485	171
494.703	170
494.92	166
495.138	183
495.355	172
495.573	166
495.79	181
496.008	158
496.225	165
496.442	175
496.66	168
496.877	157
497.094	160
497.312	152
497.529	160
497.746	150
497.963	128
498.181	143
498.398	137
498.615	119
498.832	125
499.049	135
499.267	133
499.484	139
499.701	136
499.918	137
500.135	135
500.352	159
500.569	131
500.786	146
501.003	137
501.22	126
501.437	126
501.654	132
501.871	123
502.088	129
502.305	144
502.522	130
502.739	132
502.956	137
503.172	135
503.389	133
503.606	126
503.823	107
504.04	132
504.256	120
504.473	123
504.69	98
504.907	130
505.123	135
505.34	128
505.557	115
505.773	119
505.99	115
506.207	125
506.423	116
506.64	113
506.856	124
507.073	124
507.289	125
507.506	112
507.722	122
507.939	120
508.155	115
508.372	101
508.588	104
508.805	119
509.021	98
509.238	101
509.454	87
509.67	109
509.887	106
510.103	96
510.319	101
510.536	93
510.752	85
510.968	89
511.184	88
511.401	95
511.617	89
511.833	85
512.049	106
512.265	86
512.481	93
512.698	102
512.914	99
513.13	85
513.346	90
513.562	86
513.778	85
513.994	101
514.21	82
514.426	101
514.642	91
514.858	82
515.074	93
515.29	91
515.506	102
515.721	90
515.937	88
516.153	85
516.369	93
516.585	92
516.801	74
517.016	98
517.232	104
517.448	105
517.664	91
517.879	92
518.095	102
518.311	95
518.527	96
518.742	105
518.958	121
519.173	122
519.389	108
519.605	123
519.82	89
520.036	95
520.251	109
520.467	116
520.682	102
520.898	103
521.113	93
521.329	75
521.544	89
521.76	98
521.975	96
522.19	92
522.406	97
522.621	105
522.836	93
523.052	116
523.267	112
523.482	113
523.698	119
523.913	112
524.128	116
524.343	102
524.559	131
524.774	116
524.989	119
525.204	122
525.419	128
525.634	113
525.849	114
526.064	106
526.28	102
526.495	89
526.71	91
526.925	92
527.14	69
527.355	93
527.57	88
527.785	86
527.999	96
528.214	109
528.429	102
528.644	117
528.859	128
529.074	168
529.289	163
529.503	152
529.718	109
529.933	122
530.148	105
530.363	83
530.577	78
530.792	86
531.007	81
531.221	88
531.436	71
531.651	93
531.865	83
532.08	93
532.295	87
532.509	84
532.724	91
532.938	81
533.153	106
533.367	102
533.582	118
533.796	108
534.011	118
534.225	101
534.44	79
534.654	112
534.868	93
535.083	108
535.297	85
535.511	104
535.726	98
535.94	102
536.154	102
536.369	96
536.583	81
536.797	79
537.011	88
537.225	77
537.44	91
537.654	79
537.868	97
538.082	98
538.296	80
538.51	91
538.724	110
538.938	118
539.153	133
539.367	114
539.581	100
539.795	122
540.009	102
540.222	104
540.436	93
540.65	115
540.864	126
541.078	129
541.292	163
541.506	151
541.72	172
541.934	174
542.147	183
542.361	180
542.575	166
542.789	140
543.002	133
543.216	125
543.43	119
543.644	137
543.857	146
544.071	154
544.285	165
544.498	150
544.712	158
544.925	152
545.139	164
545.352	167
545.566	163
545.779	164
545.993	161
546.206	161
546.42	150
546.633	163
546.847	165
547.06	148
547.274	161
547.487	171
547.7	190
547.914	176
548.127	167
548.34	154
548.554	159
548.767	150
548.98	152
549.193	159
549.407	156
549.62	146
549.833	169
550.046	151
550.259	168
550.473	155
550.686	150
550.899	154
551.112	153
551.325	140
551.538	133
551.751	116
551.964	114
552.177	135
552.39	142
552.603	142
552.816	132
553.029	137
553.242	169
553.455	181
553.667	162
553.88	135
554.093	138
554.306	152
554.519	136
554.732	147
554.944	142
555.157	147
555.37	139
555.583	150
555.795	150
556.008	136
556.221	124
556.433	137
556.646	141
556.859	138
557.071	139
557.284	131
557.496	159
557.709	146
557.921	142
558.134	142
558.346	133
558.559	122
558.771	132
558.984	131
559.196	138
559.409	123
559.621	136
559.833	141
560.046	136
560.258	133
560.47	140
560.683	127
560.895	125
561.107	127
561.32	133
561.532	124
561.744	128
561.956	140
562.168	125
562.381	125
562.593	120
562.805	114
563.017	121
563.229	122
563.441	132
563.653	121
563.865	122
564.077	129
564.289	129
564.501	131
564.713	128
564.925	130
565.137	121
565.349	113
565.561	120
565.773	112
565.985	115
566.197	119
566.408	116
566.62	106
566.832	121
567.044	124
567.255	123
567.467	113
567.679	96
567.891	107
568.102	101
568.314	82
568.526	91
568.737	73
568.949	83
569.161	92
569.372	75
569.584	80
569.795	87
570.007	95
570.218	90
570.43	101
570.641	96
570.853	105
571.064	113
571.276	108
571.487	112
571.698	101
571.91	104
572.121	114
572.333	110
572.544	83
572.755	95
572.966	97
573.178	87
573.389	97
573.6	83
573.811	71
574.023	84
574.234	93
574.445	93
574.656	87
574.867	105
575.078	99
575.289	105
575.501	97
575.712	98
575.923	104
576.134	88
576.345	86
576.556	83
576.767	91
