Data from Location2.07152019.Energy5.Lamp.07192019.3%Agarose_HRD10591_14-57-38-359.txt Node
Date: Fri Jul 19 14:57:38 EDT 2019
User: cochatt
Spectrometer: HR+D1059
Trigger mode: 1
Integration Time (sec): 1.000000E-1
Scans to average: 1
Electric dark correction enabled: true
Nonlinearity correction enabled: false
Boxcar width: 0
XAxis mode: Wavelengths
Number of Pixels in Spectrum: 2048
>>>>>Begin Spectral Data<<<<<
223.165	-11.44
223.4	-11.44
223.635	-11.44
223.869	-17.44
224.104	-25.44
224.338	-15.44
224.573	-9.44
224.808	-17.44
225.042	-16.44
225.277	-12.44
225.511	-13.44
225.746	5.56
225.98	16.56
226.215	2.56
226.449	23.56
226.683	25.56
226.918	34.56
227.152	30.56
227.387	36.56
227.621	18.56
227.856	38.56
228.09	52.56
228.324	54.56
228.559	49.56
228.793	50.56
229.027	71.56
229.262	46.56
229.496	70.56
229.73	68.56
229.964	79.56
230.199	80.56
230.433	67.56
230.667	85.56
230.901	78.56
231.136	75.56
231.37	73.56
231.604	88.56
231.838	85.56
232.072	77.56
232.306	80.56
232.541	81.56
232.775	72.56
233.009	82.56
233.243	86.56
233.477	71.56
233.711	84.56
233.945	73.56
234.179	87.56
234.413	74.56
234.647	75.56
234.881	75.56
235.115	58.56
235.349	75.56
235.583	73.56
235.817	85.56
236.051	80.56
236.285	81.56
236.519	77.56
236.753	85.56
236.987	89.56
237.221	78.56
237.455	80.56
237.689	89.56
237.922	72.56
238.156	62.56
238.39	70.56
238.624	71.56
238.858	72.56
239.091	66.56
239.325	73.56
239.559	70.56
239.793	74.56
240.027	70.56
240.26	85.56
240.494	82.56
240.728	67.56
240.961	67.56
241.195	78.56
241.429	83.56
241.662	66.56
241.896	88.56
242.13	75.56
242.363	76.56
242.597	79.56
242.83	73.56
243.064	78.56
243.298	82.56
243.531	69.56
243.765	75.56
243.998	89.56
244.232	82.56
244.465	80.56
244.699	80.56
244.932	68.56
245.166	84.56
245.399	76.56
245.633	75.56
245.866	70.56
246.099	81.56
246.333	88.56
246.566	76.56
246.8	74.56
247.033	82.56
247.266	81.56
247.5	79.56
247.733	74.56
247.966	95.56
248.2	74.56
248.433	70.56
248.666	83.56
248.899	80.56
249.133	77.56
249.366	84.56
249.599	90.56
249.832	72.56
250.066	84.56
250.299	79.56
250.532	97.56
250.765	68.56
250.998	86.56
251.231	83.56
251.465	83.56
251.698	80.56
251.931	83.56
252.164	72.56
252.397	87.56
252.63	73.56
252.863	88.56
253.096	69.56
253.329	62.56
253.562	79.56
253.795	79.56
254.028	82.56
254.261	74.56
254.494	87.56
254.727	87.56
254.96	96.56
255.193	77.56
255.426	80.56
255.659	88.56
255.892	95.56
256.124	78.56
256.357	84.56
256.59	88.56
256.823	81.56
257.056	73.56
257.289	67.56
257.521	88.56
257.754	79.56
257.987	70.56
258.22	81.56
258.452	81.56
258.685	68.56
258.918	76.56
259.151	83.56
259.383	88.56
259.616	84.56
259.849	90.56
260.081	83.56
260.314	87.56
260.547	91.56
260.779	84.56
261.012	74.56
261.244	68.56
261.477	99.56
261.71	76.56
261.942	76.56
262.175	83.56
262.407	84.56
262.64	79.56
262.872	79.56
263.105	88.56
263.337	86.56
263.57	86.56
263.802	68.56
264.035	98.56
264.267	83.56
264.499	82.56
264.732	79.56
264.964	77.56
265.197	76.56
265.429	91.56
265.661	72.56
265.894	82.56
266.126	64.56
266.358	69.56
266.591	85.56
266.823	74.56
267.055	88.56
267.287	89.56
267.52	79.56
267.752	75.56
267.984	77.56
268.216	90.56
268.448	81.56
268.681	78.56
268.913	89.56
269.145	90.56
269.377	95.56
269.609	84.56
269.841	89.56
270.073	80.56
270.306	76.56
270.538	73.56
270.77	97.56
271.002	76.56
271.234	85.56
271.466	80.56
271.698	77.56
271.93	84.56
272.162	83.56
272.394	87.56
272.626	84.56
272.858	86.56
273.09	94.56
273.322	93.56
273.553	87.56
273.785	87.56
274.017	92.56
274.249	90.56
274.481	85.56
274.713	80.56
274.945	88.56
275.176	91.56
275.408	81.56
275.64	79.56
275.872	77.56
276.104	98.56
276.335	89.56
276.567	92.56
276.799	88.56
277.031	73.56
277.262	87.56
277.494	91.56
277.726	94.56
277.957	79.56
278.189	77.56
278.421	75.56
278.652	84.56
278.884	87.56
279.115	86.56
279.347	90.56
279.579	69.56
279.81	88.56
280.042	82.56
280.273	76.56
280.505	81.56
280.736	86.56
280.968	85.56
281.199	83.56
281.431	77.56
281.662	90.56
281.894	79.56
282.125	62.56
282.356	70.56
282.588	82.56
282.819	76.56
283.051	87.56
283.282	86.56
283.513	91.56
283.745	100.56
283.976	72.56
284.207	76.56
284.439	83.56
284.67	86.56
284.901	88.56
285.132	81.56
285.364	81.56
285.595	90.56
285.826	89.56
286.057	85.56
286.288	81.56
286.52	87.56
286.751	82.56
286.982	93.56
287.213	87.56
287.444	82.56
287.675	86.56
287.906	91.56
288.138	80.56
288.369	75.56
288.6	79.56
288.831	86.56
289.062	72.56
289.293	86.56
289.524	82.56
289.755	93.56
289.986	78.56
290.217	88.56
290.448	91.56
290.679	88.56
290.91	87.56
291.141	83.56
291.371	81.56
291.602	84.56
291.833	76.56
292.064	89.56
292.295	98.56
292.526	81.56
292.757	78.56
292.987	84.56
293.218	86.56
293.449	81.56
293.68	92.56
293.91	75.56
294.141	91.56
294.372	80.56
294.603	93.56
294.833	82.56
295.064	94.56
295.295	91.56
295.525	94.56
295.756	92.56
295.987	78.56
296.217	79.56
296.448	66.56
296.679	95.56
296.909	87.56
297.14	84.56
297.37	98.56
297.601	86.56
297.831	78.56
298.062	94.56
298.292	72.56
298.523	81.56
298.753	81.56
298.984	95.56
299.214	94.56
299.445	84.56
299.675	81.56
299.905	94.56
300.136	84.56
300.366	82.56
300.597	98.56
300.827	85.56
301.057	79.56
301.288	96.56
301.518	82.56
301.748	74.56
301.979	87.56
302.209	92.56
302.439	74.56
302.669	81.56
302.9	85.56
303.13	90.56
303.36	83.56
303.59	87.56
303.82	89.56
304.051	86.56
304.281	79.56
304.511	75.56
304.741	89.56
304.971	75.56
305.201	72.56
305.431	84.56
305.661	73.56
305.891	79.56
306.121	75.56
306.352	91.56
306.582	87.56
306.812	75.56
307.042	94.56
307.272	91.56
307.502	97.56
307.731	96.56
307.961	102.56
308.191	75.56
308.421	80.56
308.651	77.56
308.881	83.56
309.111	91.56
309.341	80.56
309.571	78.56
309.8	80.56
310.03	90.56
310.26	85.56
310.49	91.56
310.72	82.56
310.949	90.56
311.179	95.56
311.409	80.56
311.639	82.56
311.868	83.56
312.098	85.56
312.328	88.56
312.557	74.56
312.787	66.56
313.017	72.56
313.246	76.56
313.476	80.56
313.706	86.56
313.935	76.56
314.165	90.56
314.394	82.56
314.624	86.56
314.853	85.56
315.083	85.56
315.312	83.56
315.542	77.56
315.771	94.56
316.001	78.56
316.23	83.56
316.46	86.56
316.689	83.56
316.919	74.56
317.148	81.56
317.377	83.56
317.607	83.56
317.836	85.56
318.065	73.56
318.295	78.56
318.524	73.56
318.753	79.56
318.983	74.56
319.212	79.56
319.441	77.56
319.67	86.56
319.9	86.56
320.129	79.56
320.358	85.56
320.587	75.56
320.816	83.56
321.046	85.56
321.275	83.56
321.504	88.56
321.733	99.56
321.962	76.56
322.191	76.56
322.42	76.56
322.649	94.56
322.878	83.56
323.108	78.56
323.337	86.56
323.566	79.56
323.795	94.56
324.024	100.56
324.253	79.56
324.482	92.56
324.71	68.56
324.939	79.56
325.168	75.56
325.397	97.56
325.626	87.56
325.855	68.56
326.084	89.56
326.313	92.56
326.542	85.56
326.77	81.56
326.999	85.56
327.228	77.56
327.457	83.56
327.686	87.56
327.914	79.56
328.143	95.56
328.372	78.56
328.6	89.56
328.829	79.56
329.058	100.56
329.287	94.56
329.515	86.56
329.744	93.56
329.972	78.56
330.201	70.56
330.43	95.56
330.658	86.56
330.887	89.56
331.115	85.56
331.344	84.56
331.572	84.56
331.801	81.56
332.03	82.56
332.258	74.56
332.486	75.56
332.715	85.56
332.943	88.56
333.172	80.56
333.4	68.56
333.629	84.56
333.857	88.56
334.085	75.56
334.314	86.56
334.542	89.56
334.771	89.56
334.999	93.56
335.227	80.56
335.455	82.56
335.684	88.56
335.912	104.56
336.14	74.56
336.369	79.56
336.597	84.56
336.825	69.56
337.053	79.56
337.281	96.56
337.51	89.56
337.738	72.56
337.966	71.56
338.194	81.56
338.422	93.56
338.65	84.56
338.878	81.56
339.106	90.56
339.334	94.56
339.562	82.56
339.79	86.56
340.018	90.56
340.246	79.56
340.474	84.56
340.702	82.56
340.93	85.56
341.158	75.56
341.386	87.56
341.614	86.56
341.842	75.56
342.07	83.56
342.298	82.56
342.526	75.56
342.754	83.56
342.981	72.56
343.209	83.56
343.437	81.56
343.665	83.56
343.893	76.56
344.12	92.56
344.348	85.56
344.576	90.56
344.804	92.56
345.031	84.56
345.259	73.56
345.487	76.56
345.714	91.56
345.942	75.56
346.17	99.56
346.397	81.56
346.625	79.56
346.853	80.56
347.08	76.56
347.308	83.56
347.535	95.56
347.763	79.56
347.99	80.56
348.218	75.56
348.445	86.56
348.673	79.56
348.9	82.56
349.128	89.56
349.355	72.56
349.583	64.56
349.81	79.56
350.037	82.56
350.265	75.56
350.492	84.56
350.72	79.56
350.947	73.56
351.174	82.56
351.402	86.56
351.629	75.56
351.856	78.56
352.083	83.56
352.311	84.56
352.538	88.56
352.765	90.56
352.992	82.56
353.22	92.56
353.447	81.56
353.674	76.56
353.901	82.56
354.128	73.56
354.355	77.56
354.583	76.56
354.81	91.56
355.037	83.56
355.264	81.56
355.491	70.56
355.718	90.56
355.945	90.56
356.172	80.56
356.399	76.56
356.626	93.56
356.853	97.56
357.08	83.56
357.307	89.56
357.534	72.56
357.761	90.56
357.988	80.56
358.215	84.56
358.441	86.56
358.668	78.56
358.895	79.56
359.122	63.56
359.349	79.56
359.576	80.56
359.802	91.56
360.029	83.56
360.256	83.56
360.483	86.56
360.709	75.56
360.936	86.56
361.163	76.56
361.39	82.56
361.616	96.56
361.843	94.56
362.07	77.56
362.296	89.56
362.523	84.56
362.749	83.56
362.976	81.56
363.203	87.56
363.429	85.56
363.656	81.56
363.882	92.56
364.109	89.56
364.335	102.56
364.562	85.56
364.788	78.56
365.015	80.56
365.241	76.56
365.468	78.56
365.694	85.56
365.92	78.56
366.147	85.56
366.373	80.56
366.599	83.56
366.826	91.56
367.052	84.56
367.278	85.56
367.505	95.56
367.731	96.56
367.957	87.56
368.184	84.56
368.41	80.56
368.636	89.56
368.862	100.56
369.089	82.56
369.315	84.56
369.541	92.56
369.767	86.56
369.993	81.56
370.219	96.56
370.445	99.56
370.672	94.56
370.898	87.56
371.124	94.56
371.35	95.56
371.576	75.56
371.802	80.56
372.028	95.56
372.254	87.56
372.48	99.56
372.706	96.56
372.932	94.56
373.158	90.56
373.384	93.56
373.61	92.56
373.835	91.56
374.061	84.56
374.287	94.56
374.513	96.56
374.739	88.56
374.965	97.56
375.191	105.56
375.416	93.56
375.642	93.56
375.868	101.56
376.094	87.56
376.319	92.56
376.545	91.56
376.771	87.56
376.997	86.56
377.222	105.56
377.448	80.56
377.674	96.56
377.899	104.56
378.125	80.56
378.35	94.56
378.576	86.56
378.802	84.56
379.027	94.56
379.253	107.56
379.478	91.56
379.704	83.56
379.929	83.56
380.155	95.56
380.38	79.56
380.606	90.56
380.831	78.56
381.057	99.56
381.282	82.56
381.507	87.56
381.733	100.56
381.958	91.56
382.184	98.56
382.409	102.56
382.634	87.56
382.86	115.56
383.085	103.56
383.31	108.56
383.535	90.56
383.761	86.56
383.986	97.56
384.211	99.56
384.436	99.56
384.662	92.56
384.887	94.56
385.112	81.56
385.337	86.56
385.562	81.56
385.787	95.56
386.013	102.56
386.238	96.56
386.463	110.56
386.688	96.56
386.913	104.56
387.138	95.56
387.363	92.56
387.588	95.56
387.813	82.56
388.038	93.56
388.263	103.56
388.488	92.56
388.713	90.56
388.938	101.56
389.163	105.56
389.387	97.56
389.612	106.56
389.837	96.56
390.062	94.56
390.287	98.56
390.512	127.56
390.736	98.56
390.961	99.56
391.186	96.56
391.411	100.56
391.636	103.56
391.86	102.56
392.085	105.56
392.31	107.56
392.534	92.56
392.759	98.56
392.984	105.56
393.208	101.56
393.433	105.56
393.658	96.56
393.882	103.56
394.107	97.56
394.331	115.56
394.556	103.56
394.78	92.56
395.005	110.56
395.229	96.56
395.454	88.56
395.678	113.56
395.903	106.56
396.127	117.56
396.352	100.56
396.576	106.56
396.801	104.56
397.025	121.56
397.249	112.56
397.474	104.56
397.698	124.56
397.922	100.56
398.147	101.56
398.371	101.56
398.595	121.56
398.82	102.56
399.044	108.56
399.268	110.56
399.492	107.56
399.717	100.56
399.941	111.56
400.165	119.56
400.389	110.56
400.613	108.56
400.837	110.56
401.062	98.56
401.286	104.56
401.51	102.56
401.734	104.56
401.958	122.56
402.182	97.56
402.406	106.56
402.63	104.56
402.854	117.56
403.078	116.56
403.302	108.56
403.526	120.56
403.75	116.56
403.974	124.56
404.198	115.56
404.422	115.56
404.645	131.56
404.869	122.56
405.093	113.56
405.317	100.56
405.541	113.56
405.765	116.56
405.988	118.56
406.212	129.56
406.436	120.56
406.66	120.56
406.883	112.56
407.107	122.56
407.331	123.56
407.555	116.56
407.778	116.56
408.002	111.56
408.226	122.56
408.449	130.56
408.673	124.56
408.896	121.56
409.12	126.56
409.344	119.56
409.567	107.56
409.791	108.56
410.014	126.56
410.238	114.56
410.461	128.56
410.685	121.56
410.908	126.56
411.132	126.56
411.355	122.56
411.578	128.56
411.802	118.56
412.025	118.56
412.249	111.56
412.472	118.56
412.695	106.56
412.919	116.56
413.142	118.56
413.365	124.56
413.589	114.56
413.812	115.56
414.035	131.56
414.258	112.56
414.482	115.56
414.705	114.56
414.928	127.56
415.151	115.56
415.374	141.56
415.597	119.56
415.821	118.56
416.044	123.56
416.267	113.56
416.49	116.56
416.713	142.56
416.936	131.56
417.159	146.56
417.382	123.56
417.605	125.56
417.828	129.56
418.051	129.56
418.274	125.56
418.497	126.56
418.72	132.56
418.943	115.56
419.166	129.56
419.389	127.56
419.611	122.56
419.834	122.56
420.057	137.56
420.28	137.56
420.503	128.56
420.726	118.56
420.948	115.56
421.171	128.56
421.394	130.56
421.617	147.56
421.839	146.56
422.062	124.56
422.285	136.56
422.507	116.56
422.73	122.56
422.953	112.56
423.175	116.56
423.398	126.56
423.621	119.56
423.843	130.56
424.066	124.56
424.288	133.56
424.511	143.56
424.733	149.56
424.956	128.56
425.178	124.56
425.401	131.56
425.623	128.56
425.846	127.56
426.068	124.56
426.291	118.56
426.513	125.56
426.735	118.56
426.958	124.56
427.18	124.56
427.402	128.56
427.625	128.56
427.847	124.56
428.069	136.56
428.292	137.56
428.514	135.56
428.736	137.56
428.958	128.56
429.181	118.56
429.403	130.56
429.625	117.56
429.847	122.56
430.069	122.56
430.292	125.56
430.514	134.56
430.736	119.56
430.958	137.56
431.18	118.56
431.402	137.56
431.624	115.56
431.846	94.56
432.068	88.56
432.29	96.56
432.512	122.56
432.734	114.56
432.956	126.56
433.178	114.56
433.4	124.56
433.622	128.56
433.844	127.56
434.066	129.56
434.287	122.56
434.509	104.56
434.731	89.56
434.953	107.56
435.175	115.56
435.397	118.56
435.618	122.56
435.84	105.56
436.062	106.56
436.284	112.56
436.505	126.56
436.727	129.56
436.949	138.56
437.17	122.56
437.392	126.56
437.614	116.56
437.835	118.56
438.057	111.56
438.278	112.56
438.5	131.56
438.721	123.56
438.943	129.56
439.165	121.56
439.386	146.56
439.608	137.56
439.829	130.56
440.05	143.56
440.272	144.56
440.493	141.56
440.715	136.56
440.936	134.56
441.158	147.56
441.379	130.56
441.6	139.56
441.822	146.56
442.043	153.56
442.264	140.56
442.486	134.56
442.707	147.56
442.928	149.56
443.149	134.56
443.371	134.56
443.592	137.56
443.813	136.56
444.034	131.56
444.255	148.56
444.476	141.56
444.698	141.56
444.919	143.56
445.14	219.56
445.361	165.56
445.582	147.56
445.803	146.56
446.024	132.56
446.245	163.56
446.466	148.56
446.687	146.56
446.908	159.56
447.129	157.56
447.35	151.56
447.571	156.56
447.792	154.56
448.013	151.56
448.234	134.56
448.455	138.56
448.675	123.56
448.896	135.56
449.117	155.56
449.338	141.56
449.559	131.56
449.779	132.56
450	132.56
450.221	122.56
450.442	132.56
450.662	139.56
450.883	124.56
451.104	127.56
451.324	120.56
451.545	133.56
451.766	129.56
451.986	132.56
452.207	133.56
452.428	130.56
452.648	116.56
452.869	108.56
453.089	122.56
453.31	108.56
453.53	119.56
453.751	105.56
453.971	108.56
454.192	111.56
454.412	113.56
454.633	131.56
454.853	118.56
455.073	114.56
455.294	113.56
455.514	136.56
455.734	108.56
455.955	116.56
456.175	116.56
456.395	100.56
456.616	103.56
456.836	116.56
457.056	114.56
457.276	105.56
457.497	113.56
457.717	98.56
457.937	109.56
458.157	104.56
458.377	108.56
458.598	95.56
458.818	94.56
459.038	98.56
459.258	85.56
459.478	89.56
459.698	90.56
459.918	91.56
460.138	96.56
460.358	109.56
460.578	124.56
460.798	103.56
461.018	129.56
461.238	112.56
461.458	103.56
461.678	107.56
461.898	121.56
462.118	114.56
462.338	121.56
462.558	116.56
462.777	114.56
462.997	112.56
463.217	94.56
463.437	121.56
463.657	115.56
463.876	89.56
464.096	106.56
464.316	122.56
464.536	110.56
464.755	121.56
464.975	109.56
465.195	116.56
465.414	111.56
465.634	106.56
465.854	122.56
466.073	114.56
466.293	123.56
466.512	123.56
466.732	121.56
466.951	124.56
467.171	129.56
467.391	113.56
467.61	124.56
467.829	137.56
468.049	136.56
468.268	128.56
468.488	132.56
468.707	134.56
468.927	122.56
469.146	148.56
469.365	146.56
469.585	127.56
469.804	124.56
470.023	135.56
470.243	138.56
470.462	145.56
470.681	135.56
470.901	141.56
471.12	138.56
471.339	137.56
471.558	143.56
471.777	137.56
471.997	126.56
472.216	116.56
472.435	115.56
472.654	105.56
472.873	110.56
473.092	122.56
473.311	118.56
473.53	135.56
473.749	125.56
473.968	112.56
474.187	111.56
474.406	98.56
474.625	114.56
474.844	126.56
475.063	124.56
475.282	107.56
475.501	110.56
475.72	128.56
475.939	126.56
476.158	126.56
476.377	126.56
476.596	123.56
476.814	91.56
477.033	102.56
477.252	102.56
477.471	113.56
477.69	130.56
477.908	140.56
478.127	157.56
478.346	142.56
478.564	122.56
478.783	122.56
479.002	123.56
479.22	145.56
479.439	136.56
479.658	134.56
479.876	114.56
480.095	107.56
480.313	111.56
480.532	107.56
480.751	104.56
480.969	89.56
481.188	91.56
481.406	90.56
481.624	79.56
481.843	84.56
482.061	102.56
482.28	120.56
482.498	113.56
482.717	119.56
482.935	111.56
483.153	126.56
483.372	150.56
483.59	134.56
483.808	132.56
484.027	128.56
484.245	145.56
484.463	121.56
484.681	143.56
484.9	160.56
485.118	151.56
485.336	122.56
485.554	107.56
485.772	102.56
485.99	94.56
486.209	107.56
486.427	114.56
486.645	124.56
486.863	132.56
487.081	127.56
487.299	139.56
487.517	138.56
487.735	156.56
487.953	182.56
488.171	182.56
488.389	171.56
488.607	138.56
488.825	161.56
489.043	122.56
489.261	120.56
489.479	124.56
489.696	132.56
489.914	138.56
490.132	156.56
490.35	147.56
490.568	169.56
490.786	164.56
491.003	177.56
491.221	165.56
491.439	197.56
491.657	182.56
491.874	199.56
492.092	212.56
492.31	244.56
492.527	232.56
492.745	191.56
492.963	186.56
493.18	182.56
493.398	178.56
493.615	182.56
493.833	183.56
494.05	174.56
494.268	164.56
494.485	169.56
494.703	174.56
494.92	162.56
495.138	156.56
495.355	170.56
495.573	175.56
495.79	163.56
496.008	169.56
496.225	161.56
496.442	174.56
496.66	161.56
496.877	150.56
497.094	158.56
497.312	152.56
497.529	169.56
497.746	144.56
497.963	134.56
498.181	140.56
498.398	118.56
498.615	124.56
498.832	118.56
499.049	115.56
499.267	135.56
499.484	128.56
499.701	125.56
499.918	132.56
500.135	132.56
500.352	129.56
500.569	127.56
500.786	139.56
501.003	146.56
501.22	126.56
501.437	140.56
501.654	135.56
501.871	128.56
502.088	123.56
502.305	139.56
502.522	134.56
502.739	123.56
502.956	116.56
503.172	122.56
503.389	122.56
503.606	120.56
503.823	117.56
504.04	114.56
504.256	112.56
504.473	114.56
504.69	127.56
504.907	134.56
505.123	121.56
505.34	134.56
505.557	121.56
505.773	113.56
505.99	135.56
506.207	115.56
506.423	114.56
506.64	130.56
506.856	123.56
507.073	119.56
507.289	118.56
507.506	120.56
507.722	121.56
507.939	105.56
508.155	116.56
508.372	120.56
508.588	112.56
508.805	95.56
509.021	106.56
509.238	115.56
509.454	94.56
509.67	97.56
509.887	95.56
510.103	105.56
510.319	91.56
510.536	93.56
510.752	110.56
510.968	84.56
511.184	79.56
511.401	95.56
511.617	97.56
511.833	76.56
