Data from Location2.07152019.Energy5.Lamp.07192019.3%Agarose_HRD10591_14-56-23-361.txt Node
Date: Fri Jul 19 14:56:23 EDT 2019
User: cochatt
Spectrometer: HR+D1059
Trigger mode: 1
Integration Time (sec): 1.000000E-1
Scans to average: 1
Electric dark correction enabled: true
Nonlinearity correction enabled: false
Boxcar width: 0
XAxis mode: Wavelengths
Number of Pixels in Spectrum: 2048
>>>>>Begin Spectral Data<<<<<
223.165	-25.19
223.4	-25.19
223.635	-25.19
223.869	-18.19
224.104	-14.19
224.338	-18.19
224.573	-25.19
224.808	-17.19
225.042	1.81
225.277	-6.19
225.511	-2.19
225.746	6.81
225.98	17.81
226.215	7.81
226.449	15.81
226.683	15.81
226.918	24.81
227.152	35.81
227.387	21.81
227.621	34.81
227.856	45.81
228.09	50.81
228.324	51.81
228.559	55.81
228.793	52.81
229.027	47.81
229.262	67.81
229.496	72.81
229.73	64.81
229.964	77.81
230.199	72.81
230.433	79.81
230.667	71.81
230.901	73.81
231.136	67.81
231.37	82.81
231.604	72.81
231.838	68.81
232.072	76.81
232.306	83.81
232.541	62.81
232.775	86.81
233.009	81.81
233.243	80.81
233.477	76.81
233.711	79.81
233.945	78.81
234.179	77.81
234.413	75.81
234.647	85.81
234.881	74.81
235.115	82.81
235.349	78.81
235.583	78.81
235.817	69.81
236.051	86.81
236.285	64.81
236.519	70.81
236.753	89.81
236.987	69.81
237.221	78.81
237.455	77.81
237.689	90.81
237.922	76.81
238.156	82.81
238.39	66.81
238.624	67.81
238.858	88.81
239.091	68.81
239.325	69.81
239.559	84.81
239.793	72.81
240.027	74.81
240.26	68.81
240.494	71.81
240.728	59.81
240.961	65.81
241.195	82.81
241.429	66.81
241.662	66.81
241.896	69.81
242.13	74.81
242.363	85.81
242.597	83.81
242.83	80.81
243.064	61.81
243.298	74.81
243.531	80.81
243.765	71.81
243.998	74.81
244.232	77.81
244.465	74.81
244.699	73.81
244.932	93.81
245.166	79.81
245.399	85.81
245.633	91.81
245.866	68.81
246.099	77.81
246.333	70.81
246.566	85.81
246.8	80.81
247.033	73.81
247.266	84.81
247.5	79.81
247.733	76.81
247.966	78.81
248.2	79.81
248.433	74.81
248.666	83.81
248.899	86.81
249.133	69.81
249.366	81.81
249.599	74.81
249.832	69.81
250.066	74.81
250.299	94.81
250.532	80.81
250.765	93.81
250.998	82.81
251.231	74.81
251.465	88.81
251.698	63.81
251.931	76.81
252.164	89.81
252.397	73.81
252.63	77.81
252.863	70.81
253.096	85.81
253.329	76.81
253.562	93.81
253.795	83.81
254.028	82.81
254.261	68.81
254.494	74.81
254.727	91.81
254.96	73.81
255.193	77.81
255.426	67.81
255.659	70.81
255.892	75.81
256.124	88.81
256.357	90.81
256.59	78.81
256.823	81.81
257.056	85.81
257.289	78.81
257.521	91.81
257.754	69.81
257.987	78.81
258.22	78.81
258.452	73.81
258.685	73.81
258.918	80.81
259.151	78.81
259.383	78.81
259.616	80.81
259.849	84.81
260.081	79.81
260.314	72.81
260.547	70.81
260.779	82.81
261.012	73.81
261.244	85.81
261.477	70.81
261.71	76.81
261.942	70.81
262.175	75.81
262.407	70.81
262.64	84.81
262.872	59.81
263.105	86.81
263.337	73.81
263.57	82.81
263.802	87.81
264.035	95.81
264.267	73.81
264.499	73.81
264.732	71.81
264.964	75.81
265.197	92.81
265.429	72.81
265.661	85.81
265.894	65.81
266.126	79.81
266.358	79.81
266.591	81.81
266.823	81.81
267.055	78.81
267.287	73.81
267.52	93.81
267.752	79.81
267.984	76.81
268.216	82.81
268.448	80.81
268.681	82.81
268.913	67.81
269.145	86.81
269.377	80.81
269.609	92.81
269.841	77.81
270.073	85.81
270.306	89.81
270.538	84.81
270.77	69.81
271.002	86.81
271.234	74.81
271.466	90.81
271.698	81.81
271.93	80.81
272.162	79.81
272.394	72.81
272.626	76.81
272.858	82.81
273.09	88.81
273.322	88.81
273.553	88.81
273.785	89.81
274.017	71.81
274.249	94.81
274.481	82.81
274.713	66.81
274.945	77.81
275.176	66.81
275.408	78.81
275.64	82.81
275.872	80.81
276.104	97.81
276.335	89.81
276.567	69.81
276.799	72.81
277.031	86.81
277.262	74.81
277.494	90.81
277.726	78.81
277.957	79.81
278.189	87.81
278.421	71.81
278.652	80.81
278.884	98.81
279.115	59.81
279.347	77.81
279.579	89.81
279.81	68.81
280.042	89.81
280.273	84.81
280.505	66.81
280.736	65.81
280.968	78.81
281.199	86.81
281.431	88.81
281.662	78.81
281.894	75.81
282.125	80.81
282.356	78.81
282.588	84.81
282.819	79.81
283.051	78.81
283.282	71.81
283.513	87.81
283.745	89.81
283.976	69.81
284.207	78.81
284.439	78.81
284.67	77.81
284.901	78.81
285.132	63.81
285.364	70.81
285.595	69.81
285.826	80.81
286.057	97.81
286.288	84.81
286.52	93.81
286.751	79.81
286.982	88.81
287.213	97.81
287.444	73.81
287.675	77.81
287.906	76.81
288.138	80.81
288.369	64.81
288.6	86.81
288.831	76.81
289.062	79.81
289.293	85.81
289.524	66.81
289.755	84.81
289.986	87.81
290.217	82.81
290.448	86.81
290.679	85.81
290.91	93.81
291.141	94.81
291.371	82.81
291.602	86.81
291.833	69.81
292.064	73.81
292.295	86.81
292.526	71.81
292.757	84.81
292.987	71.81
293.218	79.81
293.449	77.81
293.68	91.81
293.91	77.81
294.141	96.81
294.372	83.81
294.603	88.81
294.833	74.81
295.064	65.81
295.295	73.81
295.525	83.81
295.756	86.81
295.987	82.81
296.217	89.81
296.448	85.81
296.679	72.81
296.909	96.81
297.14	92.81
297.37	78.81
297.601	76.81
297.831	83.81
298.062	74.81
298.292	83.81
298.523	82.81
298.753	91.81
298.984	91.81
299.214	78.81
299.445	81.81
299.675	89.81
299.905	82.81
300.136	88.81
300.366	78.81
300.597	80.81
300.827	81.81
301.057	75.81
301.288	82.81
301.518	95.81
301.748	82.81
301.979	66.81
302.209	78.81
302.439	75.81
302.669	76.81
302.9	71.81
303.13	74.81
303.36	92.81
303.59	77.81
303.82	86.81
304.051	80.81
304.281	68.81
304.511	78.81
304.741	81.81
304.971	68.81
305.201	70.81
305.431	72.81
305.661	87.81
305.891	78.81
306.121	82.81
306.352	74.81
306.582	75.81
306.812	98.81
307.042	78.81
307.272	89.81
307.502	84.81
307.731	81.81
307.961	81.81
308.191	85.81
308.421	86.81
308.651	90.81
308.881	79.81
309.111	79.81
309.341	75.81
309.571	70.81
309.8	79.81
310.03	100.81
310.26	89.81
310.49	86.81
310.72	98.81
310.949	79.81
311.179	77.81
311.409	93.81
311.639	89.81
311.868	85.81
312.098	83.81
312.328	78.81
312.557	89.81
312.787	86.81
313.017	93.81
313.246	91.81
313.476	85.81
313.706	80.81
313.935	80.81
314.165	73.81
314.394	74.81
314.624	78.81
314.853	89.81
315.083	81.81
315.312	74.81
315.542	75.81
315.771	89.81
316.001	79.81
316.23	85.81
316.46	98.81
316.689	79.81
316.919	81.81
317.148	80.81
317.377	74.81
317.607	87.81
317.836	80.81
318.065	69.81
318.295	84.81
318.524	69.81
318.753	81.81
318.983	76.81
319.212	72.81
319.441	78.81
319.67	85.81
319.9	84.81
320.129	81.81
320.358	90.81
320.587	94.81
320.816	80.81
321.046	95.81
321.275	85.81
321.504	72.81
321.733	84.81
321.962	74.81
322.191	93.81
322.42	88.81
322.649	84.81
322.878	86.81
323.108	89.81
323.337	80.81
323.566	69.81
323.795	100.81
324.024	74.81
324.253	91.81
324.482	85.81
324.71	75.81
324.939	74.81
325.168	88.81
325.397	81.81
325.626	81.81
325.855	76.81
326.084	85.81
326.313	89.81
326.542	83.81
326.77	76.81
326.999	76.81
327.228	81.81
327.457	73.81
327.686	74.81
327.914	79.81
328.143	90.81
328.372	92.81
328.6	77.81
328.829	75.81
329.058	87.81
329.287	92.81
329.515	79.81
329.744	85.81
329.972	70.81
330.201	70.81
330.43	82.81
330.658	81.81
330.887	83.81
331.115	85.81
331.344	81.81
331.572	68.81
331.801	88.81
332.03	85.81
332.258	94.81
332.486	81.81
332.715	91.81
332.943	78.81
333.172	89.81
333.4	86.81
333.629	80.81
333.857	75.81
334.085	77.81
334.314	87.81
334.542	84.81
334.771	77.81
334.999	86.81
335.227	77.81
335.455	82.81
335.684	90.81
335.912	87.81
336.14	85.81
336.369	84.81
336.597	71.81
336.825	91.81
337.053	92.81
337.281	92.81
337.51	81.81
337.738	78.81
337.966	80.81
338.194	86.81
338.422	89.81
338.65	66.81
338.878	85.81
339.106	81.81
339.334	91.81
339.562	87.81
339.79	77.81
340.018	84.81
340.246	85.81
340.474	90.81
340.702	82.81
340.93	84.81
341.158	74.81
341.386	96.81
341.614	81.81
341.842	73.81
342.07	67.81
342.298	90.81
342.526	65.81
342.754	81.81
342.981	78.81
343.209	86.81
343.437	82.81
343.665	81.81
343.893	80.81
344.12	89.81
344.348	87.81
344.576	77.81
344.804	94.81
345.031	78.81
345.259	81.81
345.487	79.81
345.714	81.81
345.942	67.81
346.17	97.81
346.397	81.81
346.625	72.81
346.853	86.81
347.08	77.81
347.308	84.81
347.535	78.81
347.763	83.81
347.99	74.81
348.218	84.81
348.445	74.81
348.673	77.81
348.9	73.81
349.128	70.81
349.355	95.81
349.583	85.81
349.81	105.81
350.037	79.81
350.265	97.81
350.492	78.81
350.72	94.81
350.947	93.81
351.174	73.81
351.402	93.81
351.629	88.81
351.856	99.81
352.083	85.81
352.311	81.81
352.538	91.81
352.765	80.81
352.992	87.81
353.22	89.81
353.447	85.81
353.674	84.81
353.901	91.81
354.128	76.81
354.355	73.81
354.583	82.81
354.81	76.81
355.037	70.81
355.264	82.81
355.491	85.81
355.718	77.81
355.945	73.81
356.172	80.81
356.399	73.81
356.626	81.81
356.853	79.81
357.08	77.81
357.307	94.81
357.534	86.81
357.761	81.81
357.988	82.81
358.215	70.81
358.441	83.81
358.668	79.81
358.895	85.81
359.122	83.81
359.349	85.81
359.576	78.81
359.802	85.81
360.029	82.81
360.256	88.81
360.483	80.81
360.709	72.81
360.936	86.81
361.163	91.81
361.39	79.81
361.616	79.81
361.843	84.81
362.07	75.81
362.296	63.81
362.523	70.81
362.749	82.81
362.976	84.81
363.203	82.81
363.429	81.81
363.656	78.81
363.882	78.81
364.109	90.81
364.335	95.81
364.562	104.81
364.788	79.81
365.015	71.81
365.241	75.81
365.468	86.81
365.694	72.81
365.92	85.81
366.147	81.81
366.373	87.81
366.599	90.81
366.826	71.81
367.052	86.81
367.278	98.81
367.505	83.81
367.731	78.81
367.957	90.81
368.184	79.81
368.41	81.81
368.636	81.81
368.862	93.81
369.089	84.81
369.315	90.81
369.541	98.81
369.767	73.81
369.993	79.81
370.219	96.81
370.445	88.81
370.672	94.81
370.898	86.81
371.124	82.81
371.35	88.81
371.576	81.81
371.802	96.81
372.028	90.81
372.254	96.81
372.48	91.81
372.706	82.81
372.932	88.81
373.158	85.81
373.384	94.81
373.61	101.81
373.835	86.81
374.061	92.81
374.287	92.81
374.513	86.81
374.739	86.81
374.965	78.81
375.191	88.81
375.416	87.81
375.642	88.81
375.868	92.81
376.094	96.81
376.319	85.81
376.545	99.81
376.771	92.81
376.997	113.81
377.222	84.81
377.448	87.81
377.674	92.81
377.899	104.81
378.125	82.81
378.35	99.81
378.576	96.81
378.802	91.81
379.027	89.81
379.253	87.81
379.478	87.81
379.704	93.81
379.929	87.81
380.155	94.81
380.38	103.81
380.606	89.81
380.831	96.81
381.057	97.81
381.282	98.81
381.507	106.81
381.733	95.81
381.958	88.81
382.184	94.81
382.409	114.81
382.634	105.81
382.86	92.81
383.085	89.81
383.31	99.81
383.535	97.81
383.761	91.81
383.986	109.81
384.211	91.81
384.436	93.81
384.662	98.81
384.887	94.81
385.112	80.81
385.337	96.81
385.562	89.81
385.787	92.81
386.013	87.81
386.238	94.81
386.463	93.81
386.688	101.81
386.913	83.81
387.138	108.81
387.363	98.81
387.588	99.81
387.813	85.81
388.038	86.81
388.263	103.81
388.488	94.81
388.713	102.81
388.938	97.81
389.163	96.81
389.387	100.81
389.612	110.81
389.837	86.81
390.062	103.81
390.287	99.81
390.512	105.81
390.736	104.81
390.961	94.81
391.186	91.81
391.411	100.81
391.636	102.81
391.86	96.81
392.085	86.81
392.31	103.81
392.534	111.81
392.759	104.81
392.984	99.81
393.208	86.81
393.433	82.81
393.658	103.81
393.882	113.81
394.107	104.81
394.331	104.81
394.556	98.81
394.78	96.81
395.005	100.81
395.229	110.81
395.454	109.81
395.678	101.81
395.903	114.81
396.127	104.81
396.352	98.81
396.576	100.81
396.801	108.81
397.025	106.81
397.249	102.81
397.474	117.81
397.698	112.81
397.922	105.81
398.147	113.81
398.371	92.81
398.595	111.81
398.82	97.81
399.044	99.81
399.268	109.81
399.492	105.81
399.717	104.81
399.941	109.81
400.165	106.81
400.389	105.81
400.613	115.81
400.837	103.81
401.062	98.81
401.286	108.81
401.51	105.81
401.734	96.81
401.958	102.81
402.182	102.81
402.406	95.81
402.63	107.81
402.854	100.81
403.078	110.81
403.302	108.81
403.526	98.81
403.75	120.81
403.974	113.81
404.198	115.81
404.422	112.81
404.645	102.81
404.869	115.81
405.093	112.81
405.317	102.81
405.541	118.81
405.765	122.81
405.988	107.81
406.212	122.81
406.436	119.81
406.66	116.81
406.883	105.81
407.107	114.81
407.331	117.81
407.555	110.81
407.778	111.81
408.002	103.81
408.226	120.81
408.449	128.81
408.673	95.81
408.896	121.81
409.12	118.81
409.344	117.81
409.567	119.81
409.791	118.81
410.014	105.81
410.238	110.81
410.461	122.81
410.685	128.81
410.908	118.81
411.132	127.81
411.355	111.81
411.578	106.81
411.802	112.81
412.025	105.81
412.249	112.81
412.472	116.81
412.695	120.81
412.919	121.81
413.142	111.81
413.365	114.81
413.589	127.81
413.812	118.81
414.035	120.81
414.258	119.81
414.482	127.81
414.705	128.81
414.928	114.81
415.151	135.81
415.374	118.81
415.597	120.81
415.821	135.81
416.044	116.81
416.267	117.81
416.49	99.81
416.713	109.81
416.936	126.81
417.159	116.81
417.382	127.81
417.605	101.81
417.828	114.81
418.051	129.81
418.274	126.81
418.497	112.81
418.72	128.81
418.943	124.81
419.166	124.81
419.389	122.81
419.611	135.81
419.834	120.81
420.057	120.81
420.28	135.81
420.503	129.81
420.726	122.81
420.948	135.81
421.171	130.81
421.394	132.81
421.617	133.81
421.839	135.81
422.062	137.81
422.285	137.81
422.507	132.81
422.73	131.81
422.953	118.81
423.175	120.81
423.398	118.81
423.621	121.81
423.843	133.81
424.066	117.81
424.288	136.81
424.511	144.81
424.733	141.81
424.956	124.81
425.178	135.81
425.401	110.81
425.623	125.81
425.846	125.81
426.068	121.81
426.291	137.81
426.513	129.81
426.735	122.81
426.958	127.81
427.18	114.81
427.402	106.81
427.625	132.81
427.847	117.81
428.069	122.81
428.292	124.81
428.514	137.81
428.736	122.81
428.958	132.81
429.181	138.81
429.403	122.81
429.625	123.81
429.847	128.81
430.069	137.81
430.292	134.81
430.514	128.81
430.736	120.81
430.958	128.81
431.18	118.81
431.402	140.81
431.624	123.81
431.846	110.81
432.068	87.81
432.29	94.81
432.512	106.81
432.734	125.81
432.956	129.81
433.178	133.81
433.4	149.81
433.622	121.81
433.844	119.81
434.066	132.81
434.287	108.81
434.509	102.81
434.731	107.81
434.953	100.81
435.175	112.81
435.397	109.81
435.618	119.81
435.84	119.81
436.062	119.81
436.284	125.81
436.505	132.81
436.727	120.81
436.949	120.81
437.17	132.81
437.392	120.81
437.614	115.81
437.835	103.81
438.057	104.81
438.278	114.81
438.5	115.81
438.721	121.81
438.943	133.81
439.165	125.81
439.386	151.81
439.608	136.81
439.829	133.81
440.05	153.81
440.272	141.81
440.493	146.81
440.715	135.81
440.936	131.81
441.158	134.81
441.379	130.81
441.6	164.81
441.822	143.81
442.043	128.81
442.264	143.81
442.486	153.81
442.707	122.81
442.928	137.81
443.149	130.81
443.371	132.81
443.592	133.81
443.813	133.81
444.034	139.81
444.255	143.81
444.476	157.81
444.698	133.81
444.919	133.81
445.14	255.81
445.361	196.81
445.582	139.81
445.803	144.81
446.024	136.81
446.245	160.81
446.466	150.81
446.687	161.81
446.908	170.81
447.129	139.81
447.35	135.81
447.571	129.81
447.792	152.81
448.013	124.81
448.234	137.81
448.455	140.81
448.675	134.81
448.896	128.81
449.117	121.81
449.338	135.81
449.559	122.81
449.779	150.81
450	131.81
450.221	144.81
450.442	135.81
450.662	134.81
450.883	122.81
451.104	129.81
451.324	135.81
451.545	134.81
451.766	124.81
451.986	124.81
452.207	115.81
452.428	131.81
452.648	126.81
452.869	114.81
453.089	121.81
453.31	117.81
453.53	101.81
453.751	117.81
453.971	97.81
454.192	103.81
454.412	114.81
454.633	114.81
454.853	109.81
455.073	122.81
455.294	133.81
455.514	122.81
455.734	124.81
455.955	118.81
456.175	105.81
456.395	103.81
456.616	83.81
456.836	115.81
457.056	109.81
457.276	113.81
457.497	106.81
457.717	99.81
457.937	103.81
458.157	96.81
458.377	108.81
458.598	107.81
458.818	98.81
459.038	81.81
459.258	90.81
459.478	97.81
459.698	80.81
459.918	79.81
460.138	92.81
460.358	99.81
460.578	101.81
460.798	112.81
461.018	120.81
461.238	103.81
461.458	110.81
461.678	110.81
461.898	111.81
462.118	107.81
462.338	119.81
462.558	124.81
462.777	96.81
462.997	115.81
463.217	101.81
463.437	104.81
463.657	96.81
463.876	96.81
464.096	95.81
464.316	114.81
464.536	112.81
464.755	114.81
464.975	120.81
465.195	115.81
465.414	110.81
465.634	112.81
465.854	112.81
466.073	112.81
466.293	125.81
466.512	123.81
466.732	117.81
466.951	117.81
467.171	125.81
467.391	128.81
467.61	129.81
467.829	132.81
468.049	139.81
468.268	132.81
468.488	135.81
468.707	126.81
468.927	137.81
469.146	134.81
469.365	122.81
469.585	136.81
469.804	148.81
470.023	134.81
470.243	133.81
470.462	139.81
470.681	126.81
470.901	136.81
471.12	147.81
471.339	142.81
471.558	150.81
471.777	129.81
471.997	134.81
472.216	122.81
472.435	115.81
472.654	119.81
472.873	102.81
473.092	111.81
473.311	116.81
473.53	110.81
473.749	121.81
473.968	132.81
474.187	126.81
474.406	112.81
474.625	122.81
474.844	116.81
475.063	134.81
475.282	130.81
475.501	114.81
475.72	127.81
475.939	137.81
476.158	134.81
476.377	120.81
476.596	124.81
476.814	114.81
477.033	116.81
477.252	119.81
477.471	112.81
477.69	122.81
477.908	132.81
478.127	134.81
478.346	134.81
478.564	116.81
478.783	128.81
479.002	135.81
479.22	133.81
479.439	148.81
479.658	124.81
479.876	128.81
480.095	101.81
480.313	124.81
480.532	117.81
480.751	108.81
480.969	90.81
481.188	84.81
481.406	89.81
481.624	81.81
481.843	93.81
482.061	98.81
482.28	111.81
482.498	100.81
482.717	97.81
482.935	128.81
483.153	148.81
483.372	143.81
483.59	130.81
483.808	132.81
484.027	114.81
484.245	121.81
484.463	125.81
484.681	165.81
484.9	137.81
485.118	143.81
485.336	136.81
485.554	111.81
485.772	97.81
485.99	89.81
486.209	101.81
486.427	93.81
486.645	101.81
486.863	144.81
487.081	144.81
487.299	136.81
487.517	127.81
487.735	164.81
487.953	174.81
488.171	164.81
488.389	176.81
488.607	163.81
488.825	134.81
489.043	120.81
489.261	124.81
489.479	130.81
489.696	126.81
489.914	122.81
490.132	146.81
490.35	149.81
490.568	150.81
490.786	178.81
491.003	169.81
491.221	168.81
491.439	190.81
491.657	187.81
491.874	206.81
492.092	205.81
492.31	237.81
492.527	217.81
492.745	205.81
492.963	187.81
493.18	174.81
493.398	190.81
493.615	190.81
493.833	182.81
494.05	188.81
494.268	162.81
494.485	165.81
494.703	159.81
494.92	186.81
495.138	178.81
495.355	180.81
495.573	161.81
495.79	166.81
496.008	175.81
496.225	160.81
496.442	176.81
496.66	193.81
496.877	159.81
497.094	160.81
497.312	145.81
497.529	150.81
497.746	158.81
497.963	136.81
498.181	112.81
498.398	113.81
498.615	112.81
498.832	98.81
499.049	114.81
499.267	120.81
499.484	123.81
499.701	138.81
499.918	129.81
500.135	125.81
500.352	154.81
500.569	144.81
500.786	152.81
501.003	138.81
501.22	134.81
501.437	129.81
501.654	138.81
501.871	147.81
502.088	133.81
502.305	127.81
502.522	136.81
502.739	124.81
502.956	130.81
503.172	131.81
503.389	111.81
503.606	113.81
503.823	115.81
504.04	132.81
504.256	127.81
504.473	114.81
504.69	104.81
504.907	121.81
505.123	104.81
505.34	115.81
505.557	110.81
505.773	125.81
505.99	128.81
506.207	104.81
506.423	118.81
506.64	115.81
506.856	105.81
507.073	121.81
507.289	105.81
507.506	98.81
507.722	112.81
507.939	111.81
508.155	98.81
508.372	113.81
508.588	114.81
508.805	112.81
509.021	114.81
509.238	112.81
509.454	100.81
509.67	101.81
509.887	98.81
510.103	98.81
510.319	90.81
510.536	75.81
510.752	86.81
510.968	90.81
511.184	86.81
511.401	87.81
511.617	83.81
511.833	93.81
512.049	92.81
512.265	89.81
