Data from Location2.07152019.Energy5.Lamp.07192019.3%Agarose_HRD10591_14-56-34-359.txt Node
Date: Fri Jul 19 14:56:34 EDT 2019
User: cochatt
Spectrometer: HR+D1059
Trigger mode: 1
Integration Time (sec): 1.000000E-1
Scans to average: 1
Electric dark correction enabled: true
Nonlinearity correction enabled: false
Boxcar width: 0
XAxis mode: Wavelengths
Number of Pixels in Spectrum: 2048
>>>>>Begin Spectral Data<<<<<
223.165	-16.81
223.4	-16.81
223.635	-16.81
223.869	-23.81
224.104	-23.81
224.338	0.19
224.573	-7.81
224.808	-13.81
225.042	-10.81
225.277	-26.81
225.511	-2.81
225.746	7.19
225.98	4.19
226.215	6.19
226.449	30.19
226.683	17.19
226.918	30.19
227.152	31.19
227.387	40.19
227.621	53.19
227.856	35.19
228.09	61.19
228.324	49.19
228.559	61.19
228.793	61.19
229.027	83.19
229.262	83.19
229.496	60.19
229.73	74.19
229.964	67.19
230.199	77.19
230.433	78.19
230.667	80.19
230.901	75.19
231.136	83.19
231.37	82.19
231.604	79.19
231.838	70.19
232.072	81.19
232.306	69.19
232.541	82.19
232.775	78.19
233.009	82.19
233.243	81.19
233.477	86.19
233.711	85.19
233.945	86.19
234.179	76.19
234.413	87.19
234.647	85.19
234.881	79.19
235.115	77.19
235.349	81.19
235.583	70.19
235.817	73.19
236.051	75.19
236.285	92.19
236.519	81.19
236.753	80.19
236.987	81.19
237.221	72.19
237.455	80.19
237.689	90.19
237.922	77.19
238.156	84.19
238.39	84.19
238.624	69.19
238.858	76.19
239.091	74.19
239.325	76.19
239.559	68.19
239.793	78.19
240.027	74.19
240.26	69.19
240.494	82.19
240.728	64.19
240.961	76.19
241.195	88.19
241.429	73.19
241.662	75.19
241.896	77.19
242.13	85.19
242.363	78.19
242.597	75.19
242.83	68.19
243.064	84.19
243.298	79.19
243.531	79.19
243.765	83.19
243.998	73.19
244.232	73.19
244.465	86.19
244.699	77.19
244.932	77.19
245.166	75.19
245.399	90.19
245.633	78.19
245.866	88.19
246.099	69.19
246.333	73.19
246.566	78.19
246.8	77.19
247.033	70.19
247.266	79.19
247.5	87.19
247.733	84.19
247.966	86.19
248.2	82.19
248.433	73.19
248.666	71.19
248.899	81.19
249.133	78.19
249.366	89.19
249.599	79.19
249.832	72.19
250.066	91.19
250.299	93.19
250.532	84.19
250.765	86.19
250.998	88.19
251.231	81.19
251.465	84.19
251.698	79.19
251.931	93.19
252.164	78.19
252.397	80.19
252.63	79.19
252.863	76.19
253.096	79.19
253.329	87.19
253.562	82.19
253.795	85.19
254.028	81.19
254.261	99.19
254.494	75.19
254.727	75.19
254.96	92.19
255.193	71.19
255.426	65.19
255.659	76.19
255.892	101.19
256.124	89.19
256.357	79.19
256.59	86.19
256.823	73.19
257.056	88.19
257.289	81.19
257.521	84.19
257.754	82.19
257.987	78.19
258.22	70.19
258.452	73.19
258.685	86.19
258.918	88.19
259.151	71.19
259.383	86.19
259.616	76.19
259.849	85.19
260.081	73.19
260.314	77.19
260.547	82.19
260.779	74.19
261.012	88.19
261.244	92.19
261.477	80.19
261.71	90.19
261.942	73.19
262.175	68.19
262.407	89.19
262.64	77.19
262.872	86.19
263.105	83.19
263.337	87.19
263.57	85.19
263.802	77.19
264.035	81.19
264.267	86.19
264.499	82.19
264.732	76.19
264.964	88.19
265.197	92.19
265.429	82.19
265.661	79.19
265.894	80.19
266.126	101.19
266.358	93.19
266.591	91.19
266.823	94.19
267.055	92.19
267.287	90.19
267.52	75.19
267.752	91.19
267.984	102.19
268.216	88.19
268.448	88.19
268.681	90.19
268.913	101.19
269.145	95.19
269.377	90.19
269.609	79.19
269.841	80.19
270.073	87.19
270.306	79.19
270.538	78.19
270.77	78.19
271.002	74.19
271.234	82.19
271.466	91.19
271.698	83.19
271.93	90.19
272.162	72.19
272.394	90.19
272.626	93.19
272.858	88.19
273.09	95.19
273.322	74.19
273.553	82.19
273.785	86.19
274.017	74.19
274.249	96.19
274.481	96.19
274.713	84.19
274.945	90.19
275.176	96.19
275.408	82.19
275.64	65.19
275.872	89.19
276.104	75.19
276.335	78.19
276.567	73.19
276.799	97.19
277.031	75.19
277.262	87.19
277.494	79.19
277.726	82.19
277.957	78.19
278.189	83.19
278.421	89.19
278.652	88.19
278.884	86.19
279.115	87.19
279.347	86.19
279.579	90.19
279.81	94.19
280.042	95.19
280.273	82.19
280.505	75.19
280.736	72.19
280.968	91.19
281.199	82.19
281.431	85.19
281.662	92.19
281.894	95.19
282.125	90.19
282.356	99.19
282.588	82.19
282.819	77.19
283.051	80.19
283.282	85.19
283.513	98.19
283.745	83.19
283.976	93.19
284.207	99.19
284.439	67.19
284.67	86.19
284.901	91.19
285.132	76.19
285.364	91.19
285.595	97.19
285.826	82.19
286.057	91.19
286.288	86.19
286.52	95.19
286.751	79.19
286.982	92.19
287.213	83.19
287.444	87.19
287.675	75.19
287.906	86.19
288.138	89.19
288.369	84.19
288.6	101.19
288.831	85.19
289.062	85.19
289.293	82.19
289.524	93.19
289.755	83.19
289.986	80.19
290.217	94.19
290.448	92.19
290.679	86.19
290.91	77.19
291.141	79.19
291.371	85.19
291.602	82.19
291.833	89.19
292.064	87.19
292.295	74.19
292.526	81.19
292.757	78.19
292.987	85.19
293.218	94.19
293.449	90.19
293.68	102.19
293.91	94.19
294.141	82.19
294.372	84.19
294.603	92.19
294.833	82.19
295.064	87.19
295.295	92.19
295.525	85.19
295.756	77.19
295.987	89.19
296.217	90.19
296.448	104.19
296.679	78.19
296.909	86.19
297.14	85.19
297.37	87.19
297.601	84.19
297.831	91.19
298.062	99.19
298.292	94.19
298.523	85.19
298.753	59.19
298.984	87.19
299.214	70.19
299.445	95.19
299.675	94.19
299.905	75.19
300.136	83.19
300.366	92.19
300.597	93.19
300.827	98.19
301.057	89.19
301.288	90.19
301.518	84.19
301.748	75.19
301.979	83.19
302.209	91.19
302.439	101.19
302.669	83.19
302.9	79.19
303.13	90.19
303.36	94.19
303.59	92.19
303.82	89.19
304.051	80.19
304.281	95.19
304.511	86.19
304.741	84.19
304.971	86.19
305.201	77.19
305.431	87.19
305.661	83.19
305.891	70.19
306.121	83.19
306.352	81.19
306.582	95.19
306.812	95.19
307.042	76.19
307.272	84.19
307.502	65.19
307.731	88.19
307.961	72.19
308.191	83.19
308.421	89.19
308.651	88.19
308.881	89.19
309.111	89.19
309.341	84.19
309.571	78.19
309.8	86.19
310.03	83.19
310.26	66.19
310.49	86.19
310.72	88.19
310.949	93.19
311.179	92.19
311.409	88.19
311.639	79.19
311.868	71.19
312.098	84.19
312.328	95.19
312.557	95.19
312.787	90.19
313.017	100.19
313.246	88.19
313.476	84.19
313.706	82.19
313.935	77.19
314.165	83.19
314.394	78.19
314.624	74.19
314.853	97.19
315.083	86.19
315.312	90.19
315.542	103.19
315.771	86.19
316.001	81.19
316.23	81.19
316.46	81.19
316.689	89.19
316.919	85.19
317.148	93.19
317.377	82.19
317.607	78.19
317.836	87.19
318.065	88.19
318.295	91.19
318.524	87.19
318.753	84.19
318.983	91.19
319.212	95.19
319.441	86.19
319.67	83.19
319.9	97.19
320.129	98.19
320.358	86.19
320.587	84.19
320.816	78.19
321.046	76.19
321.275	100.19
321.504	89.19
321.733	84.19
321.962	77.19
322.191	87.19
322.42	85.19
322.649	77.19
322.878	93.19
323.108	102.19
323.337	85.19
323.566	83.19
323.795	85.19
324.024	79.19
324.253	85.19
324.482	75.19
324.71	74.19
324.939	80.19
325.168	78.19
325.397	88.19
325.626	83.19
325.855	82.19
326.084	91.19
326.313	86.19
326.542	92.19
326.77	77.19
326.999	77.19
327.228	88.19
327.457	92.19
327.686	80.19
327.914	82.19
328.143	89.19
328.372	78.19
328.6	77.19
328.829	81.19
329.058	86.19
329.287	69.19
329.515	90.19
329.744	93.19
329.972	87.19
330.201	88.19
330.43	85.19
330.658	94.19
330.887	73.19
331.115	92.19
331.344	85.19
331.572	76.19
331.801	75.19
332.03	87.19
332.258	100.19
332.486	92.19
332.715	79.19
332.943	87.19
333.172	78.19
333.4	83.19
333.629	95.19
333.857	82.19
334.085	85.19
334.314	95.19
334.542	78.19
334.771	79.19
334.999	86.19
335.227	70.19
335.455	85.19
335.684	90.19
335.912	103.19
336.14	82.19
336.369	88.19
336.597	98.19
336.825	108.19
337.053	84.19
337.281	88.19
337.51	93.19
337.738	86.19
337.966	95.19
338.194	77.19
338.422	71.19
338.65	77.19
338.878	86.19
339.106	93.19
339.334	81.19
339.562	71.19
339.79	93.19
340.018	70.19
340.246	78.19
340.474	93.19
340.702	94.19
340.93	94.19
341.158	92.19
341.386	92.19
341.614	92.19
341.842	85.19
342.07	89.19
342.298	82.19
342.526	77.19
342.754	96.19
342.981	90.19
343.209	89.19
343.437	80.19
343.665	77.19
343.893	69.19
344.12	75.19
344.348	97.19
344.576	91.19
344.804	90.19
345.031	88.19
345.259	98.19
345.487	113.19
345.714	80.19
345.942	75.19
346.17	85.19
346.397	85.19
346.625	87.19
346.853	88.19
347.08	93.19
347.308	69.19
347.535	75.19
347.763	89.19
347.99	91.19
348.218	98.19
348.445	102.19
348.673	85.19
348.9	94.19
349.128	89.19
349.355	96.19
349.583	96.19
349.81	87.19
350.037	81.19
350.265	104.19
350.492	84.19
350.72	90.19
350.947	92.19
351.174	80.19
351.402	93.19
351.629	81.19
351.856	95.19
352.083	86.19
352.311	86.19
352.538	82.19
352.765	85.19
352.992	88.19
353.22	85.19
353.447	85.19
353.674	78.19
353.901	93.19
354.128	84.19
354.355	79.19
354.583	77.19
354.81	86.19
355.037	88.19
355.264	81.19
355.491	85.19
355.718	84.19
355.945	82.19
356.172	88.19
356.399	93.19
356.626	75.19
356.853	82.19
357.08	84.19
357.307	88.19
357.534	88.19
357.761	79.19
357.988	81.19
358.215	93.19
358.441	74.19
358.668	78.19
358.895	74.19
359.122	92.19
359.349	92.19
359.576	87.19
359.802	88.19
360.029	72.19
360.256	98.19
360.483	91.19
360.709	91.19
360.936	98.19
361.163	94.19
361.39	86.19
361.616	86.19
361.843	85.19
362.07	80.19
362.296	73.19
362.523	85.19
362.749	87.19
362.976	101.19
363.203	85.19
363.429	77.19
363.656	95.19
363.882	88.19
364.109	85.19
364.335	80.19
364.562	100.19
364.788	91.19
365.015	82.19
365.241	85.19
365.468	94.19
365.694	79.19
365.92	80.19
366.147	94.19
366.373	88.19
366.599	79.19
366.826	82.19
367.052	91.19
367.278	76.19
367.505	94.19
367.731	101.19
367.957	104.19
368.184	75.19
368.41	102.19
368.636	79.19
368.862	97.19
369.089	94.19
369.315	83.19
369.541	95.19
369.767	86.19
369.993	94.19
370.219	88.19
370.445	93.19
370.672	92.19
370.898	91.19
371.124	89.19
371.35	97.19
371.576	105.19
371.802	83.19
372.028	88.19
372.254	79.19
372.48	105.19
372.706	92.19
372.932	97.19
373.158	79.19
373.384	93.19
373.61	109.19
373.835	87.19
374.061	86.19
374.287	93.19
374.513	93.19
374.739	98.19
374.965	106.19
375.191	97.19
375.416	93.19
375.642	93.19
375.868	115.19
376.094	89.19
376.319	109.19
376.545	92.19
376.771	95.19
376.997	107.19
377.222	103.19
377.448	88.19
377.674	101.19
377.899	104.19
378.125	91.19
378.35	99.19
378.576	94.19
378.802	102.19
379.027	117.19
379.253	111.19
379.478	94.19
379.704	100.19
379.929	89.19
380.155	86.19
380.38	88.19
380.606	99.19
380.831	108.19
381.057	102.19
381.282	83.19
381.507	108.19
381.733	92.19
381.958	93.19
382.184	92.19
382.409	94.19
382.634	95.19
382.86	103.19
383.085	84.19
383.31	111.19
383.535	102.19
383.761	105.19
383.986	104.19
384.211	100.19
384.436	103.19
384.662	106.19
384.887	99.19
385.112	95.19
385.337	97.19
385.562	97.19
385.787	82.19
386.013	96.19
386.238	96.19
386.463	97.19
386.688	97.19
386.913	91.19
387.138	102.19
387.363	100.19
387.588	94.19
387.813	107.19
388.038	92.19
388.263	97.19
388.488	106.19
388.713	102.19
388.938	94.19
389.163	109.19
389.387	95.19
389.612	99.19
389.837	91.19
390.062	96.19
390.287	98.19
390.512	125.19
390.736	104.19
390.961	108.19
391.186	123.19
391.411	107.19
391.636	98.19
391.86	102.19
392.085	100.19
392.31	109.19
392.534	107.19
392.759	100.19
392.984	109.19
393.208	116.19
393.433	109.19
393.658	91.19
393.882	108.19
394.107	117.19
394.331	97.19
394.556	116.19
394.78	113.19
395.005	107.19
395.229	111.19
395.454	104.19
395.678	102.19
395.903	104.19
396.127	133.19
396.352	108.19
396.576	98.19
396.801	101.19
397.025	109.19
397.249	109.19
397.474	121.19
397.698	113.19
397.922	112.19
398.147	95.19
398.371	117.19
398.595	111.19
398.82	119.19
399.044	106.19
399.268	99.19
399.492	105.19
399.717	113.19
399.941	115.19
400.165	117.19
400.389	118.19
400.613	105.19
400.837	116.19
401.062	127.19
401.286	106.19
401.51	107.19
401.734	108.19
401.958	98.19
402.182	121.19
402.406	111.19
402.63	115.19
402.854	94.19
403.078	96.19
403.302	117.19
403.526	117.19
403.75	114.19
403.974	113.19
404.198	108.19
404.422	118.19
404.645	122.19
404.869	108.19
405.093	117.19
405.317	115.19
405.541	108.19
405.765	113.19
405.988	117.19
406.212	123.19
406.436	119.19
406.66	124.19
406.883	120.19
407.107	106.19
407.331	112.19
407.555	121.19
407.778	123.19
408.002	117.19
408.226	119.19
408.449	133.19
408.673	119.19
408.896	129.19
409.12	122.19
409.344	133.19
409.567	113.19
409.791	119.19
410.014	125.19
410.238	129.19
410.461	131.19
410.685	132.19
410.908	105.19
411.132	133.19
411.355	115.19
411.578	117.19
411.802	127.19
412.025	101.19
412.249	126.19
412.472	117.19
412.695	118.19
412.919	134.19
413.142	121.19
413.365	139.19
413.589	126.19
413.812	127.19
414.035	133.19
414.258	126.19
414.482	137.19
414.705	118.19
414.928	123.19
415.151	117.19
415.374	117.19
415.597	127.19
415.821	150.19
416.044	138.19
416.267	125.19
416.49	127.19
416.713	130.19
416.936	113.19
417.159	123.19
417.382	112.19
417.605	122.19
417.828	120.19
418.051	126.19
418.274	138.19
418.497	138.19
418.72	133.19
418.943	148.19
419.166	137.19
419.389	132.19
419.611	143.19
419.834	123.19
420.057	131.19
420.28	121.19
420.503	147.19
420.726	147.19
420.948	132.19
421.171	119.19
421.394	133.19
421.617	139.19
421.839	134.19
422.062	126.19
422.285	122.19
422.507	129.19
422.73	122.19
422.953	126.19
423.175	122.19
423.398	131.19
423.621	134.19
423.843	147.19
424.066	127.19
424.288	140.19
424.511	147.19
424.733	135.19
424.956	144.19
425.178	142.19
425.401	135.19
425.623	133.19
425.846	121.19
426.068	123.19
426.291	123.19
426.513	134.19
426.735	120.19
426.958	127.19
427.18	137.19
427.402	138.19
427.625	135.19
427.847	136.19
428.069	129.19
428.292	133.19
428.514	125.19
428.736	122.19
428.958	134.19
429.181	131.19
429.403	121.19
429.625	124.19
429.847	124.19
430.069	128.19
430.292	149.19
430.514	131.19
430.736	124.19
430.958	137.19
431.18	134.19
431.402	126.19
431.624	117.19
431.846	101.19
432.068	90.19
432.29	111.19
432.512	111.19
432.734	127.19
432.956	141.19
433.178	135.19
433.4	132.19
433.622	139.19
433.844	127.19
434.066	126.19
434.287	125.19
434.509	105.19
434.731	118.19
434.953	116.19
435.175	109.19
435.397	125.19
435.618	116.19
435.84	121.19
436.062	117.19
436.284	121.19
436.505	114.19
436.727	111.19
436.949	132.19
437.17	138.19
437.392	147.19
437.614	117.19
437.835	104.19
438.057	118.19
438.278	113.19
438.5	122.19
438.721	140.19
438.943	144.19
439.165	157.19
439.386	141.19
439.608	143.19
439.829	143.19
440.05	142.19
440.272	146.19
440.493	145.19
440.715	151.19
440.936	144.19
441.158	144.19
441.379	128.19
441.6	170.19
441.822	141.19
442.043	155.19
442.264	147.19
442.486	135.19
442.707	132.19
442.928	154.19
443.149	147.19
443.371	144.19
443.592	135.19
443.813	149.19
444.034	134.19
444.255	151.19
444.476	144.19
444.698	125.19
444.919	150.19
445.14	274.19
445.361	217.19
445.582	130.19
445.803	151.19
446.024	133.19
446.245	169.19
446.466	148.19
446.687	151.19
446.908	154.19
447.129	164.19
447.35	156.19
447.571	149.19
447.792	136.19
448.013	139.19
448.234	144.19
448.455	138.19
448.675	137.19
448.896	137.19
449.117	125.19
449.338	138.19
449.559	142.19
449.779	136.19
450	130.19
450.221	137.19
450.442	141.19
450.662	136.19
450.883	134.19
451.104	135.19
451.324	136.19
451.545	129.19
451.766	123.19
451.986	117.19
452.207	117.19
452.428	123.19
452.648	129.19
452.869	130.19
453.089	117.19
453.31	114.19
453.53	121.19
453.751	111.19
453.971	108.19
454.192	108.19
454.412	110.19
454.633	116.19
454.853	106.19
455.073	123.19
455.294	131.19
455.514	119.19
455.734	112.19
455.955	122.19
456.175	119.19
456.395	121.19
456.616	116.19
456.836	110.19
457.056	106.19
457.276	116.19
457.497	109.19
457.717	123.19
457.937	107.19
458.157	117.19
458.377	97.19
458.598	94.19
458.818	99.19
459.038	87.19
459.258	70.19
459.478	87.19
459.698	101.19
459.918	89.19
460.138	118.19
460.358	115.19
460.578	107.19
460.798	120.19
461.018	106.19
461.238	122.19
461.458	129.19
461.678	122.19
461.898	117.19
462.118	104.19
462.338	107.19
462.558	106.19
462.777	117.19
462.997	103.19
463.217	110.19
463.437	98.19
463.657	97.19
463.876	119.19
464.096	109.19
464.316	111.19
464.536	119.19
464.755	108.19
464.975	118.19
465.195	133.19
465.414	133.19
465.634	107.19
465.854	122.19
466.073	126.19
466.293	134.19
466.512	121.19
466.732	127.19
466.951	139.19
467.171	131.19
467.391	125.19
467.61	125.19
467.829	126.19
468.049	137.19
468.268	120.19
468.488	131.19
468.707	136.19
468.927	143.19
469.146	129.19
469.365	144.19
469.585	135.19
469.804	143.19
470.023	158.19
470.243	147.19
470.462	139.19
470.681	139.19
470.901	147.19
471.12	148.19
471.339	159.19
471.558	161.19
471.777	131.19
471.997	127.19
472.216	117.19
472.435	109.19
472.654	121.19
472.873	105.19
473.092	112.19
473.311	125.19
473.53	132.19
473.749	121.19
473.968	129.19
474.187	134.19
474.406	124.19
474.625	132.19
474.844	140.19
475.063	141.19
475.282	122.19
475.501	134.19
475.72	121.19
475.939	117.19
476.158	111.19
476.377	129.19
476.596	115.19
476.814	110.19
477.033	108.19
477.252	113.19
477.471	137.19
477.69	139.19
477.908	157.19
478.127	131.19
478.346	139.19
478.564	125.19
478.783	128.19
479.002	129.19
479.22	136.19
479.439	118.19
479.658	129.19
479.876	120.19
480.095	109.19
480.313	123.19
480.532	122.19
480.751	113.19
480.969	93.19
481.188	87.19
481.406	85.19
481.624	91.19
481.843	103.19
482.061	100.19
482.28	131.19
482.498	119.19
482.717	108.19
482.935	121.19
483.153	125.19
483.372	150.19
483.59	157.19
483.808	155.19
484.027	107.19
484.245	134.19
484.463	141.19
484.681	161.19
484.9	143.19
485.118	140.19
485.336	135.19
485.554	120.19
485.772	93.19
485.99	115.19
486.209	115.19
486.427	120.19
486.645	118.19
486.863	125.19
487.081	139.19
487.299	138.19
487.517	141.19
487.735	176.19
487.953	174.19
488.171	171.19
488.389	170.19
488.607	162.19
488.825	138.19
489.043	133.19
489.261	121.19
489.479	125.19
489.696	121.19
489.914	128.19
490.132	132.19
490.35	145.19
490.568	175.19
490.786	156.19
491.003	174.19
491.221	194.19
491.439	179.19
491.657	186.19
491.874	212.19
492.092	212.19
492.31	232.19
492.527	229.19
492.745	217.19
492.963	209.19
493.18	188.19
493.398	171.19
493.615	174.19
493.833	170.19
494.05	172.19
494.268	166.19
494.485	186.19
494.703	191.19
494.92	183.19
495.138	158.19
495.355	175.19
495.573	182.19
495.79	166.19
496.008	173.19
496.225	153.19
496.442	172.19
496.66	196.19
496.877	163.19
497.094	179.19
497.312	161.19
497.529	169.19
497.746	157.19
497.963	146.19
498.181	129.19
498.398	126.19
498.615	119.19
498.832	133.19
499.049	125.19
499.267	129.19
499.484	134.19
499.701	119.19
499.918	143.19
500.135	131.19
500.352	156.19
500.569	155.19
500.786	149.19
501.003	145.19
501.22	129.19
501.437	129.19
501.654	150.19
501.871	134.19
502.088	137.19
502.305	129.19
502.522	111.19
502.739	125.19
502.956	132.19
503.172	127.19
503.389	121.19
503.606	131.19
503.823	121.19
504.04	107.19
504.256	117.19
504.473	110.19
504.69	111.19
504.907	119.19
505.123	121.19
505.34	121.19
505.557	122.19
505.773	120.19
505.99	133.19
506.207	140.19
506.423	122.19
506.64	122.19
506.856	108.19
507.073	113.19
507.289	123.19
507.506	118.19
507.722	122.19
507.939	125.19
508.155	118.19
508.372	109.19
508.588	111.19
508.805	109.19
509.021	122.19
509.238	111.19
509.454	94.19
509.67	111.19
509.887	102.19
510.103	91.19
510.319	97.19
510.536	101.19
510.752	86.19
510.968	90.19
511.184	75.19
