Data from Location2.07152019.Energy5.Lamp.07192019.3%Agarose_HRD10591_14-56-24-358.txt Node
Date: Fri Jul 19 14:56:24 EDT 2019
User: cochatt
Spectrometer: HR+D1059
Trigger mode: 1
Integration Time (sec): 1.000000E-1
Scans to average: 1
Electric dark correction enabled: true
Nonlinearity correction enabled: false
Boxcar width: 0
XAxis mode: Wavelengths
Number of Pixels in Spectrum: 2048
>>>>>Begin Spectral Data<<<<<
223.165	-14.19
223.4	-14.19
223.635	-14.19
223.869	-23.19
224.104	-19.19
224.338	-14.19
224.573	-16.19
224.808	-5.19
225.042	-12.19
225.277	-12.19
225.511	-2.19
225.746	3.81
225.98	9.81
226.215	12.81
226.449	4.81
226.683	11.81
226.918	33.81
227.152	41.81
227.387	30.81
227.621	51.81
227.856	36.81
228.09	42.81
228.324	48.81
228.559	59.81
228.793	55.81
229.027	50.81
229.262	65.81
229.496	58.81
229.73	77.81
229.964	78.81
230.199	67.81
230.433	70.81
230.667	69.81
230.901	67.81
231.136	80.81
231.37	76.81
231.604	73.81
231.838	91.81
232.072	85.81
232.306	98.81
232.541	90.81
232.775	83.81
233.009	92.81
233.243	81.81
233.477	79.81
233.711	83.81
233.945	82.81
234.179	80.81
234.413	83.81
234.647	76.81
234.881	72.81
235.115	69.81
235.349	84.81
235.583	79.81
235.817	90.81
236.051	76.81
236.285	82.81
236.519	68.81
236.753	76.81
236.987	78.81
237.221	70.81
237.455	75.81
237.689	78.81
237.922	77.81
238.156	85.81
238.39	68.81
238.624	69.81
238.858	72.81
239.091	83.81
239.325	76.81
239.559	76.81
239.793	67.81
240.027	83.81
240.26	64.81
240.494	81.81
240.728	67.81
240.961	68.81
241.195	72.81
241.429	78.81
241.662	83.81
241.896	88.81
242.13	61.81
242.363	68.81
242.597	79.81
242.83	69.81
243.064	85.81
243.298	74.81
243.531	77.81
243.765	86.81
243.998	81.81
244.232	67.81
244.465	74.81
244.699	93.81
244.932	68.81
245.166	87.81
245.399	75.81
245.633	72.81
245.866	75.81
246.099	90.81
246.333	71.81
246.566	74.81
246.8	80.81
247.033	62.81
247.266	72.81
247.5	68.81
247.733	76.81
247.966	88.81
248.2	78.81
248.433	80.81
248.666	80.81
248.899	81.81
249.133	65.81
249.366	71.81
249.599	71.81
249.832	64.81
250.066	83.81
250.299	73.81
250.532	78.81
250.765	75.81
250.998	72.81
251.231	75.81
251.465	90.81
251.698	79.81
251.931	72.81
252.164	82.81
252.397	80.81
252.63	69.81
252.863	76.81
253.096	92.81
253.329	88.81
253.562	86.81
253.795	69.81
254.028	69.81
254.261	85.81
254.494	84.81
254.727	82.81
254.96	66.81
255.193	83.81
255.426	96.81
255.659	88.81
255.892	92.81
256.124	77.81
256.357	74.81
256.59	91.81
256.823	78.81
257.056	83.81
257.289	80.81
257.521	83.81
257.754	70.81
257.987	88.81
258.22	65.81
258.452	68.81
258.685	83.81
258.918	72.81
259.151	74.81
259.383	77.81
259.616	86.81
259.849	96.81
260.081	84.81
260.314	74.81
260.547	86.81
260.779	82.81
261.012	72.81
261.244	71.81
261.477	80.81
261.71	74.81
261.942	82.81
262.175	80.81
262.407	82.81
262.64	78.81
262.872	70.81
263.105	72.81
263.337	80.81
263.57	80.81
263.802	93.81
264.035	78.81
264.267	76.81
264.499	75.81
264.732	80.81
264.964	84.81
265.197	85.81
265.429	76.81
265.661	76.81
265.894	89.81
266.126	89.81
266.358	71.81
266.591	82.81
266.823	94.81
267.055	82.81
267.287	82.81
267.52	79.81
267.752	66.81
267.984	83.81
268.216	79.81
268.448	97.81
268.681	80.81
268.913	80.81
269.145	83.81
269.377	89.81
269.609	81.81
269.841	80.81
270.073	82.81
270.306	80.81
270.538	76.81
270.77	75.81
271.002	86.81
271.234	113.81
271.466	72.81
271.698	96.81
271.93	80.81
272.162	69.81
272.394	76.81
272.626	78.81
272.858	76.81
273.09	83.81
273.322	79.81
273.553	76.81
273.785	77.81
274.017	79.81
274.249	71.81
274.481	84.81
274.713	96.81
274.945	65.81
275.176	74.81
275.408	82.81
275.64	91.81
275.872	78.81
276.104	68.81
276.335	78.81
276.567	89.81
276.799	74.81
277.031	88.81
277.262	96.81
277.494	88.81
277.726	75.81
277.957	89.81
278.189	81.81
278.421	82.81
278.652	79.81
278.884	80.81
279.115	91.81
279.347	93.81
279.579	86.81
279.81	83.81
280.042	89.81
280.273	95.81
280.505	90.81
280.736	103.81
280.968	86.81
281.199	89.81
281.431	87.81
281.662	67.81
281.894	81.81
282.125	81.81
282.356	90.81
282.588	81.81
282.819	101.81
283.051	88.81
283.282	82.81
283.513	95.81
283.745	84.81
283.976	86.81
284.207	85.81
284.439	95.81
284.67	76.81
284.901	87.81
285.132	75.81
285.364	88.81
285.595	87.81
285.826	85.81
286.057	82.81
286.288	77.81
286.52	88.81
286.751	87.81
286.982	76.81
287.213	86.81
287.444	88.81
287.675	84.81
287.906	90.81
288.138	80.81
288.369	67.81
288.6	83.81
288.831	84.81
289.062	72.81
289.293	86.81
289.524	84.81
289.755	74.81
289.986	94.81
290.217	81.81
290.448	83.81
290.679	85.81
290.91	85.81
291.141	86.81
291.371	92.81
291.602	82.81
291.833	83.81
292.064	94.81
292.295	91.81
292.526	83.81
292.757	87.81
292.987	88.81
293.218	78.81
293.449	88.81
293.68	81.81
293.91	80.81
294.141	86.81
294.372	68.81
294.603	86.81
294.833	74.81
295.064	98.81
295.295	78.81
295.525	70.81
295.756	77.81
295.987	95.81
296.217	77.81
296.448	85.81
296.679	82.81
296.909	85.81
297.14	79.81
297.37	86.81
297.601	85.81
297.831	94.81
298.062	91.81
298.292	88.81
298.523	78.81
298.753	80.81
298.984	85.81
299.214	96.81
299.445	92.81
299.675	80.81
299.905	96.81
300.136	86.81
300.366	79.81
300.597	79.81
300.827	68.81
301.057	83.81
301.288	81.81
301.518	83.81
301.748	79.81
301.979	75.81
302.209	101.81
302.439	89.81
302.669	85.81
302.9	66.81
303.13	81.81
303.36	89.81
303.59	70.81
303.82	87.81
304.051	84.81
304.281	109.81
304.511	100.81
304.741	74.81
304.971	91.81
305.201	82.81
305.431	76.81
305.661	70.81
305.891	89.81
306.121	94.81
306.352	83.81
306.582	95.81
306.812	86.81
307.042	68.81
307.272	91.81
307.502	81.81
307.731	83.81
307.961	89.81
308.191	86.81
308.421	86.81
308.651	88.81
308.881	79.81
309.111	74.81
309.341	74.81
309.571	84.81
309.8	81.81
310.03	91.81
310.26	88.81
310.49	80.81
310.72	72.81
310.949	88.81
311.179	86.81
311.409	78.81
311.639	80.81
311.868	84.81
312.098	82.81
312.328	98.81
312.557	90.81
312.787	94.81
313.017	74.81
313.246	76.81
313.476	84.81
313.706	88.81
313.935	70.81
314.165	85.81
314.394	82.81
314.624	75.81
314.853	90.81
315.083	91.81
315.312	95.81
315.542	82.81
315.771	77.81
316.001	75.81
316.23	82.81
316.46	81.81
316.689	82.81
316.919	76.81
317.148	82.81
317.377	84.81
317.607	75.81
317.836	82.81
318.065	79.81
318.295	82.81
318.524	82.81
318.753	82.81
318.983	86.81
319.212	81.81
319.441	84.81
319.67	86.81
319.9	76.81
320.129	81.81
320.358	72.81
320.587	81.81
320.816	85.81
321.046	90.81
321.275	85.81
321.504	77.81
321.733	72.81
321.962	90.81
322.191	77.81
322.42	77.81
322.649	83.81
322.878	76.81
323.108	88.81
323.337	84.81
323.566	81.81
323.795	90.81
324.024	82.81
324.253	70.81
324.482	83.81
324.71	68.81
324.939	79.81
325.168	75.81
325.397	85.81
325.626	79.81
325.855	88.81
326.084	80.81
326.313	82.81
326.542	87.81
326.77	79.81
326.999	78.81
327.228	73.81
327.457	80.81
327.686	94.81
327.914	89.81
328.143	84.81
328.372	88.81
328.6	87.81
328.829	85.81
329.058	85.81
329.287	87.81
329.515	89.81
329.744	86.81
329.972	79.81
330.201	83.81
330.43	83.81
330.658	71.81
330.887	79.81
331.115	68.81
331.344	87.81
331.572	77.81
331.801	74.81
332.03	81.81
332.258	84.81
332.486	77.81
332.715	76.81
332.943	72.81
333.172	87.81
333.4	92.81
333.629	97.81
333.857	74.81
334.085	90.81
334.314	85.81
334.542	85.81
334.771	76.81
334.999	82.81
335.227	74.81
335.455	94.81
335.684	88.81
335.912	94.81
336.14	86.81
336.369	87.81
336.597	84.81
336.825	99.81
337.053	78.81
337.281	84.81
337.51	81.81
337.738	81.81
337.966	80.81
338.194	87.81
338.422	82.81
338.65	74.81
338.878	69.81
339.106	79.81
339.334	83.81
339.562	90.81
339.79	72.81
340.018	71.81
340.246	80.81
340.474	76.81
340.702	84.81
340.93	90.81
341.158	76.81
341.386	90.81
341.614	88.81
341.842	86.81
342.07	80.81
342.298	79.81
342.526	78.81
342.754	92.81
342.981	83.81
343.209	80.81
343.437	81.81
343.665	81.81
343.893	92.81
344.12	100.81
344.348	78.81
344.576	80.81
344.804	79.81
345.031	83.81
345.259	81.81
345.487	76.81
345.714	82.81
345.942	98.81
346.17	103.81
346.397	98.81
346.625	89.81
346.853	88.81
347.08	71.81
347.308	77.81
347.535	67.81
347.763	74.81
347.99	79.81
348.218	84.81
348.445	77.81
348.673	86.81
348.9	98.81
349.128	95.81
349.355	79.81
349.583	83.81
349.81	72.81
350.037	69.81
350.265	79.81
350.492	72.81
350.72	75.81
350.947	86.81
351.174	94.81
351.402	76.81
351.629	89.81
351.856	91.81
352.083	72.81
352.311	85.81
352.538	73.81
352.765	72.81
352.992	86.81
353.22	76.81
353.447	82.81
353.674	70.81
353.901	69.81
354.128	78.81
354.355	76.81
354.583	97.81
354.81	85.81
355.037	80.81
355.264	75.81
355.491	71.81
355.718	79.81
355.945	86.81
356.172	83.81
356.399	83.81
356.626	72.81
356.853	84.81
357.08	77.81
357.307	82.81
357.534	89.81
357.761	73.81
357.988	77.81
358.215	83.81
358.441	76.81
358.668	75.81
358.895	89.81
359.122	85.81
359.349	88.81
359.576	95.81
359.802	87.81
360.029	82.81
360.256	94.81
360.483	82.81
360.709	90.81
360.936	82.81
361.163	97.81
361.39	97.81
361.616	73.81
361.843	82.81
362.07	85.81
362.296	62.81
362.523	82.81
362.749	82.81
362.976	98.81
363.203	74.81
363.429	98.81
363.656	86.81
363.882	87.81
364.109	77.81
364.335	80.81
364.562	93.81
364.788	85.81
365.015	74.81
365.241	83.81
365.468	86.81
365.694	78.81
365.92	89.81
366.147	81.81
366.373	85.81
366.599	82.81
366.826	85.81
367.052	86.81
367.278	80.81
367.505	91.81
367.731	83.81
367.957	75.81
368.184	83.81
368.41	87.81
368.636	93.81
368.862	84.81
369.089	82.81
369.315	86.81
369.541	83.81
369.767	99.81
369.993	80.81
370.219	82.81
370.445	96.81
370.672	91.81
370.898	101.81
371.124	98.81
371.35	81.81
371.576	97.81
371.802	96.81
372.028	90.81
372.254	82.81
372.48	87.81
372.706	88.81
372.932	88.81
373.158	97.81
373.384	83.81
373.61	80.81
373.835	91.81
374.061	82.81
374.287	91.81
374.513	102.81
374.739	82.81
374.965	86.81
375.191	103.81
375.416	96.81
375.642	88.81
375.868	91.81
376.094	82.81
376.319	88.81
376.545	85.81
376.771	86.81
376.997	83.81
377.222	96.81
377.448	95.81
377.674	90.81
377.899	93.81
378.125	90.81
378.35	94.81
378.576	91.81
378.802	72.81
379.027	97.81
379.253	105.81
379.478	100.81
379.704	106.81
379.929	100.81
380.155	96.81
380.38	92.81
380.606	98.81
380.831	84.81
381.057	90.81
381.282	91.81
381.507	99.81
381.733	98.81
381.958	95.81
382.184	95.81
382.409	88.81
382.634	92.81
382.86	84.81
383.085	92.81
383.31	95.81
383.535	107.81
383.761	99.81
383.986	103.81
384.211	99.81
384.436	91.81
384.662	88.81
384.887	78.81
385.112	88.81
385.337	103.81
385.562	104.81
385.787	87.81
386.013	113.81
386.238	118.81
386.463	89.81
386.688	91.81
386.913	94.81
387.138	83.81
387.363	103.81
387.588	98.81
387.813	90.81
388.038	96.81
388.263	93.81
388.488	93.81
388.713	109.81
388.938	90.81
389.163	101.81
389.387	92.81
389.612	89.81
389.837	87.81
390.062	112.81
390.287	95.81
390.512	94.81
390.736	102.81
390.961	100.81
391.186	107.81
391.411	94.81
391.636	91.81
391.86	100.81
392.085	95.81
392.31	94.81
392.534	101.81
392.759	109.81
392.984	111.81
393.208	112.81
393.433	105.81
393.658	94.81
393.882	101.81
394.107	101.81
394.331	96.81
394.556	98.81
394.78	102.81
395.005	104.81
395.229	106.81
395.454	93.81
395.678	112.81
395.903	109.81
396.127	106.81
396.352	108.81
396.576	110.81
396.801	111.81
397.025	107.81
397.249	103.81
397.474	106.81
397.698	111.81
397.922	102.81
398.147	107.81
398.371	94.81
398.595	118.81
398.82	120.81
399.044	96.81
399.268	108.81
399.492	110.81
399.717	108.81
399.941	103.81
400.165	101.81
400.389	109.81
400.613	93.81
400.837	97.81
401.062	114.81
401.286	98.81
401.51	93.81
401.734	110.81
401.958	120.81
402.182	107.81
402.406	118.81
402.63	118.81
402.854	117.81
403.078	120.81
403.302	104.81
403.526	121.81
403.75	118.81
403.974	110.81
404.198	114.81
404.422	114.81
404.645	110.81
404.869	112.81
405.093	120.81
405.317	122.81
405.541	113.81
405.765	123.81
405.988	110.81
406.212	118.81
406.436	118.81
406.66	139.81
406.883	117.81
407.107	111.81
407.331	112.81
407.555	118.81
407.778	112.81
408.002	120.81
408.226	119.81
408.449	118.81
408.673	111.81
408.896	115.81
409.12	115.81
409.344	111.81
409.567	123.81
409.791	121.81
410.014	111.81
410.238	116.81
410.461	110.81
410.685	111.81
410.908	127.81
411.132	123.81
411.355	116.81
411.578	117.81
411.802	120.81
412.025	126.81
412.249	130.81
412.472	112.81
412.695	117.81
412.919	120.81
413.142	130.81
413.365	108.81
413.589	106.81
413.812	110.81
414.035	118.81
414.258	104.81
414.482	113.81
414.705	117.81
414.928	118.81
415.151	108.81
415.374	118.81
415.597	105.81
415.821	124.81
416.044	118.81
416.267	114.81
416.49	119.81
416.713	125.81
416.936	124.81
417.159	121.81
417.382	122.81
417.605	141.81
417.828	120.81
418.051	139.81
418.274	130.81
418.497	128.81
418.72	124.81
418.943	131.81
419.166	132.81
419.389	131.81
419.611	135.81
419.834	130.81
420.057	136.81
420.28	137.81
420.503	121.81
420.726	124.81
420.948	126.81
421.171	132.81
421.394	134.81
421.617	126.81
421.839	130.81
422.062	124.81
422.285	120.81
422.507	132.81
422.73	123.81
422.953	126.81
423.175	125.81
423.398	121.81
423.621	123.81
423.843	138.81
424.066	137.81
424.288	137.81
424.511	135.81
424.733	135.81
424.956	135.81
425.178	133.81
425.401	125.81
425.623	124.81
425.846	138.81
426.068	137.81
426.291	110.81
426.513	112.81
426.735	113.81
426.958	129.81
427.18	122.81
427.402	116.81
427.625	133.81
427.847	120.81
428.069	134.81
428.292	122.81
428.514	119.81
428.736	131.81
428.958	128.81
429.181	125.81
429.403	116.81
429.625	122.81
429.847	121.81
430.069	116.81
430.292	119.81
430.514	137.81
430.736	133.81
430.958	127.81
431.18	136.81
431.402	121.81
431.624	129.81
431.846	104.81
432.068	103.81
432.29	96.81
432.512	120.81
432.734	116.81
432.956	115.81
433.178	119.81
433.4	142.81
433.622	141.81
433.844	135.81
434.066	106.81
434.287	90.81
434.509	97.81
434.731	98.81
434.953	108.81
435.175	123.81
435.397	136.81
435.618	115.81
435.84	108.81
436.062	104.81
436.284	129.81
436.505	120.81
436.727	114.81
436.949	138.81
437.17	112.81
437.392	130.81
437.614	118.81
437.835	94.81
438.057	115.81
438.278	112.81
438.5	117.81
438.721	128.81
438.943	126.81
439.165	140.81
439.386	137.81
439.608	140.81
439.829	128.81
440.05	145.81
440.272	138.81
440.493	121.81
440.715	144.81
440.936	141.81
441.158	134.81
441.379	150.81
441.6	151.81
441.822	136.81
442.043	144.81
442.264	128.81
442.486	133.81
442.707	129.81
442.928	155.81
443.149	142.81
443.371	119.81
443.592	153.81
443.813	118.81
444.034	139.81
444.255	133.81
444.476	140.81
444.698	139.81
444.919	156.81
445.14	272.81
445.361	218.81
445.582	133.81
445.803	148.81
446.024	146.81
446.245	142.81
446.466	159.81
446.687	155.81
446.908	141.81
447.129	146.81
447.35	156.81
447.571	140.81
447.792	148.81
448.013	135.81
448.234	125.81
448.455	139.81
448.675	136.81
448.896	135.81
449.117	137.81
449.338	132.81
449.559	137.81
449.779	140.81
450	122.81
450.221	139.81
450.442	130.81
450.662	141.81
450.883	135.81
451.104	133.81
451.324	130.81
451.545	113.81
451.766	117.81
451.986	126.81
452.207	124.81
452.428	107.81
452.648	114.81
452.869	118.81
453.089	118.81
453.31	103.81
453.53	94.81
453.751	90.81
453.971	98.81
454.192	114.81
454.412	114.81
454.633	116.81
454.853	109.81
455.073	117.81
455.294	128.81
455.514	112.81
455.734	112.81
455.955	105.81
456.175	113.81
456.395	124.81
456.616	116.81
456.836	114.81
457.056	102.81
457.276	98.81
457.497	89.81
457.717	91.81
457.937	105.81
458.157	100.81
458.377	102.81
458.598	99.81
458.818	93.81
459.038	85.81
459.258	92.81
459.478	93.81
459.698	95.81
459.918	88.81
460.138	105.81
460.358	115.81
460.578	109.81
460.798	106.81
461.018	105.81
461.238	106.81
461.458	118.81
461.678	101.81
461.898	119.81
462.118	99.81
462.338	112.81
462.558	110.81
462.777	112.81
462.997	106.81
463.217	102.81
463.437	95.81
463.657	97.81
463.876	85.81
464.096	120.81
464.316	115.81
464.536	117.81
464.755	105.81
464.975	100.81
465.195	106.81
465.414	117.81
465.634	110.81
465.854	117.81
466.073	122.81
466.293	107.81
466.512	120.81
466.732	124.81
466.951	114.81
467.171	119.81
467.391	133.81
467.61	137.81
467.829	135.81
468.049	126.81
468.268	139.81
468.488	141.81
468.707	122.81
468.927	132.81
469.146	134.81
469.365	147.81
469.585	136.81
469.804	132.81
470.023	133.81
470.243	161.81
470.462	140.81
470.681	135.81
470.901	155.81
471.12	139.81
471.339	148.81
471.558	151.81
471.777	145.81
471.997	135.81
472.216	116.81
472.435	110.81
472.654	96.81
472.873	103.81
473.092	104.81
473.311	120.81
473.53	117.81
473.749	130.81
473.968	112.81
474.187	121.81
474.406	122.81
474.625	130.81
474.844	132.81
475.063	119.81
475.282	125.81
475.501	136.81
475.72	117.81
475.939	130.81
476.158	128.81
476.377	126.81
476.596	130.81
476.814	105.81
477.033	114.81
477.252	118.81
477.471	119.81
477.69	116.81
477.908	126.81
478.127	134.81
478.346	137.81
478.564	121.81
478.783	122.81
479.002	156.81
479.22	132.81
479.439	130.81
479.658	126.81
479.876	113.81
480.095	115.81
480.313	127.81
480.532	126.81
480.751	113.81
480.969	98.81
481.188	86.81
481.406	87.81
481.624	79.81
481.843	90.81
482.061	102.81
482.28	98.81
482.498	121.81
482.717	114.81
482.935	119.81
483.153	137.81
483.372	161.81
483.59	145.81
483.808	136.81
484.027	120.81
484.245	140.81
484.463	142.81
484.681	154.81
484.9	148.81
485.118	141.81
485.336	148.81
485.554	118.81
485.772	98.81
485.99	90.81
486.209	106.81
486.427	106.81
486.645	119.81
486.863	129.81
487.081	143.81
487.299	123.81
487.517	133.81
487.735	165.81
487.953	169.81
488.171	180.81
488.389	158.81
488.607	134.81
488.825	131.81
489.043	137.81
489.261	124.81
489.479	132.81
489.696	128.81
489.914	146.81
490.132	134.81
490.35	160.81
490.568	147.81
490.786	163.81
491.003	175.81
491.221	175.81
491.439	180.81
491.657	187.81
491.874	217.81
492.092	216.81
492.31	239.81
492.527	231.81
492.745	207.81
492.963	201.81
493.18	196.81
493.398	182.81
493.615	178.81
493.833	187.81
494.05	169.81
494.268	175.81
494.485	175.81
494.703	162.81
494.92	177.81
495.138	167.81
495.355	186.81
495.573	162.81
495.79	165.81
496.008	180.81
496.225	158.81
496.442	175.81
496.66	165.81
496.877	163.81
497.094	181.81
497.312	178.81
497.529	166.81
497.746	136.81
497.963	134.81
498.181	127.81
498.398	120.81
498.615	128.81
498.832	125.81
499.049	126.81
499.267	122.81
499.484	132.81
499.701	131.81
499.918	131.81
500.135	119.81
500.352	128.81
500.569	150.81
500.786	147.81
501.003	130.81
501.22	138.81
501.437	150.81
501.654	132.81
501.871	137.81
502.088	120.81
502.305	132.81
502.522	137.81
502.739	134.81
502.956	117.81
503.172	115.81
503.389	106.81
503.606	142.81
503.823	110.81
504.04	118.81
504.256	120.81
504.473	117.81
504.69	113.81
504.907	124.81
505.123	108.81
505.34	122.81
505.557	132.81
505.773	134.81
505.99	122.81
506.207	121.81
506.423	117.81
506.64	118.81
506.856	129.81
507.073	104.81
507.289	120.81
507.506	97.81
507.722	114.81
507.939	126.81
508.155	125.81
508.372	120.81
508.588	115.81
508.805	124.81
509.021	113.81
509.238	111.81
509.454	113.81
509.67	119.81
509.887	86.81
510.103	101.81
510.319	95.81
510.536	99.81
510.752	107.81
510.968	83.81
511.184	92.81
511.401	83.81
511.617	95.81
511.833	90.81
512.049	74.81
