Data from Location2.07152019.Energy5.Lamp.07192019.3%Agarose_HRD10591_14-56-19-358.txt Node
Date: Fri Jul 19 14:56:19 EDT 2019
User: cochatt
Spectrometer: HR+D1059
Trigger mode: 1
Integration Time (sec): 1.000000E-1
Scans to average: 1
Electric dark correction enabled: true
Nonlinearity correction enabled: false
Boxcar width: 0
XAxis mode: Wavelengths
Number of Pixels in Spectrum: 2048
>>>>>Begin Spectral Data<<<<<
223.165	2.69
223.4	2.69
223.635	2.69
223.869	-12.31
224.104	-28.31
224.338	-12.31
224.573	-18.31
224.808	-14.31
225.042	2.69
225.277	-14.31
225.511	2.69
225.746	-5.31
225.98	12.69
226.215	16.69
226.449	16.69
226.683	22.69
226.918	4.69
227.152	23.69
227.387	33.69
227.621	17.69
227.856	44.69
228.09	61.69
228.324	36.69
228.559	47.69
228.793	54.69
229.027	57.69
229.262	67.69
229.496	58.69
229.73	63.69
229.964	64.69
230.199	80.69
230.433	85.69
230.667	79.69
230.901	73.69
231.136	79.69
231.37	78.69
231.604	62.69
231.838	85.69
232.072	80.69
232.306	90.69
232.541	68.69
232.775	71.69
233.009	66.69
233.243	87.69
233.477	75.69
233.711	69.69
233.945	80.69
234.179	71.69
234.413	70.69
234.647	69.69
234.881	82.69
235.115	74.69
235.349	90.69
235.583	86.69
235.817	73.69
236.051	86.69
236.285	72.69
236.519	77.69
236.753	68.69
236.987	80.69
237.221	72.69
237.455	82.69
237.689	63.69
237.922	71.69
238.156	73.69
238.39	72.69
238.624	72.69
238.858	67.69
239.091	73.69
239.325	63.69
239.559	75.69
239.793	79.69
240.027	86.69
240.26	67.69
240.494	81.69
240.728	80.69
240.961	80.69
241.195	75.69
241.429	74.69
241.662	71.69
241.896	70.69
242.13	75.69
242.363	84.69
242.597	78.69
242.83	69.69
243.064	70.69
243.298	72.69
243.531	71.69
243.765	80.69
243.998	81.69
244.232	83.69
244.465	78.69
244.699	75.69
244.932	74.69
245.166	67.69
245.399	73.69
245.633	73.69
245.866	85.69
246.099	80.69
246.333	70.69
246.566	80.69
246.8	71.69
247.033	69.69
247.266	73.69
247.5	72.69
247.733	81.69
247.966	100.69
248.2	71.69
248.433	73.69
248.666	70.69
248.899	83.69
249.133	62.69
249.366	83.69
249.599	70.69
249.832	76.69
250.066	78.69
250.299	77.69
250.532	88.69
250.765	84.69
250.998	80.69
251.231	74.69
251.465	80.69
251.698	78.69
251.931	86.69
252.164	80.69
252.397	78.69
252.63	78.69
252.863	68.69
253.096	86.69
253.329	80.69
253.562	75.69
253.795	71.69
254.028	92.69
254.261	70.69
254.494	87.69
254.727	86.69
254.96	69.69
255.193	90.69
255.426	102.69
255.659	71.69
255.892	73.69
256.124	75.69
256.357	69.69
256.59	72.69
256.823	73.69
257.056	79.69
257.289	75.69
257.521	74.69
257.754	67.69
257.987	63.69
258.22	77.69
258.452	87.69
258.685	85.69
258.918	77.69
259.151	70.69
259.383	79.69
259.616	71.69
259.849	90.69
260.081	66.69
260.314	72.69
260.547	70.69
260.779	68.69
261.012	73.69
261.244	86.69
261.477	83.69
261.71	70.69
261.942	90.69
262.175	73.69
262.407	53.69
262.64	72.69
262.872	84.69
263.105	77.69
263.337	78.69
263.57	79.69
263.802	80.69
264.035	74.69
264.267	76.69
264.499	79.69
264.732	68.69
264.964	73.69
265.197	70.69
265.429	78.69
265.661	76.69
265.894	78.69
266.126	70.69
266.358	85.69
266.591	73.69
266.823	71.69
267.055	78.69
267.287	66.69
267.52	67.69
267.752	86.69
267.984	70.69
268.216	81.69
268.448	74.69
268.681	69.69
268.913	95.69
269.145	76.69
269.377	86.69
269.609	92.69
269.841	78.69
270.073	74.69
270.306	96.69
270.538	79.69
270.77	88.69
271.002	77.69
271.234	63.69
271.466	83.69
271.698	87.69
271.93	91.69
272.162	84.69
272.394	78.69
272.626	90.69
272.858	80.69
273.09	85.69
273.322	87.69
273.553	80.69
273.785	82.69
274.017	73.69
274.249	76.69
274.481	76.69
274.713	87.69
274.945	91.69
275.176	74.69
275.408	90.69
275.64	72.69
275.872	74.69
276.104	71.69
276.335	82.69
276.567	84.69
276.799	79.69
277.031	72.69
277.262	83.69
277.494	71.69
277.726	76.69
277.957	70.69
278.189	76.69
278.421	84.69
278.652	83.69
278.884	72.69
279.115	86.69
279.347	72.69
279.579	72.69
279.81	69.69
280.042	70.69
280.273	71.69
280.505	81.69
280.736	82.69
280.968	74.69
281.199	87.69
281.431	79.69
281.662	87.69
281.894	74.69
282.125	85.69
282.356	81.69
282.588	81.69
282.819	87.69
283.051	80.69
283.282	81.69
283.513	74.69
283.745	79.69
283.976	92.69
284.207	93.69
284.439	70.69
284.67	82.69
284.901	83.69
285.132	88.69
285.364	92.69
285.595	81.69
285.826	63.69
286.057	75.69
286.288	74.69
286.52	78.69
286.751	89.69
286.982	85.69
287.213	73.69
287.444	72.69
287.675	96.69
287.906	74.69
288.138	80.69
288.369	74.69
288.6	78.69
288.831	74.69
289.062	80.69
289.293	92.69
289.524	88.69
289.755	71.69
289.986	84.69
290.217	87.69
290.448	77.69
290.679	83.69
290.91	88.69
291.141	76.69
291.371	82.69
291.602	77.69
291.833	73.69
292.064	85.69
292.295	83.69
292.526	81.69
292.757	72.69
292.987	85.69
293.218	72.69
293.449	91.69
293.68	71.69
293.91	65.69
294.141	65.69
294.372	73.69
294.603	74.69
294.833	89.69
295.064	73.69
295.295	86.69
295.525	75.69
295.756	80.69
295.987	82.69
296.217	87.69
296.448	87.69
296.679	87.69
296.909	86.69
297.14	95.69
297.37	86.69
297.601	85.69
297.831	79.69
298.062	91.69
298.292	85.69
298.523	91.69
298.753	78.69
298.984	73.69
299.214	82.69
299.445	82.69
299.675	81.69
299.905	70.69
300.136	78.69
300.366	78.69
300.597	89.69
300.827	69.69
301.057	75.69
301.288	93.69
301.518	91.69
301.748	75.69
301.979	93.69
302.209	78.69
302.439	76.69
302.669	81.69
302.9	71.69
303.13	77.69
303.36	76.69
303.59	80.69
303.82	78.69
304.051	88.69
304.281	83.69
304.511	76.69
304.741	69.69
304.971	82.69
305.201	93.69
305.431	80.69
305.661	78.69
305.891	83.69
306.121	72.69
306.352	80.69
306.582	84.69
306.812	73.69
307.042	77.69
307.272	73.69
307.502	86.69
307.731	86.69
307.961	92.69
308.191	72.69
308.421	92.69
308.651	84.69
308.881	69.69
309.111	73.69
309.341	84.69
309.571	91.69
309.8	84.69
310.03	67.69
310.26	85.69
310.49	88.69
310.72	74.69
310.949	87.69
311.179	72.69
311.409	80.69
311.639	87.69
311.868	80.69
312.098	86.69
312.328	83.69
312.557	83.69
312.787	82.69
313.017	72.69
313.246	80.69
313.476	84.69
313.706	71.69
313.935	65.69
314.165	83.69
314.394	93.69
314.624	86.69
314.853	83.69
315.083	96.69
315.312	81.69
315.542	81.69
315.771	86.69
316.001	75.69
316.23	57.69
316.46	75.69
316.689	82.69
316.919	69.69
317.148	69.69
317.377	73.69
317.607	84.69
317.836	84.69
318.065	85.69
318.295	79.69
318.524	71.69
318.753	93.69
318.983	74.69
319.212	71.69
319.441	79.69
319.67	76.69
319.9	69.69
320.129	80.69
320.358	80.69
320.587	73.69
320.816	76.69
321.046	83.69
321.275	84.69
321.504	82.69
321.733	79.69
321.962	81.69
322.191	86.69
322.42	84.69
322.649	87.69
322.878	82.69
323.108	75.69
323.337	74.69
323.566	82.69
323.795	79.69
324.024	73.69
324.253	77.69
324.482	80.69
324.71	92.69
324.939	88.69
325.168	76.69
325.397	72.69
325.626	92.69
325.855	79.69
326.084	87.69
326.313	76.69
326.542	73.69
326.77	80.69
326.999	95.69
327.228	92.69
327.457	87.69
327.686	82.69
327.914	87.69
328.143	76.69
328.372	72.69
328.6	78.69
328.829	72.69
329.058	73.69
329.287	80.69
329.515	77.69
329.744	90.69
329.972	83.69
330.201	73.69
330.43	89.69
330.658	81.69
330.887	86.69
331.115	79.69
331.344	68.69
331.572	81.69
331.801	97.69
332.03	84.69
332.258	74.69
332.486	82.69
332.715	92.69
332.943	82.69
333.172	81.69
333.4	70.69
333.629	89.69
333.857	81.69
334.085	78.69
334.314	60.69
334.542	65.69
334.771	74.69
334.999	78.69
335.227	84.69
335.455	78.69
335.684	68.69
335.912	78.69
336.14	73.69
336.369	82.69
336.597	95.69
336.825	86.69
337.053	82.69
337.281	74.69
337.51	83.69
337.738	84.69
337.966	84.69
338.194	92.69
338.422	84.69
338.65	83.69
338.878	81.69
339.106	74.69
339.334	97.69
339.562	106.69
339.79	100.69
340.018	77.69
340.246	72.69
340.474	74.69
340.702	86.69
340.93	76.69
341.158	74.69
341.386	68.69
341.614	82.69
341.842	96.69
342.07	79.69
342.298	83.69
342.526	74.69
342.754	84.69
342.981	81.69
343.209	73.69
343.437	82.69
343.665	72.69
343.893	85.69
344.12	88.69
344.348	77.69
344.576	83.69
344.804	85.69
345.031	87.69
345.259	87.69
345.487	74.69
345.714	76.69
345.942	75.69
346.17	79.69
346.397	75.69
346.625	74.69
346.853	86.69
347.08	73.69
347.308	72.69
347.535	71.69
347.763	66.69
347.99	87.69
348.218	85.69
348.445	89.69
348.673	74.69
348.9	72.69
349.128	68.69
349.355	74.69
349.583	86.69
349.81	75.69
350.037	91.69
350.265	82.69
350.492	90.69
350.72	90.69
350.947	82.69
351.174	89.69
351.402	88.69
351.629	78.69
351.856	81.69
352.083	72.69
352.311	65.69
352.538	75.69
352.765	86.69
352.992	90.69
353.22	93.69
353.447	80.69
353.674	85.69
353.901	89.69
354.128	98.69
354.355	72.69
354.583	71.69
354.81	76.69
355.037	91.69
355.264	86.69
355.491	85.69
355.718	73.69
355.945	89.69
356.172	86.69
356.399	72.69
356.626	80.69
356.853	57.69
357.08	74.69
357.307	52.69
357.534	73.69
357.761	86.69
357.988	78.69
358.215	97.69
358.441	87.69
358.668	81.69
358.895	75.69
359.122	72.69
359.349	75.69
359.576	88.69
359.802	81.69
360.029	81.69
360.256	77.69
360.483	90.69
360.709	86.69
360.936	85.69
361.163	77.69
361.39	73.69
361.616	84.69
361.843	87.69
362.07	79.69
362.296	84.69
362.523	89.69
362.749	82.69
362.976	70.69
363.203	88.69
363.429	64.69
363.656	71.69
363.882	84.69
364.109	71.69
364.335	88.69
364.562	70.69
364.788	87.69
365.015	77.69
365.241	98.69
365.468	82.69
365.694	87.69
365.92	76.69
366.147	83.69
366.373	74.69
366.599	92.69
366.826	98.69
367.052	94.69
367.278	92.69
367.505	83.69
367.731	86.69
367.957	83.69
368.184	92.69
368.41	84.69
368.636	111.69
368.862	89.69
369.089	86.69
369.315	84.69
369.541	90.69
369.767	86.69
369.993	94.69
370.219	89.69
370.445	79.69
370.672	73.69
370.898	82.69
371.124	83.69
371.35	83.69
371.576	90.69
371.802	87.69
372.028	92.69
372.254	100.69
372.48	83.69
372.706	80.69
372.932	69.69
373.158	99.69
373.384	93.69
373.61	62.69
373.835	88.69
374.061	86.69
374.287	73.69
374.513	95.69
374.739	101.69
374.965	94.69
375.191	102.69
375.416	99.69
375.642	87.69
375.868	90.69
376.094	92.69
376.319	95.69
376.545	94.69
376.771	83.69
376.997	81.69
377.222	89.69
377.448	92.69
377.674	89.69
377.899	96.69
378.125	88.69
378.35	95.69
378.576	95.69
378.802	94.69
379.027	86.69
379.253	82.69
379.478	88.69
379.704	101.69
379.929	86.69
380.155	85.69
380.38	75.69
380.606	82.69
380.831	82.69
381.057	84.69
381.282	87.69
381.507	78.69
381.733	91.69
381.958	88.69
382.184	93.69
382.409	94.69
382.634	105.69
382.86	105.69
383.085	110.69
383.31	104.69
383.535	95.69
383.761	97.69
383.986	95.69
384.211	100.69
384.436	91.69
384.662	99.69
384.887	100.69
385.112	87.69
385.337	94.69
385.562	90.69
385.787	91.69
386.013	104.69
386.238	93.69
386.463	90.69
386.688	97.69
386.913	97.69
387.138	108.69
387.363	86.69
387.588	112.69
387.813	88.69
388.038	99.69
388.263	108.69
388.488	95.69
388.713	103.69
388.938	109.69
389.163	96.69
389.387	89.69
389.612	98.69
389.837	101.69
390.062	88.69
390.287	91.69
390.512	97.69
390.736	96.69
390.961	93.69
391.186	99.69
391.411	87.69
391.636	105.69
391.86	93.69
392.085	96.69
392.31	89.69
392.534	104.69
392.759	104.69
392.984	90.69
393.208	107.69
393.433	116.69
393.658	100.69
393.882	99.69
394.107	112.69
394.331	96.69
394.556	106.69
394.78	112.69
395.005	98.69
395.229	94.69
395.454	97.69
395.678	119.69
395.903	108.69
396.127	110.69
396.352	123.69
396.576	115.69
396.801	111.69
397.025	89.69
397.249	111.69
397.474	101.69
397.698	92.69
397.922	114.69
398.147	98.69
398.371	106.69
398.595	118.69
398.82	116.69
399.044	104.69
399.268	103.69
399.492	120.69
399.717	109.69
399.941	105.69
400.165	119.69
400.389	88.69
400.613	97.69
400.837	114.69
401.062	100.69
401.286	104.69
401.51	105.69
401.734	109.69
401.958	104.69
402.182	103.69
402.406	106.69
402.63	110.69
402.854	108.69
403.078	96.69
403.302	102.69
403.526	112.69
403.75	88.69
403.974	97.69
404.198	109.69
404.422	108.69
404.645	112.69
404.869	115.69
405.093	108.69
405.317	111.69
405.541	102.69
405.765	122.69
405.988	118.69
406.212	113.69
406.436	109.69
406.66	123.69
406.883	119.69
407.107	117.69
407.331	97.69
407.555	119.69
407.778	118.69
408.002	117.69
408.226	112.69
408.449	110.69
408.673	111.69
408.896	120.69
409.12	122.69
409.344	137.69
409.567	119.69
409.791	119.69
410.014	126.69
410.238	135.69
410.461	104.69
410.685	108.69
410.908	121.69
411.132	112.69
411.355	125.69
411.578	114.69
411.802	113.69
412.025	110.69
412.249	112.69
412.472	116.69
412.695	116.69
412.919	111.69
413.142	121.69
413.365	118.69
413.589	127.69
413.812	120.69
414.035	141.69
414.258	126.69
414.482	108.69
414.705	116.69
414.928	114.69
415.151	108.69
415.374	126.69
415.597	122.69
415.821	117.69
416.044	126.69
416.267	114.69
416.49	124.69
416.713	128.69
416.936	120.69
417.159	106.69
417.382	124.69
417.605	125.69
417.828	104.69
418.051	131.69
418.274	128.69
418.497	119.69
418.72	127.69
418.943	133.69
419.166	124.69
419.389	126.69
419.611	130.69
419.834	128.69
420.057	144.69
420.28	145.69
420.503	132.69
420.726	124.69
420.948	115.69
421.171	116.69
421.394	142.69
421.617	135.69
421.839	120.69
422.062	139.69
422.285	138.69
422.507	109.69
422.73	130.69
422.953	115.69
423.175	124.69
423.398	105.69
423.621	124.69
423.843	125.69
424.066	133.69
424.288	136.69
424.511	123.69
424.733	140.69
424.956	124.69
425.178	120.69
425.401	127.69
425.623	127.69
425.846	145.69
426.068	119.69
426.291	128.69
426.513	122.69
426.735	139.69
426.958	144.69
427.18	129.69
427.402	124.69
427.625	120.69
427.847	121.69
428.069	123.69
428.292	117.69
428.514	125.69
428.736	117.69
428.958	120.69
429.181	124.69
429.403	125.69
429.625	116.69
429.847	128.69
430.069	130.69
430.292	111.69
430.514	111.69
430.736	125.69
430.958	124.69
431.18	132.69
431.402	126.69
431.624	113.69
431.846	89.69
432.068	104.69
432.29	88.69
432.512	96.69
432.734	118.69
432.956	140.69
433.178	142.69
433.4	130.69
433.622	136.69
433.844	133.69
434.066	129.69
434.287	96.69
434.509	87.69
434.731	96.69
434.953	112.69
435.175	121.69
435.397	119.69
435.618	110.69
435.84	116.69
436.062	116.69
436.284	112.69
436.505	139.69
436.727	126.69
436.949	130.69
437.17	127.69
437.392	138.69
437.614	108.69
437.835	100.69
438.057	103.69
438.278	101.69
438.5	117.69
438.721	132.69
438.943	127.69
439.165	137.69
439.386	137.69
439.608	143.69
439.829	154.69
440.05	133.69
440.272	130.69
440.493	145.69
440.715	149.69
440.936	149.69
441.158	142.69
441.379	132.69
441.6	145.69
441.822	146.69
442.043	138.69
442.264	138.69
442.486	134.69
442.707	143.69
442.928	143.69
443.149	115.69
443.371	143.69
443.592	124.69
443.813	130.69
444.034	137.69
444.255	129.69
444.476	133.69
444.698	135.69
444.919	129.69
445.14	256.69
445.361	191.69
445.582	136.69
445.803	151.69
446.024	135.69
446.245	147.69
446.466	137.69
446.687	138.69
446.908	144.69
447.129	147.69
447.35	144.69
447.571	140.69
447.792	161.69
448.013	127.69
448.234	139.69
448.455	144.69
448.675	140.69
448.896	132.69
449.117	145.69
449.338	143.69
449.559	147.69
449.779	130.69
450	130.69
450.221	129.69
450.442	129.69
450.662	136.69
450.883	116.69
451.104	130.69
451.324	142.69
451.545	127.69
451.766	133.69
451.986	111.69
452.207	122.69
452.428	115.69
452.648	128.69
452.869	126.69
453.089	117.69
453.31	106.69
453.53	114.69
453.751	103.69
453.971	94.69
454.192	98.69
454.412	96.69
454.633	116.69
454.853	133.69
455.073	122.69
455.294	123.69
455.514	115.69
455.734	94.69
455.955	112.69
456.175	109.69
456.395	104.69
456.616	110.69
456.836	120.69
457.056	110.69
457.276	110.69
457.497	112.69
457.717	114.69
457.937	120.69
458.157	99.69
458.377	86.69
458.598	104.69
458.818	93.69
459.038	69.69
459.258	90.69
459.478	87.69
459.698	81.69
459.918	103.69
460.138	111.69
460.358	116.69
460.578	123.69
460.798	118.69
461.018	102.69
461.238	98.69
461.458	123.69
461.678	106.69
461.898	108.69
462.118	106.69
462.338	108.69
462.558	115.69
462.777	114.69
462.997	104.69
463.217	106.69
463.437	125.69
463.657	109.69
463.876	88.69
464.096	103.69
464.316	114.69
464.536	116.69
464.755	103.69
464.975	116.69
465.195	113.69
465.414	104.69
465.634	132.69
465.854	112.69
466.073	122.69
466.293	121.69
466.512	127.69
466.732	118.69
466.951	122.69
467.171	117.69
467.391	123.69
467.61	132.69
467.829	136.69
468.049	142.69
468.268	134.69
468.488	130.69
468.707	135.69
468.927	138.69
469.146	136.69
469.365	142.69
469.585	136.69
469.804	152.69
470.023	139.69
470.243	140.69
470.462	150.69
470.681	146.69
470.901	138.69
471.12	140.69
471.339	141.69
471.558	135.69
471.777	138.69
471.997	135.69
472.216	111.69
472.435	110.69
472.654	120.69
472.873	110.69
473.092	112.69
473.311	110.69
473.53	113.69
473.749	142.69
473.968	132.69
474.187	108.69
474.406	120.69
474.625	120.69
474.844	124.69
475.063	131.69
475.282	146.69
475.501	110.69
475.72	121.69
475.939	124.69
476.158	129.69
476.377	127.69
476.596	133.69
476.814	111.69
477.033	108.69
477.252	114.69
477.471	137.69
477.69	123.69
477.908	135.69
478.127	143.69
478.346	139.69
478.564	129.69
478.783	131.69
479.002	127.69
479.22	136.69
479.439	127.69
479.658	118.69
479.876	119.69
480.095	116.69
480.313	118.69
480.532	113.69
480.751	126.69
480.969	107.69
481.188	86.69
481.406	98.69
481.624	86.69
481.843	96.69
482.061	99.69
482.28	111.69
482.498	118.69
482.717	99.69
482.935	118.69
483.153	147.69
483.372	148.69
483.59	158.69
483.808	133.69
484.027	136.69
484.245	130.69
484.463	143.69
484.681	151.69
484.9	148.69
485.118	137.69
485.336	120.69
485.554	118.69
485.772	111.69
485.99	109.69
486.209	116.69
486.427	84.69
486.645	112.69
486.863	122.69
487.081	141.69
487.299	142.69
487.517	126.69
487.735	165.69
487.953	188.69
488.171	162.69
488.389	172.69
488.607	162.69
488.825	142.69
489.043	127.69
489.261	111.69
489.479	142.69
489.696	133.69
489.914	142.69
490.132	146.69
490.35	149.69
490.568	146.69
490.786	166.69
491.003	173.69
491.221	188.69
491.439	182.69
491.657	179.69
491.874	201.69
492.092	203.69
492.31	232.69
492.527	222.69
492.745	206.69
492.963	213.69
493.18	193.69
493.398	177.69
493.615	167.69
493.833	164.69
494.05	176.69
494.268	189.69
494.485	176.69
494.703	164.69
494.92	169.69
495.138	180.69
495.355	159.69
495.573	178.69
495.79	168.69
496.008	160.69
496.225	158.69
496.442	163.69
496.66	158.69
496.877	159.69
497.094	158.69
497.312	159.69
497.529	161.69
497.746	151.69
497.963	150.69
498.181	136.69
498.398	116.69
498.615	122.69
498.832	120.69
499.049	112.69
499.267	117.69
499.484	136.69
499.701	133.69
499.918	144.69
500.135	150.69
500.352	137.69
500.569	141.69
500.786	133.69
501.003	134.69
501.22	141.69
501.437	117.69
501.654	125.69
501.871	129.69
502.088	120.69
502.305	142.69
502.522	144.69
502.739	131.69
502.956	132.69
503.172	120.69
503.389	134.69
503.606	105.69
503.823	113.69
504.04	119.69
504.256	103.69
504.473	119.69
504.69	112.69
504.907	138.69
505.123	120.69
505.34	135.69
505.557	130.69
505.773	124.69
505.99	121.69
506.207	117.69
506.423	116.69
506.64	122.69
506.856	116.69
507.073	130.69
507.289	119.69
507.506	118.69
507.722	116.69
507.939	102.69
508.155	111.69
508.372	118.69
508.588	110.69
508.805	129.69
509.021	109.69
509.238	99.69
509.454	100.69
509.67	100.69
509.887	93.69
510.103	108.69
510.319	102.69
510.536	100.69
510.752	82.69
510.968	78.69
511.184	82.69
511.401	80.69
511.617	86.69
511.833	94.69
512.049	92.69
