Data from Location2.07152019.Energy5.Lamp.07192019.3%Agarose_HRD10591_14-58-23-360.txt Node
Date: Fri Jul 19 14:58:23 EDT 2019
User: cochatt
Spectrometer: HR+D1059
Trigger mode: 1
Integration Time (sec): 1.000000E-1
Scans to average: 1
Electric dark correction enabled: true
Nonlinearity correction enabled: false
Boxcar width: 0
XAxis mode: Wavelengths
Number of Pixels in Spectrum: 2048
>>>>>Begin Spectral Data<<<<<
223.165	-3.06
223.4	-3.06
223.635	-3.06
223.869	-22.06
224.104	-18.06
224.338	-15.06
224.573	-9.06
224.808	-9.06
225.042	-9.06
225.277	-20.06
225.511	-3.06
225.746	12.94
225.98	12.94
226.215	9.94
226.449	-3.06
226.683	21.94
226.918	17.94
227.152	35.94
227.387	35.94
227.621	29.94
227.856	41.94
228.09	36.94
228.324	32.94
228.559	72.94
228.793	74.94
229.027	65.94
229.262	70.94
229.496	64.94
229.73	64.94
229.964	83.94
230.199	78.94
230.433	53.94
230.667	68.94
230.901	78.94
231.136	69.94
231.37	74.94
231.604	85.94
231.838	89.94
232.072	81.94
232.306	72.94
232.541	70.94
232.775	85.94
233.009	89.94
233.243	77.94
233.477	77.94
233.711	87.94
233.945	74.94
234.179	64.94
234.413	83.94
234.647	72.94
234.881	82.94
235.115	86.94
235.349	81.94
235.583	81.94
235.817	85.94
236.051	96.94
236.285	84.94
236.519	79.94
236.753	84.94
236.987	89.94
237.221	78.94
237.455	97.94
237.689	78.94
237.922	78.94
238.156	73.94
238.39	72.94
238.624	62.94
238.858	74.94
239.091	83.94
239.325	74.94
239.559	68.94
239.793	77.94
240.027	78.94
240.26	77.94
240.494	75.94
240.728	74.94
240.961	87.94
241.195	75.94
241.429	75.94
241.662	66.94
241.896	88.94
242.13	74.94
242.363	84.94
242.597	72.94
242.83	78.94
243.064	77.94
243.298	74.94
243.531	75.94
243.765	84.94
243.998	86.94
244.232	81.94
244.465	92.94
244.699	87.94
244.932	82.94
245.166	75.94
245.399	74.94
245.633	71.94
245.866	73.94
246.099	88.94
246.333	79.94
246.566	76.94
246.8	82.94
247.033	78.94
247.266	85.94
247.5	74.94
247.733	86.94
247.966	78.94
248.2	86.94
248.433	84.94
248.666	83.94
248.899	83.94
249.133	91.94
249.366	80.94
249.599	77.94
249.832	72.94
250.066	79.94
250.299	78.94
250.532	68.94
250.765	77.94
250.998	81.94
251.231	58.94
251.465	68.94
251.698	60.94
251.931	97.94
252.164	70.94
252.397	84.94
252.63	75.94
252.863	73.94
253.096	74.94
253.329	86.94
253.562	84.94
253.795	77.94
254.028	78.94
254.261	79.94
254.494	98.94
254.727	86.94
254.96	68.94
255.193	89.94
255.426	92.94
255.659	79.94
255.892	93.94
256.124	84.94
256.357	79.94
256.59	75.94
256.823	94.94
257.056	73.94
257.289	78.94
257.521	89.94
257.754	82.94
257.987	89.94
258.22	89.94
258.452	76.94
258.685	78.94
258.918	77.94
259.151	82.94
259.383	81.94
259.616	75.94
259.849	88.94
260.081	76.94
260.314	90.94
260.547	80.94
260.779	92.94
261.012	87.94
261.244	85.94
261.477	72.94
261.71	79.94
261.942	90.94
262.175	89.94
262.407	85.94
262.64	80.94
262.872	83.94
263.105	89.94
263.337	92.94
263.57	76.94
263.802	96.94
264.035	82.94
264.267	97.94
264.499	78.94
264.732	89.94
264.964	92.94
265.197	88.94
265.429	76.94
265.661	77.94
265.894	85.94
266.126	92.94
266.358	90.94
266.591	88.94
266.823	72.94
267.055	88.94
267.287	87.94
267.52	88.94
267.752	65.94
267.984	82.94
268.216	74.94
268.448	88.94
268.681	84.94
268.913	82.94
269.145	84.94
269.377	74.94
269.609	82.94
269.841	81.94
270.073	86.94
270.306	91.94
270.538	81.94
270.77	79.94
271.002	80.94
271.234	79.94
271.466	79.94
271.698	81.94
271.93	72.94
272.162	88.94
272.394	92.94
272.626	76.94
272.858	76.94
273.09	100.94
273.322	91.94
273.553	74.94
273.785	86.94
274.017	91.94
274.249	86.94
274.481	82.94
274.713	97.94
274.945	78.94
275.176	91.94
275.408	76.94
275.64	93.94
275.872	91.94
276.104	78.94
276.335	90.94
276.567	81.94
276.799	70.94
277.031	72.94
277.262	80.94
277.494	95.94
277.726	86.94
277.957	75.94
278.189	82.94
278.421	83.94
278.652	86.94
278.884	87.94
279.115	84.94
279.347	81.94
279.579	86.94
279.81	108.94
280.042	74.94
280.273	73.94
280.505	77.94
280.736	83.94
280.968	82.94
281.199	86.94
281.431	73.94
281.662	86.94
281.894	81.94
282.125	92.94
282.356	74.94
282.588	89.94
282.819	88.94
283.051	92.94
283.282	86.94
283.513	86.94
283.745	79.94
283.976	88.94
284.207	88.94
284.439	64.94
284.67	78.94
284.901	99.94
285.132	89.94
285.364	83.94
285.595	90.94
285.826	84.94
286.057	77.94
286.288	98.94
286.52	92.94
286.751	90.94
286.982	73.94
287.213	83.94
287.444	84.94
287.675	93.94
287.906	84.94
288.138	79.94
288.369	88.94
288.6	84.94
288.831	77.94
289.062	89.94
289.293	88.94
289.524	88.94
289.755	75.94
289.986	82.94
290.217	85.94
290.448	85.94
290.679	75.94
290.91	84.94
291.141	80.94
291.371	84.94
291.602	88.94
291.833	85.94
292.064	88.94
292.295	82.94
292.526	85.94
292.757	85.94
292.987	93.94
293.218	79.94
293.449	85.94
293.68	86.94
293.91	99.94
294.141	89.94
294.372	83.94
294.603	78.94
294.833	112.94
295.064	83.94
295.295	91.94
295.525	73.94
295.756	86.94
295.987	75.94
296.217	83.94
296.448	100.94
296.679	88.94
296.909	91.94
297.14	74.94
297.37	86.94
297.601	93.94
297.831	79.94
298.062	94.94
298.292	99.94
298.523	87.94
298.753	90.94
298.984	86.94
299.214	77.94
299.445	95.94
299.675	106.94
299.905	81.94
300.136	88.94
300.366	82.94
300.597	80.94
300.827	76.94
301.057	86.94
301.288	69.94
301.518	88.94
301.748	84.94
301.979	81.94
302.209	94.94
302.439	86.94
302.669	83.94
302.9	83.94
303.13	100.94
303.36	95.94
303.59	88.94
303.82	85.94
304.051	85.94
304.281	95.94
304.511	97.94
304.741	85.94
304.971	93.94
305.201	92.94
305.431	89.94
305.661	81.94
305.891	88.94
306.121	92.94
306.352	80.94
306.582	90.94
306.812	88.94
307.042	82.94
307.272	90.94
307.502	107.94
307.731	84.94
307.961	82.94
308.191	81.94
308.421	98.94
308.651	77.94
308.881	77.94
309.111	82.94
309.341	87.94
309.571	86.94
309.8	86.94
310.03	97.94
310.26	98.94
310.49	91.94
310.72	93.94
310.949	86.94
311.179	83.94
311.409	80.94
311.639	82.94
311.868	66.94
312.098	76.94
312.328	89.94
312.557	89.94
312.787	92.94
313.017	102.94
313.246	93.94
313.476	78.94
313.706	86.94
313.935	98.94
314.165	93.94
314.394	93.94
314.624	78.94
314.853	76.94
315.083	79.94
315.312	86.94
315.542	73.94
315.771	71.94
316.001	85.94
316.23	84.94
316.46	89.94
316.689	80.94
316.919	70.94
317.148	80.94
317.377	97.94
317.607	78.94
317.836	81.94
318.065	80.94
318.295	80.94
318.524	94.94
318.753	88.94
318.983	97.94
319.212	82.94
319.441	95.94
319.67	85.94
319.9	87.94
320.129	99.94
320.358	78.94
320.587	87.94
320.816	82.94
321.046	80.94
321.275	88.94
321.504	86.94
321.733	89.94
321.962	80.94
322.191	76.94
322.42	70.94
322.649	89.94
322.878	94.94
323.108	100.94
323.337	84.94
323.566	84.94
323.795	88.94
324.024	81.94
324.253	84.94
324.482	96.94
324.71	89.94
324.939	95.94
325.168	88.94
325.397	77.94
325.626	88.94
325.855	80.94
326.084	77.94
326.313	86.94
326.542	83.94
326.77	92.94
326.999	92.94
327.228	93.94
327.457	77.94
327.686	91.94
327.914	80.94
328.143	89.94
328.372	74.94
328.6	84.94
328.829	68.94
329.058	82.94
329.287	84.94
329.515	86.94
329.744	97.94
329.972	102.94
330.201	92.94
330.43	77.94
330.658	89.94
330.887	101.94
331.115	79.94
331.344	78.94
331.572	72.94
331.801	90.94
332.03	85.94
332.258	89.94
332.486	86.94
332.715	76.94
332.943	84.94
333.172	100.94
333.4	91.94
333.629	72.94
333.857	96.94
334.085	81.94
334.314	94.94
334.542	85.94
334.771	74.94
334.999	94.94
335.227	84.94
335.455	85.94
335.684	81.94
335.912	85.94
336.14	79.94
336.369	100.94
336.597	81.94
336.825	82.94
337.053	104.94
337.281	76.94
337.51	83.94
337.738	90.94
337.966	88.94
338.194	82.94
338.422	84.94
338.65	63.94
338.878	80.94
339.106	90.94
339.334	96.94
339.562	88.94
339.79	92.94
340.018	89.94
340.246	82.94
340.474	75.94
340.702	87.94
340.93	86.94
341.158	102.94
341.386	82.94
341.614	84.94
341.842	82.94
342.07	94.94
342.298	96.94
342.526	91.94
342.754	79.94
342.981	86.94
343.209	80.94
343.437	83.94
343.665	81.94
343.893	99.94
344.12	84.94
344.348	81.94
344.576	84.94
344.804	84.94
345.031	83.94
345.259	94.94
345.487	88.94
345.714	81.94
345.942	85.94
346.17	99.94
346.397	87.94
346.625	90.94
346.853	88.94
347.08	79.94
347.308	83.94
347.535	87.94
347.763	85.94
347.99	96.94
348.218	93.94
348.445	85.94
348.673	79.94
348.9	83.94
349.128	91.94
349.355	75.94
349.583	84.94
349.81	81.94
350.037	89.94
350.265	89.94
350.492	78.94
350.72	80.94
350.947	90.94
351.174	68.94
351.402	85.94
351.629	84.94
351.856	73.94
352.083	92.94
352.311	88.94
352.538	76.94
352.765	74.94
352.992	75.94
353.22	91.94
353.447	96.94
353.674	86.94
353.901	74.94
354.128	95.94
354.355	85.94
354.583	93.94
354.81	93.94
355.037	91.94
355.264	94.94
355.491	66.94
355.718	83.94
355.945	85.94
356.172	75.94
356.399	89.94
356.626	80.94
356.853	93.94
357.08	84.94
357.307	92.94
357.534	72.94
357.761	84.94
357.988	84.94
358.215	83.94
358.441	79.94
358.668	76.94
358.895	75.94
359.122	85.94
359.349	76.94
359.576	88.94
359.802	89.94
360.029	93.94
360.256	94.94
360.483	93.94
360.709	89.94
360.936	75.94
361.163	82.94
361.39	84.94
361.616	85.94
361.843	93.94
362.07	84.94
362.296	80.94
362.523	92.94
362.749	81.94
362.976	73.94
363.203	84.94
363.429	86.94
363.656	96.94
363.882	68.94
364.109	86.94
364.335	92.94
364.562	88.94
364.788	83.94
365.015	78.94
365.241	76.94
365.468	81.94
365.694	75.94
365.92	81.94
366.147	80.94
366.373	82.94
366.599	92.94
366.826	88.94
367.052	86.94
367.278	74.94
367.505	88.94
367.731	94.94
367.957	99.94
368.184	78.94
368.41	80.94
368.636	84.94
368.862	89.94
369.089	90.94
369.315	97.94
369.541	97.94
369.767	108.94
369.993	95.94
370.219	98.94
370.445	95.94
370.672	98.94
370.898	91.94
371.124	95.94
371.35	92.94
371.576	97.94
371.802	97.94
372.028	93.94
372.254	81.94
372.48	94.94
372.706	91.94
372.932	85.94
373.158	103.94
373.384	105.94
373.61	95.94
373.835	99.94
374.061	75.94
374.287	90.94
374.513	93.94
374.739	86.94
374.965	97.94
375.191	86.94
375.416	98.94
375.642	98.94
375.868	89.94
376.094	98.94
376.319	88.94
376.545	98.94
376.771	104.94
376.997	92.94
377.222	93.94
377.448	89.94
377.674	94.94
377.899	90.94
378.125	98.94
378.35	101.94
378.576	92.94
378.802	81.94
379.027	78.94
379.253	94.94
379.478	102.94
379.704	97.94
379.929	87.94
380.155	89.94
380.38	90.94
380.606	100.94
380.831	85.94
381.057	98.94
381.282	104.94
381.507	103.94
381.733	94.94
381.958	99.94
382.184	96.94
382.409	98.94
382.634	109.94
382.86	80.94
383.085	100.94
383.31	105.94
383.535	103.94
383.761	105.94
383.986	92.94
384.211	101.94
384.436	98.94
384.662	99.94
384.887	93.94
385.112	98.94
385.337	86.94
385.562	109.94
385.787	98.94
386.013	112.94
386.238	102.94
386.463	106.94
386.688	102.94
386.913	97.94
387.138	98.94
387.363	100.94
387.588	104.94
387.813	93.94
388.038	98.94
388.263	102.94
388.488	109.94
388.713	102.94
388.938	95.94
389.163	86.94
389.387	106.94
389.612	94.94
389.837	107.94
390.062	99.94
390.287	102.94
390.512	94.94
390.736	93.94
390.961	113.94
391.186	94.94
391.411	98.94
391.636	108.94
391.86	112.94
392.085	94.94
392.31	113.94
392.534	107.94
392.759	122.94
392.984	104.94
393.208	110.94
393.433	99.94
393.658	101.94
393.882	107.94
394.107	108.94
394.331	100.94
394.556	105.94
394.78	102.94
395.005	121.94
395.229	105.94
395.454	110.94
395.678	116.94
395.903	106.94
396.127	106.94
396.352	101.94
396.576	94.94
396.801	118.94
397.025	108.94
397.249	109.94
397.474	121.94
397.698	101.94
397.922	98.94
398.147	94.94
398.371	109.94
398.595	88.94
398.82	109.94
399.044	100.94
399.268	116.94
399.492	120.94
399.717	116.94
399.941	112.94
400.165	101.94
400.389	109.94
400.613	107.94
400.837	115.94
401.062	112.94
401.286	110.94
401.51	121.94
401.734	119.94
401.958	102.94
402.182	109.94
402.406	112.94
402.63	127.94
402.854	110.94
403.078	108.94
403.302	116.94
403.526	125.94
403.75	123.94
403.974	109.94
404.198	108.94
404.422	115.94
404.645	122.94
404.869	133.94
405.093	113.94
405.317	114.94
405.541	105.94
405.765	120.94
405.988	112.94
406.212	121.94
406.436	117.94
406.66	114.94
406.883	117.94
407.107	115.94
407.331	119.94
407.555	122.94
407.778	129.94
408.002	107.94
408.226	108.94
408.449	104.94
408.673	124.94
408.896	122.94
409.12	129.94
409.344	126.94
409.567	113.94
409.791	112.94
410.014	107.94
410.238	122.94
410.461	117.94
410.685	109.94
410.908	136.94
411.132	132.94
411.355	119.94
411.578	123.94
411.802	115.94
412.025	124.94
412.249	120.94
412.472	120.94
412.695	135.94
412.919	125.94
413.142	124.94
413.365	124.94
413.589	155.94
413.812	126.94
414.035	126.94
414.258	109.94
414.482	117.94
414.705	102.94
414.928	124.94
415.151	117.94
415.374	123.94
415.597	123.94
415.821	142.94
416.044	116.94
416.267	117.94
416.49	130.94
416.713	120.94
416.936	135.94
417.159	138.94
417.382	139.94
417.605	122.94
417.828	146.94
418.051	122.94
418.274	124.94
418.497	127.94
418.72	138.94
418.943	138.94
419.166	136.94
419.389	133.94
419.611	137.94
419.834	135.94
420.057	127.94
420.28	122.94
420.503	148.94
420.726	135.94
420.948	117.94
421.171	132.94
421.394	112.94
421.617	132.94
421.839	144.94
422.062	138.94
422.285	140.94
422.507	137.94
422.73	129.94
422.953	128.94
423.175	118.94
423.398	121.94
423.621	122.94
423.843	134.94
424.066	133.94
424.288	147.94
424.511	133.94
424.733	141.94
424.956	129.94
425.178	121.94
425.401	125.94
425.623	130.94
425.846	158.94
426.068	136.94
426.291	137.94
426.513	123.94
426.735	141.94
426.958	139.94
427.18	148.94
427.402	132.94
427.625	128.94
427.847	122.94
428.069	112.94
428.292	122.94
428.514	115.94
428.736	126.94
428.958	148.94
429.181	125.94
429.403	126.94
429.625	140.94
429.847	129.94
430.069	128.94
430.292	136.94
430.514	135.94
430.736	141.94
430.958	125.94
431.18	121.94
431.402	140.94
431.624	115.94
431.846	102.94
432.068	106.94
432.29	95.94
432.512	117.94
432.734	122.94
432.956	134.94
433.178	150.94
433.4	150.94
433.622	140.94
433.844	110.94
434.066	129.94
434.287	104.94
434.509	93.94
434.731	109.94
434.953	107.94
435.175	115.94
435.397	129.94
435.618	117.94
435.84	133.94
436.062	123.94
436.284	124.94
436.505	135.94
436.727	135.94
436.949	133.94
437.17	126.94
437.392	126.94
437.614	124.94
437.835	112.94
438.057	103.94
438.278	117.94
438.5	116.94
438.721	128.94
438.943	136.94
439.165	140.94
439.386	138.94
439.608	154.94
439.829	154.94
440.05	145.94
440.272	144.94
440.493	146.94
440.715	155.94
440.936	136.94
441.158	146.94
441.379	158.94
441.6	148.94
441.822	158.94
442.043	155.94
442.264	139.94
442.486	145.94
442.707	140.94
442.928	134.94
443.149	137.94
443.371	143.94
443.592	135.94
443.813	138.94
444.034	139.94
444.255	139.94
444.476	139.94
444.698	139.94
444.919	154.94
445.14	265.94
445.361	217.94
445.582	163.94
445.803	139.94
446.024	154.94
446.245	153.94
446.466	152.94
446.687	146.94
446.908	163.94
447.129	148.94
447.35	165.94
447.571	157.94
447.792	149.94
448.013	150.94
448.234	156.94
448.455	155.94
448.675	126.94
448.896	149.94
449.117	140.94
449.338	122.94
449.559	128.94
449.779	126.94
450	148.94
450.221	130.94
450.442	147.94
450.662	144.94
450.883	145.94
451.104	144.94
451.324	125.94
451.545	133.94
451.766	132.94
451.986	134.94
452.207	126.94
452.428	123.94
452.648	136.94
452.869	120.94
453.089	118.94
453.31	108.94
453.53	108.94
453.751	96.94
453.971	96.94
454.192	105.94
454.412	99.94
454.633	119.94
454.853	132.94
455.073	126.94
455.294	121.94
455.514	120.94
455.734	122.94
455.955	122.94
456.175	124.94
456.395	132.94
456.616	120.94
456.836	107.94
457.056	116.94
457.276	121.94
457.497	102.94
457.717	110.94
457.937	99.94
458.157	116.94
458.377	101.94
458.598	104.94
458.818	107.94
459.038	100.94
459.258	97.94
459.478	83.94
459.698	95.94
459.918	97.94
460.138	105.94
460.358	89.94
460.578	110.94
460.798	119.94
461.018	117.94
461.238	114.94
461.458	116.94
461.678	114.94
461.898	122.94
462.118	106.94
462.338	110.94
462.558	135.94
462.777	120.94
462.997	109.94
463.217	109.94
463.437	121.94
463.657	104.94
463.876	122.94
464.096	106.94
464.316	118.94
464.536	112.94
464.755	104.94
464.975	115.94
465.195	127.94
465.414	121.94
465.634	115.94
465.854	117.94
466.073	133.94
466.293	142.94
466.512	133.94
466.732	124.94
466.951	146.94
467.171	135.94
467.391	132.94
467.61	127.94
467.829	129.94
468.049	139.94
468.268	134.94
468.488	138.94
468.707	133.94
468.927	140.94
469.146	134.94
469.365	153.94
469.585	137.94
469.804	133.94
470.023	144.94
470.243	138.94
470.462	138.94
470.681	148.94
470.901	152.94
471.12	135.94
471.339	148.94
471.558	136.94
471.777	132.94
471.997	149.94
472.216	131.94
472.435	115.94
472.654	121.94
472.873	115.94
473.092	123.94
473.311	130.94
473.53	120.94
473.749	119.94
473.968	120.94
474.187	114.94
474.406	123.94
474.625	136.94
474.844	121.94
475.063	138.94
475.282	143.94
475.501	99.94
475.72	128.94
475.939	128.94
476.158	127.94
476.377	120.94
476.596	123.94
476.814	119.94
477.033	115.94
477.252	115.94
477.471	116.94
477.69	121.94
477.908	121.94
478.127	142.94
478.346	149.94
478.564	116.94
478.783	134.94
479.002	139.94
479.22	140.94
479.439	130.94
479.658	127.94
479.876	108.94
480.095	114.94
480.313	121.94
480.532	138.94
480.751	123.94
480.969	97.94
481.188	104.94
481.406	88.94
481.624	87.94
481.843	98.94
482.061	102.94
482.28	111.94
482.498	119.94
482.717	102.94
482.935	126.94
483.153	139.94
483.372	140.94
483.59	140.94
483.808	133.94
484.027	143.94
484.245	134.94
484.463	137.94
484.681	161.94
484.9	154.94
485.118	131.94
485.336	126.94
485.554	112.94
485.772	112.94
485.99	99.94
486.209	104.94
486.427	106.94
486.645	115.94
486.863	135.94
487.081	145.94
487.299	128.94
487.517	138.94
487.735	158.94
487.953	182.94
488.171	171.94
488.389	162.94
488.607	154.94
488.825	139.94
489.043	136.94
489.261	142.94
489.479	149.94
489.696	136.94
489.914	152.94
490.132	140.94
490.35	161.94
490.568	139.94
490.786	168.94
491.003	167.94
491.221	191.94
491.439	185.94
491.657	186.94
491.874	202.94
492.092	218.94
492.31	236.94
492.527	233.94
492.745	206.94
492.963	199.94
493.18	196.94
493.398	167.94
493.615	187.94
493.833	167.94
494.05	188.94
494.268	171.94
494.485	186.94
494.703	160.94
494.92	169.94
495.138	176.94
495.355	168.94
495.573	180.94
495.79	182.94
496.008	186.94
496.225	166.94
496.442	180.94
496.66	153.94
496.877	152.94
497.094	173.94
497.312	176.94
497.529	150.94
497.746	163.94
497.963	143.94
498.181	133.94
498.398	132.94
498.615	107.94
498.832	115.94
499.049	126.94
499.267	119.94
499.484	125.94
499.701	127.94
499.918	137.94
500.135	145.94
500.352	138.94
500.569	147.94
500.786	150.94
501.003	165.94
501.22	148.94
501.437	139.94
501.654	140.94
501.871	148.94
502.088	134.94
502.305	140.94
502.522	124.94
502.739	138.94
502.956	142.94
503.172	126.94
503.389	109.94
503.606	106.94
503.823	119.94
504.04	114.94
504.256	128.94
504.473	123.94
504.69	126.94
504.907	126.94
505.123	132.94
505.34	119.94
505.557	118.94
505.773	124.94
505.99	125.94
506.207	134.94
506.423	141.94
506.64	119.94
506.856	122.94
507.073	122.94
507.289	129.94
507.506	118.94
507.722	121.94
507.939	106.94
508.155	117.94
508.372	116.94
508.588	119.94
508.805	110.94
509.021	107.94
509.238	88.94
509.454	102.94
509.67	106.94
509.887	103.94
510.103	87.94
510.319	97.94
510.536	85.94
510.752	86.94
510.968	88.94
511.184	92.94
511.401	92.94
511.617	87.94
