Data from Location2.07152019.Energy5.Lamp.07192019.3%Agarose_HRD10591_14-58-01-359.txt Node
Date: Fri Jul 19 14:58:01 EDT 2019
User: cochatt
Spectrometer: HR+D1059
Trigger mode: 1
Integration Time (sec): 1.000000E-1
Scans to average: 1
Electric dark correction enabled: true
Nonlinearity correction enabled: false
Boxcar width: 0
XAxis mode: Wavelengths
Number of Pixels in Spectrum: 2048
>>>>>Begin Spectral Data<<<<<
223.165	-19.44
223.4	-19.44
223.635	-19.44
223.869	-19.44
224.104	-26.44
224.338	-28.44
224.573	-15.44
224.808	-21.44
225.042	-5.44
225.277	-15.44
225.511	1.56
225.746	-2.44
225.98	8.56
226.215	13.56
226.449	17.56
226.683	35.56
226.918	36.56
227.152	40.56
227.387	51.56
227.621	37.56
227.856	43.56
228.09	48.56
228.324	40.56
228.559	61.56
228.793	72.56
229.027	74.56
229.262	67.56
229.496	56.56
229.73	76.56
229.964	76.56
230.199	64.56
230.433	69.56
230.667	95.56
230.901	88.56
231.136	89.56
231.37	87.56
231.604	75.56
231.838	72.56
232.072	78.56
232.306	86.56
232.541	83.56
232.775	83.56
233.009	78.56
233.243	85.56
233.477	88.56
233.711	85.56
233.945	62.56
234.179	92.56
234.413	81.56
234.647	78.56
234.881	95.56
235.115	73.56
235.349	74.56
235.583	82.56
235.817	84.56
236.051	89.56
236.285	86.56
236.519	85.56
236.753	83.56
236.987	70.56
237.221	81.56
237.455	68.56
237.689	75.56
237.922	85.56
238.156	80.56
238.39	74.56
238.624	75.56
238.858	76.56
239.091	75.56
239.325	62.56
239.559	66.56
239.793	73.56
240.027	67.56
240.26	73.56
240.494	82.56
240.728	81.56
240.961	66.56
241.195	82.56
241.429	77.56
241.662	79.56
241.896	78.56
242.13	77.56
242.363	74.56
242.597	84.56
242.83	90.56
243.064	82.56
243.298	84.56
243.531	86.56
243.765	71.56
243.998	74.56
244.232	78.56
244.465	87.56
244.699	78.56
244.932	87.56
245.166	71.56
245.399	77.56
245.633	82.56
245.866	81.56
246.099	73.56
246.333	73.56
246.566	70.56
246.8	70.56
247.033	82.56
247.266	77.56
247.5	76.56
247.733	79.56
247.966	70.56
248.2	83.56
248.433	79.56
248.666	76.56
248.899	80.56
249.133	73.56
249.366	86.56
249.599	68.56
249.832	70.56
250.066	77.56
250.299	68.56
250.532	90.56
250.765	74.56
250.998	82.56
251.231	74.56
251.465	73.56
251.698	62.56
251.931	86.56
252.164	70.56
252.397	85.56
252.63	91.56
252.863	87.56
253.096	71.56
253.329	84.56
253.562	80.56
253.795	68.56
254.028	76.56
254.261	77.56
254.494	89.56
254.727	77.56
254.96	92.56
255.193	96.56
255.426	80.56
255.659	72.56
255.892	88.56
256.124	77.56
256.357	86.56
256.59	83.56
256.823	85.56
257.056	70.56
257.289	74.56
257.521	100.56
257.754	81.56
257.987	87.56
258.22	86.56
258.452	85.56
258.685	90.56
258.918	70.56
259.151	80.56
259.383	80.56
259.616	79.56
259.849	78.56
260.081	76.56
260.314	83.56
260.547	81.56
260.779	78.56
261.012	66.56
261.244	68.56
261.477	76.56
261.71	83.56
261.942	70.56
262.175	85.56
262.407	73.56
262.64	82.56
262.872	86.56
263.105	77.56
263.337	85.56
263.57	90.56
263.802	76.56
264.035	100.56
264.267	93.56
264.499	72.56
264.732	85.56
264.964	90.56
265.197	78.56
265.429	84.56
265.661	87.56
265.894	74.56
266.126	87.56
266.358	79.56
266.591	93.56
266.823	80.56
267.055	81.56
267.287	80.56
267.52	85.56
267.752	78.56
267.984	93.56
268.216	89.56
268.448	87.56
268.681	89.56
268.913	95.56
269.145	89.56
269.377	71.56
269.609	76.56
269.841	89.56
270.073	86.56
270.306	76.56
270.538	92.56
270.77	87.56
271.002	89.56
271.234	75.56
271.466	91.56
271.698	82.56
271.93	79.56
272.162	90.56
272.394	84.56
272.626	74.56
272.858	89.56
273.09	88.56
273.322	98.56
273.553	89.56
273.785	75.56
274.017	88.56
274.249	84.56
274.481	90.56
274.713	84.56
274.945	83.56
275.176	81.56
275.408	88.56
275.64	78.56
275.872	82.56
276.104	85.56
276.335	93.56
276.567	88.56
276.799	86.56
277.031	92.56
277.262	67.56
277.494	82.56
277.726	91.56
277.957	71.56
278.189	98.56
278.421	89.56
278.652	76.56
278.884	96.56
279.115	90.56
279.347	84.56
279.579	71.56
279.81	64.56
280.042	86.56
280.273	77.56
280.505	88.56
280.736	77.56
280.968	96.56
281.199	77.56
281.431	80.56
281.662	91.56
281.894	97.56
282.125	93.56
282.356	72.56
282.588	81.56
282.819	91.56
283.051	90.56
283.282	96.56
283.513	86.56
283.745	81.56
283.976	85.56
284.207	79.56
284.439	92.56
284.67	83.56
284.901	76.56
285.132	79.56
285.364	71.56
285.595	80.56
285.826	74.56
286.057	84.56
286.288	94.56
286.52	84.56
286.751	95.56
286.982	82.56
287.213	92.56
287.444	86.56
287.675	87.56
287.906	74.56
288.138	67.56
288.369	82.56
288.6	97.56
288.831	97.56
289.062	81.56
289.293	91.56
289.524	82.56
289.755	96.56
289.986	80.56
290.217	67.56
290.448	80.56
290.679	83.56
290.91	100.56
291.141	110.56
291.371	96.56
291.602	87.56
291.833	88.56
292.064	80.56
292.295	82.56
292.526	97.56
292.757	92.56
292.987	77.56
293.218	90.56
293.449	86.56
293.68	90.56
293.91	102.56
294.141	75.56
294.372	87.56
294.603	74.56
294.833	80.56
295.064	78.56
295.295	77.56
295.525	90.56
295.756	92.56
295.987	101.56
296.217	103.56
296.448	94.56
296.679	78.56
296.909	74.56
297.14	76.56
297.37	82.56
297.601	82.56
297.831	85.56
298.062	84.56
298.292	71.56
298.523	84.56
298.753	88.56
298.984	92.56
299.214	83.56
299.445	91.56
299.675	93.56
299.905	91.56
300.136	93.56
300.366	69.56
300.597	89.56
300.827	86.56
301.057	100.56
301.288	88.56
301.518	89.56
301.748	88.56
301.979	84.56
302.209	87.56
302.439	87.56
302.669	83.56
302.9	90.56
303.13	96.56
303.36	93.56
303.59	81.56
303.82	92.56
304.051	87.56
304.281	82.56
304.511	72.56
304.741	72.56
304.971	76.56
305.201	98.56
305.431	91.56
305.661	87.56
305.891	92.56
306.121	82.56
306.352	73.56
306.582	81.56
306.812	95.56
307.042	84.56
307.272	96.56
307.502	83.56
307.731	85.56
307.961	83.56
308.191	79.56
308.421	90.56
308.651	90.56
308.881	77.56
309.111	89.56
309.341	76.56
309.571	73.56
309.8	101.56
310.03	82.56
310.26	85.56
310.49	86.56
310.72	89.56
310.949	94.56
311.179	90.56
311.409	78.56
311.639	82.56
311.868	85.56
312.098	74.56
312.328	86.56
312.557	88.56
312.787	89.56
313.017	91.56
313.246	84.56
313.476	66.56
313.706	78.56
313.935	77.56
314.165	86.56
314.394	95.56
314.624	97.56
314.853	89.56
315.083	84.56
315.312	92.56
315.542	80.56
315.771	83.56
316.001	96.56
316.23	99.56
316.46	77.56
316.689	98.56
316.919	77.56
317.148	84.56
317.377	91.56
317.607	85.56
317.836	93.56
318.065	80.56
318.295	86.56
318.524	90.56
318.753	86.56
318.983	82.56
319.212	89.56
319.441	72.56
319.67	80.56
319.9	86.56
320.129	97.56
320.358	81.56
320.587	85.56
320.816	84.56
321.046	91.56
321.275	86.56
321.504	81.56
321.733	77.56
321.962	90.56
322.191	89.56
322.42	73.56
322.649	93.56
322.878	82.56
323.108	87.56
323.337	83.56
323.566	96.56
323.795	75.56
324.024	100.56
324.253	91.56
324.482	94.56
324.71	91.56
324.939	84.56
325.168	87.56
325.397	78.56
325.626	96.56
325.855	71.56
326.084	91.56
326.313	94.56
326.542	75.56
326.77	89.56
326.999	89.56
327.228	98.56
327.457	84.56
327.686	95.56
327.914	82.56
328.143	69.56
328.372	84.56
328.6	74.56
328.829	79.56
329.058	100.56
329.287	77.56
329.515	84.56
329.744	83.56
329.972	81.56
330.201	85.56
330.43	85.56
330.658	73.56
330.887	90.56
331.115	100.56
331.344	99.56
331.572	87.56
331.801	77.56
332.03	93.56
332.258	92.56
332.486	84.56
332.715	74.56
332.943	95.56
333.172	102.56
333.4	82.56
333.629	88.56
333.857	83.56
334.085	77.56
334.314	89.56
334.542	85.56
334.771	82.56
334.999	82.56
335.227	85.56
335.455	84.56
335.684	89.56
335.912	90.56
336.14	81.56
336.369	81.56
336.597	84.56
336.825	83.56
337.053	95.56
337.281	79.56
337.51	90.56
337.738	88.56
337.966	76.56
338.194	84.56
338.422	88.56
338.65	84.56
338.878	83.56
339.106	85.56
339.334	94.56
339.562	101.56
339.79	82.56
340.018	87.56
340.246	87.56
340.474	91.56
340.702	81.56
340.93	85.56
341.158	80.56
341.386	84.56
341.614	85.56
341.842	85.56
342.07	77.56
342.298	75.56
342.526	86.56
342.754	96.56
342.981	78.56
343.209	87.56
343.437	77.56
343.665	99.56
343.893	93.56
344.12	83.56
344.348	74.56
344.576	79.56
344.804	86.56
345.031	97.56
345.259	89.56
345.487	95.56
345.714	79.56
345.942	90.56
346.17	97.56
346.397	86.56
346.625	89.56
346.853	79.56
347.08	90.56
347.308	80.56
347.535	86.56
347.763	85.56
347.99	88.56
348.218	77.56
348.445	70.56
348.673	87.56
348.9	90.56
349.128	95.56
349.355	78.56
349.583	83.56
349.81	63.56
350.037	81.56
350.265	88.56
350.492	79.56
350.72	92.56
350.947	62.56
351.174	92.56
351.402	76.56
351.629	74.56
351.856	84.56
352.083	78.56
352.311	86.56
352.538	85.56
352.765	78.56
352.992	82.56
353.22	85.56
353.447	82.56
353.674	85.56
353.901	108.56
354.128	82.56
354.355	91.56
354.583	79.56
354.81	73.56
355.037	93.56
355.264	98.56
355.491	85.56
355.718	81.56
355.945	93.56
356.172	84.56
356.399	71.56
356.626	80.56
356.853	83.56
357.08	94.56
357.307	77.56
357.534	82.56
357.761	87.56
357.988	76.56
358.215	92.56
358.441	85.56
358.668	89.56
358.895	71.56
359.122	91.56
359.349	89.56
359.576	73.56
359.802	93.56
360.029	78.56
360.256	89.56
360.483	74.56
360.709	92.56
360.936	80.56
361.163	78.56
361.39	89.56
361.616	81.56
361.843	75.56
362.07	70.56
362.296	101.56
362.523	70.56
362.749	86.56
362.976	82.56
363.203	96.56
363.429	90.56
363.656	75.56
363.882	80.56
364.109	91.56
364.335	88.56
364.562	94.56
364.788	82.56
365.015	79.56
365.241	91.56
365.468	85.56
365.694	83.56
365.92	84.56
366.147	71.56
366.373	80.56
366.599	71.56
366.826	78.56
367.052	97.56
367.278	94.56
367.505	96.56
367.731	92.56
367.957	90.56
368.184	90.56
368.41	96.56
368.636	102.56
368.862	104.56
369.089	98.56
369.315	89.56
369.541	92.56
369.767	96.56
369.993	89.56
370.219	89.56
370.445	83.56
370.672	88.56
370.898	74.56
371.124	99.56
371.35	94.56
371.576	97.56
371.802	89.56
372.028	97.56
372.254	80.56
372.48	92.56
372.706	99.56
372.932	74.56
373.158	91.56
373.384	96.56
373.61	93.56
373.835	88.56
374.061	96.56
374.287	78.56
374.513	91.56
374.739	92.56
374.965	88.56
375.191	102.56
375.416	89.56
375.642	78.56
375.868	91.56
376.094	93.56
376.319	75.56
376.545	91.56
376.771	86.56
376.997	90.56
377.222	91.56
377.448	90.56
377.674	87.56
377.899	91.56
378.125	92.56
378.35	87.56
378.576	78.56
378.802	85.56
379.027	104.56
379.253	96.56
379.478	108.56
379.704	95.56
379.929	119.56
380.155	89.56
380.38	102.56
380.606	86.56
380.831	94.56
381.057	101.56
381.282	83.56
381.507	102.56
381.733	119.56
381.958	92.56
382.184	85.56
382.409	95.56
382.634	90.56
382.86	98.56
383.085	101.56
383.31	116.56
383.535	91.56
383.761	108.56
383.986	94.56
384.211	79.56
384.436	103.56
384.662	84.56
384.887	90.56
385.112	91.56
385.337	95.56
385.562	95.56
385.787	104.56
386.013	96.56
386.238	89.56
386.463	97.56
386.688	82.56
386.913	99.56
387.138	88.56
387.363	95.56
387.588	103.56
387.813	100.56
388.038	118.56
388.263	108.56
388.488	100.56
388.713	94.56
388.938	92.56
389.163	106.56
389.387	105.56
389.612	103.56
389.837	105.56
390.062	108.56
390.287	98.56
390.512	93.56
390.736	100.56
390.961	112.56
391.186	99.56
391.411	117.56
391.636	104.56
391.86	102.56
392.085	106.56
392.31	85.56
392.534	101.56
392.759	124.56
392.984	101.56
393.208	100.56
393.433	126.56
393.658	102.56
393.882	103.56
394.107	107.56
394.331	112.56
394.556	120.56
394.78	88.56
395.005	106.56
395.229	99.56
395.454	98.56
395.678	106.56
395.903	105.56
396.127	92.56
396.352	106.56
396.576	107.56
396.801	102.56
397.025	94.56
397.249	117.56
397.474	103.56
397.698	110.56
397.922	105.56
398.147	110.56
398.371	112.56
398.595	122.56
398.82	109.56
399.044	105.56
399.268	105.56
399.492	120.56
399.717	120.56
399.941	113.56
400.165	105.56
400.389	111.56
400.613	118.56
400.837	116.56
401.062	115.56
401.286	113.56
401.51	103.56
401.734	113.56
401.958	120.56
402.182	114.56
402.406	114.56
402.63	116.56
402.854	108.56
403.078	122.56
403.302	119.56
403.526	110.56
403.75	125.56
403.974	113.56
404.198	113.56
404.422	121.56
404.645	105.56
404.869	119.56
405.093	107.56
405.317	112.56
405.541	116.56
405.765	107.56
405.988	112.56
406.212	120.56
406.436	113.56
406.66	121.56
406.883	116.56
407.107	117.56
407.331	123.56
407.555	112.56
407.778	119.56
408.002	116.56
408.226	120.56
408.449	127.56
408.673	117.56
408.896	117.56
409.12	110.56
409.344	123.56
409.567	124.56
409.791	130.56
410.014	128.56
410.238	122.56
410.461	111.56
410.685	119.56
410.908	122.56
411.132	115.56
411.355	118.56
411.578	123.56
411.802	116.56
412.025	126.56
412.249	121.56
412.472	133.56
412.695	126.56
412.919	118.56
413.142	115.56
413.365	116.56
413.589	114.56
413.812	130.56
414.035	128.56
414.258	123.56
414.482	123.56
414.705	123.56
414.928	116.56
415.151	103.56
415.374	114.56
415.597	100.56
415.821	116.56
416.044	136.56
416.267	128.56
416.49	133.56
416.713	140.56
416.936	128.56
417.159	134.56
417.382	113.56
417.605	113.56
417.828	137.56
418.051	130.56
418.274	134.56
418.497	136.56
418.72	133.56
418.943	141.56
419.166	136.56
419.389	134.56
419.611	128.56
419.834	120.56
420.057	134.56
420.28	135.56
420.503	139.56
420.726	138.56
420.948	125.56
421.171	129.56
421.394	144.56
421.617	130.56
421.839	140.56
422.062	134.56
422.285	122.56
422.507	125.56
422.73	133.56
422.953	124.56
423.175	126.56
423.398	142.56
423.621	130.56
423.843	134.56
424.066	145.56
424.288	141.56
424.511	134.56
424.733	139.56
424.956	150.56
425.178	152.56
425.401	124.56
425.623	135.56
425.846	141.56
426.068	121.56
426.291	120.56
426.513	120.56
426.735	138.56
426.958	133.56
427.18	128.56
427.402	130.56
427.625	133.56
427.847	137.56
428.069	136.56
428.292	115.56
428.514	141.56
428.736	125.56
428.958	113.56
429.181	138.56
429.403	131.56
429.625	120.56
429.847	124.56
430.069	129.56
430.292	135.56
430.514	122.56
430.736	131.56
430.958	130.56
431.18	131.56
431.402	124.56
431.624	116.56
431.846	107.56
432.068	98.56
432.29	109.56
432.512	113.56
432.734	124.56
432.956	126.56
433.178	136.56
433.4	143.56
433.622	136.56
433.844	136.56
434.066	116.56
434.287	109.56
434.509	107.56
434.731	96.56
434.953	114.56
435.175	132.56
435.397	130.56
435.618	112.56
435.84	107.56
436.062	107.56
436.284	122.56
436.505	135.56
436.727	139.56
436.949	132.56
437.17	139.56
437.392	113.56
437.614	122.56
437.835	102.56
438.057	93.56
438.278	93.56
438.5	121.56
438.721	128.56
438.943	142.56
439.165	148.56
439.386	139.56
439.608	134.56
439.829	124.56
440.05	132.56
440.272	142.56
440.493	149.56
440.715	162.56
440.936	157.56
441.158	149.56
441.379	142.56
441.6	136.56
441.822	141.56
442.043	139.56
442.264	147.56
442.486	141.56
442.707	144.56
442.928	158.56
443.149	138.56
443.371	126.56
443.592	134.56
443.813	149.56
444.034	128.56
444.255	137.56
444.476	140.56
444.698	140.56
444.919	147.56
445.14	268.56
445.361	201.56
445.582	140.56
445.803	146.56
446.024	151.56
446.245	157.56
446.466	164.56
446.687	150.56
446.908	146.56
447.129	169.56
447.35	147.56
447.571	125.56
447.792	142.56
448.013	143.56
448.234	139.56
448.455	141.56
448.675	149.56
448.896	137.56
449.117	150.56
449.338	143.56
449.559	144.56
449.779	141.56
450	126.56
450.221	147.56
450.442	148.56
450.662	129.56
450.883	135.56
451.104	133.56
451.324	129.56
451.545	123.56
451.766	130.56
451.986	136.56
452.207	134.56
452.428	124.56
452.648	142.56
452.869	121.56
453.089	117.56
453.31	97.56
453.53	108.56
453.751	86.56
453.971	102.56
454.192	106.56
454.412	118.56
454.633	105.56
454.853	122.56
455.073	121.56
455.294	122.56
455.514	118.56
455.734	123.56
455.955	118.56
456.175	103.56
456.395	114.56
456.616	109.56
456.836	107.56
457.056	108.56
457.276	120.56
457.497	104.56
457.717	112.56
457.937	124.56
458.157	113.56
458.377	110.56
458.598	97.56
458.818	105.56
459.038	94.56
459.258	91.56
459.478	96.56
459.698	89.56
459.918	89.56
460.138	104.56
460.358	118.56
460.578	108.56
460.798	104.56
461.018	113.56
461.238	120.56
461.458	113.56
461.678	114.56
461.898	125.56
462.118	122.56
462.338	133.56
462.558	120.56
462.777	108.56
462.997	118.56
463.217	120.56
463.437	109.56
463.657	115.56
463.876	104.56
464.096	101.56
464.316	88.56
464.536	115.56
464.755	113.56
464.975	124.56
465.195	126.56
465.414	118.56
465.634	109.56
465.854	115.56
466.073	110.56
466.293	126.56
466.512	139.56
466.732	118.56
466.951	139.56
467.171	138.56
467.391	127.56
467.61	134.56
467.829	124.56
468.049	132.56
468.268	136.56
468.488	148.56
468.707	139.56
468.927	124.56
469.146	124.56
469.365	133.56
469.585	138.56
469.804	154.56
470.023	133.56
470.243	127.56
470.462	123.56
470.681	146.56
470.901	133.56
471.12	148.56
471.339	160.56
471.558	153.56
471.777	148.56
471.997	152.56
472.216	124.56
472.435	112.56
472.654	116.56
472.873	116.56
473.092	124.56
473.311	120.56
473.53	119.56
473.749	119.56
473.968	113.56
474.187	115.56
474.406	118.56
474.625	118.56
474.844	126.56
475.063	149.56
475.282	132.56
475.501	116.56
475.72	116.56
475.939	123.56
476.158	123.56
476.377	127.56
476.596	123.56
476.814	114.56
477.033	99.56
477.252	107.56
477.471	124.56
477.69	134.56
477.908	126.56
478.127	157.56
478.346	151.56
478.564	128.56
478.783	143.56
479.002	131.56
479.22	137.56
479.439	133.56
479.658	115.56
479.876	118.56
480.095	121.56
480.313	104.56
480.532	122.56
480.751	112.56
480.969	97.56
481.188	100.56
481.406	80.56
481.624	85.56
481.843	88.56
482.061	104.56
482.28	114.56
482.498	129.56
482.717	101.56
482.935	130.56
483.153	140.56
483.372	140.56
483.59	165.56
483.808	148.56
484.027	132.56
484.245	110.56
484.463	135.56
484.681	155.56
484.9	146.56
485.118	128.56
485.336	120.56
485.554	101.56
485.772	104.56
485.99	93.56
486.209	124.56
486.427	115.56
486.645	130.56
486.863	130.56
487.081	138.56
487.299	134.56
487.517	157.56
487.735	161.56
487.953	176.56
488.171	172.56
488.389	170.56
488.607	140.56
488.825	132.56
489.043	123.56
489.261	127.56
489.479	128.56
489.696	142.56
489.914	145.56
490.132	150.56
490.35	161.56
490.568	140.56
490.786	166.56
491.003	169.56
491.221	182.56
491.439	191.56
491.657	181.56
491.874	195.56
492.092	214.56
492.31	225.56
492.527	222.56
492.745	197.56
492.963	175.56
493.18	190.56
493.398	184.56
493.615	194.56
493.833	185.56
494.05	167.56
494.268	164.56
494.485	183.56
494.703	179.56
494.92	185.56
495.138	161.56
495.355	158.56
495.573	171.56
495.79	178.56
496.008	154.56
496.225	163.56
496.442	185.56
496.66	162.56
496.877	186.56
497.094	172.56
497.312	178.56
497.529	165.56
497.746	141.56
497.963	147.56
498.181	137.56
498.398	132.56
498.615	121.56
498.832	118.56
499.049	123.56
499.267	129.56
499.484	128.56
499.701	121.56
499.918	128.56
500.135	144.56
500.352	124.56
500.569	140.56
500.786	137.56
501.003	151.56
501.22	139.56
501.437	128.56
501.654	137.56
501.871	146.56
502.088	128.56
502.305	138.56
502.522	122.56
502.739	133.56
502.956	132.56
503.172	136.56
503.389	128.56
503.606	123.56
503.823	125.56
504.04	125.56
504.256	126.56
504.473	127.56
504.69	116.56
504.907	134.56
505.123	129.56
505.34	122.56
505.557	130.56
505.773	117.56
505.99	131.56
506.207	130.56
506.423	123.56
506.64	115.56
506.856	121.56
507.073	114.56
507.289	125.56
507.506	129.56
507.722	116.56
507.939	113.56
508.155	112.56
508.372	107.56
508.588	116.56
508.805	122.56
509.021	114.56
509.238	107.56
509.454	106.56
509.67	102.56
509.887	117.56
510.103	114.56
510.319	85.56
510.536	79.56
510.752	101.56
510.968	92.56
511.184	89.56
511.401	101.56
