Data from Location2.07152019.Energy5.Lamp.07192019.3%Agarose_HRD10591_14-58-41-360.txt Node
Date: Fri Jul 19 14:58:41 EDT 2019
User: cochatt
Spectrometer: HR+D1059
Trigger mode: 1
Integration Time (sec): 1.000000E-1
Scans to average: 1
Electric dark correction enabled: true
Nonlinearity correction enabled: false
Boxcar width: 0
XAxis mode: Wavelengths
Number of Pixels in Spectrum: 2048
>>>>>Begin Spectral Data<<<<<
223.165	-0.38
223.4	-0.38
223.635	-0.38
223.869	-14.38
224.104	-10.38
224.338	-18.38
224.573	-24.38
224.808	-29.38
225.042	-2.38
225.277	3.62
225.511	-11.38
225.746	13.62
225.98	9.62
226.215	8.62
226.449	20.62
226.683	9.62
226.918	19.62
227.152	25.62
227.387	26.62
227.621	31.62
227.856	40.62
228.09	46.62
228.324	39.62
228.559	55.62
228.793	64.62
229.027	64.62
229.262	51.62
229.496	64.62
229.73	64.62
229.964	69.62
230.199	80.62
230.433	71.62
230.667	83.62
230.901	83.62
231.136	71.62
231.37	75.62
231.604	79.62
231.838	81.62
232.072	81.62
232.306	73.62
232.541	84.62
232.775	82.62
233.009	92.62
233.243	78.62
233.477	76.62
233.711	77.62
233.945	86.62
234.179	80.62
234.413	71.62
234.647	69.62
234.881	80.62
235.115	75.62
235.349	73.62
235.583	64.62
235.817	71.62
236.051	84.62
236.285	73.62
236.519	77.62
236.753	75.62
236.987	82.62
237.221	87.62
237.455	69.62
237.689	65.62
237.922	84.62
238.156	66.62
238.39	84.62
238.624	87.62
238.858	76.62
239.091	66.62
239.325	67.62
239.559	74.62
239.793	87.62
240.027	70.62
240.26	85.62
240.494	69.62
240.728	93.62
240.961	93.62
241.195	82.62
241.429	75.62
241.662	81.62
241.896	82.62
242.13	85.62
242.363	68.62
242.597	88.62
242.83	66.62
243.064	86.62
243.298	71.62
243.531	82.62
243.765	76.62
243.998	80.62
244.232	87.62
244.465	79.62
244.699	89.62
244.932	89.62
245.166	84.62
245.399	78.62
245.633	88.62
245.866	76.62
246.099	67.62
246.333	79.62
246.566	77.62
246.8	83.62
247.033	63.62
247.266	81.62
247.5	79.62
247.733	90.62
247.966	74.62
248.2	71.62
248.433	80.62
248.666	84.62
248.899	93.62
249.133	81.62
249.366	84.62
249.599	78.62
249.832	84.62
250.066	96.62
250.299	82.62
250.532	75.62
250.765	84.62
250.998	103.62
251.231	87.62
251.465	73.62
251.698	77.62
251.931	74.62
252.164	74.62
252.397	79.62
252.63	57.62
252.863	76.62
253.096	80.62
253.329	75.62
253.562	82.62
253.795	77.62
254.028	85.62
254.261	84.62
254.494	73.62
254.727	76.62
254.96	78.62
255.193	77.62
255.426	73.62
255.659	84.62
255.892	92.62
256.124	72.62
256.357	91.62
256.59	88.62
256.823	82.62
257.056	81.62
257.289	87.62
257.521	87.62
257.754	79.62
257.987	95.62
258.22	72.62
258.452	95.62
258.685	79.62
258.918	86.62
259.151	86.62
259.383	91.62
259.616	79.62
259.849	76.62
260.081	100.62
260.314	84.62
260.547	85.62
260.779	82.62
261.012	81.62
261.244	78.62
261.477	87.62
261.71	81.62
261.942	82.62
262.175	81.62
262.407	77.62
262.64	87.62
262.872	83.62
263.105	80.62
263.337	88.62
263.57	62.62
263.802	68.62
264.035	76.62
264.267	81.62
264.499	84.62
264.732	85.62
264.964	84.62
265.197	91.62
265.429	83.62
265.661	82.62
265.894	78.62
266.126	80.62
266.358	78.62
266.591	89.62
266.823	82.62
267.055	74.62
267.287	72.62
267.52	77.62
267.752	77.62
267.984	88.62
268.216	87.62
268.448	77.62
268.681	75.62
268.913	85.62
269.145	82.62
269.377	82.62
269.609	84.62
269.841	92.62
270.073	87.62
270.306	87.62
270.538	73.62
270.77	83.62
271.002	91.62
271.234	84.62
271.466	75.62
271.698	83.62
271.93	77.62
272.162	91.62
272.394	94.62
272.626	90.62
272.858	88.62
273.09	89.62
273.322	74.62
273.553	83.62
273.785	83.62
274.017	56.62
274.249	88.62
274.481	82.62
274.713	82.62
274.945	85.62
275.176	85.62
275.408	94.62
275.64	81.62
275.872	87.62
276.104	86.62
276.335	80.62
276.567	73.62
276.799	69.62
277.031	85.62
277.262	82.62
277.494	72.62
277.726	89.62
277.957	75.62
278.189	93.62
278.421	96.62
278.652	91.62
278.884	81.62
279.115	77.62
279.347	76.62
279.579	73.62
279.81	87.62
280.042	69.62
280.273	83.62
280.505	92.62
280.736	76.62
280.968	83.62
281.199	63.62
281.431	93.62
281.662	88.62
281.894	95.62
282.125	74.62
282.356	77.62
282.588	69.62
282.819	72.62
283.051	83.62
283.282	73.62
283.513	88.62
283.745	83.62
283.976	69.62
284.207	85.62
284.439	91.62
284.67	79.62
284.901	75.62
285.132	76.62
285.364	83.62
285.595	83.62
285.826	75.62
286.057	81.62
286.288	80.62
286.52	82.62
286.751	82.62
286.982	85.62
287.213	80.62
287.444	88.62
287.675	70.62
287.906	88.62
288.138	83.62
288.369	96.62
288.6	73.62
288.831	95.62
289.062	83.62
289.293	84.62
289.524	77.62
289.755	74.62
289.986	96.62
290.217	85.62
290.448	94.62
290.679	79.62
290.91	86.62
291.141	75.62
291.371	82.62
291.602	93.62
291.833	79.62
292.064	87.62
292.295	73.62
292.526	84.62
292.757	86.62
292.987	77.62
293.218	73.62
293.449	77.62
293.68	80.62
293.91	85.62
294.141	76.62
294.372	83.62
294.603	74.62
294.833	69.62
295.064	87.62
295.295	80.62
295.525	81.62
295.756	85.62
295.987	84.62
296.217	80.62
296.448	90.62
296.679	93.62
296.909	91.62
297.14	87.62
297.37	89.62
297.601	106.62
297.831	85.62
298.062	87.62
298.292	99.62
298.523	86.62
298.753	69.62
298.984	94.62
299.214	75.62
299.445	76.62
299.675	86.62
299.905	85.62
300.136	87.62
300.366	80.62
300.597	83.62
300.827	90.62
301.057	91.62
301.288	83.62
301.518	93.62
301.748	95.62
301.979	76.62
302.209	85.62
302.439	89.62
302.669	78.62
302.9	86.62
303.13	82.62
303.36	86.62
303.59	87.62
303.82	77.62
304.051	83.62
304.281	83.62
304.511	87.62
304.741	94.62
304.971	89.62
305.201	91.62
305.431	88.62
305.661	82.62
305.891	82.62
306.121	94.62
306.352	88.62
306.582	84.62
306.812	87.62
307.042	77.62
307.272	92.62
307.502	73.62
307.731	90.62
307.961	74.62
308.191	82.62
308.421	82.62
308.651	82.62
308.881	86.62
309.111	74.62
309.341	83.62
309.571	79.62
309.8	80.62
310.03	84.62
310.26	81.62
310.49	74.62
310.72	75.62
310.949	95.62
311.179	85.62
311.409	91.62
311.639	89.62
311.868	76.62
312.098	72.62
312.328	77.62
312.557	89.62
312.787	105.62
313.017	79.62
313.246	87.62
313.476	90.62
313.706	75.62
313.935	82.62
314.165	84.62
314.394	90.62
314.624	84.62
314.853	91.62
315.083	84.62
315.312	92.62
315.542	89.62
315.771	87.62
316.001	76.62
316.23	82.62
316.46	77.62
316.689	102.62
316.919	75.62
317.148	90.62
317.377	95.62
317.607	76.62
317.836	83.62
318.065	89.62
318.295	88.62
318.524	77.62
318.753	86.62
318.983	73.62
319.212	83.62
319.441	95.62
319.67	82.62
319.9	75.62
320.129	93.62
320.358	76.62
320.587	94.62
320.816	83.62
321.046	94.62
321.275	96.62
321.504	83.62
321.733	85.62
321.962	92.62
322.191	92.62
322.42	83.62
322.649	81.62
322.878	77.62
323.108	82.62
323.337	94.62
323.566	80.62
323.795	93.62
324.024	76.62
324.253	91.62
324.482	78.62
324.71	89.62
324.939	97.62
325.168	88.62
325.397	88.62
325.626	89.62
325.855	88.62
326.084	77.62
326.313	83.62
326.542	84.62
326.77	90.62
326.999	83.62
327.228	97.62
327.457	95.62
327.686	72.62
327.914	76.62
328.143	88.62
328.372	83.62
328.6	78.62
328.829	76.62
329.058	76.62
329.287	85.62
329.515	89.62
329.744	95.62
329.972	84.62
330.201	89.62
330.43	81.62
330.658	89.62
330.887	98.62
331.115	86.62
331.344	98.62
331.572	85.62
331.801	87.62
332.03	80.62
332.258	91.62
332.486	80.62
332.715	68.62
332.943	59.62
333.172	84.62
333.4	87.62
333.629	88.62
333.857	91.62
334.085	86.62
334.314	86.62
334.542	84.62
334.771	70.62
334.999	86.62
335.227	88.62
335.455	81.62
335.684	74.62
335.912	80.62
336.14	77.62
336.369	84.62
336.597	91.62
336.825	87.62
337.053	90.62
337.281	69.62
337.51	72.62
337.738	79.62
337.966	79.62
338.194	95.62
338.422	75.62
338.65	88.62
338.878	69.62
339.106	81.62
339.334	85.62
339.562	84.62
339.79	93.62
340.018	101.62
340.246	75.62
340.474	89.62
340.702	96.62
340.93	87.62
341.158	81.62
341.386	78.62
341.614	85.62
341.842	96.62
342.07	77.62
342.298	87.62
342.526	87.62
342.754	96.62
342.981	84.62
343.209	80.62
343.437	92.62
343.665	77.62
343.893	87.62
344.12	75.62
344.348	83.62
344.576	95.62
344.804	87.62
345.031	85.62
345.259	59.62
345.487	91.62
345.714	105.62
345.942	93.62
346.17	90.62
346.397	85.62
346.625	76.62
346.853	80.62
347.08	80.62
347.308	79.62
347.535	89.62
347.763	83.62
347.99	85.62
348.218	92.62
348.445	95.62
348.673	94.62
348.9	85.62
349.128	90.62
349.355	87.62
349.583	98.62
349.81	79.62
350.037	85.62
350.265	84.62
350.492	64.62
350.72	81.62
350.947	82.62
351.174	84.62
351.402	83.62
351.629	92.62
351.856	79.62
352.083	102.62
352.311	84.62
352.538	71.62
352.765	78.62
352.992	81.62
353.22	69.62
353.447	78.62
353.674	85.62
353.901	83.62
354.128	91.62
354.355	83.62
354.583	76.62
354.81	89.62
355.037	81.62
355.264	90.62
355.491	73.62
355.718	91.62
355.945	86.62
356.172	84.62
356.399	71.62
356.626	101.62
356.853	79.62
357.08	79.62
357.307	72.62
357.534	69.62
357.761	86.62
357.988	91.62
358.215	83.62
358.441	75.62
358.668	90.62
358.895	83.62
359.122	92.62
359.349	79.62
359.576	65.62
359.802	76.62
360.029	94.62
360.256	78.62
360.483	77.62
360.709	76.62
360.936	81.62
361.163	84.62
361.39	91.62
361.616	88.62
361.843	81.62
362.07	83.62
362.296	79.62
362.523	77.62
362.749	74.62
362.976	76.62
363.203	99.62
363.429	81.62
363.656	87.62
363.882	84.62
364.109	82.62
364.335	97.62
364.562	92.62
364.788	92.62
365.015	82.62
365.241	71.62
365.468	85.62
365.694	88.62
365.92	93.62
366.147	81.62
366.373	75.62
366.599	90.62
366.826	86.62
367.052	81.62
367.278	84.62
367.505	89.62
367.731	91.62
367.957	81.62
368.184	92.62
368.41	96.62
368.636	75.62
368.862	89.62
369.089	87.62
369.315	84.62
369.541	87.62
369.767	86.62
369.993	94.62
370.219	97.62
370.445	98.62
370.672	90.62
370.898	92.62
371.124	87.62
371.35	78.62
371.576	88.62
371.802	92.62
372.028	84.62
372.254	90.62
372.48	93.62
372.706	95.62
372.932	108.62
373.158	95.62
373.384	110.62
373.61	91.62
373.835	88.62
374.061	85.62
374.287	85.62
374.513	83.62
374.739	88.62
374.965	90.62
375.191	76.62
375.416	93.62
375.642	91.62
375.868	100.62
376.094	103.62
376.319	95.62
376.545	80.62
376.771	95.62
376.997	111.62
377.222	97.62
377.448	88.62
377.674	98.62
377.899	82.62
378.125	91.62
378.35	87.62
378.576	96.62
378.802	79.62
379.027	83.62
379.253	101.62
379.478	99.62
379.704	87.62
379.929	96.62
380.155	98.62
380.38	99.62
380.606	102.62
380.831	103.62
381.057	91.62
381.282	89.62
381.507	89.62
381.733	90.62
381.958	100.62
382.184	92.62
382.409	100.62
382.634	95.62
382.86	114.62
383.085	105.62
383.31	102.62
383.535	94.62
383.761	95.62
383.986	87.62
384.211	93.62
384.436	100.62
384.662	104.62
384.887	100.62
385.112	96.62
385.337	101.62
385.562	92.62
385.787	90.62
386.013	93.62
386.238	92.62
386.463	96.62
386.688	106.62
386.913	102.62
387.138	95.62
387.363	85.62
387.588	91.62
387.813	113.62
388.038	101.62
388.263	108.62
388.488	92.62
388.713	96.62
388.938	106.62
389.163	100.62
389.387	105.62
389.612	88.62
389.837	103.62
390.062	116.62
390.287	108.62
390.512	98.62
390.736	101.62
390.961	101.62
391.186	107.62
391.411	107.62
391.636	102.62
391.86	92.62
392.085	104.62
392.31	103.62
392.534	101.62
392.759	108.62
392.984	97.62
393.208	88.62
393.433	90.62
393.658	102.62
393.882	108.62
394.107	111.62
394.331	111.62
394.556	95.62
394.78	103.62
395.005	89.62
395.229	87.62
395.454	111.62
395.678	117.62
395.903	107.62
396.127	115.62
396.352	103.62
396.576	85.62
396.801	100.62
397.025	121.62
397.249	105.62
397.474	106.62
397.698	121.62
397.922	127.62
398.147	112.62
398.371	121.62
398.595	122.62
398.82	103.62
399.044	109.62
399.268	113.62
399.492	104.62
399.717	93.62
399.941	107.62
400.165	102.62
400.389	119.62
400.613	110.62
400.837	113.62
401.062	103.62
401.286	124.62
401.51	105.62
401.734	111.62
401.958	124.62
402.182	100.62
402.406	99.62
402.63	124.62
402.854	101.62
403.078	106.62
403.302	113.62
403.526	112.62
403.75	107.62
403.974	119.62
404.198	116.62
404.422	114.62
404.645	115.62
404.869	107.62
405.093	117.62
405.317	120.62
405.541	131.62
405.765	120.62
405.988	120.62
406.212	114.62
406.436	113.62
406.66	107.62
406.883	117.62
407.107	108.62
407.331	112.62
407.555	119.62
407.778	116.62
408.002	127.62
408.226	131.62
408.449	104.62
408.673	105.62
408.896	132.62
409.12	117.62
409.344	101.62
409.567	123.62
409.791	112.62
410.014	100.62
410.238	117.62
410.461	123.62
410.685	131.62
410.908	139.62
411.132	126.62
411.355	124.62
411.578	127.62
411.802	122.62
412.025	129.62
412.249	127.62
412.472	123.62
412.695	103.62
412.919	99.62
413.142	119.62
413.365	117.62
413.589	130.62
413.812	115.62
414.035	106.62
414.258	131.62
414.482	107.62
414.705	116.62
414.928	120.62
415.151	113.62
415.374	121.62
415.597	128.62
415.821	137.62
416.044	116.62
416.267	132.62
416.49	115.62
416.713	127.62
416.936	136.62
417.159	130.62
417.382	128.62
417.605	129.62
417.828	120.62
418.051	119.62
418.274	118.62
418.497	136.62
418.72	133.62
418.943	118.62
419.166	125.62
419.389	123.62
419.611	121.62
419.834	119.62
420.057	131.62
420.28	137.62
420.503	131.62
420.726	124.62
420.948	129.62
421.171	136.62
421.394	138.62
421.617	142.62
421.839	126.62
422.062	125.62
422.285	126.62
422.507	123.62
422.73	119.62
422.953	109.62
423.175	129.62
423.398	132.62
423.621	132.62
423.843	132.62
424.066	128.62
424.288	138.62
424.511	141.62
424.733	139.62
424.956	116.62
425.178	125.62
425.401	136.62
425.623	143.62
425.846	143.62
426.068	131.62
426.291	128.62
426.513	131.62
426.735	135.62
426.958	126.62
427.18	139.62
427.402	117.62
427.625	121.62
427.847	124.62
428.069	141.62
428.292	131.62
428.514	119.62
428.736	134.62
428.958	135.62
429.181	138.62
429.403	124.62
429.625	125.62
429.847	130.62
430.069	135.62
430.292	111.62
430.514	125.62
430.736	128.62
430.958	118.62
431.18	118.62
431.402	118.62
431.624	124.62
431.846	109.62
432.068	96.62
432.29	99.62
432.512	118.62
432.734	123.62
432.956	120.62
433.178	131.62
433.4	144.62
433.622	131.62
433.844	137.62
434.066	120.62
434.287	108.62
434.509	96.62
434.731	93.62
434.953	103.62
435.175	119.62
435.397	116.62
435.618	123.62
435.84	108.62
436.062	117.62
436.284	138.62
436.505	133.62
436.727	134.62
436.949	119.62
437.17	141.62
437.392	125.62
437.614	110.62
437.835	121.62
438.057	109.62
438.278	124.62
438.5	131.62
438.721	119.62
438.943	131.62
439.165	129.62
439.386	135.62
439.608	124.62
439.829	137.62
440.05	147.62
440.272	153.62
440.493	137.62
440.715	136.62
440.936	135.62
441.158	150.62
441.379	147.62
441.6	140.62
441.822	139.62
442.043	132.62
442.264	123.62
442.486	149.62
442.707	147.62
442.928	133.62
443.149	129.62
443.371	150.62
443.592	139.62
443.813	138.62
444.034	134.62
444.255	139.62
444.476	135.62
444.698	145.62
444.919	143.62
445.14	260.62
445.361	216.62
445.582	157.62
445.803	148.62
446.024	143.62
446.245	147.62
446.466	153.62
446.687	168.62
446.908	147.62
447.129	153.62
447.35	166.62
447.571	133.62
447.792	133.62
448.013	143.62
448.234	145.62
448.455	158.62
448.675	138.62
448.896	144.62
449.117	131.62
449.338	139.62
449.559	124.62
449.779	136.62
450	126.62
450.221	139.62
450.442	147.62
450.662	131.62
450.883	129.62
451.104	138.62
451.324	136.62
451.545	122.62
451.766	147.62
451.986	139.62
452.207	129.62
452.428	137.62
452.648	147.62
452.869	140.62
453.089	124.62
453.31	120.62
453.53	105.62
453.751	99.62
453.971	93.62
454.192	121.62
454.412	109.62
454.633	118.62
454.853	118.62
455.073	106.62
455.294	127.62
455.514	119.62
455.734	124.62
455.955	121.62
456.175	127.62
456.395	131.62
456.616	106.62
456.836	119.62
457.056	105.62
457.276	95.62
457.497	115.62
457.717	114.62
457.937	106.62
458.157	120.62
458.377	104.62
458.598	106.62
458.818	87.62
459.038	94.62
459.258	88.62
459.478	84.62
459.698	86.62
459.918	110.62
460.138	104.62
460.358	116.62
460.578	117.62
460.798	124.62
461.018	109.62
461.238	125.62
461.458	107.62
461.678	118.62
461.898	115.62
462.118	135.62
462.338	116.62
462.558	121.62
462.777	102.62
462.997	95.62
463.217	108.62
463.437	106.62
463.657	104.62
463.876	116.62
464.096	119.62
464.316	119.62
464.536	112.62
464.755	112.62
464.975	117.62
465.195	114.62
465.414	117.62
465.634	118.62
465.854	119.62
466.073	122.62
466.293	131.62
466.512	119.62
466.732	127.62
466.951	125.62
467.171	127.62
467.391	145.62
467.61	144.62
467.829	133.62
468.049	133.62
468.268	125.62
468.488	133.62
468.707	137.62
468.927	137.62
469.146	127.62
469.365	138.62
469.585	139.62
469.804	136.62
470.023	128.62
470.243	144.62
470.462	153.62
470.681	144.62
470.901	127.62
471.12	143.62
471.339	136.62
471.558	140.62
471.777	150.62
471.997	138.62
472.216	123.62
472.435	120.62
472.654	113.62
472.873	109.62
473.092	108.62
473.311	106.62
473.53	130.62
473.749	132.62
473.968	131.62
474.187	135.62
474.406	128.62
474.625	132.62
474.844	129.62
475.063	137.62
475.282	130.62
475.501	127.62
475.72	128.62
475.939	118.62
476.158	111.62
476.377	121.62
476.596	121.62
476.814	112.62
477.033	104.62
477.252	123.62
477.471	123.62
477.69	132.62
477.908	158.62
478.127	144.62
478.346	132.62
478.564	129.62
478.783	139.62
479.002	131.62
479.22	143.62
479.439	133.62
479.658	134.62
479.876	120.62
480.095	108.62
480.313	105.62
480.532	121.62
480.751	113.62
480.969	86.62
481.188	90.62
481.406	84.62
481.624	89.62
481.843	89.62
482.061	104.62
482.28	101.62
482.498	129.62
482.717	110.62
482.935	118.62
483.153	127.62
483.372	122.62
483.59	153.62
483.808	148.62
484.027	139.62
484.245	133.62
484.463	150.62
484.681	141.62
484.9	150.62
485.118	137.62
485.336	118.62
485.554	125.62
485.772	105.62
485.99	107.62
486.209	102.62
486.427	123.62
486.645	131.62
486.863	154.62
487.081	139.62
487.299	108.62
487.517	136.62
487.735	159.62
487.953	167.62
488.171	189.62
488.389	161.62
488.607	163.62
488.825	152.62
489.043	149.62
489.261	129.62
489.479	140.62
489.696	151.62
489.914	131.62
490.132	156.62
490.35	161.62
490.568	182.62
490.786	169.62
491.003	168.62
491.221	195.62
491.439	185.62
491.657	177.62
491.874	203.62
492.092	220.62
492.31	232.62
492.527	214.62
492.745	234.62
492.963	195.62
493.18	175.62
493.398	202.62
493.615	172.62
493.833	162.62
494.05	179.62
494.268	177.62
494.485	196.62
494.703	175.62
494.92	164.62
495.138	181.62
495.355	175.62
495.573	163.62
495.79	160.62
496.008	165.62
496.225	154.62
496.442	175.62
496.66	170.62
496.877	155.62
497.094	170.62
497.312	161.62
497.529	161.62
497.746	162.62
497.963	129.62
498.181	133.62
498.398	116.62
498.615	119.62
498.832	123.62
499.049	120.62
499.267	130.62
499.484	125.62
499.701	134.62
499.918	133.62
500.135	144.62
500.352	141.62
500.569	148.62
500.786	144.62
501.003	133.62
501.22	133.62
501.437	134.62
501.654	131.62
501.871	128.62
502.088	146.62
502.305	126.62
502.522	138.62
502.739	137.62
502.956	137.62
503.172	134.62
503.389	129.62
503.606	120.62
503.823	128.62
504.04	128.62
504.256	132.62
504.473	127.62
504.69	114.62
504.907	127.62
505.123	105.62
505.34	113.62
505.557	125.62
505.773	139.62
505.99	118.62
506.207	102.62
506.423	120.62
506.64	125.62
506.856	107.62
507.073	120.62
507.289	121.62
507.506	116.62
507.722	125.62
507.939	117.62
508.155	115.62
508.372	128.62
508.588	116.62
508.805	123.62
509.021	104.62
509.238	104.62
509.454	100.62
509.67	104.62
509.887	85.62
510.103	92.62
510.319	95.62
510.536	84.62
510.752	92.62
510.968	92.62
511.184	80.62
511.401	85.62
511.617	94.62
