Data from Location2.07152019.Energy5.Lamp.07192019.3%Agarose_HRD10591_14-58-00-359.txt Node
Date: Fri Jul 19 14:58:00 EDT 2019
User: cochatt
Spectrometer: HR+D1059
Trigger mode: 1
Integration Time (sec): 1.000000E-1
Scans to average: 1
Electric dark correction enabled: true
Nonlinearity correction enabled: false
Boxcar width: 0
XAxis mode: Wavelengths
Number of Pixels in Spectrum: 2048
>>>>>Begin Spectral Data<<<<<
223.165	-31.06
223.4	-31.06
223.635	-31.06
223.869	-16.06
224.104	-16.06
224.338	-21.06
224.573	-17.06
224.808	-20.06
225.042	-9.06
225.277	-5.06
225.511	7.94
225.746	7.94
225.98	-3.06
226.215	5.94
226.449	18.94
226.683	26.94
226.918	42.94
227.152	27.94
227.387	26.94
227.621	36.94
227.856	41.94
228.09	62.94
228.324	35.94
228.559	52.94
228.793	61.94
229.027	72.94
229.262	64.94
229.496	54.94
229.73	62.94
229.964	75.94
230.199	70.94
230.433	71.94
230.667	73.94
230.901	84.94
231.136	84.94
231.37	84.94
231.604	67.94
231.838	72.94
232.072	71.94
232.306	88.94
232.541	78.94
232.775	76.94
233.009	82.94
233.243	96.94
233.477	78.94
233.711	67.94
233.945	73.94
234.179	70.94
234.413	86.94
234.647	74.94
234.881	69.94
235.115	88.94
235.349	77.94
235.583	77.94
235.817	78.94
236.051	94.94
236.285	81.94
236.519	83.94
236.753	55.94
236.987	76.94
237.221	69.94
237.455	76.94
237.689	76.94
237.922	80.94
238.156	82.94
238.39	76.94
238.624	74.94
238.858	81.94
239.091	83.94
239.325	77.94
239.559	72.94
239.793	75.94
240.027	85.94
240.26	68.94
240.494	70.94
240.728	68.94
240.961	75.94
241.195	69.94
241.429	68.94
241.662	71.94
241.896	78.94
242.13	79.94
242.363	66.94
242.597	78.94
242.83	74.94
243.064	61.94
243.298	84.94
243.531	80.94
243.765	56.94
243.998	75.94
244.232	85.94
244.465	82.94
244.699	86.94
244.932	88.94
245.166	72.94
245.399	74.94
245.633	76.94
245.866	87.94
246.099	75.94
246.333	74.94
246.566	68.94
246.8	68.94
247.033	90.94
247.266	80.94
247.5	77.94
247.733	70.94
247.966	68.94
248.2	76.94
248.433	74.94
248.666	67.94
248.899	76.94
249.133	87.94
249.366	89.94
249.599	85.94
249.832	79.94
250.066	84.94
250.299	71.94
250.532	72.94
250.765	79.94
250.998	74.94
251.231	96.94
251.465	89.94
251.698	79.94
251.931	71.94
252.164	70.94
252.397	73.94
252.63	83.94
252.863	76.94
253.096	86.94
253.329	72.94
253.562	81.94
253.795	88.94
254.028	83.94
254.261	75.94
254.494	69.94
254.727	83.94
254.96	75.94
255.193	75.94
255.426	73.94
255.659	75.94
255.892	81.94
256.124	71.94
256.357	84.94
256.59	75.94
256.823	74.94
257.056	88.94
257.289	86.94
257.521	79.94
257.754	71.94
257.987	83.94
258.22	79.94
258.452	80.94
258.685	65.94
258.918	73.94
259.151	80.94
259.383	73.94
259.616	77.94
259.849	86.94
260.081	82.94
260.314	71.94
260.547	73.94
260.779	66.94
261.012	63.94
261.244	82.94
261.477	88.94
261.71	68.94
261.942	83.94
262.175	80.94
262.407	82.94
262.64	67.94
262.872	72.94
263.105	64.94
263.337	84.94
263.57	79.94
263.802	67.94
264.035	77.94
264.267	80.94
264.499	102.94
264.732	84.94
264.964	67.94
265.197	87.94
265.429	80.94
265.661	83.94
265.894	89.94
266.126	81.94
266.358	74.94
266.591	77.94
266.823	80.94
267.055	85.94
267.287	80.94
267.52	91.94
267.752	80.94
267.984	75.94
268.216	73.94
268.448	88.94
268.681	75.94
268.913	85.94
269.145	86.94
269.377	81.94
269.609	72.94
269.841	80.94
270.073	73.94
270.306	82.94
270.538	86.94
270.77	89.94
271.002	84.94
271.234	83.94
271.466	75.94
271.698	77.94
271.93	63.94
272.162	58.94
272.394	79.94
272.626	74.94
272.858	73.94
273.09	75.94
273.322	78.94
273.553	74.94
273.785	77.94
274.017	75.94
274.249	66.94
274.481	87.94
274.713	85.94
274.945	78.94
275.176	90.94
275.408	99.94
275.64	81.94
275.872	87.94
276.104	71.94
276.335	87.94
276.567	94.94
276.799	81.94
277.031	72.94
277.262	86.94
277.494	67.94
277.726	82.94
277.957	82.94
278.189	67.94
278.421	79.94
278.652	59.94
278.884	80.94
279.115	88.94
279.347	79.94
279.579	85.94
279.81	75.94
280.042	81.94
280.273	71.94
280.505	79.94
280.736	80.94
280.968	76.94
281.199	79.94
281.431	92.94
281.662	87.94
281.894	78.94
282.125	72.94
282.356	79.94
282.588	84.94
282.819	79.94
283.051	86.94
283.282	81.94
283.513	77.94
283.745	90.94
283.976	89.94
284.207	82.94
284.439	82.94
284.67	71.94
284.901	82.94
285.132	86.94
285.364	76.94
285.595	78.94
285.826	73.94
286.057	88.94
286.288	83.94
286.52	71.94
286.751	79.94
286.982	92.94
287.213	82.94
287.444	84.94
287.675	83.94
287.906	75.94
288.138	76.94
288.369	85.94
288.6	80.94
288.831	63.94
289.062	87.94
289.293	95.94
289.524	76.94
289.755	93.94
289.986	76.94
290.217	96.94
290.448	86.94
290.679	78.94
290.91	88.94
291.141	80.94
291.371	87.94
291.602	83.94
291.833	79.94
292.064	95.94
292.295	93.94
292.526	88.94
292.757	80.94
292.987	71.94
293.218	84.94
293.449	90.94
293.68	80.94
293.91	87.94
294.141	69.94
294.372	75.94
294.603	78.94
294.833	80.94
295.064	68.94
295.295	72.94
295.525	89.94
295.756	90.94
295.987	81.94
296.217	83.94
296.448	91.94
296.679	79.94
296.909	82.94
297.14	82.94
297.37	86.94
297.601	71.94
297.831	75.94
298.062	84.94
298.292	70.94
298.523	90.94
298.753	62.94
298.984	105.94
299.214	88.94
299.445	72.94
299.675	86.94
299.905	95.94
300.136	81.94
300.366	90.94
300.597	77.94
300.827	89.94
301.057	80.94
301.288	71.94
301.518	78.94
301.748	84.94
301.979	82.94
302.209	71.94
302.439	78.94
302.669	76.94
302.9	79.94
303.13	90.94
303.36	70.94
303.59	84.94
303.82	90.94
304.051	87.94
304.281	86.94
304.511	78.94
304.741	84.94
304.971	84.94
305.201	88.94
305.431	87.94
305.661	88.94
305.891	56.94
306.121	91.94
306.352	86.94
306.582	76.94
306.812	90.94
307.042	92.94
307.272	87.94
307.502	94.94
307.731	80.94
307.961	70.94
308.191	87.94
308.421	90.94
308.651	76.94
308.881	96.94
309.111	84.94
309.341	82.94
309.571	91.94
309.8	81.94
310.03	74.94
310.26	95.94
310.49	80.94
310.72	83.94
310.949	75.94
311.179	92.94
311.409	83.94
311.639	81.94
311.868	93.94
312.098	81.94
312.328	89.94
312.557	100.94
312.787	82.94
313.017	90.94
313.246	87.94
313.476	80.94
313.706	77.94
313.935	79.94
314.165	87.94
314.394	88.94
314.624	82.94
314.853	91.94
315.083	80.94
315.312	74.94
315.542	77.94
315.771	90.94
316.001	86.94
316.23	88.94
316.46	76.94
316.689	78.94
316.919	78.94
317.148	87.94
317.377	90.94
317.607	98.94
317.836	77.94
318.065	74.94
318.295	82.94
318.524	80.94
318.753	84.94
318.983	88.94
319.212	84.94
319.441	79.94
319.67	68.94
319.9	84.94
320.129	91.94
320.358	84.94
320.587	84.94
320.816	94.94
321.046	80.94
321.275	71.94
321.504	87.94
321.733	97.94
321.962	70.94
322.191	86.94
322.42	67.94
322.649	87.94
322.878	82.94
323.108	86.94
323.337	92.94
323.566	87.94
323.795	84.94
324.024	83.94
324.253	89.94
324.482	76.94
324.71	72.94
324.939	93.94
325.168	84.94
325.397	90.94
325.626	79.94
325.855	79.94
326.084	80.94
326.313	90.94
326.542	88.94
326.77	89.94
326.999	87.94
327.228	94.94
327.457	80.94
327.686	87.94
327.914	86.94
328.143	83.94
328.372	86.94
328.6	84.94
328.829	79.94
329.058	73.94
329.287	69.94
329.515	84.94
329.744	94.94
329.972	87.94
330.201	75.94
330.43	79.94
330.658	86.94
330.887	86.94
331.115	87.94
331.344	70.94
331.572	85.94
331.801	75.94
332.03	80.94
332.258	80.94
332.486	88.94
332.715	81.94
332.943	85.94
333.172	98.94
333.4	89.94
333.629	76.94
333.857	82.94
334.085	90.94
334.314	82.94
334.542	84.94
334.771	70.94
334.999	83.94
335.227	74.94
335.455	73.94
335.684	81.94
335.912	83.94
336.14	78.94
336.369	80.94
336.597	82.94
336.825	80.94
337.053	87.94
337.281	83.94
337.51	87.94
337.738	70.94
337.966	89.94
338.194	85.94
338.422	81.94
338.65	86.94
338.878	79.94
339.106	73.94
339.334	81.94
339.562	73.94
339.79	92.94
340.018	87.94
340.246	91.94
340.474	73.94
340.702	85.94
340.93	76.94
341.158	79.94
341.386	79.94
341.614	70.94
341.842	80.94
342.07	67.94
342.298	80.94
342.526	54.94
342.754	68.94
342.981	80.94
343.209	83.94
343.437	82.94
343.665	83.94
343.893	80.94
344.12	80.94
344.348	79.94
344.576	89.94
344.804	83.94
345.031	88.94
345.259	102.94
345.487	79.94
345.714	87.94
345.942	87.94
346.17	76.94
346.397	90.94
346.625	78.94
346.853	95.94
347.08	73.94
347.308	86.94
347.535	99.94
347.763	93.94
347.99	76.94
348.218	88.94
348.445	86.94
348.673	95.94
348.9	91.94
349.128	79.94
349.355	87.94
349.583	76.94
349.81	96.94
350.037	91.94
350.265	85.94
350.492	80.94
350.72	80.94
350.947	82.94
351.174	91.94
351.402	78.94
351.629	81.94
351.856	86.94
352.083	80.94
352.311	96.94
352.538	83.94
352.765	75.94
352.992	94.94
353.22	83.94
353.447	97.94
353.674	93.94
353.901	95.94
354.128	76.94
354.355	81.94
354.583	82.94
354.81	91.94
355.037	83.94
355.264	81.94
355.491	81.94
355.718	81.94
355.945	83.94
356.172	91.94
356.399	89.94
356.626	72.94
356.853	73.94
357.08	88.94
357.307	92.94
357.534	89.94
357.761	86.94
357.988	87.94
358.215	92.94
358.441	84.94
358.668	86.94
358.895	85.94
359.122	91.94
359.349	80.94
359.576	82.94
359.802	81.94
360.029	67.94
360.256	70.94
360.483	91.94
360.709	76.94
360.936	91.94
361.163	95.94
361.39	87.94
361.616	82.94
361.843	82.94
362.07	84.94
362.296	83.94
362.523	83.94
362.749	101.94
362.976	84.94
363.203	86.94
363.429	82.94
363.656	87.94
363.882	80.94
364.109	83.94
364.335	92.94
364.562	93.94
364.788	90.94
365.015	97.94
365.241	78.94
365.468	84.94
365.694	97.94
365.92	68.94
366.147	72.94
366.373	79.94
366.599	94.94
366.826	90.94
367.052	88.94
367.278	86.94
367.505	88.94
367.731	80.94
367.957	94.94
368.184	71.94
368.41	79.94
368.636	91.94
368.862	94.94
369.089	77.94
369.315	86.94
369.541	97.94
369.767	98.94
369.993	76.94
370.219	85.94
370.445	88.94
370.672	79.94
370.898	86.94
371.124	80.94
371.35	78.94
371.576	92.94
371.802	92.94
372.028	86.94
372.254	87.94
372.48	85.94
372.706	96.94
372.932	91.94
373.158	98.94
373.384	98.94
373.61	108.94
373.835	99.94
374.061	107.94
374.287	89.94
374.513	99.94
374.739	89.94
374.965	95.94
375.191	98.94
375.416	75.94
375.642	89.94
375.868	103.94
376.094	94.94
376.319	86.94
376.545	97.94
376.771	92.94
376.997	72.94
377.222	88.94
377.448	90.94
377.674	83.94
377.899	98.94
378.125	98.94
378.35	91.94
378.576	96.94
378.802	89.94
379.027	86.94
379.253	105.94
379.478	88.94
379.704	86.94
379.929	90.94
380.155	80.94
380.38	89.94
380.606	101.94
380.831	89.94
381.057	90.94
381.282	89.94
381.507	85.94
381.733	91.94
381.958	73.94
382.184	79.94
382.409	93.94
382.634	99.94
382.86	98.94
383.085	101.94
383.31	92.94
383.535	94.94
383.761	81.94
383.986	103.94
384.211	100.94
384.436	90.94
384.662	107.94
384.887	103.94
385.112	85.94
385.337	97.94
385.562	101.94
385.787	93.94
386.013	88.94
386.238	92.94
386.463	88.94
386.688	83.94
386.913	103.94
387.138	91.94
387.363	78.94
387.588	94.94
387.813	106.94
388.038	110.94
388.263	103.94
388.488	94.94
388.713	90.94
388.938	87.94
389.163	97.94
389.387	98.94
389.612	95.94
389.837	104.94
390.062	104.94
390.287	94.94
390.512	101.94
390.736	91.94
390.961	103.94
391.186	108.94
391.411	93.94
391.636	90.94
391.86	112.94
392.085	101.94
392.31	109.94
392.534	106.94
392.759	116.94
392.984	92.94
393.208	99.94
393.433	98.94
393.658	101.94
393.882	111.94
394.107	110.94
394.331	103.94
394.556	105.94
394.78	97.94
395.005	101.94
395.229	104.94
395.454	103.94
395.678	101.94
395.903	99.94
396.127	107.94
396.352	107.94
396.576	105.94
396.801	116.94
397.025	112.94
397.249	101.94
397.474	114.94
397.698	108.94
397.922	103.94
398.147	99.94
398.371	115.94
398.595	107.94
398.82	94.94
399.044	99.94
399.268	123.94
399.492	95.94
399.717	102.94
399.941	110.94
400.165	110.94
400.389	122.94
400.613	108.94
400.837	122.94
401.062	114.94
401.286	104.94
401.51	107.94
401.734	104.94
401.958	115.94
402.182	122.94
402.406	108.94
402.63	102.94
402.854	108.94
403.078	122.94
403.302	117.94
403.526	102.94
403.75	100.94
403.974	108.94
404.198	122.94
404.422	112.94
404.645	111.94
404.869	115.94
405.093	124.94
405.317	116.94
405.541	118.94
405.765	116.94
405.988	111.94
406.212	113.94
406.436	113.94
406.66	125.94
406.883	112.94
407.107	106.94
407.331	112.94
407.555	122.94
407.778	113.94
408.002	139.94
408.226	122.94
408.449	113.94
408.673	114.94
408.896	113.94
409.12	112.94
409.344	115.94
409.567	95.94
409.791	110.94
410.014	115.94
410.238	142.94
410.461	119.94
410.685	112.94
410.908	122.94
411.132	130.94
411.355	120.94
411.578	120.94
411.802	127.94
412.025	118.94
412.249	122.94
412.472	126.94
412.695	118.94
412.919	122.94
413.142	133.94
413.365	122.94
413.589	123.94
413.812	123.94
414.035	119.94
414.258	117.94
414.482	123.94
414.705	129.94
414.928	122.94
415.151	126.94
415.374	111.94
415.597	106.94
415.821	112.94
416.044	128.94
416.267	127.94
416.49	134.94
416.713	127.94
416.936	120.94
417.159	106.94
417.382	122.94
417.605	128.94
417.828	137.94
418.051	131.94
418.274	143.94
418.497	118.94
418.72	130.94
418.943	141.94
419.166	131.94
419.389	129.94
419.611	128.94
419.834	118.94
420.057	119.94
420.28	143.94
420.503	112.94
420.726	129.94
420.948	128.94
421.171	129.94
421.394	130.94
421.617	144.94
421.839	131.94
422.062	134.94
422.285	137.94
422.507	146.94
422.73	135.94
422.953	132.94
423.175	135.94
423.398	128.94
423.621	132.94
423.843	130.94
424.066	133.94
424.288	124.94
424.511	152.94
424.733	151.94
424.956	126.94
425.178	148.94
425.401	146.94
425.623	136.94
425.846	136.94
426.068	130.94
426.291	126.94
426.513	118.94
426.735	134.94
426.958	130.94
427.18	126.94
427.402	126.94
427.625	126.94
427.847	113.94
428.069	115.94
428.292	122.94
428.514	132.94
428.736	126.94
428.958	128.94
429.181	130.94
429.403	136.94
429.625	127.94
429.847	126.94
430.069	121.94
430.292	128.94
430.514	112.94
430.736	124.94
430.958	132.94
431.18	104.94
431.402	123.94
431.624	131.94
431.846	135.94
432.068	90.94
432.29	94.94
432.512	110.94
432.734	120.94
432.956	126.94
433.178	130.94
433.4	124.94
433.622	153.94
433.844	123.94
434.066	118.94
434.287	114.94
434.509	79.94
434.731	100.94
434.953	107.94
435.175	121.94
435.397	128.94
435.618	128.94
435.84	114.94
436.062	114.94
436.284	113.94
436.505	122.94
436.727	115.94
436.949	128.94
437.17	112.94
437.392	126.94
437.614	132.94
437.835	122.94
438.057	113.94
438.278	114.94
438.5	108.94
438.721	126.94
438.943	129.94
439.165	150.94
439.386	141.94
439.608	130.94
439.829	133.94
440.05	118.94
440.272	145.94
440.493	132.94
440.715	130.94
440.936	144.94
441.158	133.94
441.379	138.94
441.6	146.94
441.822	138.94
442.043	148.94
442.264	140.94
442.486	119.94
442.707	140.94
442.928	141.94
443.149	154.94
443.371	145.94
443.592	136.94
443.813	148.94
444.034	116.94
444.255	128.94
444.476	137.94
444.698	121.94
444.919	137.94
445.14	223.94
445.361	188.94
445.582	148.94
445.803	165.94
446.024	135.94
446.245	135.94
446.466	144.94
446.687	138.94
446.908	152.94
447.129	142.94
447.35	144.94
447.571	148.94
447.792	138.94
448.013	132.94
448.234	136.94
448.455	137.94
448.675	129.94
448.896	137.94
449.117	132.94
449.338	131.94
449.559	137.94
449.779	132.94
450	120.94
450.221	124.94
450.442	127.94
450.662	129.94
450.883	135.94
451.104	132.94
451.324	142.94
451.545	128.94
451.766	126.94
451.986	130.94
452.207	121.94
452.428	105.94
452.648	121.94
452.869	110.94
453.089	105.94
453.31	114.94
453.53	116.94
453.751	102.94
453.971	109.94
454.192	110.94
454.412	99.94
454.633	118.94
454.853	114.94
455.073	116.94
455.294	126.94
455.514	118.94
455.734	108.94
455.955	104.94
456.175	121.94
456.395	106.94
456.616	114.94
456.836	113.94
457.056	107.94
457.276	114.94
457.497	101.94
457.717	104.94
457.937	101.94
458.157	96.94
458.377	110.94
458.598	91.94
458.818	99.94
459.038	76.94
459.258	86.94
459.478	84.94
459.698	89.94
459.918	80.94
460.138	106.94
460.358	112.94
460.578	113.94
460.798	111.94
461.018	115.94
461.238	102.94
461.458	110.94
461.678	109.94
461.898	110.94
462.118	97.94
462.338	111.94
462.558	105.94
462.777	108.94
462.997	122.94
463.217	122.94
463.437	100.94
463.657	116.94
463.876	103.94
464.096	99.94
464.316	106.94
464.536	108.94
464.755	104.94
464.975	93.94
465.195	115.94
465.414	115.94
465.634	99.94
465.854	118.94
466.073	113.94
466.293	126.94
466.512	117.94
466.732	125.94
466.951	120.94
467.171	134.94
467.391	119.94
467.61	114.94
467.829	150.94
468.049	131.94
468.268	141.94
468.488	134.94
468.707	131.94
468.927	119.94
469.146	138.94
469.365	119.94
469.585	131.94
469.804	134.94
470.023	140.94
470.243	136.94
470.462	159.94
470.681	136.94
470.901	143.94
471.12	142.94
471.339	141.94
471.558	148.94
471.777	138.94
471.997	116.94
472.216	127.94
472.435	123.94
472.654	113.94
472.873	110.94
473.092	113.94
473.311	110.94
473.53	122.94
473.749	123.94
473.968	114.94
474.187	119.94
474.406	107.94
474.625	124.94
474.844	112.94
475.063	126.94
475.282	124.94
475.501	116.94
475.72	127.94
475.939	139.94
476.158	118.94
476.377	118.94
476.596	111.94
476.814	104.94
477.033	100.94
477.252	117.94
477.471	124.94
477.69	126.94
477.908	140.94
478.127	140.94
478.346	117.94
478.564	138.94
478.783	121.94
479.002	126.94
479.22	142.94
479.439	128.94
479.658	119.94
479.876	112.94
480.095	116.94
480.313	122.94
480.532	106.94
480.751	102.94
480.969	114.94
481.188	79.94
481.406	87.94
481.624	98.94
481.843	93.94
482.061	105.94
482.28	100.94
482.498	111.94
482.717	101.94
482.935	118.94
483.153	123.94
483.372	151.94
483.59	137.94
483.808	134.94
484.027	118.94
484.245	127.94
484.463	140.94
484.681	155.94
484.9	127.94
485.118	135.94
485.336	120.94
485.554	106.94
485.772	88.94
485.99	114.94
486.209	112.94
486.427	107.94
486.645	119.94
486.863	118.94
487.081	141.94
487.299	131.94
487.517	147.94
487.735	164.94
487.953	172.94
488.171	171.94
488.389	168.94
488.607	159.94
488.825	134.94
489.043	124.94
489.261	134.94
489.479	139.94
489.696	131.94
489.914	146.94
490.132	147.94
490.35	156.94
490.568	169.94
490.786	158.94
491.003	159.94
491.221	170.94
491.439	184.94
491.657	191.94
491.874	195.94
492.092	222.94
492.31	249.94
492.527	228.94
492.745	168.94
492.963	203.94
493.18	182.94
493.398	169.94
493.615	182.94
493.833	174.94
494.05	190.94
494.268	175.94
494.485	168.94
494.703	166.94
494.92	179.94
495.138	159.94
495.355	166.94
495.573	176.94
495.79	174.94
496.008	167.94
496.225	157.94
496.442	170.94
496.66	160.94
496.877	161.94
497.094	159.94
497.312	157.94
497.529	155.94
497.746	140.94
497.963	133.94
498.181	128.94
498.398	108.94
498.615	125.94
498.832	114.94
499.049	109.94
499.267	115.94
499.484	119.94
499.701	134.94
499.918	138.94
500.135	127.94
500.352	133.94
500.569	122.94
500.786	151.94
501.003	130.94
501.22	144.94
501.437	133.94
501.654	135.94
501.871	145.94
502.088	138.94
502.305	138.94
502.522	125.94
502.739	118.94
502.956	114.94
503.172	107.94
503.389	122.94
503.606	123.94
503.823	117.94
504.04	121.94
504.256	118.94
504.473	114.94
504.69	111.94
504.907	118.94
505.123	106.94
505.34	120.94
505.557	114.94
505.773	131.94
505.99	130.94
506.207	108.94
506.423	99.94
506.64	121.94
506.856	105.94
507.073	125.94
507.289	112.94
507.506	121.94
507.722	107.94
507.939	116.94
508.155	117.94
508.372	110.94
508.588	112.94
508.805	99.94
509.021	102.94
509.238	96.94
509.454	96.94
509.67	103.94
509.887	101.94
510.103	88.94
510.319	98.94
510.536	90.94
510.752	73.94
510.968	84.94
511.184	86.94
511.401	89.94
511.617	91.94
511.833	82.94
