Data from Location2.07152019.Energy5.Lamp.07192019.3%Agarose_HRD10591_14-56-13-358.txt Node
Date: Fri Jul 19 14:56:13 EDT 2019
User: cochatt
Spectrometer: HR+D1059
Trigger mode: 1
Integration Time (sec): 1.000000E-1
Scans to average: 1
Electric dark correction enabled: true
Nonlinearity correction enabled: false
Boxcar width: 0
XAxis mode: Wavelengths
Number of Pixels in Spectrum: 2048
>>>>>Begin Spectral Data<<<<<
223.165	-21.44
223.4	-21.44
223.635	-21.44
223.869	-16.44
224.104	-15.44
224.338	-13.44
224.573	-8.44
224.808	-11.44
225.042	-2.44
225.277	-12.44
225.511	0.56
225.746	8.56
225.98	16.56
226.215	4.56
226.449	11.56
226.683	14.56
226.918	20.56
227.152	24.56
227.387	24.56
227.621	57.56
227.856	45.56
228.09	43.56
228.324	59.56
228.559	58.56
228.793	57.56
229.027	79.56
229.262	69.56
229.496	75.56
229.73	64.56
229.964	65.56
230.199	61.56
230.433	78.56
230.667	83.56
230.901	76.56
231.136	88.56
231.37	92.56
231.604	96.56
231.838	84.56
232.072	87.56
232.306	81.56
232.541	82.56
232.775	73.56
233.009	81.56
233.243	75.56
233.477	75.56
233.711	74.56
233.945	81.56
234.179	82.56
234.413	71.56
234.647	80.56
234.881	77.56
235.115	85.56
235.349	77.56
235.583	97.56
235.817	89.56
236.051	78.56
236.285	95.56
236.519	85.56
236.753	69.56
236.987	66.56
237.221	71.56
237.455	73.56
237.689	85.56
237.922	79.56
238.156	80.56
238.39	68.56
238.624	70.56
238.858	84.56
239.091	73.56
239.325	69.56
239.559	72.56
239.793	80.56
240.027	77.56
240.26	80.56
240.494	72.56
240.728	86.56
240.961	80.56
241.195	76.56
241.429	74.56
241.662	70.56
241.896	78.56
242.13	72.56
242.363	82.56
242.597	81.56
242.83	73.56
243.064	84.56
243.298	87.56
243.531	81.56
243.765	88.56
243.998	73.56
244.232	71.56
244.465	68.56
244.699	89.56
244.932	75.56
245.166	74.56
245.399	76.56
245.633	78.56
245.866	84.56
246.099	82.56
246.333	78.56
246.566	62.56
246.8	89.56
247.033	70.56
247.266	66.56
247.5	78.56
247.733	79.56
247.966	85.56
248.2	68.56
248.433	77.56
248.666	86.56
248.899	72.56
249.133	77.56
249.366	74.56
249.599	67.56
249.832	79.56
250.066	76.56
250.299	76.56
250.532	76.56
250.765	83.56
250.998	69.56
251.231	76.56
251.465	78.56
251.698	90.56
251.931	90.56
252.164	89.56
252.397	85.56
252.63	83.56
252.863	72.56
253.096	78.56
253.329	85.56
253.562	78.56
253.795	67.56
254.028	94.56
254.261	78.56
254.494	88.56
254.727	83.56
254.96	78.56
255.193	87.56
255.426	95.56
255.659	84.56
255.892	87.56
256.124	76.56
256.357	85.56
256.59	81.56
256.823	81.56
257.056	97.56
257.289	96.56
257.521	90.56
257.754	78.56
257.987	75.56
258.22	81.56
258.452	72.56
258.685	78.56
258.918	96.56
259.151	84.56
259.383	61.56
259.616	70.56
259.849	73.56
260.081	74.56
260.314	88.56
260.547	85.56
260.779	87.56
261.012	73.56
261.244	83.56
261.477	87.56
261.71	77.56
261.942	66.56
262.175	84.56
262.407	75.56
262.64	81.56
262.872	78.56
263.105	83.56
263.337	79.56
263.57	81.56
263.802	85.56
264.035	81.56
264.267	78.56
264.499	88.56
264.732	77.56
264.964	78.56
265.197	75.56
265.429	85.56
265.661	61.56
265.894	91.56
266.126	90.56
266.358	70.56
266.591	84.56
266.823	94.56
267.055	68.56
267.287	84.56
267.52	81.56
267.752	78.56
267.984	93.56
268.216	84.56
268.448	84.56
268.681	91.56
268.913	88.56
269.145	87.56
269.377	87.56
269.609	68.56
269.841	72.56
270.073	85.56
270.306	87.56
270.538	79.56
270.77	95.56
271.002	89.56
271.234	82.56
271.466	77.56
271.698	82.56
271.93	82.56
272.162	92.56
272.394	85.56
272.626	89.56
272.858	87.56
273.09	73.56
273.322	89.56
273.553	91.56
273.785	87.56
274.017	81.56
274.249	73.56
274.481	99.56
274.713	84.56
274.945	86.56
275.176	87.56
275.408	89.56
275.64	87.56
275.872	72.56
276.104	87.56
276.335	89.56
276.567	86.56
276.799	82.56
277.031	91.56
277.262	84.56
277.494	80.56
277.726	76.56
277.957	90.56
278.189	78.56
278.421	86.56
278.652	82.56
278.884	83.56
279.115	78.56
279.347	72.56
279.579	86.56
279.81	78.56
280.042	82.56
280.273	73.56
280.505	86.56
280.736	80.56
280.968	84.56
281.199	78.56
281.431	76.56
281.662	81.56
281.894	103.56
282.125	92.56
282.356	104.56
282.588	72.56
282.819	76.56
283.051	96.56
283.282	80.56
283.513	79.56
283.745	105.56
283.976	89.56
284.207	86.56
284.439	70.56
284.67	72.56
284.901	75.56
285.132	98.56
285.364	88.56
285.595	88.56
285.826	85.56
286.057	73.56
286.288	85.56
286.52	87.56
286.751	88.56
286.982	82.56
287.213	75.56
287.444	75.56
287.675	85.56
287.906	86.56
288.138	88.56
288.369	82.56
288.6	89.56
288.831	99.56
289.062	93.56
289.293	93.56
289.524	92.56
289.755	89.56
289.986	82.56
290.217	77.56
290.448	97.56
290.679	84.56
290.91	84.56
291.141	76.56
291.371	74.56
291.602	95.56
291.833	93.56
292.064	82.56
292.295	84.56
292.526	84.56
292.757	100.56
292.987	86.56
293.218	105.56
293.449	84.56
293.68	77.56
293.91	76.56
294.141	81.56
294.372	82.56
294.603	79.56
294.833	78.56
295.064	88.56
295.295	85.56
295.525	91.56
295.756	95.56
295.987	76.56
296.217	83.56
296.448	81.56
296.679	71.56
296.909	77.56
297.14	77.56
297.37	73.56
297.601	90.56
297.831	93.56
298.062	85.56
298.292	78.56
298.523	82.56
298.753	89.56
298.984	86.56
299.214	80.56
299.445	68.56
299.675	88.56
299.905	92.56
300.136	89.56
300.366	91.56
300.597	95.56
300.827	79.56
301.057	89.56
301.288	76.56
301.518	75.56
301.748	79.56
301.979	89.56
302.209	83.56
302.439	81.56
302.669	84.56
302.9	84.56
303.13	96.56
303.36	100.56
303.59	78.56
303.82	92.56
304.051	102.56
304.281	86.56
304.511	88.56
304.741	86.56
304.971	76.56
305.201	93.56
305.431	91.56
305.661	86.56
305.891	82.56
306.121	89.56
306.352	85.56
306.582	79.56
306.812	89.56
307.042	86.56
307.272	87.56
307.502	82.56
307.731	83.56
307.961	78.56
308.191	79.56
308.421	68.56
308.651	81.56
308.881	83.56
309.111	88.56
309.341	84.56
309.571	68.56
309.8	84.56
310.03	82.56
310.26	81.56
310.49	91.56
310.72	80.56
310.949	81.56
311.179	77.56
311.409	80.56
311.639	109.56
311.868	89.56
312.098	86.56
312.328	99.56
312.557	96.56
312.787	72.56
313.017	92.56
313.246	92.56
313.476	78.56
313.706	91.56
313.935	89.56
314.165	89.56
314.394	85.56
314.624	84.56
314.853	82.56
315.083	84.56
315.312	77.56
315.542	93.56
315.771	94.56
316.001	82.56
316.23	92.56
316.46	94.56
316.689	80.56
316.919	85.56
317.148	82.56
317.377	76.56
317.607	92.56
317.836	81.56
318.065	88.56
318.295	79.56
318.524	77.56
318.753	86.56
318.983	85.56
319.212	91.56
319.441	100.56
319.67	97.56
319.9	77.56
320.129	81.56
320.358	94.56
320.587	90.56
320.816	74.56
321.046	95.56
321.275	101.56
321.504	88.56
321.733	95.56
321.962	98.56
322.191	88.56
322.42	72.56
322.649	86.56
322.878	89.56
323.108	84.56
323.337	84.56
323.566	83.56
323.795	75.56
324.024	86.56
324.253	72.56
324.482	84.56
324.71	82.56
324.939	92.56
325.168	93.56
325.397	85.56
325.626	91.56
325.855	91.56
326.084	71.56
326.313	88.56
326.542	72.56
326.77	77.56
326.999	66.56
327.228	61.56
327.457	78.56
327.686	90.56
327.914	74.56
328.143	86.56
328.372	88.56
328.6	93.56
328.829	84.56
329.058	75.56
329.287	88.56
329.515	94.56
329.744	90.56
329.972	90.56
330.201	86.56
330.43	76.56
330.658	76.56
330.887	81.56
331.115	93.56
331.344	84.56
331.572	88.56
331.801	90.56
332.03	76.56
332.258	80.56
332.486	93.56
332.715	97.56
332.943	79.56
333.172	91.56
333.4	78.56
333.629	81.56
333.857	86.56
334.085	93.56
334.314	80.56
334.542	84.56
334.771	93.56
334.999	88.56
335.227	82.56
335.455	93.56
335.684	91.56
335.912	88.56
336.14	84.56
336.369	85.56
336.597	98.56
336.825	82.56
337.053	76.56
337.281	88.56
337.51	84.56
337.738	92.56
337.966	91.56
338.194	79.56
338.422	73.56
338.65	94.56
338.878	84.56
339.106	87.56
339.334	99.56
339.562	81.56
339.79	87.56
340.018	83.56
340.246	96.56
340.474	72.56
340.702	98.56
340.93	82.56
341.158	88.56
341.386	94.56
341.614	90.56
341.842	92.56
342.07	84.56
342.298	69.56
342.526	91.56
342.754	86.56
342.981	90.56
343.209	95.56
343.437	100.56
343.665	77.56
343.893	87.56
344.12	96.56
344.348	78.56
344.576	86.56
344.804	80.56
345.031	75.56
345.259	88.56
345.487	81.56
345.714	94.56
345.942	78.56
346.17	73.56
346.397	85.56
346.625	97.56
346.853	76.56
347.08	83.56
347.308	90.56
347.535	77.56
347.763	88.56
347.99	93.56
348.218	84.56
348.445	84.56
348.673	82.56
348.9	96.56
349.128	74.56
349.355	83.56
349.583	84.56
349.81	80.56
350.037	83.56
350.265	87.56
350.492	77.56
350.72	91.56
350.947	82.56
351.174	68.56
351.402	80.56
351.629	82.56
351.856	98.56
352.083	80.56
352.311	83.56
352.538	96.56
352.765	85.56
352.992	93.56
353.22	78.56
353.447	77.56
353.674	83.56
353.901	81.56
354.128	94.56
354.355	92.56
354.583	87.56
354.81	84.56
355.037	78.56
355.264	88.56
355.491	82.56
355.718	93.56
355.945	84.56
356.172	87.56
356.399	95.56
356.626	72.56
356.853	100.56
357.08	95.56
357.307	86.56
357.534	86.56
357.761	76.56
357.988	86.56
358.215	75.56
358.441	78.56
358.668	92.56
358.895	87.56
359.122	84.56
359.349	97.56
359.576	84.56
359.802	90.56
360.029	90.56
360.256	90.56
360.483	103.56
360.709	81.56
360.936	82.56
361.163	78.56
361.39	102.56
361.616	106.56
361.843	100.56
362.07	87.56
362.296	89.56
362.523	83.56
362.749	83.56
362.976	86.56
363.203	87.56
363.429	77.56
363.656	84.56
363.882	78.56
364.109	89.56
364.335	100.56
364.562	88.56
364.788	93.56
365.015	76.56
365.241	85.56
365.468	87.56
365.694	85.56
365.92	80.56
366.147	81.56
366.373	86.56
366.599	92.56
366.826	92.56
367.052	92.56
367.278	91.56
367.505	93.56
367.731	94.56
367.957	84.56
368.184	99.56
368.41	96.56
368.636	101.56
368.862	91.56
369.089	87.56
369.315	102.56
369.541	99.56
369.767	93.56
369.993	100.56
370.219	82.56
370.445	92.56
370.672	106.56
370.898	94.56
371.124	88.56
371.35	92.56
371.576	99.56
371.802	94.56
372.028	88.56
372.254	101.56
372.48	93.56
372.706	102.56
372.932	107.56
373.158	98.56
373.384	96.56
373.61	84.56
373.835	89.56
374.061	109.56
374.287	89.56
374.513	88.56
374.739	87.56
374.965	83.56
375.191	91.56
375.416	85.56
375.642	93.56
375.868	106.56
376.094	85.56
376.319	90.56
376.545	97.56
376.771	95.56
376.997	100.56
377.222	102.56
377.448	89.56
377.674	87.56
377.899	85.56
378.125	109.56
378.35	102.56
378.576	105.56
378.802	97.56
379.027	92.56
379.253	93.56
379.478	105.56
379.704	87.56
379.929	90.56
380.155	90.56
380.38	89.56
380.606	98.56
380.831	100.56
381.057	100.56
381.282	107.56
381.507	84.56
381.733	104.56
381.958	97.56
382.184	108.56
382.409	103.56
382.634	114.56
382.86	94.56
383.085	84.56
383.31	110.56
383.535	105.56
383.761	101.56
383.986	102.56
384.211	98.56
384.436	96.56
384.662	82.56
384.887	91.56
385.112	94.56
385.337	92.56
385.562	96.56
385.787	83.56
386.013	100.56
386.238	112.56
386.463	96.56
386.688	96.56
386.913	98.56
387.138	100.56
387.363	103.56
387.588	110.56
387.813	97.56
388.038	110.56
388.263	115.56
388.488	107.56
388.713	102.56
388.938	104.56
389.163	98.56
389.387	108.56
389.612	103.56
389.837	126.56
390.062	100.56
390.287	114.56
390.512	108.56
390.736	116.56
390.961	101.56
391.186	106.56
391.411	101.56
391.636	93.56
391.86	101.56
392.085	107.56
392.31	99.56
392.534	91.56
392.759	107.56
392.984	104.56
393.208	117.56
393.433	102.56
393.658	106.56
393.882	104.56
394.107	100.56
394.331	112.56
394.556	103.56
394.78	108.56
395.005	113.56
395.229	106.56
395.454	107.56
395.678	105.56
395.903	120.56
396.127	114.56
396.352	77.56
396.576	106.56
396.801	128.56
397.025	113.56
397.249	115.56
397.474	105.56
397.698	94.56
397.922	105.56
398.147	107.56
398.371	98.56
398.595	106.56
398.82	97.56
399.044	118.56
399.268	120.56
399.492	107.56
399.717	106.56
399.941	112.56
400.165	106.56
400.389	99.56
400.613	100.56
400.837	107.56
401.062	124.56
401.286	117.56
401.51	126.56
401.734	117.56
401.958	109.56
402.182	104.56
402.406	127.56
402.63	112.56
402.854	108.56
403.078	141.56
403.302	97.56
403.526	98.56
403.75	113.56
403.974	122.56
404.198	123.56
404.422	122.56
404.645	105.56
404.869	132.56
405.093	136.56
405.317	112.56
405.541	109.56
405.765	116.56
405.988	127.56
406.212	123.56
406.436	124.56
406.66	118.56
406.883	114.56
407.107	105.56
407.331	116.56
407.555	118.56
407.778	115.56
408.002	118.56
408.226	126.56
408.449	128.56
408.673	130.56
408.896	117.56
409.12	112.56
409.344	117.56
409.567	131.56
409.791	114.56
410.014	117.56
410.238	121.56
410.461	125.56
410.685	126.56
410.908	99.56
411.132	122.56
411.355	130.56
411.578	132.56
411.802	124.56
412.025	116.56
412.249	121.56
412.472	108.56
412.695	137.56
412.919	124.56
413.142	136.56
413.365	124.56
413.589	102.56
413.812	101.56
414.035	130.56
414.258	124.56
414.482	107.56
414.705	126.56
414.928	130.56
415.151	129.56
415.374	132.56
415.597	121.56
415.821	119.56
416.044	131.56
416.267	126.56
416.49	133.56
416.713	122.56
416.936	132.56
417.159	123.56
417.382	133.56
417.605	120.56
417.828	130.56
418.051	142.56
418.274	135.56
418.497	133.56
418.72	138.56
418.943	133.56
419.166	150.56
419.389	134.56
419.611	128.56
419.834	136.56
420.057	137.56
420.28	125.56
420.503	136.56
420.726	136.56
420.948	122.56
421.171	133.56
421.394	146.56
421.617	141.56
421.839	148.56
422.062	142.56
422.285	126.56
422.507	134.56
422.73	127.56
422.953	120.56
423.175	125.56
423.398	138.56
423.621	127.56
423.843	130.56
424.066	134.56
424.288	147.56
424.511	140.56
424.733	149.56
424.956	160.56
425.178	132.56
425.401	161.56
425.623	134.56
425.846	141.56
426.068	123.56
426.291	115.56
426.513	137.56
426.735	141.56
426.958	128.56
427.18	123.56
427.402	131.56
427.625	139.56
427.847	128.56
428.069	128.56
428.292	124.56
428.514	125.56
428.736	118.56
428.958	130.56
429.181	124.56
429.403	123.56
429.625	134.56
429.847	132.56
430.069	137.56
430.292	125.56
430.514	143.56
430.736	133.56
430.958	134.56
431.18	115.56
431.402	129.56
431.624	125.56
431.846	108.56
432.068	103.56
432.29	94.56
432.512	109.56
432.734	118.56
432.956	128.56
433.178	144.56
433.4	140.56
433.622	148.56
433.844	142.56
434.066	127.56
434.287	114.56
434.509	100.56
434.731	93.56
434.953	123.56
435.175	128.56
435.397	126.56
435.618	125.56
435.84	107.56
436.062	106.56
436.284	107.56
436.505	149.56
436.727	126.56
436.949	124.56
437.17	137.56
437.392	126.56
437.614	126.56
437.835	120.56
438.057	107.56
438.278	106.56
438.5	134.56
438.721	136.56
438.943	134.56
439.165	134.56
439.386	154.56
439.608	155.56
439.829	145.56
440.05	154.56
440.272	131.56
440.493	145.56
440.715	157.56
440.936	140.56
441.158	142.56
441.379	154.56
441.6	139.56
441.822	143.56
442.043	146.56
442.264	141.56
442.486	146.56
442.707	135.56
442.928	135.56
443.149	152.56
443.371	150.56
443.592	130.56
443.813	138.56
444.034	146.56
444.255	133.56
444.476	134.56
444.698	148.56
444.919	143.56
445.14	250.56
445.361	198.56
445.582	138.56
445.803	144.56
446.024	150.56
446.245	167.56
446.466	148.56
446.687	155.56
446.908	153.56
447.129	159.56
447.35	143.56
447.571	141.56
447.792	156.56
448.013	136.56
448.234	147.56
448.455	139.56
448.675	136.56
448.896	131.56
449.117	143.56
449.338	133.56
449.559	135.56
449.779	126.56
450	135.56
450.221	125.56
450.442	136.56
450.662	133.56
450.883	148.56
451.104	130.56
451.324	125.56
451.545	125.56
451.766	135.56
451.986	145.56
452.207	130.56
452.428	121.56
452.648	116.56
452.869	119.56
453.089	100.56
453.31	104.56
453.53	104.56
453.751	106.56
453.971	104.56
454.192	111.56
454.412	122.56
454.633	112.56
454.853	132.56
455.073	113.56
455.294	112.56
455.514	130.56
455.734	114.56
455.955	129.56
456.175	110.56
456.395	108.56
456.616	107.56
456.836	113.56
457.056	122.56
457.276	107.56
457.497	110.56
457.717	112.56
457.937	122.56
458.157	99.56
458.377	107.56
458.598	96.56
458.818	91.56
459.038	84.56
459.258	92.56
459.478	94.56
459.698	88.56
459.918	97.56
460.138	114.56
460.358	110.56
460.578	121.56
460.798	113.56
461.018	129.56
461.238	124.56
461.458	113.56
461.678	114.56
461.898	106.56
462.118	102.56
462.338	120.56
462.558	102.56
462.777	116.56
462.997	119.56
463.217	122.56
463.437	118.56
463.657	105.56
463.876	118.56
464.096	104.56
464.316	104.56
464.536	124.56
464.755	120.56
464.975	102.56
465.195	128.56
465.414	118.56
465.634	127.56
465.854	112.56
466.073	123.56
466.293	134.56
466.512	149.56
466.732	130.56
466.951	124.56
467.171	137.56
467.391	127.56
467.61	141.56
467.829	142.56
468.049	142.56
468.268	124.56
468.488	117.56
468.707	131.56
468.927	132.56
469.146	144.56
469.365	126.56
469.585	136.56
469.804	140.56
470.023	139.56
470.243	149.56
470.462	154.56
470.681	135.56
470.901	147.56
471.12	128.56
471.339	131.56
471.558	144.56
471.777	136.56
471.997	129.56
472.216	140.56
472.435	138.56
472.654	106.56
472.873	119.56
473.092	128.56
473.311	134.56
473.53	129.56
473.749	128.56
473.968	134.56
474.187	115.56
474.406	123.56
474.625	125.56
474.844	136.56
475.063	128.56
475.282	144.56
475.501	124.56
475.72	126.56
475.939	124.56
476.158	126.56
476.377	140.56
476.596	133.56
476.814	123.56
477.033	123.56
477.252	118.56
477.471	116.56
477.69	130.56
477.908	133.56
478.127	145.56
478.346	130.56
478.564	132.56
478.783	133.56
479.002	137.56
479.22	152.56
479.439	134.56
479.658	122.56
479.876	126.56
480.095	107.56
480.313	128.56
480.532	123.56
480.751	91.56
480.969	90.56
481.188	80.56
481.406	73.56
481.624	95.56
481.843	91.56
482.061	90.56
482.28	118.56
482.498	117.56
482.717	112.56
482.935	123.56
483.153	141.56
483.372	166.56
483.59	154.56
483.808	136.56
484.027	130.56
484.245	126.56
484.463	145.56
484.681	151.56
484.9	148.56
485.118	144.56
485.336	132.56
485.554	118.56
485.772	129.56
485.99	109.56
486.209	123.56
486.427	101.56
486.645	113.56
486.863	148.56
487.081	134.56
487.299	133.56
487.517	143.56
487.735	168.56
487.953	189.56
488.171	199.56
488.389	160.56
488.607	154.56
488.825	158.56
489.043	133.56
489.261	136.56
489.479	138.56
489.696	122.56
489.914	147.56
490.132	146.56
490.35	154.56
490.568	166.56
490.786	163.56
491.003	167.56
491.221	201.56
491.439	205.56
491.657	186.56
491.874	202.56
492.092	213.56
492.31	221.56
492.527	226.56
492.745	197.56
492.963	203.56
493.18	192.56
493.398	204.56
493.615	191.56
493.833	184.56
494.05	188.56
494.268	176.56
494.485	166.56
494.703	181.56
494.92	172.56
495.138	172.56
495.355	170.56
495.573	165.56
495.79	180.56
496.008	180.56
496.225	161.56
496.442	173.56
496.66	168.56
496.877	166.56
497.094	168.56
497.312	163.56
497.529	157.56
497.746	160.56
497.963	142.56
498.181	132.56
498.398	120.56
498.615	117.56
498.832	110.56
499.049	107.56
499.267	127.56
499.484	136.56
499.701	123.56
499.918	146.56
500.135	132.56
500.352	150.56
500.569	162.56
500.786	129.56
501.003	143.56
501.22	128.56
501.437	133.56
501.654	141.56
501.871	134.56
502.088	144.56
502.305	133.56
502.522	138.56
502.739	130.56
502.956	114.56
503.172	134.56
503.389	118.56
503.606	121.56
503.823	118.56
504.04	126.56
504.256	119.56
504.473	121.56
504.69	98.56
504.907	135.56
505.123	118.56
505.34	132.56
505.557	133.56
505.773	134.56
505.99	126.56
506.207	114.56
506.423	133.56
506.64	134.56
506.856	117.56
507.073	104.56
507.289	120.56
507.506	115.56
507.722	116.56
507.939	126.56
508.155	128.56
508.372	119.56
508.588	107.56
508.805	108.56
509.021	116.56
509.238	118.56
509.454	112.56
509.67	94.56
509.887	96.56
510.103	108.56
510.319	91.56
510.536	90.56
510.752	90.56
510.968	85.56
511.184	96.56
511.401	98.56
