Data from Location2.07152019.Energy5.Lamp.07192019.3%Agarose_HRD10591_14-58-20-360.txt Node
Date: Fri Jul 19 14:58:20 EDT 2019
User: cochatt
Spectrometer: HR+D1059
Trigger mode: 1
Integration Time (sec): 1.000000E-1
Scans to average: 1
Electric dark correction enabled: true
Nonlinearity correction enabled: false
Boxcar width: 0
XAxis mode: Wavelengths
Number of Pixels in Spectrum: 2048
>>>>>Begin Spectral Data<<<<<
223.165	-18.56
223.4	-18.56
223.635	-18.56
223.869	2.44
224.104	-21.56
224.338	-13.56
224.573	-32.56
224.808	-12.56
225.042	-5.56
225.277	-8.56
225.511	-10.56
225.746	17.44
225.98	6.44
226.215	7.44
226.449	17.44
226.683	27.44
226.918	16.44
227.152	28.44
227.387	24.44
227.621	40.44
227.856	31.44
228.09	43.44
228.324	50.44
228.559	60.44
228.793	65.44
229.027	68.44
229.262	65.44
229.496	61.44
229.73	58.44
229.964	66.44
230.199	67.44
230.433	70.44
230.667	71.44
230.901	72.44
231.136	74.44
231.37	83.44
231.604	55.44
231.838	75.44
232.072	82.44
232.306	69.44
232.541	72.44
232.775	77.44
233.009	68.44
233.243	80.44
233.477	87.44
233.711	79.44
233.945	84.44
234.179	89.44
234.413	89.44
234.647	82.44
234.881	79.44
235.115	83.44
235.349	70.44
235.583	70.44
235.817	76.44
236.051	88.44
236.285	61.44
236.519	91.44
236.753	72.44
236.987	85.44
237.221	78.44
237.455	70.44
237.689	90.44
237.922	76.44
238.156	62.44
238.39	78.44
238.624	80.44
238.858	68.44
239.091	75.44
239.325	63.44
239.559	89.44
239.793	70.44
240.027	71.44
240.26	65.44
240.494	86.44
240.728	83.44
240.961	67.44
241.195	76.44
241.429	90.44
241.662	72.44
241.896	80.44
242.13	58.44
242.363	77.44
242.597	84.44
242.83	64.44
243.064	87.44
243.298	85.44
243.531	70.44
243.765	80.44
243.998	80.44
244.232	80.44
244.465	80.44
244.699	79.44
244.932	82.44
245.166	89.44
245.399	82.44
245.633	82.44
245.866	82.44
246.099	68.44
246.333	76.44
246.566	78.44
246.8	74.44
247.033	68.44
247.266	75.44
247.5	81.44
247.733	78.44
247.966	89.44
248.2	75.44
248.433	74.44
248.666	86.44
248.899	89.44
249.133	75.44
249.366	71.44
249.599	70.44
249.832	95.44
250.066	74.44
250.299	63.44
250.532	82.44
250.765	85.44
250.998	68.44
251.231	73.44
251.465	80.44
251.698	83.44
251.931	92.44
252.164	82.44
252.397	75.44
252.63	86.44
252.863	89.44
253.096	85.44
253.329	105.44
253.562	76.44
253.795	74.44
254.028	88.44
254.261	73.44
254.494	77.44
254.727	96.44
254.96	77.44
255.193	88.44
255.426	89.44
255.659	67.44
255.892	76.44
256.124	72.44
256.357	62.44
256.59	75.44
256.823	76.44
257.056	75.44
257.289	76.44
257.521	77.44
257.754	66.44
257.987	75.44
258.22	68.44
258.452	78.44
258.685	69.44
258.918	72.44
259.151	88.44
259.383	89.44
259.616	80.44
259.849	91.44
260.081	73.44
260.314	75.44
260.547	76.44
260.779	63.44
261.012	71.44
261.244	90.44
261.477	80.44
261.71	80.44
261.942	84.44
262.175	86.44
262.407	86.44
262.64	90.44
262.872	89.44
263.105	84.44
263.337	96.44
263.57	90.44
263.802	76.44
264.035	84.44
264.267	72.44
264.499	81.44
264.732	79.44
264.964	80.44
265.197	69.44
265.429	81.44
265.661	99.44
265.894	92.44
266.126	97.44
266.358	83.44
266.591	80.44
266.823	89.44
267.055	81.44
267.287	81.44
267.52	95.44
267.752	85.44
267.984	77.44
268.216	67.44
268.448	85.44
268.681	90.44
268.913	82.44
269.145	88.44
269.377	80.44
269.609	73.44
269.841	73.44
270.073	72.44
270.306	87.44
270.538	74.44
270.77	71.44
271.002	85.44
271.234	76.44
271.466	77.44
271.698	84.44
271.93	80.44
272.162	80.44
272.394	90.44
272.626	86.44
272.858	87.44
273.09	84.44
273.322	78.44
273.553	73.44
273.785	78.44
274.017	84.44
274.249	86.44
274.481	83.44
274.713	77.44
274.945	79.44
275.176	83.44
275.408	83.44
275.64	68.44
275.872	74.44
276.104	75.44
276.335	84.44
276.567	88.44
276.799	85.44
277.031	92.44
277.262	84.44
277.494	80.44
277.726	82.44
277.957	90.44
278.189	67.44
278.421	82.44
278.652	91.44
278.884	85.44
279.115	75.44
279.347	72.44
279.579	73.44
279.81	87.44
280.042	82.44
280.273	78.44
280.505	73.44
280.736	83.44
280.968	88.44
281.199	93.44
281.431	79.44
281.662	87.44
281.894	82.44
282.125	97.44
282.356	90.44
282.588	80.44
282.819	81.44
283.051	80.44
283.282	89.44
283.513	90.44
283.745	91.44
283.976	80.44
284.207	75.44
284.439	78.44
284.67	86.44
284.901	77.44
285.132	83.44
285.364	82.44
285.595	81.44
285.826	98.44
286.057	83.44
286.288	70.44
286.52	92.44
286.751	86.44
286.982	85.44
287.213	79.44
287.444	82.44
287.675	74.44
287.906	80.44
288.138	83.44
288.369	80.44
288.6	85.44
288.831	90.44
289.062	80.44
289.293	78.44
289.524	79.44
289.755	89.44
289.986	74.44
290.217	82.44
290.448	104.44
290.679	94.44
290.91	86.44
291.141	65.44
291.371	78.44
291.602	80.44
291.833	88.44
292.064	90.44
292.295	91.44
292.526	88.44
292.757	67.44
292.987	82.44
293.218	80.44
293.449	81.44
293.68	78.44
293.91	65.44
294.141	82.44
294.372	90.44
294.603	97.44
294.833	92.44
295.064	82.44
295.295	86.44
295.525	91.44
295.756	85.44
295.987	78.44
296.217	98.44
296.448	85.44
296.679	98.44
296.909	88.44
297.14	86.44
297.37	97.44
297.601	84.44
297.831	66.44
298.062	74.44
298.292	82.44
298.523	80.44
298.753	79.44
298.984	85.44
299.214	77.44
299.445	73.44
299.675	86.44
299.905	89.44
300.136	72.44
300.366	83.44
300.597	74.44
300.827	83.44
301.057	86.44
301.288	82.44
301.518	85.44
301.748	82.44
301.979	90.44
302.209	88.44
302.439	77.44
302.669	75.44
302.9	73.44
303.13	84.44
303.36	72.44
303.59	81.44
303.82	84.44
304.051	81.44
304.281	73.44
304.511	84.44
304.741	100.44
304.971	71.44
305.201	68.44
305.431	77.44
305.661	72.44
305.891	85.44
306.121	78.44
306.352	87.44
306.582	75.44
306.812	83.44
307.042	79.44
307.272	84.44
307.502	86.44
307.731	95.44
307.961	83.44
308.191	92.44
308.421	93.44
308.651	102.44
308.881	91.44
309.111	82.44
309.341	82.44
309.571	83.44
309.8	78.44
310.03	86.44
310.26	87.44
310.49	87.44
310.72	78.44
310.949	86.44
311.179	79.44
311.409	79.44
311.639	84.44
311.868	84.44
312.098	86.44
312.328	85.44
312.557	83.44
312.787	78.44
313.017	72.44
313.246	84.44
313.476	83.44
313.706	77.44
313.935	78.44
314.165	91.44
314.394	94.44
314.624	87.44
314.853	89.44
315.083	89.44
315.312	89.44
315.542	88.44
315.771	81.44
316.001	88.44
316.23	86.44
316.46	85.44
316.689	75.44
316.919	90.44
317.148	95.44
317.377	84.44
317.607	82.44
317.836	79.44
318.065	86.44
318.295	82.44
318.524	98.44
318.753	77.44
318.983	82.44
319.212	79.44
319.441	70.44
319.67	87.44
319.9	67.44
320.129	78.44
320.358	78.44
320.587	82.44
320.816	88.44
321.046	77.44
321.275	80.44
321.504	79.44
321.733	80.44
321.962	83.44
322.191	83.44
322.42	91.44
322.649	85.44
322.878	97.44
323.108	87.44
323.337	87.44
323.566	79.44
323.795	88.44
324.024	76.44
324.253	74.44
324.482	75.44
324.71	84.44
324.939	82.44
325.168	79.44
325.397	92.44
325.626	90.44
325.855	82.44
326.084	95.44
326.313	80.44
326.542	82.44
326.77	79.44
326.999	78.44
327.228	74.44
327.457	79.44
327.686	75.44
327.914	87.44
328.143	95.44
328.372	81.44
328.6	72.44
328.829	71.44
329.058	88.44
329.287	80.44
329.515	87.44
329.744	88.44
329.972	84.44
330.201	89.44
330.43	79.44
330.658	84.44
330.887	81.44
331.115	69.44
331.344	89.44
331.572	95.44
331.801	77.44
332.03	79.44
332.258	69.44
332.486	81.44
332.715	83.44
332.943	78.44
333.172	87.44
333.4	75.44
333.629	86.44
333.857	82.44
334.085	76.44
334.314	78.44
334.542	87.44
334.771	93.44
334.999	79.44
335.227	71.44
335.455	81.44
335.684	86.44
335.912	77.44
336.14	87.44
336.369	84.44
336.597	74.44
336.825	84.44
337.053	72.44
337.281	73.44
337.51	86.44
337.738	78.44
337.966	85.44
338.194	72.44
338.422	88.44
338.65	99.44
338.878	81.44
339.106	94.44
339.334	95.44
339.562	66.44
339.79	71.44
340.018	81.44
340.246	92.44
340.474	75.44
340.702	82.44
340.93	85.44
341.158	88.44
341.386	87.44
341.614	80.44
341.842	86.44
342.07	75.44
342.298	86.44
342.526	87.44
342.754	80.44
342.981	96.44
343.209	101.44
343.437	64.44
343.665	84.44
343.893	90.44
344.12	80.44
344.348	67.44
344.576	84.44
344.804	77.44
345.031	81.44
345.259	83.44
345.487	87.44
345.714	74.44
345.942	100.44
346.17	97.44
346.397	82.44
346.625	86.44
346.853	82.44
347.08	77.44
347.308	80.44
347.535	81.44
347.763	87.44
347.99	95.44
348.218	93.44
348.445	94.44
348.673	73.44
348.9	78.44
349.128	73.44
349.355	95.44
349.583	72.44
349.81	96.44
350.037	75.44
350.265	79.44
350.492	87.44
350.72	78.44
350.947	78.44
351.174	68.44
351.402	81.44
351.629	77.44
351.856	94.44
352.083	89.44
352.311	97.44
352.538	82.44
352.765	74.44
352.992	79.44
353.22	75.44
353.447	86.44
353.674	85.44
353.901	87.44
354.128	86.44
354.355	95.44
354.583	75.44
354.81	74.44
355.037	76.44
355.264	67.44
355.491	90.44
355.718	90.44
355.945	74.44
356.172	67.44
356.399	77.44
356.626	74.44
356.853	74.44
357.08	86.44
357.307	83.44
357.534	87.44
357.761	80.44
357.988	85.44
358.215	87.44
358.441	83.44
358.668	82.44
358.895	83.44
359.122	82.44
359.349	81.44
359.576	68.44
359.802	73.44
360.029	86.44
360.256	70.44
360.483	80.44
360.709	76.44
360.936	81.44
361.163	81.44
361.39	88.44
361.616	77.44
361.843	65.44
362.07	101.44
362.296	87.44
362.523	69.44
362.749	80.44
362.976	69.44
363.203	70.44
363.429	84.44
363.656	89.44
363.882	87.44
364.109	90.44
364.335	83.44
364.562	87.44
364.788	98.44
365.015	84.44
365.241	92.44
365.468	78.44
365.694	72.44
365.92	82.44
366.147	70.44
366.373	70.44
366.599	86.44
366.826	88.44
367.052	81.44
367.278	80.44
367.505	86.44
367.731	90.44
367.957	74.44
368.184	82.44
368.41	75.44
368.636	83.44
368.862	95.44
369.089	88.44
369.315	91.44
369.541	83.44
369.767	89.44
369.993	81.44
370.219	80.44
370.445	84.44
370.672	89.44
370.898	93.44
371.124	87.44
371.35	96.44
371.576	94.44
371.802	99.44
372.028	83.44
372.254	81.44
372.48	90.44
372.706	87.44
372.932	86.44
373.158	102.44
373.384	86.44
373.61	94.44
373.835	94.44
374.061	89.44
374.287	90.44
374.513	94.44
374.739	91.44
374.965	77.44
375.191	84.44
375.416	82.44
375.642	86.44
375.868	108.44
376.094	85.44
376.319	93.44
376.545	92.44
376.771	86.44
376.997	83.44
377.222	74.44
377.448	81.44
377.674	79.44
377.899	88.44
378.125	88.44
378.35	100.44
378.576	85.44
378.802	86.44
379.027	96.44
379.253	101.44
379.478	87.44
379.704	107.44
379.929	91.44
380.155	108.44
380.38	105.44
380.606	105.44
380.831	99.44
381.057	102.44
381.282	94.44
381.507	91.44
381.733	86.44
381.958	89.44
382.184	70.44
382.409	105.44
382.634	90.44
382.86	83.44
383.085	101.44
383.31	98.44
383.535	98.44
383.761	90.44
383.986	95.44
384.211	96.44
384.436	95.44
384.662	81.44
384.887	81.44
385.112	88.44
385.337	83.44
385.562	88.44
385.787	92.44
386.013	102.44
386.238	96.44
386.463	83.44
386.688	90.44
386.913	103.44
387.138	93.44
387.363	102.44
387.588	96.44
387.813	91.44
388.038	97.44
388.263	98.44
388.488	98.44
388.713	100.44
388.938	111.44
389.163	93.44
389.387	80.44
389.612	90.44
389.837	87.44
390.062	92.44
390.287	102.44
390.512	105.44
390.736	99.44
390.961	93.44
391.186	92.44
391.411	110.44
391.636	110.44
391.86	100.44
392.085	94.44
392.31	106.44
392.534	105.44
392.759	93.44
392.984	102.44
393.208	110.44
393.433	91.44
393.658	100.44
393.882	96.44
394.107	106.44
394.331	93.44
394.556	95.44
394.78	110.44
395.005	96.44
395.229	106.44
395.454	78.44
395.678	101.44
395.903	97.44
396.127	91.44
396.352	111.44
396.576	110.44
396.801	100.44
397.025	98.44
397.249	105.44
397.474	118.44
397.698	106.44
397.922	87.44
398.147	112.44
398.371	126.44
398.595	113.44
398.82	112.44
399.044	108.44
399.268	114.44
399.492	107.44
399.717	119.44
399.941	97.44
400.165	104.44
400.389	112.44
400.613	97.44
400.837	99.44
401.062	112.44
401.286	104.44
401.51	116.44
401.734	94.44
401.958	116.44
402.182	116.44
402.406	124.44
402.63	113.44
402.854	124.44
403.078	115.44
403.302	108.44
403.526	112.44
403.75	108.44
403.974	119.44
404.198	115.44
404.422	113.44
404.645	110.44
404.869	109.44
405.093	137.44
405.317	121.44
405.541	106.44
405.765	99.44
405.988	124.44
406.212	122.44
406.436	119.44
406.66	119.44
406.883	120.44
407.107	115.44
407.331	128.44
407.555	105.44
407.778	130.44
408.002	123.44
408.226	121.44
408.449	112.44
408.673	117.44
408.896	117.44
409.12	122.44
409.344	108.44
409.567	98.44
409.791	124.44
410.014	117.44
410.238	117.44
410.461	116.44
410.685	114.44
410.908	112.44
411.132	121.44
411.355	121.44
411.578	123.44
411.802	135.44
412.025	119.44
412.249	122.44
412.472	120.44
412.695	121.44
412.919	120.44
413.142	133.44
413.365	115.44
413.589	114.44
413.812	107.44
414.035	116.44
414.258	129.44
414.482	125.44
414.705	116.44
414.928	114.44
415.151	110.44
415.374	122.44
415.597	115.44
415.821	111.44
416.044	118.44
416.267	111.44
416.49	117.44
416.713	112.44
416.936	130.44
417.159	121.44
417.382	131.44
417.605	118.44
417.828	118.44
418.051	120.44
418.274	115.44
418.497	116.44
418.72	124.44
418.943	133.44
419.166	142.44
419.389	123.44
419.611	121.44
419.834	119.44
420.057	132.44
420.28	120.44
420.503	124.44
420.726	123.44
420.948	134.44
421.171	113.44
421.394	142.44
421.617	135.44
421.839	139.44
422.062	151.44
422.285	126.44
422.507	134.44
422.73	110.44
422.953	129.44
423.175	96.44
423.398	119.44
423.621	130.44
423.843	132.44
424.066	132.44
424.288	139.44
424.511	138.44
424.733	136.44
424.956	141.44
425.178	125.44
425.401	131.44
425.623	126.44
425.846	133.44
426.068	123.44
426.291	131.44
426.513	122.44
426.735	129.44
426.958	140.44
427.18	130.44
427.402	138.44
427.625	118.44
427.847	137.44
428.069	124.44
428.292	124.44
428.514	130.44
428.736	130.44
428.958	137.44
429.181	118.44
429.403	126.44
429.625	129.44
429.847	127.44
430.069	117.44
430.292	123.44
430.514	118.44
430.736	118.44
430.958	131.44
431.18	123.44
431.402	128.44
431.624	112.44
431.846	93.44
432.068	94.44
432.29	90.44
432.512	102.44
432.734	112.44
432.956	128.44
433.178	128.44
433.4	130.44
433.622	146.44
433.844	124.44
434.066	121.44
434.287	125.44
434.509	87.44
434.731	87.44
434.953	105.44
435.175	124.44
435.397	121.44
435.618	117.44
435.84	112.44
436.062	111.44
436.284	127.44
436.505	122.44
436.727	118.44
436.949	119.44
437.17	125.44
437.392	121.44
437.614	133.44
437.835	91.44
438.057	109.44
438.278	120.44
438.5	112.44
438.721	138.44
438.943	138.44
439.165	130.44
439.386	140.44
439.608	147.44
439.829	150.44
440.05	142.44
440.272	137.44
440.493	140.44
440.715	135.44
440.936	140.44
441.158	140.44
441.379	150.44
441.6	138.44
441.822	138.44
442.043	138.44
442.264	140.44
442.486	133.44
442.707	151.44
442.928	144.44
443.149	153.44
443.371	144.44
443.592	139.44
443.813	140.44
444.034	141.44
444.255	146.44
444.476	131.44
444.698	126.44
444.919	134.44
445.14	276.44
445.361	196.44
445.582	147.44
445.803	152.44
446.024	149.44
446.245	133.44
446.466	138.44
446.687	147.44
446.908	170.44
447.129	160.44
447.35	139.44
447.571	148.44
447.792	138.44
448.013	159.44
448.234	142.44
448.455	144.44
448.675	134.44
448.896	134.44
449.117	119.44
449.338	126.44
449.559	136.44
449.779	149.44
450	124.44
450.221	127.44
450.442	140.44
450.662	123.44
450.883	128.44
451.104	138.44
451.324	133.44
451.545	137.44
451.766	130.44
451.986	115.44
452.207	110.44
452.428	107.44
452.648	130.44
452.869	114.44
453.089	96.44
453.31	103.44
453.53	108.44
453.751	106.44
453.971	96.44
454.192	90.44
454.412	118.44
454.633	115.44
454.853	118.44
455.073	127.44
455.294	119.44
455.514	117.44
455.734	119.44
455.955	118.44
456.175	99.44
456.395	112.44
456.616	112.44
456.836	106.44
457.056	106.44
457.276	111.44
457.497	104.44
457.717	89.44
457.937	91.44
458.157	103.44
458.377	111.44
458.598	107.44
458.818	92.44
459.038	75.44
459.258	83.44
459.478	94.44
459.698	91.44
459.918	95.44
460.138	95.44
460.358	113.44
460.578	104.44
460.798	123.44
461.018	106.44
461.238	114.44
461.458	118.44
461.678	124.44
461.898	102.44
462.118	112.44
462.338	110.44
462.558	115.44
462.777	114.44
462.997	104.44
463.217	114.44
463.437	107.44
463.657	104.44
463.876	104.44
464.096	94.44
464.316	107.44
464.536	105.44
464.755	117.44
464.975	120.44
465.195	129.44
465.414	120.44
465.634	112.44
465.854	114.44
466.073	117.44
466.293	128.44
466.512	124.44
466.732	134.44
466.951	114.44
467.171	133.44
467.391	124.44
467.61	141.44
467.829	138.44
468.049	130.44
468.268	138.44
468.488	136.44
468.707	139.44
468.927	139.44
469.146	132.44
469.365	145.44
469.585	137.44
469.804	135.44
470.023	128.44
470.243	121.44
470.462	148.44
470.681	142.44
470.901	141.44
471.12	134.44
471.339	145.44
471.558	123.44
471.777	140.44
471.997	132.44
472.216	124.44
472.435	105.44
472.654	107.44
472.873	102.44
473.092	102.44
473.311	111.44
473.53	126.44
473.749	127.44
473.968	126.44
474.187	121.44
474.406	102.44
474.625	109.44
474.844	132.44
475.063	134.44
475.282	134.44
475.501	131.44
475.72	115.44
475.939	115.44
476.158	122.44
476.377	135.44
476.596	113.44
476.814	120.44
477.033	98.44
477.252	116.44
477.471	105.44
477.69	130.44
477.908	138.44
478.127	140.44
478.346	132.44
478.564	138.44
478.783	150.44
479.002	143.44
479.22	146.44
479.439	137.44
479.658	120.44
479.876	118.44
480.095	112.44
480.313	115.44
480.532	119.44
480.751	109.44
480.969	94.44
481.188	80.44
481.406	96.44
481.624	81.44
481.843	82.44
482.061	91.44
482.28	103.44
482.498	112.44
482.717	106.44
482.935	115.44
483.153	134.44
483.372	140.44
483.59	147.44
483.808	138.44
484.027	119.44
484.245	141.44
484.463	131.44
484.681	154.44
484.9	138.44
485.118	131.44
485.336	138.44
485.554	108.44
485.772	107.44
485.99	104.44
486.209	109.44
486.427	122.44
486.645	122.44
486.863	138.44
487.081	146.44
487.299	122.44
487.517	149.44
487.735	160.44
487.953	190.44
488.171	178.44
488.389	168.44
488.607	157.44
488.825	137.44
489.043	136.44
489.261	130.44
489.479	123.44
489.696	131.44
489.914	151.44
490.132	150.44
490.35	158.44
490.568	155.44
490.786	160.44
491.003	165.44
491.221	192.44
491.439	193.44
491.657	187.44
491.874	207.44
492.092	218.44
492.31	220.44
492.527	224.44
492.745	209.44
492.963	193.44
493.18	180.44
493.398	182.44
493.615	170.44
493.833	167.44
494.05	182.44
494.268	172.44
494.485	170.44
494.703	173.44
494.92	162.44
495.138	172.44
495.355	179.44
495.573	175.44
495.79	168.44
496.008	174.44
496.225	170.44
496.442	153.44
496.66	163.44
496.877	169.44
497.094	164.44
497.312	150.44
497.529	156.44
497.746	163.44
497.963	137.44
498.181	126.44
498.398	128.44
498.615	104.44
498.832	120.44
499.049	121.44
499.267	124.44
499.484	132.44
499.701	122.44
499.918	128.44
500.135	130.44
500.352	148.44
500.569	138.44
500.786	146.44
501.003	135.44
501.22	158.44
501.437	146.44
501.654	139.44
501.871	136.44
502.088	130.44
502.305	130.44
502.522	123.44
502.739	123.44
502.956	134.44
503.172	123.44
503.389	114.44
503.606	122.44
503.823	126.44
504.04	117.44
504.256	110.44
504.473	124.44
504.69	122.44
504.907	122.44
505.123	117.44
505.34	112.44
505.557	133.44
505.773	122.44
505.99	120.44
506.207	119.44
506.423	119.44
506.64	119.44
506.856	119.44
507.073	106.44
507.289	120.44
507.506	118.44
507.722	118.44
507.939	121.44
508.155	130.44
508.372	110.44
508.588	107.44
508.805	107.44
509.021	100.44
509.238	114.44
509.454	93.44
509.67	105.44
509.887	103.44
510.103	108.44
510.319	98.44
510.536	95.44
510.752	95.44
510.968	95.44
511.184	79.44
511.401	92.44
511.617	97.44
511.833	97.44
512.049	89.44
