Data from Location2.07152019.Energy5.Lamp.07192019.3%Agarose_HRD10591_14-58-11-359.txt Node
Date: Fri Jul 19 14:58:11 EDT 2019
User: cochatt
Spectrometer: HR+D1059
Trigger mode: 1
Integration Time (sec): 1.000000E-1
Scans to average: 1
Electric dark correction enabled: true
Nonlinearity correction enabled: false
Boxcar width: 0
XAxis mode: Wavelengths
Number of Pixels in Spectrum: 2048
>>>>>Begin Spectral Data<<<<<
223.165	-7.44
223.4	-7.44
223.635	-7.44
223.869	-11.44
224.104	-21.44
224.338	-12.44
224.573	-12.44
224.808	-19.44
225.042	-15.44
225.277	-1.44
225.511	-5.44
225.746	-20.44
225.98	-0.44
226.215	2.56
226.449	24.56
226.683	24.56
226.918	28.56
227.152	47.56
227.387	25.56
227.621	37.56
227.856	35.56
228.09	47.56
228.324	37.56
228.559	62.56
228.793	54.56
229.027	62.56
229.262	60.56
229.496	70.56
229.73	65.56
229.964	62.56
230.199	74.56
230.433	78.56
230.667	72.56
230.901	79.56
231.136	67.56
231.37	74.56
231.604	73.56
231.838	82.56
232.072	88.56
232.306	86.56
232.541	94.56
232.775	88.56
233.009	64.56
233.243	73.56
233.477	80.56
233.711	86.56
233.945	81.56
234.179	86.56
234.413	72.56
234.647	83.56
234.881	74.56
235.115	71.56
235.349	94.56
235.583	90.56
235.817	83.56
236.051	68.56
236.285	65.56
236.519	76.56
236.753	91.56
236.987	71.56
237.221	77.56
237.455	69.56
237.689	74.56
237.922	77.56
238.156	71.56
238.39	79.56
238.624	78.56
238.858	73.56
239.091	63.56
239.325	77.56
239.559	81.56
239.793	75.56
240.027	77.56
240.26	75.56
240.494	74.56
240.728	71.56
240.961	79.56
241.195	75.56
241.429	73.56
241.662	74.56
241.896	69.56
242.13	76.56
242.363	81.56
242.597	82.56
242.83	75.56
243.064	88.56
243.298	86.56
243.531	84.56
243.765	83.56
243.998	84.56
244.232	81.56
244.465	73.56
244.699	71.56
244.932	84.56
245.166	91.56
245.399	67.56
245.633	82.56
245.866	79.56
246.099	81.56
246.333	76.56
246.566	88.56
246.8	77.56
247.033	79.56
247.266	80.56
247.5	78.56
247.733	82.56
247.966	78.56
248.2	80.56
248.433	89.56
248.666	80.56
248.899	88.56
249.133	81.56
249.366	81.56
249.599	77.56
249.832	84.56
250.066	85.56
250.299	91.56
250.532	97.56
250.765	71.56
250.998	90.56
251.231	75.56
251.465	93.56
251.698	87.56
251.931	86.56
252.164	88.56
252.397	72.56
252.63	75.56
252.863	79.56
253.096	77.56
253.329	70.56
253.562	75.56
253.795	66.56
254.028	94.56
254.261	89.56
254.494	80.56
254.727	75.56
254.96	74.56
255.193	78.56
255.426	68.56
255.659	71.56
255.892	82.56
256.124	95.56
256.357	85.56
256.59	53.56
256.823	88.56
257.056	84.56
257.289	84.56
257.521	80.56
257.754	77.56
257.987	68.56
258.22	88.56
258.452	86.56
258.685	86.56
258.918	78.56
259.151	72.56
259.383	68.56
259.616	65.56
259.849	77.56
260.081	89.56
260.314	77.56
260.547	80.56
260.779	87.56
261.012	71.56
261.244	78.56
261.477	83.56
261.71	73.56
261.942	81.56
262.175	83.56
262.407	81.56
262.64	84.56
262.872	79.56
263.105	88.56
263.337	81.56
263.57	86.56
263.802	75.56
264.035	81.56
264.267	82.56
264.499	72.56
264.732	86.56
264.964	90.56
265.197	82.56
265.429	97.56
265.661	95.56
265.894	88.56
266.126	87.56
266.358	74.56
266.591	81.56
266.823	69.56
267.055	80.56
267.287	83.56
267.52	91.56
267.752	88.56
267.984	80.56
268.216	82.56
268.448	82.56
268.681	72.56
268.913	84.56
269.145	82.56
269.377	83.56
269.609	76.56
269.841	67.56
270.073	87.56
270.306	106.56
270.538	61.56
270.77	80.56
271.002	89.56
271.234	73.56
271.466	69.56
271.698	87.56
271.93	90.56
272.162	98.56
272.394	83.56
272.626	77.56
272.858	83.56
273.09	83.56
273.322	82.56
273.553	83.56
273.785	88.56
274.017	85.56
274.249	87.56
274.481	94.56
274.713	83.56
274.945	77.56
275.176	87.56
275.408	85.56
275.64	80.56
275.872	102.56
276.104	105.56
276.335	91.56
276.567	76.56
276.799	88.56
277.031	66.56
277.262	83.56
277.494	86.56
277.726	91.56
277.957	83.56
278.189	89.56
278.421	93.56
278.652	83.56
278.884	98.56
279.115	91.56
279.347	87.56
279.579	81.56
279.81	97.56
280.042	93.56
280.273	85.56
280.505	94.56
280.736	81.56
280.968	90.56
281.199	81.56
281.431	80.56
281.662	92.56
281.894	77.56
282.125	78.56
282.356	85.56
282.588	81.56
282.819	99.56
283.051	90.56
283.282	85.56
283.513	84.56
283.745	82.56
283.976	77.56
284.207	78.56
284.439	89.56
284.67	90.56
284.901	76.56
285.132	78.56
285.364	76.56
285.595	80.56
285.826	82.56
286.057	75.56
286.288	93.56
286.52	76.56
286.751	80.56
286.982	85.56
287.213	85.56
287.444	73.56
287.675	89.56
287.906	80.56
288.138	69.56
288.369	82.56
288.6	93.56
288.831	85.56
289.062	85.56
289.293	81.56
289.524	78.56
289.755	85.56
289.986	85.56
290.217	85.56
290.448	92.56
290.679	85.56
290.91	93.56
291.141	81.56
291.371	68.56
291.602	79.56
291.833	81.56
292.064	81.56
292.295	89.56
292.526	92.56
292.757	89.56
292.987	91.56
293.218	86.56
293.449	89.56
293.68	84.56
293.91	73.56
294.141	95.56
294.372	96.56
294.603	87.56
294.833	101.56
295.064	86.56
295.295	79.56
295.525	77.56
295.756	76.56
295.987	80.56
296.217	101.56
296.448	75.56
296.679	70.56
296.909	67.56
297.14	75.56
297.37	101.56
297.601	86.56
297.831	96.56
298.062	81.56
298.292	77.56
298.523	89.56
298.753	79.56
298.984	84.56
299.214	81.56
299.445	87.56
299.675	84.56
299.905	90.56
300.136	96.56
300.366	88.56
300.597	77.56
300.827	88.56
301.057	67.56
301.288	86.56
301.518	100.56
301.748	67.56
301.979	89.56
302.209	74.56
302.439	78.56
302.669	92.56
302.9	71.56
303.13	90.56
303.36	98.56
303.59	75.56
303.82	95.56
304.051	91.56
304.281	88.56
304.511	102.56
304.741	85.56
304.971	98.56
305.201	93.56
305.431	83.56
305.661	88.56
305.891	88.56
306.121	88.56
306.352	79.56
306.582	73.56
306.812	79.56
307.042	68.56
307.272	91.56
307.502	71.56
307.731	85.56
307.961	93.56
308.191	82.56
308.421	96.56
308.651	75.56
308.881	89.56
309.111	72.56
309.341	79.56
309.571	97.56
309.8	85.56
310.03	83.56
310.26	77.56
310.49	84.56
310.72	79.56
310.949	84.56
311.179	80.56
311.409	93.56
311.639	88.56
311.868	97.56
312.098	80.56
312.328	77.56
312.557	83.56
312.787	87.56
313.017	90.56
313.246	96.56
313.476	80.56
313.706	81.56
313.935	95.56
314.165	85.56
314.394	80.56
314.624	79.56
314.853	91.56
315.083	92.56
315.312	88.56
315.542	88.56
315.771	90.56
316.001	81.56
316.23	90.56
316.46	87.56
316.689	90.56
316.919	81.56
317.148	100.56
317.377	97.56
317.607	88.56
317.836	78.56
318.065	79.56
318.295	95.56
318.524	85.56
318.753	92.56
318.983	83.56
319.212	80.56
319.441	93.56
319.67	81.56
319.9	83.56
320.129	78.56
320.358	78.56
320.587	87.56
320.816	74.56
321.046	80.56
321.275	90.56
321.504	80.56
321.733	77.56
321.962	93.56
322.191	85.56
322.42	92.56
322.649	77.56
322.878	85.56
323.108	84.56
323.337	87.56
323.566	85.56
323.795	76.56
324.024	80.56
324.253	87.56
324.482	98.56
324.71	77.56
324.939	79.56
325.168	96.56
325.397	97.56
325.626	88.56
325.855	92.56
326.084	84.56
326.313	83.56
326.542	101.56
326.77	95.56
326.999	84.56
327.228	100.56
327.457	82.56
327.686	87.56
327.914	87.56
328.143	91.56
328.372	89.56
328.6	97.56
328.829	82.56
329.058	84.56
329.287	74.56
329.515	88.56
329.744	87.56
329.972	77.56
330.201	70.56
330.43	78.56
330.658	77.56
330.887	70.56
331.115	85.56
331.344	80.56
331.572	95.56
331.801	87.56
332.03	76.56
332.258	72.56
332.486	87.56
332.715	92.56
332.943	92.56
333.172	76.56
333.4	77.56
333.629	74.56
333.857	89.56
334.085	93.56
334.314	74.56
334.542	75.56
334.771	81.56
334.999	95.56
335.227	93.56
335.455	87.56
335.684	84.56
335.912	89.56
336.14	90.56
336.369	95.56
336.597	82.56
336.825	82.56
337.053	84.56
337.281	82.56
337.51	80.56
337.738	75.56
337.966	78.56
338.194	91.56
338.422	84.56
338.65	91.56
338.878	97.56
339.106	96.56
339.334	87.56
339.562	87.56
339.79	83.56
340.018	85.56
340.246	82.56
340.474	81.56
340.702	79.56
340.93	82.56
341.158	68.56
341.386	87.56
341.614	78.56
341.842	94.56
342.07	75.56
342.298	89.56
342.526	82.56
342.754	87.56
342.981	91.56
343.209	80.56
343.437	90.56
343.665	74.56
343.893	75.56
344.12	70.56
344.348	76.56
344.576	81.56
344.804	86.56
345.031	67.56
345.259	76.56
345.487	88.56
345.714	79.56
345.942	66.56
346.17	91.56
346.397	68.56
346.625	88.56
346.853	85.56
347.08	81.56
347.308	96.56
347.535	89.56
347.763	84.56
347.99	83.56
348.218	80.56
348.445	81.56
348.673	93.56
348.9	94.56
349.128	91.56
349.355	98.56
349.583	95.56
349.81	81.56
350.037	76.56
350.265	80.56
350.492	88.56
350.72	72.56
350.947	84.56
351.174	82.56
351.402	83.56
351.629	92.56
351.856	98.56
352.083	81.56
352.311	73.56
352.538	81.56
352.765	80.56
352.992	98.56
353.22	85.56
353.447	74.56
353.674	80.56
353.901	80.56
354.128	91.56
354.355	87.56
354.583	96.56
354.81	92.56
355.037	77.56
355.264	80.56
355.491	83.56
355.718	82.56
355.945	75.56
356.172	85.56
356.399	90.56
356.626	86.56
356.853	74.56
357.08	89.56
357.307	95.56
357.534	75.56
357.761	81.56
357.988	79.56
358.215	93.56
358.441	84.56
358.668	87.56
358.895	82.56
359.122	89.56
359.349	76.56
359.576	98.56
359.802	89.56
360.029	91.56
360.256	73.56
360.483	95.56
360.709	85.56
360.936	91.56
361.163	88.56
361.39	73.56
361.616	81.56
361.843	81.56
362.07	87.56
362.296	77.56
362.523	73.56
362.749	85.56
362.976	87.56
363.203	83.56
363.429	81.56
363.656	87.56
363.882	79.56
364.109	78.56
364.335	84.56
364.562	91.56
364.788	92.56
365.015	78.56
365.241	83.56
365.468	100.56
365.694	82.56
365.92	90.56
366.147	79.56
366.373	89.56
366.599	82.56
366.826	81.56
367.052	72.56
367.278	87.56
367.505	91.56
367.731	84.56
367.957	74.56
368.184	89.56
368.41	77.56
368.636	97.56
368.862	106.56
369.089	85.56
369.315	87.56
369.541	99.56
369.767	80.56
369.993	67.56
370.219	81.56
370.445	76.56
370.672	93.56
370.898	98.56
371.124	84.56
371.35	96.56
371.576	93.56
371.802	92.56
372.028	96.56
372.254	111.56
372.48	90.56
372.706	97.56
372.932	103.56
373.158	90.56
373.384	106.56
373.61	86.56
373.835	104.56
374.061	98.56
374.287	91.56
374.513	101.56
374.739	91.56
374.965	95.56
375.191	85.56
375.416	90.56
375.642	102.56
375.868	99.56
376.094	98.56
376.319	89.56
376.545	97.56
376.771	106.56
376.997	95.56
377.222	92.56
377.448	97.56
377.674	84.56
377.899	88.56
378.125	86.56
378.35	100.56
378.576	98.56
378.802	98.56
379.027	96.56
379.253	103.56
379.478	101.56
379.704	88.56
379.929	90.56
380.155	87.56
380.38	92.56
380.606	84.56
380.831	97.56
381.057	104.56
381.282	92.56
381.507	86.56
381.733	87.56
381.958	91.56
382.184	85.56
382.409	89.56
382.634	90.56
382.86	92.56
383.085	104.56
383.31	100.56
383.535	102.56
383.761	89.56
383.986	101.56
384.211	90.56
384.436	85.56
384.662	95.56
384.887	106.56
385.112	99.56
385.337	101.56
385.562	97.56
385.787	90.56
386.013	96.56
386.238	95.56
386.463	83.56
386.688	80.56
386.913	95.56
387.138	107.56
387.363	112.56
387.588	99.56
387.813	102.56
388.038	96.56
388.263	114.56
388.488	95.56
388.713	105.56
388.938	113.56
389.163	116.56
389.387	89.56
389.612	84.56
389.837	98.56
390.062	98.56
390.287	106.56
390.512	90.56
390.736	97.56
390.961	102.56
391.186	103.56
391.411	112.56
391.636	117.56
391.86	105.56
392.085	100.56
392.31	95.56
392.534	104.56
392.759	99.56
392.984	100.56
393.208	96.56
393.433	100.56
393.658	120.56
393.882	108.56
394.107	100.56
394.331	112.56
394.556	119.56
394.78	128.56
395.005	108.56
395.229	95.56
395.454	112.56
395.678	103.56
395.903	116.56
396.127	105.56
396.352	103.56
396.576	112.56
396.801	100.56
397.025	90.56
397.249	103.56
397.474	120.56
397.698	102.56
397.922	108.56
398.147	101.56
398.371	111.56
398.595	114.56
398.82	100.56
399.044	106.56
399.268	116.56
399.492	107.56
399.717	105.56
399.941	109.56
400.165	112.56
400.389	100.56
400.613	117.56
400.837	110.56
401.062	117.56
401.286	90.56
401.51	104.56
401.734	115.56
401.958	100.56
402.182	111.56
402.406	113.56
402.63	112.56
402.854	122.56
403.078	119.56
403.302	111.56
403.526	104.56
403.75	119.56
403.974	121.56
404.198	105.56
404.422	125.56
404.645	129.56
404.869	125.56
405.093	122.56
405.317	116.56
405.541	113.56
405.765	111.56
405.988	131.56
406.212	124.56
406.436	120.56
406.66	110.56
406.883	120.56
407.107	120.56
407.331	124.56
407.555	120.56
407.778	113.56
408.002	123.56
408.226	116.56
408.449	118.56
408.673	121.56
408.896	120.56
409.12	110.56
409.344	125.56
409.567	119.56
409.791	111.56
410.014	110.56
410.238	120.56
410.461	115.56
410.685	111.56
410.908	112.56
411.132	117.56
411.355	118.56
411.578	122.56
411.802	123.56
412.025	124.56
412.249	117.56
412.472	116.56
412.695	115.56
412.919	124.56
413.142	118.56
413.365	117.56
413.589	112.56
413.812	121.56
414.035	122.56
414.258	135.56
414.482	115.56
414.705	129.56
414.928	120.56
415.151	121.56
415.374	128.56
415.597	123.56
415.821	122.56
416.044	123.56
416.267	127.56
416.49	119.56
416.713	129.56
416.936	124.56
417.159	136.56
417.382	125.56
417.605	141.56
417.828	131.56
418.051	113.56
418.274	139.56
418.497	133.56
418.72	136.56
418.943	140.56
419.166	135.56
419.389	140.56
419.611	144.56
419.834	130.56
420.057	134.56
420.28	140.56
420.503	150.56
420.726	130.56
420.948	123.56
421.171	132.56
421.394	119.56
421.617	133.56
421.839	137.56
422.062	150.56
422.285	143.56
422.507	116.56
422.73	142.56
422.953	130.56
423.175	127.56
423.398	122.56
423.621	123.56
423.843	130.56
424.066	128.56
424.288	132.56
424.511	150.56
424.733	158.56
424.956	152.56
425.178	132.56
425.401	134.56
425.623	127.56
425.846	132.56
426.068	133.56
426.291	124.56
426.513	121.56
426.735	130.56
426.958	117.56
427.18	140.56
427.402	141.56
427.625	132.56
427.847	119.56
428.069	141.56
428.292	123.56
428.514	125.56
428.736	140.56
428.958	127.56
429.181	119.56
429.403	131.56
429.625	120.56
429.847	133.56
430.069	133.56
430.292	107.56
430.514	127.56
430.736	124.56
430.958	136.56
431.18	135.56
431.402	125.56
431.624	128.56
431.846	118.56
432.068	98.56
432.29	101.56
432.512	104.56
432.734	128.56
432.956	136.56
433.178	127.56
433.4	150.56
433.622	135.56
433.844	123.56
434.066	135.56
434.287	115.56
434.509	131.56
434.731	104.56
434.953	102.56
435.175	122.56
435.397	115.56
435.618	121.56
435.84	123.56
436.062	120.56
436.284	130.56
436.505	119.56
436.727	121.56
436.949	112.56
437.17	123.56
437.392	129.56
437.614	126.56
437.835	121.56
438.057	122.56
438.278	108.56
438.5	127.56
438.721	115.56
438.943	144.56
439.165	137.56
439.386	137.56
439.608	151.56
439.829	152.56
440.05	146.56
440.272	144.56
440.493	147.56
440.715	136.56
440.936	162.56
441.158	130.56
441.379	142.56
441.6	135.56
441.822	136.56
442.043	132.56
442.264	152.56
442.486	127.56
442.707	136.56
442.928	121.56
443.149	127.56
443.371	141.56
443.592	141.56
443.813	140.56
444.034	149.56
444.255	150.56
444.476	121.56
444.698	131.56
444.919	155.56
445.14	261.56
445.361	191.56
445.582	147.56
445.803	152.56
446.024	154.56
446.245	155.56
446.466	172.56
446.687	165.56
446.908	151.56
447.129	158.56
447.35	159.56
447.571	150.56
447.792	141.56
448.013	144.56
448.234	142.56
448.455	145.56
448.675	138.56
448.896	136.56
449.117	132.56
449.338	137.56
449.559	136.56
449.779	142.56
450	137.56
450.221	119.56
450.442	135.56
450.662	144.56
450.883	130.56
451.104	148.56
451.324	131.56
451.545	138.56
451.766	132.56
451.986	131.56
452.207	127.56
452.428	116.56
452.648	141.56
452.869	122.56
453.089	115.56
453.31	113.56
453.53	109.56
453.751	111.56
453.971	100.56
454.192	105.56
454.412	109.56
454.633	122.56
454.853	129.56
455.073	120.56
455.294	127.56
455.514	128.56
455.734	116.56
455.955	115.56
456.175	123.56
456.395	115.56
456.616	117.56
456.836	111.56
457.056	115.56
457.276	102.56
457.497	114.56
457.717	106.56
457.937	112.56
458.157	112.56
458.377	104.56
458.598	85.56
458.818	95.56
459.038	79.56
459.258	86.56
459.478	90.56
459.698	86.56
459.918	101.56
460.138	96.56
460.358	107.56
460.578	125.56
460.798	105.56
461.018	115.56
461.238	113.56
461.458	119.56
461.678	113.56
461.898	114.56
462.118	124.56
462.338	122.56
462.558	121.56
462.777	102.56
462.997	108.56
463.217	97.56
463.437	107.56
463.657	101.56
463.876	104.56
464.096	98.56
464.316	105.56
464.536	112.56
464.755	121.56
464.975	111.56
465.195	105.56
465.414	115.56
465.634	116.56
465.854	101.56
466.073	121.56
466.293	130.56
466.512	123.56
466.732	134.56
466.951	142.56
467.171	137.56
467.391	127.56
467.61	126.56
467.829	141.56
468.049	129.56
468.268	124.56
468.488	124.56
468.707	133.56
468.927	152.56
469.146	133.56
469.365	140.56
469.585	124.56
469.804	132.56
470.023	135.56
470.243	141.56
470.462	141.56
470.681	146.56
470.901	133.56
471.12	129.56
471.339	138.56
471.558	136.56
471.777	133.56
471.997	132.56
472.216	122.56
472.435	119.56
472.654	116.56
472.873	115.56
473.092	114.56
473.311	116.56
473.53	125.56
473.749	129.56
473.968	143.56
474.187	135.56
474.406	131.56
474.625	124.56
474.844	133.56
475.063	131.56
475.282	131.56
475.501	123.56
475.72	118.56
475.939	109.56
476.158	129.56
476.377	124.56
476.596	113.56
476.814	123.56
477.033	101.56
477.252	105.56
477.471	127.56
477.69	140.56
477.908	138.56
478.127	142.56
478.346	131.56
478.564	142.56
478.783	138.56
479.002	143.56
479.22	128.56
479.439	127.56
479.658	116.56
479.876	111.56
480.095	118.56
480.313	114.56
480.532	116.56
480.751	111.56
480.969	94.56
481.188	92.56
481.406	78.56
481.624	91.56
481.843	98.56
482.061	103.56
482.28	108.56
482.498	121.56
482.717	115.56
482.935	134.56
483.153	147.56
483.372	154.56
483.59	153.56
483.808	139.56
484.027	117.56
484.245	141.56
484.463	134.56
484.681	152.56
484.9	144.56
485.118	124.56
485.336	126.56
485.554	117.56
485.772	92.56
485.99	98.56
486.209	114.56
486.427	119.56
486.645	116.56
486.863	143.56
487.081	122.56
487.299	155.56
487.517	148.56
487.735	158.56
487.953	188.56
488.171	179.56
488.389	163.56
488.607	149.56
488.825	127.56
489.043	125.56
489.261	128.56
489.479	153.56
489.696	129.56
489.914	156.56
490.132	145.56
490.35	162.56
490.568	159.56
490.786	165.56
491.003	173.56
491.221	175.56
491.439	195.56
491.657	191.56
491.874	208.56
492.092	210.56
492.31	235.56
492.527	233.56
492.745	205.56
492.963	202.56
493.18	192.56
493.398	177.56
493.615	176.56
493.833	177.56
494.05	178.56
494.268	176.56
494.485	179.56
494.703	183.56
494.92	168.56
495.138	178.56
495.355	184.56
495.573	177.56
495.79	159.56
496.008	161.56
496.225	155.56
496.442	159.56
496.66	163.56
496.877	167.56
497.094	163.56
497.312	142.56
497.529	160.56
497.746	132.56
497.963	128.56
498.181	131.56
498.398	129.56
498.615	127.56
498.832	109.56
499.049	118.56
499.267	134.56
499.484	122.56
499.701	133.56
499.918	128.56
500.135	147.56
500.352	147.56
500.569	135.56
500.786	141.56
501.003	143.56
501.22	143.56
501.437	136.56
501.654	141.56
501.871	124.56
502.088	131.56
502.305	135.56
502.522	127.56
502.739	131.56
502.956	124.56
503.172	114.56
503.389	114.56
503.606	111.56
503.823	128.56
504.04	108.56
504.256	116.56
504.473	106.56
504.69	100.56
504.907	138.56
505.123	115.56
505.34	125.56
505.557	125.56
505.773	123.56
505.99	103.56
506.207	129.56
506.423	111.56
506.64	120.56
506.856	124.56
507.073	120.56
507.289	128.56
507.506	123.56
507.722	121.56
507.939	116.56
508.155	110.56
508.372	103.56
508.588	117.56
508.805	110.56
509.021	92.56
509.238	97.56
509.454	102.56
509.67	103.56
509.887	92.56
510.103	93.56
510.319	102.56
510.536	92.56
510.752	84.56
510.968	96.56
511.184	96.56
511.401	84.56
511.617	72.56
