Data from Location2.07152019.Energy5.Lamp.07192019.3%Agarose_HRD10591_14-56-30-359.txt Node
Date: Fri Jul 19 14:56:30 EDT 2019
User: cochatt
Spectrometer: HR+D1059
Trigger mode: 1
Integration Time (sec): 1.000000E-1
Scans to average: 1
Electric dark correction enabled: true
Nonlinearity correction enabled: false
Boxcar width: 0
XAxis mode: Wavelengths
Number of Pixels in Spectrum: 2048
>>>>>Begin Spectral Data<<<<<
223.165	-17.44
223.4	-17.44
223.635	-17.44
223.869	-20.44
224.104	-23.44
224.338	-10.44
224.573	-15.44
224.808	-19.44
225.042	10.56
225.277	10.56
225.511	14.56
225.746	-0.44
225.98	8.56
226.215	13.56
226.449	11.56
226.683	8.56
226.918	20.56
227.152	8.56
227.387	38.56
227.621	44.56
227.856	45.56
228.09	58.56
228.324	44.56
228.559	43.56
228.793	37.56
229.027	53.56
229.262	71.56
229.496	66.56
229.73	70.56
229.964	57.56
230.199	75.56
230.433	63.56
230.667	81.56
230.901	73.56
231.136	73.56
231.37	70.56
231.604	71.56
231.838	70.56
232.072	89.56
232.306	68.56
232.541	84.56
232.775	93.56
233.009	80.56
233.243	73.56
233.477	74.56
233.711	84.56
233.945	70.56
234.179	77.56
234.413	75.56
234.647	93.56
234.881	69.56
235.115	74.56
235.349	63.56
235.583	85.56
235.817	72.56
236.051	57.56
236.285	54.56
236.519	85.56
236.753	76.56
236.987	84.56
237.221	84.56
237.455	67.56
237.689	68.56
237.922	81.56
238.156	72.56
238.39	81.56
238.624	62.56
238.858	74.56
239.091	64.56
239.325	72.56
239.559	67.56
239.793	68.56
240.027	77.56
240.26	62.56
240.494	74.56
240.728	61.56
240.961	68.56
241.195	76.56
241.429	82.56
241.662	57.56
241.896	68.56
242.13	70.56
242.363	76.56
242.597	84.56
242.83	78.56
243.064	78.56
243.298	66.56
243.531	72.56
243.765	74.56
243.998	55.56
244.232	74.56
244.465	80.56
244.699	72.56
244.932	81.56
245.166	78.56
245.399	72.56
245.633	81.56
245.866	76.56
246.099	78.56
246.333	66.56
246.566	71.56
246.8	86.56
247.033	82.56
247.266	65.56
247.5	67.56
247.733	71.56
247.966	64.56
248.2	63.56
248.433	74.56
248.666	66.56
248.899	71.56
249.133	83.56
249.366	79.56
249.599	74.56
249.832	71.56
250.066	81.56
250.299	75.56
250.532	101.56
250.765	68.56
250.998	78.56
251.231	75.56
251.465	67.56
251.698	77.56
251.931	76.56
252.164	58.56
252.397	86.56
252.63	79.56
252.863	78.56
253.096	58.56
253.329	75.56
253.562	74.56
253.795	77.56
254.028	69.56
254.261	65.56
254.494	84.56
254.727	70.56
254.96	84.56
255.193	78.56
255.426	89.56
255.659	67.56
255.892	75.56
256.124	69.56
256.357	71.56
256.59	81.56
256.823	79.56
257.056	78.56
257.289	89.56
257.521	78.56
257.754	88.56
257.987	70.56
258.22	87.56
258.452	73.56
258.685	73.56
258.918	75.56
259.151	81.56
259.383	81.56
259.616	87.56
259.849	77.56
260.081	64.56
260.314	73.56
260.547	76.56
260.779	65.56
261.012	82.56
261.244	84.56
261.477	95.56
261.71	82.56
261.942	88.56
262.175	80.56
262.407	72.56
262.64	73.56
262.872	73.56
263.105	83.56
263.337	74.56
263.57	84.56
263.802	88.56
264.035	80.56
264.267	80.56
264.499	78.56
264.732	80.56
264.964	74.56
265.197	64.56
265.429	86.56
265.661	92.56
265.894	85.56
266.126	72.56
266.358	80.56
266.591	74.56
266.823	85.56
267.055	82.56
267.287	62.56
267.52	82.56
267.752	82.56
267.984	86.56
268.216	89.56
268.448	84.56
268.681	89.56
268.913	76.56
269.145	78.56
269.377	87.56
269.609	84.56
269.841	85.56
270.073	79.56
270.306	74.56
270.538	68.56
270.77	79.56
271.002	90.56
271.234	88.56
271.466	96.56
271.698	82.56
271.93	74.56
272.162	85.56
272.394	80.56
272.626	72.56
272.858	85.56
273.09	88.56
273.322	68.56
273.553	72.56
273.785	92.56
274.017	88.56
274.249	85.56
274.481	78.56
274.713	64.56
274.945	86.56
275.176	79.56
275.408	88.56
275.64	85.56
275.872	81.56
276.104	80.56
276.335	72.56
276.567	82.56
276.799	81.56
277.031	83.56
277.262	93.56
277.494	87.56
277.726	79.56
277.957	74.56
278.189	73.56
278.421	73.56
278.652	77.56
278.884	77.56
279.115	94.56
279.347	89.56
279.579	93.56
279.81	93.56
280.042	96.56
280.273	89.56
280.505	82.56
280.736	88.56
280.968	101.56
281.199	76.56
281.431	71.56
281.662	89.56
281.894	88.56
282.125	82.56
282.356	84.56
282.588	80.56
282.819	73.56
283.051	88.56
283.282	66.56
283.513	88.56
283.745	84.56
283.976	74.56
284.207	86.56
284.439	65.56
284.67	72.56
284.901	77.56
285.132	97.56
285.364	80.56
285.595	62.56
285.826	64.56
286.057	78.56
286.288	88.56
286.52	87.56
286.751	73.56
286.982	93.56
287.213	74.56
287.444	84.56
287.675	86.56
287.906	70.56
288.138	84.56
288.369	86.56
288.6	78.56
288.831	72.56
289.062	92.56
289.293	71.56
289.524	81.56
289.755	78.56
289.986	84.56
290.217	86.56
290.448	93.56
290.679	89.56
290.91	90.56
291.141	74.56
291.371	81.56
291.602	88.56
291.833	85.56
292.064	87.56
292.295	86.56
292.526	84.56
292.757	77.56
292.987	86.56
293.218	91.56
293.449	92.56
293.68	87.56
293.91	84.56
294.141	86.56
294.372	84.56
294.603	81.56
294.833	74.56
295.064	69.56
295.295	68.56
295.525	85.56
295.756	84.56
295.987	84.56
296.217	87.56
296.448	91.56
296.679	96.56
296.909	73.56
297.14	90.56
297.37	77.56
297.601	93.56
297.831	76.56
298.062	85.56
298.292	86.56
298.523	89.56
298.753	80.56
298.984	88.56
299.214	89.56
299.445	86.56
299.675	67.56
299.905	88.56
300.136	95.56
300.366	84.56
300.597	71.56
300.827	82.56
301.057	80.56
301.288	83.56
301.518	87.56
301.748	78.56
301.979	80.56
302.209	87.56
302.439	77.56
302.669	77.56
302.9	72.56
303.13	84.56
303.36	89.56
303.59	74.56
303.82	72.56
304.051	93.56
304.281	89.56
304.511	96.56
304.741	87.56
304.971	74.56
305.201	93.56
305.431	92.56
305.661	83.56
305.891	81.56
306.121	81.56
306.352	91.56
306.582	88.56
306.812	78.56
307.042	89.56
307.272	83.56
307.502	89.56
307.731	74.56
307.961	82.56
308.191	75.56
308.421	84.56
308.651	65.56
308.881	82.56
309.111	71.56
309.341	75.56
309.571	81.56
309.8	77.56
310.03	79.56
310.26	86.56
310.49	82.56
310.72	77.56
310.949	77.56
311.179	106.56
311.409	86.56
311.639	84.56
311.868	78.56
312.098	89.56
312.328	73.56
312.557	75.56
312.787	98.56
313.017	81.56
313.246	93.56
313.476	70.56
313.706	69.56
313.935	82.56
314.165	77.56
314.394	78.56
314.624	82.56
314.853	90.56
315.083	84.56
315.312	75.56
315.542	85.56
315.771	82.56
316.001	81.56
316.23	75.56
316.46	88.56
316.689	74.56
316.919	74.56
317.148	80.56
317.377	86.56
317.607	80.56
317.836	93.56
318.065	81.56
318.295	79.56
318.524	85.56
318.753	78.56
318.983	81.56
319.212	87.56
319.441	74.56
319.67	84.56
319.9	93.56
320.129	82.56
320.358	73.56
320.587	82.56
320.816	74.56
321.046	80.56
321.275	103.56
321.504	78.56
321.733	87.56
321.962	86.56
322.191	79.56
322.42	77.56
322.649	85.56
322.878	81.56
323.108	84.56
323.337	78.56
323.566	74.56
323.795	84.56
324.024	81.56
324.253	88.56
324.482	72.56
324.71	86.56
324.939	81.56
325.168	74.56
325.397	89.56
325.626	70.56
325.855	72.56
326.084	84.56
326.313	89.56
326.542	84.56
326.77	76.56
326.999	97.56
327.228	76.56
327.457	74.56
327.686	88.56
327.914	102.56
328.143	89.56
328.372	85.56
328.6	81.56
328.829	83.56
329.058	80.56
329.287	90.56
329.515	78.56
329.744	70.56
329.972	84.56
330.201	74.56
330.43	91.56
330.658	70.56
330.887	67.56
331.115	90.56
331.344	87.56
331.572	92.56
331.801	69.56
332.03	92.56
332.258	101.56
332.486	95.56
332.715	86.56
332.943	84.56
333.172	86.56
333.4	67.56
333.629	68.56
333.857	85.56
334.085	70.56
334.314	75.56
334.542	69.56
334.771	71.56
334.999	96.56
335.227	81.56
335.455	75.56
335.684	73.56
335.912	87.56
336.14	79.56
336.369	74.56
336.597	77.56
336.825	84.56
337.053	74.56
337.281	87.56
337.51	71.56
337.738	76.56
337.966	75.56
338.194	72.56
338.422	87.56
338.65	83.56
338.878	85.56
339.106	89.56
339.334	83.56
339.562	96.56
339.79	89.56
340.018	88.56
340.246	77.56
340.474	69.56
340.702	70.56
340.93	89.56
341.158	85.56
341.386	81.56
341.614	73.56
341.842	88.56
342.07	90.56
342.298	86.56
342.526	100.56
342.754	94.56
342.981	89.56
343.209	89.56
343.437	87.56
343.665	79.56
343.893	79.56
344.12	83.56
344.348	59.56
344.576	71.56
344.804	77.56
345.031	77.56
345.259	81.56
345.487	84.56
345.714	86.56
345.942	79.56
346.17	73.56
346.397	89.56
346.625	58.56
346.853	90.56
347.08	71.56
347.308	78.56
347.535	92.56
347.763	78.56
347.99	74.56
348.218	101.56
348.445	84.56
348.673	74.56
348.9	85.56
349.128	84.56
349.355	76.56
349.583	79.56
349.81	73.56
350.037	83.56
350.265	71.56
350.492	69.56
350.72	72.56
350.947	77.56
351.174	85.56
351.402	85.56
351.629	82.56
351.856	74.56
352.083	72.56
352.311	76.56
352.538	85.56
352.765	73.56
352.992	85.56
353.22	72.56
353.447	62.56
353.674	86.56
353.901	77.56
354.128	75.56
354.355	81.56
354.583	78.56
354.81	78.56
355.037	78.56
355.264	85.56
355.491	68.56
355.718	65.56
355.945	75.56
356.172	72.56
356.399	92.56
356.626	69.56
356.853	66.56
357.08	94.56
357.307	97.56
357.534	71.56
357.761	83.56
357.988	85.56
358.215	78.56
358.441	88.56
358.668	81.56
358.895	86.56
359.122	85.56
359.349	76.56
359.576	83.56
359.802	86.56
360.029	73.56
360.256	66.56
360.483	88.56
360.709	80.56
360.936	80.56
361.163	74.56
361.39	82.56
361.616	65.56
361.843	81.56
362.07	89.56
362.296	64.56
362.523	83.56
362.749	78.56
362.976	82.56
363.203	87.56
363.429	68.56
363.656	76.56
363.882	75.56
364.109	92.56
364.335	79.56
364.562	80.56
364.788	69.56
365.015	88.56
365.241	72.56
365.468	92.56
365.694	74.56
365.92	80.56
366.147	90.56
366.373	80.56
366.599	81.56
366.826	69.56
367.052	77.56
367.278	76.56
367.505	91.56
367.731	92.56
367.957	87.56
368.184	91.56
368.41	92.56
368.636	94.56
368.862	89.56
369.089	84.56
369.315	98.56
369.541	86.56
369.767	85.56
369.993	81.56
370.219	89.56
370.445	79.56
370.672	73.56
370.898	81.56
371.124	84.56
371.35	81.56
371.576	87.56
371.802	85.56
372.028	97.56
372.254	102.56
372.48	86.56
372.706	82.56
372.932	86.56
373.158	81.56
373.384	87.56
373.61	70.56
373.835	77.56
374.061	80.56
374.287	92.56
374.513	94.56
374.739	90.56
374.965	90.56
375.191	85.56
375.416	92.56
375.642	94.56
375.868	100.56
376.094	90.56
376.319	81.56
376.545	82.56
376.771	89.56
376.997	92.56
377.222	99.56
377.448	77.56
377.674	95.56
377.899	82.56
378.125	99.56
378.35	97.56
378.576	94.56
378.802	91.56
379.027	88.56
379.253	93.56
379.478	94.56
379.704	101.56
379.929	80.56
380.155	92.56
380.38	79.56
380.606	86.56
380.831	95.56
381.057	105.56
381.282	94.56
381.507	80.56
381.733	89.56
381.958	83.56
382.184	87.56
382.409	99.56
382.634	85.56
382.86	92.56
383.085	98.56
383.31	92.56
383.535	90.56
383.761	106.56
383.986	94.56
384.211	94.56
384.436	90.56
384.662	101.56
384.887	73.56
385.112	90.56
385.337	96.56
385.562	88.56
385.787	99.56
386.013	114.56
386.238	111.56
386.463	109.56
386.688	95.56
386.913	83.56
387.138	95.56
387.363	95.56
387.588	94.56
387.813	98.56
388.038	101.56
388.263	95.56
388.488	103.56
388.713	101.56
388.938	104.56
389.163	103.56
389.387	97.56
389.612	98.56
389.837	98.56
390.062	97.56
390.287	108.56
390.512	102.56
390.736	99.56
390.961	98.56
391.186	105.56
391.411	109.56
391.636	96.56
391.86	103.56
392.085	105.56
392.31	105.56
392.534	101.56
392.759	99.56
392.984	106.56
393.208	103.56
393.433	88.56
393.658	105.56
393.882	109.56
394.107	98.56
394.331	100.56
394.556	108.56
394.78	108.56
395.005	89.56
395.229	113.56
395.454	97.56
395.678	100.56
395.903	111.56
396.127	102.56
396.352	93.56
396.576	109.56
396.801	112.56
397.025	103.56
397.249	105.56
397.474	118.56
397.698	101.56
397.922	110.56
398.147	116.56
398.371	109.56
398.595	110.56
398.82	100.56
399.044	96.56
399.268	102.56
399.492	97.56
399.717	91.56
399.941	101.56
400.165	112.56
400.389	113.56
400.613	104.56
400.837	94.56
401.062	108.56
401.286	108.56
401.51	114.56
401.734	108.56
401.958	112.56
402.182	122.56
402.406	84.56
402.63	98.56
402.854	104.56
403.078	117.56
403.302	96.56
403.526	103.56
403.75	114.56
403.974	124.56
404.198	102.56
404.422	110.56
404.645	120.56
404.869	108.56
405.093	117.56
405.317	119.56
405.541	113.56
405.765	117.56
405.988	106.56
406.212	106.56
406.436	121.56
406.66	103.56
406.883	110.56
407.107	116.56
407.331	120.56
407.555	102.56
407.778	109.56
408.002	112.56
408.226	110.56
408.449	108.56
408.673	121.56
408.896	105.56
409.12	122.56
409.344	95.56
409.567	112.56
409.791	121.56
410.014	110.56
410.238	117.56
410.461	109.56
410.685	114.56
410.908	108.56
411.132	128.56
411.355	121.56
411.578	123.56
411.802	116.56
412.025	131.56
412.249	119.56
412.472	112.56
412.695	105.56
412.919	124.56
413.142	114.56
413.365	114.56
413.589	109.56
413.812	117.56
414.035	115.56
414.258	113.56
414.482	113.56
414.705	121.56
414.928	124.56
415.151	111.56
415.374	118.56
415.597	119.56
415.821	113.56
416.044	119.56
416.267	108.56
416.49	128.56
416.713	129.56
416.936	125.56
417.159	117.56
417.382	115.56
417.605	112.56
417.828	124.56
418.051	121.56
418.274	121.56
418.497	126.56
418.72	140.56
418.943	129.56
419.166	137.56
419.389	136.56
419.611	136.56
419.834	143.56
420.057	117.56
420.28	135.56
420.503	124.56
420.726	136.56
420.948	130.56
421.171	128.56
421.394	139.56
421.617	129.56
421.839	128.56
422.062	128.56
422.285	124.56
422.507	121.56
422.73	118.56
422.953	116.56
423.175	120.56
423.398	112.56
423.621	121.56
423.843	125.56
424.066	127.56
424.288	130.56
424.511	136.56
424.733	128.56
424.956	135.56
425.178	133.56
425.401	124.56
425.623	131.56
425.846	135.56
426.068	122.56
426.291	112.56
426.513	133.56
426.735	108.56
426.958	132.56
427.18	126.56
427.402	151.56
427.625	120.56
427.847	130.56
428.069	119.56
428.292	116.56
428.514	123.56
428.736	135.56
428.958	134.56
429.181	124.56
429.403	126.56
429.625	137.56
429.847	111.56
430.069	126.56
430.292	125.56
430.514	120.56
430.736	145.56
430.958	122.56
431.18	123.56
431.402	127.56
431.624	111.56
431.846	104.56
432.068	100.56
432.29	110.56
432.512	85.56
432.734	116.56
432.956	124.56
433.178	128.56
433.4	129.56
433.622	123.56
433.844	135.56
434.066	116.56
434.287	112.56
434.509	104.56
434.731	120.56
434.953	112.56
435.175	131.56
435.397	138.56
435.618	104.56
435.84	114.56
436.062	117.56
436.284	122.56
436.505	132.56
436.727	122.56
436.949	126.56
437.17	131.56
437.392	117.56
437.614	117.56
437.835	102.56
438.057	120.56
438.278	120.56
438.5	122.56
438.721	121.56
438.943	125.56
439.165	135.56
439.386	126.56
439.608	134.56
439.829	130.56
440.05	156.56
440.272	136.56
440.493	133.56
440.715	149.56
440.936	128.56
441.158	134.56
441.379	142.56
441.6	140.56
441.822	133.56
442.043	137.56
442.264	131.56
442.486	140.56
442.707	142.56
442.928	128.56
443.149	132.56
443.371	128.56
443.592	122.56
443.813	122.56
444.034	136.56
444.255	134.56
444.476	146.56
444.698	122.56
444.919	161.56
445.14	275.56
445.361	197.56
445.582	154.56
445.803	147.56
446.024	126.56
446.245	137.56
446.466	144.56
446.687	157.56
446.908	158.56
447.129	138.56
447.35	136.56
447.571	156.56
447.792	141.56
448.013	132.56
448.234	137.56
448.455	134.56
448.675	131.56
448.896	135.56
449.117	130.56
449.338	109.56
449.559	144.56
449.779	139.56
450	122.56
450.221	142.56
450.442	129.56
450.662	130.56
450.883	126.56
451.104	120.56
451.324	119.56
451.545	121.56
451.766	117.56
451.986	128.56
452.207	132.56
452.428	110.56
452.648	122.56
452.869	118.56
453.089	116.56
453.31	109.56
453.53	112.56
453.751	97.56
453.971	91.56
454.192	96.56
454.412	112.56
454.633	107.56
454.853	142.56
455.073	105.56
455.294	117.56
455.514	125.56
455.734	124.56
455.955	103.56
456.175	106.56
456.395	93.56
456.616	99.56
456.836	108.56
457.056	102.56
457.276	109.56
457.497	104.56
457.717	105.56
457.937	109.56
458.157	97.56
458.377	100.56
458.598	107.56
458.818	93.56
459.038	78.56
459.258	97.56
459.478	73.56
459.698	83.56
459.918	91.56
460.138	93.56
460.358	112.56
460.578	125.56
460.798	116.56
461.018	121.56
461.238	112.56
461.458	116.56
461.678	105.56
461.898	118.56
462.118	112.56
462.338	121.56
462.558	102.56
462.777	117.56
462.997	103.56
463.217	108.56
463.437	108.56
463.657	98.56
463.876	105.56
464.096	117.56
464.316	126.56
464.536	115.56
464.755	118.56
464.975	109.56
465.195	105.56
465.414	117.56
465.634	120.56
465.854	102.56
466.073	110.56
466.293	121.56
466.512	120.56
466.732	109.56
466.951	110.56
467.171	138.56
467.391	128.56
467.61	133.56
467.829	122.56
468.049	139.56
468.268	124.56
468.488	133.56
468.707	116.56
468.927	132.56
469.146	127.56
469.365	134.56
469.585	132.56
469.804	133.56
470.023	121.56
470.243	137.56
470.462	129.56
470.681	136.56
470.901	129.56
471.12	125.56
471.339	143.56
471.558	149.56
471.777	149.56
471.997	138.56
472.216	112.56
472.435	116.56
472.654	112.56
472.873	110.56
473.092	106.56
473.311	124.56
473.53	117.56
473.749	112.56
473.968	115.56
474.187	132.56
474.406	123.56
474.625	128.56
474.844	143.56
475.063	121.56
475.282	118.56
475.501	123.56
475.72	118.56
475.939	116.56
476.158	121.56
476.377	139.56
476.596	124.56
476.814	108.56
477.033	112.56
477.252	103.56
477.471	120.56
477.69	134.56
477.908	127.56
478.127	146.56
478.346	142.56
478.564	125.56
478.783	126.56
479.002	122.56
479.22	140.56
479.439	136.56
479.658	119.56
479.876	127.56
480.095	108.56
480.313	110.56
480.532	106.56
480.751	111.56
480.969	89.56
481.188	96.56
481.406	75.56
481.624	78.56
481.843	75.56
482.061	92.56
482.28	105.56
482.498	113.56
482.717	92.56
482.935	116.56
483.153	138.56
483.372	152.56
483.59	150.56
483.808	143.56
484.027	133.56
484.245	124.56
484.463	150.56
484.681	141.56
484.9	130.56
485.118	130.56
485.336	129.56
485.554	111.56
485.772	108.56
485.99	117.56
486.209	108.56
486.427	94.56
486.645	122.56
486.863	133.56
487.081	147.56
487.299	135.56
487.517	135.56
487.735	170.56
487.953	160.56
488.171	182.56
488.389	174.56
488.607	149.56
488.825	151.56
489.043	132.56
489.261	131.56
489.479	142.56
489.696	141.56
489.914	147.56
490.132	128.56
490.35	144.56
490.568	148.56
490.786	164.56
491.003	181.56
491.221	177.56
491.439	190.56
491.657	197.56
491.874	188.56
492.092	197.56
492.31	243.56
492.527	219.56
492.745	205.56
492.963	194.56
493.18	176.56
493.398	189.56
493.615	168.56
493.833	183.56
494.05	158.56
494.268	152.56
494.485	168.56
494.703	176.56
494.92	178.56
495.138	176.56
495.355	174.56
495.573	163.56
495.79	182.56
496.008	177.56
496.225	167.56
496.442	173.56
496.66	162.56
496.877	163.56
497.094	170.56
497.312	167.56
497.529	138.56
497.746	144.56
497.963	134.56
498.181	135.56
498.398	135.56
498.615	112.56
498.832	105.56
499.049	116.56
499.267	128.56
499.484	121.56
499.701	134.56
499.918	137.56
500.135	125.56
500.352	139.56
500.569	150.56
500.786	145.56
501.003	136.56
501.22	139.56
501.437	142.56
501.654	140.56
501.871	141.56
502.088	129.56
502.305	120.56
502.522	142.56
502.739	125.56
502.956	124.56
503.172	120.56
503.389	128.56
503.606	129.56
503.823	120.56
504.04	128.56
504.256	101.56
504.473	119.56
504.69	120.56
504.907	116.56
505.123	123.56
505.34	122.56
505.557	121.56
505.773	122.56
505.99	115.56
506.207	113.56
506.423	110.56
506.64	126.56
506.856	125.56
507.073	106.56
507.289	113.56
507.506	112.56
507.722	108.56
507.939	110.56
508.155	106.56
508.372	116.56
508.588	118.56
508.805	109.56
509.021	99.56
509.238	117.56
509.454	106.56
509.67	82.56
509.887	89.56
510.103	88.56
510.319	93.56
510.536	92.56
510.752	81.56
510.968	85.56
511.184	80.56
511.401	78.56
511.617	76.56
511.833	90.56
512.049	90.56
