Data from Location2.07152019.Energy5.Lamp.07192019.3%Agarose_HRD10591_14-58-04-359.txt Node
Date: Fri Jul 19 14:58:04 EDT 2019
User: cochatt
Spectrometer: HR+D1059
Trigger mode: 1
Integration Time (sec): 1.000000E-1
Scans to average: 1
Electric dark correction enabled: true
Nonlinearity correction enabled: false
Boxcar width: 0
XAxis mode: Wavelengths
Number of Pixels in Spectrum: 2048
>>>>>Begin Spectral Data<<<<<
223.165	-23.62
223.4	-23.62
223.635	-23.62
223.869	-1.62
224.104	-9.62
224.338	-8.62
224.573	-21.62
224.808	-10.62
225.042	-2.62
225.277	0.38
225.511	-18.62
225.746	9.38
225.98	1.38
226.215	12.38
226.449	24.38
226.683	18.38
226.918	17.38
227.152	13.38
227.387	28.38
227.621	48.38
227.856	39.38
228.09	53.38
228.324	57.38
228.559	60.38
228.793	50.38
229.027	52.38
229.262	57.38
229.496	64.38
229.73	69.38
229.964	64.38
230.199	75.38
230.433	67.38
230.667	72.38
230.901	75.38
231.136	78.38
231.37	73.38
231.604	73.38
231.838	67.38
232.072	82.38
232.306	71.38
232.541	75.38
232.775	82.38
233.009	75.38
233.243	81.38
233.477	74.38
233.711	63.38
233.945	63.38
234.179	77.38
234.413	63.38
234.647	85.38
234.881	62.38
235.115	81.38
235.349	75.38
235.583	83.38
235.817	67.38
236.051	82.38
236.285	86.38
236.519	71.38
236.753	75.38
236.987	80.38
237.221	76.38
237.455	62.38
237.689	74.38
237.922	92.38
238.156	72.38
238.39	64.38
238.624	67.38
238.858	62.38
239.091	77.38
239.325	62.38
239.559	69.38
239.793	80.38
240.027	74.38
240.26	84.38
240.494	75.38
240.728	73.38
240.961	69.38
241.195	75.38
241.429	69.38
241.662	67.38
241.896	75.38
242.13	78.38
242.363	93.38
242.597	62.38
242.83	63.38
243.064	75.38
243.298	73.38
243.531	88.38
243.765	71.38
243.998	76.38
244.232	85.38
244.465	70.38
244.699	79.38
244.932	74.38
245.166	69.38
245.399	77.38
245.633	75.38
245.866	81.38
246.099	80.38
246.333	81.38
246.566	81.38
246.8	72.38
247.033	79.38
247.266	79.38
247.5	69.38
247.733	75.38
247.966	81.38
248.2	82.38
248.433	75.38
248.666	81.38
248.899	87.38
249.133	77.38
249.366	89.38
249.599	85.38
249.832	89.38
250.066	70.38
250.299	77.38
250.532	59.38
250.765	82.38
250.998	77.38
251.231	91.38
251.465	94.38
251.698	71.38
251.931	66.38
252.164	66.38
252.397	85.38
252.63	73.38
252.863	90.38
253.096	90.38
253.329	80.38
253.562	79.38
253.795	72.38
254.028	74.38
254.261	67.38
254.494	72.38
254.727	73.38
254.96	85.38
255.193	81.38
255.426	78.38
255.659	79.38
255.892	62.38
256.124	76.38
256.357	61.38
256.59	78.38
256.823	75.38
257.056	79.38
257.289	63.38
257.521	78.38
257.754	75.38
257.987	72.38
258.22	80.38
258.452	87.38
258.685	86.38
258.918	70.38
259.151	79.38
259.383	80.38
259.616	76.38
259.849	79.38
260.081	69.38
260.314	85.38
260.547	72.38
260.779	78.38
261.012	79.38
261.244	78.38
261.477	82.38
261.71	74.38
261.942	78.38
262.175	88.38
262.407	84.38
262.64	80.38
262.872	78.38
263.105	83.38
263.337	74.38
263.57	74.38
263.802	74.38
264.035	81.38
264.267	79.38
264.499	61.38
264.732	85.38
264.964	74.38
265.197	87.38
265.429	90.38
265.661	76.38
265.894	71.38
266.126	93.38
266.358	77.38
266.591	74.38
266.823	85.38
267.055	73.38
267.287	77.38
267.52	79.38
267.752	70.38
267.984	86.38
268.216	97.38
268.448	89.38
268.681	86.38
268.913	90.38
269.145	98.38
269.377	73.38
269.609	74.38
269.841	73.38
270.073	85.38
270.306	87.38
270.538	86.38
270.77	73.38
271.002	75.38
271.234	82.38
271.466	80.38
271.698	79.38
271.93	77.38
272.162	79.38
272.394	84.38
272.626	90.38
272.858	86.38
273.09	83.38
273.322	86.38
273.553	88.38
273.785	73.38
274.017	82.38
274.249	84.38
274.481	74.38
274.713	79.38
274.945	85.38
275.176	89.38
275.408	81.38
275.64	83.38
275.872	84.38
276.104	70.38
276.335	83.38
276.567	80.38
276.799	75.38
277.031	81.38
277.262	76.38
277.494	77.38
277.726	61.38
277.957	79.38
278.189	91.38
278.421	84.38
278.652	73.38
278.884	75.38
279.115	83.38
279.347	86.38
279.579	77.38
279.81	86.38
280.042	72.38
280.273	87.38
280.505	80.38
280.736	81.38
280.968	77.38
281.199	81.38
281.431	78.38
281.662	79.38
281.894	79.38
282.125	77.38
282.356	71.38
282.588	71.38
282.819	82.38
283.051	81.38
283.282	87.38
283.513	72.38
283.745	91.38
283.976	75.38
284.207	76.38
284.439	97.38
284.67	89.38
284.901	87.38
285.132	82.38
285.364	89.38
285.595	79.38
285.826	80.38
286.057	82.38
286.288	89.38
286.52	77.38
286.751	99.38
286.982	85.38
287.213	77.38
287.444	77.38
287.675	80.38
287.906	72.38
288.138	87.38
288.369	68.38
288.6	72.38
288.831	81.38
289.062	69.38
289.293	75.38
289.524	77.38
289.755	81.38
289.986	74.38
290.217	79.38
290.448	80.38
290.679	70.38
290.91	83.38
291.141	88.38
291.371	81.38
291.602	78.38
291.833	85.38
292.064	67.38
292.295	82.38
292.526	80.38
292.757	99.38
292.987	85.38
293.218	85.38
293.449	82.38
293.68	83.38
293.91	77.38
294.141	82.38
294.372	72.38
294.603	70.38
294.833	72.38
295.064	88.38
295.295	76.38
295.525	80.38
295.756	84.38
295.987	87.38
296.217	83.38
296.448	70.38
296.679	86.38
296.909	74.38
297.14	78.38
297.37	99.38
297.601	85.38
297.831	77.38
298.062	81.38
298.292	84.38
298.523	85.38
298.753	72.38
298.984	79.38
299.214	79.38
299.445	85.38
299.675	85.38
299.905	69.38
300.136	80.38
300.366	81.38
300.597	69.38
300.827	71.38
301.057	86.38
301.288	77.38
301.518	96.38
301.748	81.38
301.979	85.38
302.209	83.38
302.439	74.38
302.669	80.38
302.9	70.38
303.13	75.38
303.36	76.38
303.59	84.38
303.82	74.38
304.051	68.38
304.281	90.38
304.511	86.38
304.741	83.38
304.971	82.38
305.201	78.38
305.431	75.38
305.661	85.38
305.891	80.38
306.121	85.38
306.352	71.38
306.582	80.38
306.812	85.38
307.042	77.38
307.272	86.38
307.502	89.38
307.731	77.38
307.961	75.38
308.191	86.38
308.421	83.38
308.651	58.38
308.881	87.38
309.111	83.38
309.341	65.38
309.571	73.38
309.8	102.38
310.03	87.38
310.26	86.38
310.49	73.38
310.72	76.38
310.949	74.38
311.179	91.38
311.409	73.38
311.639	78.38
311.868	63.38
312.098	67.38
312.328	69.38
312.557	96.38
312.787	86.38
313.017	79.38
313.246	82.38
313.476	86.38
313.706	77.38
313.935	76.38
314.165	85.38
314.394	86.38
314.624	82.38
314.853	81.38
315.083	79.38
315.312	75.38
315.542	86.38
315.771	81.38
316.001	85.38
316.23	87.38
316.46	90.38
316.689	87.38
316.919	83.38
317.148	79.38
317.377	78.38
317.607	80.38
317.836	79.38
318.065	86.38
318.295	67.38
318.524	91.38
318.753	86.38
318.983	78.38
319.212	75.38
319.441	78.38
319.67	71.38
319.9	82.38
320.129	73.38
320.358	82.38
320.587	82.38
320.816	84.38
321.046	78.38
321.275	95.38
321.504	76.38
321.733	65.38
321.962	89.38
322.191	70.38
322.42	85.38
322.649	79.38
322.878	91.38
323.108	68.38
323.337	79.38
323.566	79.38
323.795	78.38
324.024	83.38
324.253	82.38
324.482	91.38
324.71	79.38
324.939	87.38
325.168	65.38
325.397	79.38
325.626	76.38
325.855	74.38
326.084	85.38
326.313	73.38
326.542	79.38
326.77	96.38
326.999	82.38
327.228	86.38
327.457	63.38
327.686	76.38
327.914	86.38
328.143	81.38
328.372	65.38
328.6	76.38
328.829	83.38
329.058	81.38
329.287	76.38
329.515	71.38
329.744	85.38
329.972	73.38
330.201	73.38
330.43	83.38
330.658	74.38
330.887	83.38
331.115	87.38
331.344	79.38
331.572	84.38
331.801	85.38
332.03	74.38
332.258	87.38
332.486	78.38
332.715	81.38
332.943	90.38
333.172	72.38
333.4	109.38
333.629	81.38
333.857	70.38
334.085	83.38
334.314	77.38
334.542	74.38
334.771	75.38
334.999	82.38
335.227	81.38
335.455	107.38
335.684	79.38
335.912	90.38
336.14	98.38
336.369	87.38
336.597	74.38
336.825	66.38
337.053	74.38
337.281	77.38
337.51	83.38
337.738	88.38
337.966	74.38
338.194	67.38
338.422	80.38
338.65	73.38
338.878	84.38
339.106	82.38
339.334	86.38
339.562	89.38
339.79	88.38
340.018	83.38
340.246	89.38
340.474	74.38
340.702	78.38
340.93	86.38
341.158	66.38
341.386	74.38
341.614	79.38
341.842	75.38
342.07	78.38
342.298	80.38
342.526	96.38
342.754	77.38
342.981	97.38
343.209	86.38
343.437	88.38
343.665	83.38
343.893	71.38
344.12	72.38
344.348	71.38
344.576	78.38
344.804	86.38
345.031	88.38
345.259	73.38
345.487	76.38
345.714	82.38
345.942	64.38
346.17	75.38
346.397	91.38
346.625	84.38
346.853	87.38
347.08	92.38
347.308	97.38
347.535	78.38
347.763	76.38
347.99	74.38
348.218	81.38
348.445	97.38
348.673	84.38
348.9	81.38
349.128	85.38
349.355	91.38
349.583	83.38
349.81	81.38
350.037	72.38
350.265	92.38
350.492	86.38
350.72	74.38
350.947	73.38
351.174	84.38
351.402	83.38
351.629	86.38
351.856	76.38
352.083	75.38
352.311	81.38
352.538	92.38
352.765	80.38
352.992	87.38
353.22	63.38
353.447	85.38
353.674	72.38
353.901	77.38
354.128	78.38
354.355	73.38
354.583	80.38
354.81	82.38
355.037	84.38
355.264	88.38
355.491	86.38
355.718	90.38
355.945	78.38
356.172	88.38
356.399	78.38
356.626	77.38
356.853	85.38
357.08	80.38
357.307	91.38
357.534	82.38
357.761	71.38
357.988	83.38
358.215	97.38
358.441	82.38
358.668	82.38
358.895	83.38
359.122	69.38
359.349	90.38
359.576	79.38
359.802	74.38
360.029	88.38
360.256	94.38
360.483	74.38
360.709	86.38
360.936	93.38
361.163	83.38
361.39	85.38
361.616	75.38
361.843	92.38
362.07	82.38
362.296	77.38
362.523	94.38
362.749	71.38
362.976	82.38
363.203	81.38
363.429	82.38
363.656	73.38
363.882	79.38
364.109	76.38
364.335	87.38
364.562	75.38
364.788	78.38
365.015	71.38
365.241	83.38
365.468	76.38
365.694	71.38
365.92	91.38
366.147	77.38
366.373	86.38
366.599	91.38
366.826	75.38
367.052	71.38
367.278	81.38
367.505	68.38
367.731	95.38
367.957	84.38
368.184	70.38
368.41	84.38
368.636	87.38
368.862	89.38
369.089	77.38
369.315	90.38
369.541	79.38
369.767	104.38
369.993	95.38
370.219	87.38
370.445	89.38
370.672	90.38
370.898	75.38
371.124	73.38
371.35	94.38
371.576	89.38
371.802	88.38
372.028	86.38
372.254	82.38
372.48	78.38
372.706	80.38
372.932	82.38
373.158	93.38
373.384	81.38
373.61	83.38
373.835	87.38
374.061	86.38
374.287	93.38
374.513	99.38
374.739	86.38
374.965	75.38
375.191	90.38
375.416	87.38
375.642	93.38
375.868	98.38
376.094	86.38
376.319	91.38
376.545	110.38
376.771	93.38
376.997	90.38
377.222	69.38
377.448	98.38
377.674	93.38
377.899	102.38
378.125	84.38
378.35	89.38
378.576	94.38
378.802	84.38
379.027	85.38
379.253	92.38
379.478	82.38
379.704	81.38
379.929	84.38
380.155	90.38
380.38	87.38
380.606	87.38
380.831	84.38
381.057	90.38
381.282	88.38
381.507	90.38
381.733	82.38
381.958	102.38
382.184	94.38
382.409	103.38
382.634	97.38
382.86	102.38
383.085	104.38
383.31	106.38
383.535	101.38
383.761	87.38
383.986	93.38
384.211	87.38
384.436	86.38
384.662	96.38
384.887	103.38
385.112	91.38
385.337	106.38
385.562	110.38
385.787	97.38
386.013	102.38
386.238	99.38
386.463	95.38
386.688	92.38
386.913	102.38
387.138	97.38
387.363	91.38
387.588	89.38
387.813	93.38
388.038	96.38
388.263	131.38
388.488	99.38
388.713	99.38
388.938	83.38
389.163	98.38
389.387	99.38
389.612	97.38
389.837	106.38
390.062	96.38
390.287	105.38
390.512	114.38
390.736	108.38
390.961	94.38
391.186	96.38
391.411	88.38
391.636	100.38
391.86	97.38
392.085	84.38
392.31	97.38
392.534	101.38
392.759	84.38
392.984	108.38
393.208	107.38
393.433	99.38
393.658	85.38
393.882	114.38
394.107	104.38
394.331	102.38
394.556	104.38
394.78	111.38
395.005	95.38
395.229	97.38
395.454	99.38
395.678	96.38
395.903	106.38
396.127	106.38
396.352	91.38
396.576	99.38
396.801	99.38
397.025	109.38
397.249	89.38
397.474	115.38
397.698	107.38
397.922	99.38
398.147	89.38
398.371	103.38
398.595	103.38
398.82	103.38
399.044	99.38
399.268	93.38
399.492	115.38
399.717	109.38
399.941	118.38
400.165	105.38
400.389	105.38
400.613	123.38
400.837	111.38
401.062	106.38
401.286	93.38
401.51	111.38
401.734	104.38
401.958	99.38
402.182	98.38
402.406	111.38
402.63	115.38
402.854	107.38
403.078	113.38
403.302	105.38
403.526	113.38
403.75	121.38
403.974	116.38
404.198	106.38
404.422	113.38
404.645	120.38
404.869	118.38
405.093	105.38
405.317	120.38
405.541	129.38
405.765	115.38
405.988	101.38
406.212	99.38
406.436	107.38
406.66	113.38
406.883	130.38
407.107	119.38
407.331	96.38
407.555	115.38
407.778	119.38
408.002	125.38
408.226	125.38
408.449	109.38
408.673	126.38
408.896	119.38
409.12	100.38
409.344	115.38
409.567	105.38
409.791	111.38
410.014	112.38
410.238	117.38
410.461	114.38
410.685	111.38
410.908	112.38
411.132	130.38
411.355	131.38
411.578	113.38
411.802	121.38
412.025	127.38
412.249	127.38
412.472	127.38
412.695	117.38
412.919	126.38
413.142	123.38
413.365	123.38
413.589	133.38
413.812	118.38
414.035	131.38
414.258	114.38
414.482	111.38
414.705	111.38
414.928	129.38
415.151	109.38
415.374	124.38
415.597	104.38
415.821	127.38
416.044	122.38
416.267	125.38
416.49	115.38
416.713	129.38
416.936	126.38
417.159	120.38
417.382	108.38
417.605	121.38
417.828	115.38
418.051	122.38
418.274	117.38
418.497	115.38
418.72	122.38
418.943	126.38
419.166	127.38
419.389	134.38
419.611	133.38
419.834	121.38
420.057	121.38
420.28	127.38
420.503	126.38
420.726	130.38
420.948	129.38
421.171	125.38
421.394	131.38
421.617	129.38
421.839	145.38
422.062	136.38
422.285	123.38
422.507	147.38
422.73	127.38
422.953	134.38
423.175	136.38
423.398	136.38
423.621	114.38
423.843	143.38
424.066	120.38
424.288	131.38
424.511	153.38
424.733	137.38
424.956	135.38
425.178	146.38
425.401	140.38
425.623	129.38
425.846	127.38
426.068	123.38
426.291	125.38
426.513	123.38
426.735	116.38
426.958	125.38
427.18	126.38
427.402	135.38
427.625	121.38
427.847	133.38
428.069	132.38
428.292	135.38
428.514	138.38
428.736	140.38
428.958	122.38
429.181	122.38
429.403	124.38
429.625	143.38
429.847	120.38
430.069	120.38
430.292	135.38
430.514	125.38
430.736	128.38
430.958	126.38
431.18	128.38
431.402	117.38
431.624	125.38
431.846	110.38
432.068	81.38
432.29	91.38
432.512	89.38
432.734	106.38
432.956	118.38
433.178	135.38
433.4	133.38
433.622	129.38
433.844	126.38
434.066	126.38
434.287	105.38
434.509	87.38
434.731	89.38
434.953	98.38
435.175	126.38
435.397	141.38
435.618	122.38
435.84	109.38
436.062	123.38
436.284	127.38
436.505	117.38
436.727	131.38
436.949	125.38
437.17	137.38
437.392	123.38
437.614	120.38
437.835	103.38
438.057	102.38
438.278	104.38
438.5	117.38
438.721	131.38
438.943	138.38
439.165	118.38
439.386	137.38
439.608	145.38
439.829	139.38
440.05	133.38
440.272	145.38
440.493	130.38
440.715	127.38
440.936	145.38
441.158	149.38
441.379	143.38
441.6	142.38
441.822	131.38
442.043	137.38
442.264	141.38
442.486	129.38
442.707	135.38
442.928	138.38
443.149	135.38
443.371	133.38
443.592	136.38
443.813	133.38
444.034	133.38
444.255	143.38
444.476	146.38
444.698	132.38
444.919	127.38
445.14	271.38
445.361	197.38
445.582	142.38
445.803	157.38
446.024	147.38
446.245	161.38
446.466	147.38
446.687	155.38
446.908	153.38
447.129	145.38
447.35	155.38
447.571	139.38
447.792	146.38
448.013	144.38
448.234	136.38
448.455	149.38
448.675	141.38
448.896	124.38
449.117	129.38
449.338	150.38
449.559	149.38
449.779	129.38
450	132.38
450.221	145.38
450.442	131.38
450.662	116.38
450.883	139.38
451.104	155.38
451.324	124.38
451.545	118.38
451.766	128.38
451.986	129.38
452.207	123.38
452.428	126.38
452.648	121.38
452.869	115.38
453.089	115.38
453.31	101.38
453.53	106.38
453.751	103.38
453.971	104.38
454.192	103.38
454.412	117.38
454.633	121.38
454.853	115.38
455.073	119.38
455.294	120.38
455.514	123.38
455.734	131.38
455.955	129.38
456.175	107.38
456.395	117.38
456.616	95.38
456.836	109.38
457.056	109.38
457.276	109.38
457.497	105.38
457.717	104.38
457.937	110.38
458.157	98.38
458.377	106.38
458.598	96.38
458.818	87.38
459.038	84.38
459.258	94.38
459.478	86.38
459.698	94.38
459.918	104.38
460.138	100.38
460.358	104.38
460.578	111.38
460.798	109.38
461.018	106.38
461.238	120.38
461.458	113.38
461.678	110.38
461.898	103.38
462.118	117.38
462.338	112.38
462.558	104.38
462.777	110.38
462.997	110.38
463.217	113.38
463.437	107.38
463.657	98.38
463.876	123.38
464.096	116.38
464.316	102.38
464.536	118.38
464.755	119.38
464.975	109.38
465.195	117.38
465.414	107.38
465.634	101.38
465.854	99.38
466.073	113.38
466.293	127.38
466.512	122.38
466.732	130.38
466.951	143.38
467.171	129.38
467.391	124.38
467.61	131.38
467.829	128.38
468.049	124.38
468.268	135.38
468.488	118.38
468.707	130.38
468.927	121.38
469.146	134.38
469.365	131.38
469.585	143.38
469.804	158.38
470.023	138.38
470.243	141.38
470.462	135.38
470.681	145.38
470.901	147.38
471.12	149.38
471.339	130.38
471.558	142.38
471.777	138.38
471.997	135.38
472.216	129.38
472.435	107.38
472.654	111.38
472.873	113.38
473.092	105.38
473.311	121.38
473.53	120.38
473.749	126.38
473.968	122.38
474.187	111.38
474.406	115.38
474.625	125.38
474.844	129.38
475.063	139.38
475.282	131.38
475.501	119.38
475.72	118.38
475.939	133.38
476.158	131.38
476.377	133.38
476.596	113.38
476.814	117.38
477.033	105.38
477.252	102.38
477.471	118.38
477.69	136.38
477.908	136.38
478.127	132.38
478.346	122.38
478.564	131.38
478.783	133.38
479.002	133.38
479.22	138.38
479.439	125.38
479.658	116.38
479.876	117.38
480.095	114.38
480.313	109.38
480.532	105.38
480.751	112.38
480.969	83.38
481.188	86.38
481.406	100.38
481.624	88.38
481.843	85.38
482.061	87.38
482.28	109.38
482.498	117.38
482.717	119.38
482.935	106.38
483.153	153.38
483.372	156.38
483.59	145.38
483.808	144.38
484.027	133.38
484.245	127.38
484.463	133.38
484.681	145.38
484.9	149.38
485.118	135.38
485.336	125.38
485.554	101.38
485.772	97.38
485.99	106.38
486.209	111.38
486.427	93.38
486.645	111.38
486.863	135.38
487.081	145.38
487.299	135.38
487.517	150.38
487.735	154.38
487.953	181.38
488.171	167.38
488.389	167.38
488.607	162.38
488.825	136.38
489.043	127.38
489.261	121.38
489.479	133.38
489.696	132.38
489.914	142.38
490.132	143.38
490.35	138.38
490.568	146.38
490.786	170.38
491.003	175.38
491.221	178.38
491.439	187.38
491.657	193.38
491.874	193.38
492.092	210.38
492.31	236.38
492.527	229.38
492.745	209.38
492.963	190.38
493.18	187.38
493.398	181.38
493.615	169.38
493.833	200.38
494.05	161.38
494.268	179.38
494.485	160.38
494.703	174.38
494.92	177.38
495.138	185.38
495.355	171.38
495.573	163.38
495.79	168.38
496.008	155.38
496.225	170.38
496.442	171.38
496.66	164.38
496.877	145.38
497.094	145.38
497.312	167.38
497.529	162.38
497.746	149.38
497.963	130.38
498.181	127.38
498.398	129.38
498.615	120.38
498.832	119.38
499.049	109.38
499.267	118.38
499.484	123.38
499.701	126.38
499.918	123.38
500.135	149.38
500.352	137.38
500.569	135.38
500.786	137.38
501.003	159.38
501.22	147.38
501.437	138.38
501.654	130.38
501.871	120.38
502.088	129.38
502.305	121.38
502.522	146.38
502.739	134.38
502.956	117.38
503.172	133.38
503.389	114.38
503.606	132.38
503.823	122.38
504.04	118.38
504.256	118.38
504.473	117.38
504.69	118.38
504.907	119.38
505.123	134.38
505.34	116.38
505.557	123.38
505.773	111.38
505.99	121.38
506.207	115.38
506.423	107.38
506.64	116.38
506.856	111.38
507.073	134.38
507.289	121.38
507.506	106.38
507.722	139.38
507.939	130.38
508.155	121.38
508.372	110.38
508.588	88.38
508.805	100.38
509.021	110.38
509.238	106.38
509.454	119.38
509.67	96.38
509.887	75.38
510.103	83.38
510.319	94.38
510.536	83.38
510.752	93.38
510.968	84.38
511.184	70.38
511.401	82.38
511.617	95.38
511.833	96.38
512.049	91.38
512.265	90.38
