Data from Location2.07152019.Energy5.Lamp.07192019.3%Agarose_HRD10591_14-58-35-359.txt Node
Date: Fri Jul 19 14:58:35 EDT 2019
User: cochatt
Spectrometer: HR+D1059
Trigger mode: 1
Integration Time (sec): 1.000000E-1
Scans to average: 1
Electric dark correction enabled: true
Nonlinearity correction enabled: false
Boxcar width: 0
XAxis mode: Wavelengths
Number of Pixels in Spectrum: 2048
>>>>>Begin Spectral Data<<<<<
223.165	-14.06
223.4	-14.06
223.635	-14.06
223.869	-18.06
224.104	-14.06
224.338	-6.06
224.573	-13.06
224.808	-17.06
225.042	-9.06
225.277	-15.06
225.511	0.94
225.746	-1.06
225.98	25.94
226.215	5.94
226.449	-0.06
226.683	16.94
226.918	27.94
227.152	29.94
227.387	26.94
227.621	12.94
227.856	39.94
228.09	46.94
228.324	46.94
228.559	66.94
228.793	48.94
229.027	64.94
229.262	80.94
229.496	57.94
229.73	69.94
229.964	78.94
230.199	66.94
230.433	56.94
230.667	69.94
230.901	75.94
231.136	70.94
231.37	91.94
231.604	88.94
231.838	81.94
232.072	76.94
232.306	76.94
232.541	73.94
232.775	80.94
233.009	72.94
233.243	79.94
233.477	97.94
233.711	79.94
233.945	74.94
234.179	76.94
234.413	81.94
234.647	81.94
234.881	89.94
235.115	66.94
235.349	79.94
235.583	102.94
235.817	86.94
236.051	72.94
236.285	65.94
236.519	87.94
236.753	80.94
236.987	90.94
237.221	73.94
237.455	79.94
237.689	81.94
237.922	81.94
238.156	67.94
238.39	90.94
238.624	78.94
238.858	87.94
239.091	75.94
239.325	57.94
239.559	63.94
239.793	82.94
240.027	74.94
240.26	74.94
240.494	77.94
240.728	70.94
240.961	76.94
241.195	68.94
241.429	73.94
241.662	72.94
241.896	80.94
242.13	85.94
242.363	74.94
242.597	74.94
242.83	81.94
243.064	79.94
243.298	74.94
243.531	78.94
243.765	69.94
243.998	81.94
244.232	63.94
244.465	61.94
244.699	71.94
244.932	81.94
245.166	71.94
245.399	83.94
245.633	73.94
245.866	73.94
246.099	59.94
246.333	81.94
246.566	70.94
246.8	86.94
247.033	75.94
247.266	70.94
247.5	70.94
247.733	88.94
247.966	80.94
248.2	88.94
248.433	86.94
248.666	71.94
248.899	79.94
249.133	72.94
249.366	81.94
249.599	69.94
249.832	72.94
250.066	83.94
250.299	87.94
250.532	78.94
250.765	69.94
250.998	86.94
251.231	77.94
251.465	74.94
251.698	64.94
251.931	87.94
252.164	78.94
252.397	79.94
252.63	90.94
252.863	79.94
253.096	77.94
253.329	74.94
253.562	71.94
253.795	76.94
254.028	75.94
254.261	75.94
254.494	83.94
254.727	80.94
254.96	91.94
255.193	79.94
255.426	65.94
255.659	78.94
255.892	94.94
256.124	76.94
256.357	81.94
256.59	89.94
256.823	77.94
257.056	78.94
257.289	73.94
257.521	71.94
257.754	69.94
257.987	62.94
258.22	87.94
258.452	90.94
258.685	90.94
258.918	86.94
259.151	91.94
259.383	106.94
259.616	92.94
259.849	81.94
260.081	77.94
260.314	77.94
260.547	70.94
260.779	84.94
261.012	59.94
261.244	90.94
261.477	83.94
261.71	77.94
261.942	88.94
262.175	84.94
262.407	82.94
262.64	81.94
262.872	84.94
263.105	89.94
263.337	87.94
263.57	74.94
263.802	74.94
264.035	74.94
264.267	75.94
264.499	87.94
264.732	69.94
264.964	89.94
265.197	66.94
265.429	81.94
265.661	80.94
265.894	88.94
266.126	87.94
266.358	94.94
266.591	89.94
266.823	72.94
267.055	79.94
267.287	86.94
267.52	65.94
267.752	71.94
267.984	79.94
268.216	76.94
268.448	81.94
268.681	80.94
268.913	80.94
269.145	66.94
269.377	77.94
269.609	67.94
269.841	70.94
270.073	82.94
270.306	88.94
270.538	83.94
270.77	70.94
271.002	82.94
271.234	76.94
271.466	75.94
271.698	95.94
271.93	62.94
272.162	70.94
272.394	99.94
272.626	100.94
272.858	92.94
273.09	94.94
273.322	71.94
273.553	77.94
273.785	94.94
274.017	69.94
274.249	87.94
274.481	82.94
274.713	81.94
274.945	74.94
275.176	82.94
275.408	96.94
275.64	74.94
275.872	81.94
276.104	78.94
276.335	78.94
276.567	72.94
276.799	90.94
277.031	85.94
277.262	79.94
277.494	93.94
277.726	83.94
277.957	102.94
278.189	72.94
278.421	78.94
278.652	98.94
278.884	79.94
279.115	73.94
279.347	87.94
279.579	77.94
279.81	74.94
280.042	84.94
280.273	86.94
280.505	95.94
280.736	80.94
280.968	91.94
281.199	91.94
281.431	88.94
281.662	78.94
281.894	80.94
282.125	95.94
282.356	68.94
282.588	89.94
282.819	89.94
283.051	60.94
283.282	78.94
283.513	90.94
283.745	76.94
283.976	77.94
284.207	77.94
284.439	92.94
284.67	93.94
284.901	83.94
285.132	79.94
285.364	77.94
285.595	81.94
285.826	75.94
286.057	87.94
286.288	73.94
286.52	84.94
286.751	83.94
286.982	84.94
287.213	96.94
287.444	89.94
287.675	74.94
287.906	71.94
288.138	67.94
288.369	87.94
288.6	85.94
288.831	89.94
289.062	86.94
289.293	86.94
289.524	85.94
289.755	77.94
289.986	80.94
290.217	83.94
290.448	95.94
290.679	93.94
290.91	81.94
291.141	82.94
291.371	86.94
291.602	81.94
291.833	74.94
292.064	88.94
292.295	93.94
292.526	78.94
292.757	84.94
292.987	100.94
293.218	72.94
293.449	84.94
293.68	83.94
293.91	88.94
294.141	91.94
294.372	71.94
294.603	63.94
294.833	84.94
295.064	72.94
295.295	75.94
295.525	75.94
295.756	81.94
295.987	78.94
296.217	79.94
296.448	81.94
296.679	86.94
296.909	76.94
297.14	80.94
297.37	78.94
297.601	91.94
297.831	90.94
298.062	78.94
298.292	73.94
298.523	84.94
298.753	83.94
298.984	77.94
299.214	101.94
299.445	86.94
299.675	86.94
299.905	90.94
300.136	84.94
300.366	72.94
300.597	87.94
300.827	71.94
301.057	88.94
301.288	87.94
301.518	81.94
301.748	93.94
301.979	84.94
302.209	79.94
302.439	73.94
302.669	88.94
302.9	78.94
303.13	81.94
303.36	80.94
303.59	71.94
303.82	78.94
304.051	82.94
304.281	84.94
304.511	89.94
304.741	80.94
304.971	87.94
305.201	92.94
305.431	74.94
305.661	87.94
305.891	81.94
306.121	91.94
306.352	97.94
306.582	76.94
306.812	80.94
307.042	73.94
307.272	89.94
307.502	87.94
307.731	73.94
307.961	92.94
308.191	92.94
308.421	78.94
308.651	80.94
308.881	88.94
309.111	81.94
309.341	80.94
309.571	86.94
309.8	99.94
310.03	76.94
310.26	79.94
310.49	73.94
310.72	85.94
310.949	82.94
311.179	83.94
311.409	89.94
311.639	86.94
311.868	82.94
312.098	82.94
312.328	86.94
312.557	80.94
312.787	74.94
313.017	85.94
313.246	83.94
313.476	75.94
313.706	88.94
313.935	94.94
314.165	88.94
314.394	95.94
314.624	80.94
314.853	79.94
315.083	63.94
315.312	88.94
315.542	79.94
315.771	81.94
316.001	65.94
316.23	85.94
316.46	85.94
316.689	97.94
316.919	88.94
317.148	90.94
317.377	99.94
317.607	85.94
317.836	94.94
318.065	83.94
318.295	74.94
318.524	100.94
318.753	75.94
318.983	71.94
319.212	98.94
319.441	88.94
319.67	93.94
319.9	83.94
320.129	90.94
320.358	83.94
320.587	92.94
320.816	93.94
321.046	81.94
321.275	94.94
321.504	85.94
321.733	73.94
321.962	90.94
322.191	74.94
322.42	86.94
322.649	87.94
322.878	87.94
323.108	81.94
323.337	86.94
323.566	94.94
323.795	81.94
324.024	88.94
324.253	93.94
324.482	86.94
324.71	87.94
324.939	74.94
325.168	87.94
325.397	78.94
325.626	83.94
325.855	82.94
326.084	83.94
326.313	83.94
326.542	89.94
326.77	83.94
326.999	92.94
327.228	95.94
327.457	80.94
327.686	81.94
327.914	77.94
328.143	73.94
328.372	79.94
328.6	89.94
328.829	66.94
329.058	75.94
329.287	85.94
329.515	87.94
329.744	91.94
329.972	86.94
330.201	79.94
330.43	86.94
330.658	87.94
330.887	86.94
331.115	72.94
331.344	82.94
331.572	93.94
331.801	80.94
332.03	83.94
332.258	87.94
332.486	85.94
332.715	98.94
332.943	81.94
333.172	89.94
333.4	82.94
333.629	91.94
333.857	86.94
334.085	87.94
334.314	79.94
334.542	89.94
334.771	87.94
334.999	85.94
335.227	78.94
335.455	79.94
335.684	70.94
335.912	78.94
336.14	78.94
336.369	76.94
336.597	86.94
336.825	96.94
337.053	97.94
337.281	102.94
337.51	80.94
337.738	83.94
337.966	78.94
338.194	94.94
338.422	87.94
338.65	87.94
338.878	78.94
339.106	84.94
339.334	87.94
339.562	81.94
339.79	81.94
340.018	89.94
340.246	84.94
340.474	83.94
340.702	80.94
340.93	73.94
341.158	89.94
341.386	81.94
341.614	103.94
341.842	72.94
342.07	81.94
342.298	73.94
342.526	80.94
342.754	95.94
342.981	70.94
343.209	79.94
343.437	93.94
343.665	89.94
343.893	95.94
344.12	98.94
344.348	75.94
344.576	79.94
344.804	88.94
345.031	76.94
345.259	83.94
345.487	93.94
345.714	80.94
345.942	70.94
346.17	76.94
346.397	77.94
346.625	84.94
346.853	72.94
347.08	100.94
347.308	99.94
347.535	87.94
347.763	82.94
347.99	81.94
348.218	79.94
348.445	82.94
348.673	75.94
348.9	87.94
349.128	72.94
349.355	88.94
349.583	77.94
349.81	83.94
350.037	80.94
350.265	81.94
350.492	89.94
350.72	81.94
350.947	87.94
351.174	84.94
351.402	85.94
351.629	83.94
351.856	82.94
352.083	85.94
352.311	82.94
352.538	80.94
352.765	94.94
352.992	109.94
353.22	86.94
353.447	69.94
353.674	79.94
353.901	79.94
354.128	78.94
354.355	84.94
354.583	74.94
354.81	77.94
355.037	91.94
355.264	90.94
355.491	78.94
355.718	93.94
355.945	86.94
356.172	84.94
356.399	89.94
356.626	86.94
356.853	77.94
357.08	74.94
357.307	83.94
357.534	79.94
357.761	93.94
357.988	88.94
358.215	91.94
358.441	81.94
358.668	75.94
358.895	81.94
359.122	91.94
359.349	85.94
359.576	78.94
359.802	83.94
360.029	79.94
360.256	89.94
360.483	87.94
360.709	87.94
360.936	83.94
361.163	85.94
361.39	87.94
361.616	84.94
361.843	88.94
362.07	95.94
362.296	87.94
362.523	86.94
362.749	79.94
362.976	86.94
363.203	83.94
363.429	82.94
363.656	88.94
363.882	84.94
364.109	74.94
364.335	79.94
364.562	75.94
364.788	81.94
365.015	88.94
365.241	76.94
365.468	77.94
365.694	92.94
365.92	100.94
366.147	77.94
366.373	103.94
366.599	86.94
366.826	90.94
367.052	97.94
367.278	86.94
367.505	89.94
367.731	84.94
367.957	96.94
368.184	78.94
368.41	86.94
368.636	99.94
368.862	82.94
369.089	84.94
369.315	78.94
369.541	96.94
369.767	79.94
369.993	93.94
370.219	94.94
370.445	87.94
370.672	82.94
370.898	96.94
371.124	82.94
371.35	92.94
371.576	98.94
371.802	78.94
372.028	100.94
372.254	80.94
372.48	83.94
372.706	92.94
372.932	84.94
373.158	89.94
373.384	88.94
373.61	84.94
373.835	89.94
374.061	72.94
374.287	100.94
374.513	98.94
374.739	83.94
374.965	93.94
375.191	85.94
375.416	92.94
375.642	98.94
375.868	94.94
376.094	91.94
376.319	89.94
376.545	85.94
376.771	84.94
376.997	80.94
377.222	83.94
377.448	101.94
377.674	95.94
377.899	102.94
378.125	95.94
378.35	80.94
378.576	95.94
378.802	96.94
379.027	95.94
379.253	90.94
379.478	95.94
379.704	94.94
379.929	113.94
380.155	89.94
380.38	97.94
380.606	86.94
380.831	93.94
381.057	98.94
381.282	94.94
381.507	103.94
381.733	95.94
381.958	105.94
382.184	110.94
382.409	89.94
382.634	103.94
382.86	80.94
383.085	91.94
383.31	90.94
383.535	94.94
383.761	89.94
383.986	105.94
384.211	90.94
384.436	109.94
384.662	87.94
384.887	91.94
385.112	99.94
385.337	90.94
385.562	86.94
385.787	86.94
386.013	94.94
386.238	107.94
386.463	102.94
386.688	107.94
386.913	97.94
387.138	97.94
387.363	97.94
387.588	92.94
387.813	108.94
388.038	94.94
388.263	108.94
388.488	96.94
388.713	93.94
388.938	102.94
389.163	94.94
389.387	101.94
389.612	97.94
389.837	105.94
390.062	104.94
390.287	114.94
390.512	118.94
390.736	103.94
390.961	109.94
391.186	94.94
391.411	98.94
391.636	110.94
391.86	100.94
392.085	93.94
392.31	106.94
392.534	90.94
392.759	90.94
392.984	101.94
393.208	122.94
393.433	109.94
393.658	111.94
393.882	98.94
394.107	109.94
394.331	109.94
394.556	102.94
394.78	85.94
395.005	109.94
395.229	97.94
395.454	96.94
395.678	117.94
395.903	109.94
396.127	111.94
396.352	101.94
396.576	113.94
396.801	87.94
397.025	107.94
397.249	103.94
397.474	110.94
397.698	114.94
397.922	105.94
398.147	103.94
398.371	97.94
398.595	101.94
398.82	120.94
399.044	99.94
399.268	101.94
399.492	107.94
399.717	105.94
399.941	103.94
400.165	104.94
400.389	103.94
400.613	130.94
400.837	103.94
401.062	103.94
401.286	105.94
401.51	106.94
401.734	110.94
401.958	100.94
402.182	117.94
402.406	109.94
402.63	114.94
402.854	99.94
403.078	118.94
403.302	105.94
403.526	127.94
403.75	105.94
403.974	114.94
404.198	114.94
404.422	118.94
404.645	111.94
404.869	113.94
405.093	110.94
405.317	102.94
405.541	125.94
405.765	132.94
405.988	132.94
406.212	112.94
406.436	111.94
406.66	112.94
406.883	125.94
407.107	114.94
407.331	111.94
407.555	128.94
407.778	121.94
408.002	117.94
408.226	117.94
408.449	117.94
408.673	118.94
408.896	130.94
409.12	115.94
409.344	113.94
409.567	123.94
409.791	115.94
410.014	126.94
410.238	122.94
410.461	112.94
410.685	122.94
410.908	119.94
411.132	111.94
411.355	134.94
411.578	121.94
411.802	131.94
412.025	109.94
412.249	124.94
412.472	117.94
412.695	121.94
412.919	117.94
413.142	117.94
413.365	120.94
413.589	120.94
413.812	118.94
414.035	123.94
414.258	118.94
414.482	105.94
414.705	120.94
414.928	123.94
415.151	120.94
415.374	129.94
415.597	112.94
415.821	111.94
416.044	120.94
416.267	120.94
416.49	132.94
416.713	129.94
416.936	127.94
417.159	114.94
417.382	125.94
417.605	126.94
417.828	117.94
418.051	121.94
418.274	114.94
418.497	114.94
418.72	127.94
418.943	109.94
419.166	132.94
419.389	146.94
419.611	129.94
419.834	122.94
420.057	119.94
420.28	127.94
420.503	121.94
420.726	126.94
420.948	127.94
421.171	126.94
421.394	138.94
421.617	152.94
421.839	145.94
422.062	143.94
422.285	125.94
422.507	137.94
422.73	112.94
422.953	111.94
423.175	120.94
423.398	123.94
423.621	117.94
423.843	138.94
424.066	125.94
424.288	147.94
424.511	144.94
424.733	140.94
424.956	119.94
425.178	125.94
425.401	133.94
425.623	135.94
425.846	134.94
426.068	126.94
426.291	129.94
426.513	133.94
426.735	131.94
426.958	133.94
427.18	131.94
427.402	136.94
427.625	138.94
427.847	130.94
428.069	119.94
428.292	128.94
428.514	115.94
428.736	122.94
428.958	119.94
429.181	122.94
429.403	134.94
429.625	126.94
429.847	131.94
430.069	136.94
430.292	119.94
430.514	120.94
430.736	121.94
430.958	116.94
431.18	124.94
431.402	123.94
431.624	112.94
431.846	103.94
432.068	105.94
432.29	107.94
432.512	106.94
432.734	113.94
432.956	130.94
433.178	130.94
433.4	121.94
433.622	125.94
433.844	125.94
434.066	109.94
434.287	99.94
434.509	96.94
434.731	104.94
434.953	122.94
435.175	121.94
435.397	127.94
435.618	108.94
435.84	117.94
436.062	91.94
436.284	123.94
436.505	125.94
436.727	117.94
436.949	130.94
437.17	122.94
437.392	127.94
437.614	114.94
437.835	125.94
438.057	98.94
438.278	123.94
438.5	114.94
438.721	148.94
438.943	137.94
439.165	132.94
439.386	138.94
439.608	138.94
439.829	129.94
440.05	139.94
440.272	142.94
440.493	132.94
440.715	137.94
440.936	136.94
441.158	130.94
441.379	141.94
441.6	143.94
441.822	161.94
442.043	148.94
442.264	136.94
442.486	131.94
442.707	146.94
442.928	119.94
443.149	141.94
443.371	129.94
443.592	143.94
443.813	129.94
444.034	143.94
444.255	140.94
444.476	135.94
444.698	151.94
444.919	138.94
445.14	215.94
445.361	183.94
445.582	154.94
445.803	154.94
446.024	155.94
446.245	151.94
446.466	144.94
446.687	147.94
446.908	157.94
447.129	159.94
447.35	145.94
447.571	161.94
447.792	127.94
448.013	165.94
448.234	151.94
448.455	147.94
448.675	126.94
448.896	136.94
449.117	134.94
449.338	145.94
449.559	135.94
449.779	131.94
450	135.94
450.221	131.94
450.442	148.94
450.662	135.94
450.883	127.94
451.104	127.94
451.324	119.94
451.545	120.94
451.766	124.94
451.986	123.94
452.207	120.94
452.428	132.94
452.648	120.94
452.869	138.94
453.089	122.94
453.31	103.94
453.53	109.94
453.751	101.94
453.971	109.94
454.192	109.94
454.412	103.94
454.633	104.94
454.853	128.94
455.073	103.94
455.294	109.94
455.514	112.94
455.734	117.94
455.955	118.94
456.175	112.94
456.395	110.94
456.616	105.94
456.836	111.94
457.056	113.94
457.276	107.94
457.497	115.94
457.717	101.94
457.937	117.94
458.157	97.94
458.377	99.94
458.598	87.94
458.818	90.94
459.038	80.94
459.258	97.94
459.478	98.94
459.698	93.94
459.918	91.94
460.138	100.94
460.358	118.94
460.578	117.94
460.798	112.94
461.018	110.94
461.238	123.94
461.458	116.94
461.678	109.94
461.898	117.94
462.118	107.94
462.338	117.94
462.558	119.94
462.777	113.94
462.997	116.94
463.217	109.94
463.437	104.94
463.657	109.94
463.876	98.94
464.096	110.94
464.316	107.94
464.536	98.94
464.755	101.94
464.975	123.94
465.195	118.94
465.414	96.94
465.634	103.94
465.854	118.94
466.073	102.94
466.293	117.94
466.512	118.94
466.732	117.94
466.951	139.94
467.171	135.94
467.391	139.94
467.61	121.94
467.829	119.94
468.049	129.94
468.268	122.94
468.488	133.94
468.707	143.94
468.927	127.94
469.146	125.94
469.365	158.94
469.585	152.94
469.804	143.94
470.023	132.94
470.243	133.94
470.462	148.94
470.681	147.94
470.901	132.94
471.12	147.94
471.339	138.94
471.558	128.94
471.777	161.94
471.997	124.94
472.216	121.94
472.435	128.94
472.654	106.94
472.873	103.94
473.092	110.94
473.311	117.94
473.53	114.94
473.749	119.94
473.968	134.94
474.187	121.94
474.406	116.94
474.625	126.94
474.844	118.94
475.063	138.94
475.282	127.94
475.501	126.94
475.72	113.94
475.939	117.94
476.158	128.94
476.377	116.94
476.596	115.94
476.814	96.94
477.033	104.94
477.252	119.94
477.471	122.94
477.69	125.94
477.908	133.94
478.127	130.94
478.346	143.94
478.564	139.94
478.783	145.94
479.002	138.94
479.22	135.94
479.439	136.94
479.658	130.94
479.876	117.94
480.095	115.94
480.313	118.94
480.532	122.94
480.751	111.94
480.969	101.94
481.188	93.94
481.406	96.94
481.624	89.94
481.843	88.94
482.061	104.94
482.28	115.94
482.498	93.94
482.717	103.94
482.935	110.94
483.153	133.94
483.372	155.94
483.59	151.94
483.808	146.94
484.027	138.94
484.245	127.94
484.463	146.94
484.681	149.94
484.9	157.94
485.118	133.94
485.336	133.94
485.554	115.94
485.772	99.94
485.99	109.94
486.209	125.94
486.427	112.94
486.645	117.94
486.863	145.94
487.081	143.94
487.299	138.94
487.517	141.94
487.735	144.94
487.953	178.94
488.171	177.94
488.389	174.94
488.607	151.94
488.825	127.94
489.043	129.94
489.261	130.94
489.479	137.94
489.696	147.94
489.914	127.94
490.132	127.94
490.35	131.94
490.568	168.94
490.786	171.94
491.003	165.94
491.221	163.94
491.439	174.94
491.657	184.94
491.874	209.94
492.092	218.94
492.31	230.94
492.527	217.94
492.745	194.94
492.963	187.94
493.18	186.94
493.398	208.94
493.615	184.94
493.833	171.94
494.05	182.94
494.268	166.94
494.485	166.94
494.703	168.94
494.92	180.94
495.138	167.94
495.355	174.94
495.573	170.94
495.79	152.94
496.008	177.94
496.225	165.94
496.442	173.94
496.66	166.94
496.877	159.94
497.094	158.94
497.312	161.94
497.529	146.94
497.746	156.94
497.963	143.94
498.181	123.94
498.398	121.94
498.615	113.94
498.832	130.94
499.049	119.94
499.267	123.94
499.484	129.94
499.701	140.94
499.918	116.94
500.135	132.94
500.352	141.94
500.569	129.94
500.786	136.94
501.003	127.94
501.22	150.94
501.437	135.94
501.654	133.94
501.871	159.94
502.088	125.94
502.305	122.94
502.522	141.94
502.739	128.94
502.956	126.94
503.172	136.94
503.389	113.94
503.606	116.94
503.823	120.94
504.04	126.94
504.256	102.94
504.473	126.94
504.69	128.94
504.907	112.94
505.123	119.94
505.34	116.94
505.557	119.94
505.773	121.94
505.99	129.94
506.207	131.94
506.423	124.94
506.64	106.94
506.856	120.94
507.073	136.94
507.289	113.94
507.506	109.94
507.722	106.94
507.939	115.94
508.155	124.94
508.372	126.94
508.588	108.94
508.805	106.94
509.021	104.94
509.238	106.94
509.454	108.94
509.67	97.94
509.887	111.94
510.103	93.94
510.319	85.94
510.536	99.94
510.752	94.94
510.968	85.94
511.184	88.94
511.401	104.94
511.617	83.94
