Data from Location2.07152019.Energy5.Lamp.07192019.3%Agarose_HRD10591_14-55-38-359.txt Node
Date: Fri Jul 19 14:55:38 EDT 2019
User: cochatt
Spectrometer: HR+D1059
Trigger mode: 1
Integration Time (sec): 1.000000E-1
Scans to average: 1
Electric dark correction enabled: true
Nonlinearity correction enabled: false
Boxcar width: 0
XAxis mode: Wavelengths
Number of Pixels in Spectrum: 2048
>>>>>Begin Spectral Data<<<<<
223.165	-1.44
223.4	-1.44
223.635	-1.44
223.869	-17.44
224.104	-21.44
224.338	-30.44
224.573	-12.44
224.808	-14.44
225.042	-10.44
225.277	-17.44
225.511	8.56
225.746	5.56
225.98	12.56
226.215	3.56
226.449	15.56
226.683	33.56
226.918	14.56
227.152	31.56
227.387	33.56
227.621	31.56
227.856	31.56
228.09	48.56
228.324	46.56
228.559	50.56
228.793	64.56
229.027	57.56
229.262	63.56
229.496	61.56
229.73	59.56
229.964	65.56
230.199	68.56
230.433	77.56
230.667	70.56
230.901	74.56
231.136	83.56
231.37	70.56
231.604	77.56
231.838	83.56
232.072	82.56
232.306	76.56
232.541	84.56
232.775	73.56
233.009	82.56
233.243	86.56
233.477	79.56
233.711	75.56
233.945	73.56
234.179	68.56
234.413	74.56
234.647	77.56
234.881	75.56
235.115	72.56
235.349	73.56
235.583	79.56
235.817	79.56
236.051	73.56
236.285	81.56
236.519	77.56
236.753	59.56
236.987	72.56
237.221	75.56
237.455	78.56
237.689	82.56
237.922	69.56
238.156	71.56
238.39	79.56
238.624	64.56
238.858	70.56
239.091	77.56
239.325	68.56
239.559	74.56
239.793	64.56
240.027	71.56
240.26	71.56
240.494	79.56
240.728	61.56
240.961	64.56
241.195	69.56
241.429	77.56
241.662	71.56
241.896	68.56
242.13	75.56
242.363	83.56
242.597	64.56
242.83	73.56
243.064	88.56
243.298	66.56
243.531	68.56
243.765	76.56
243.998	71.56
244.232	79.56
244.465	69.56
244.699	78.56
244.932	62.56
245.166	70.56
245.399	88.56
245.633	54.56
245.866	99.56
246.099	88.56
246.333	81.56
246.566	71.56
246.8	81.56
247.033	70.56
247.266	72.56
247.5	82.56
247.733	75.56
247.966	71.56
248.2	73.56
248.433	79.56
248.666	71.56
248.899	83.56
249.133	69.56
249.366	72.56
249.599	67.56
249.832	71.56
250.066	89.56
250.299	77.56
250.532	63.56
250.765	80.56
250.998	73.56
251.231	77.56
251.465	74.56
251.698	76.56
251.931	74.56
252.164	85.56
252.397	69.56
252.63	74.56
252.863	64.56
253.096	78.56
253.329	78.56
253.562	70.56
253.795	86.56
254.028	82.56
254.261	87.56
254.494	71.56
254.727	73.56
254.96	68.56
255.193	75.56
255.426	81.56
255.659	70.56
255.892	74.56
256.124	75.56
256.357	78.56
256.59	71.56
256.823	82.56
257.056	81.56
257.289	81.56
257.521	65.56
257.754	76.56
257.987	72.56
258.22	83.56
258.452	75.56
258.685	72.56
258.918	73.56
259.151	82.56
259.383	81.56
259.616	69.56
259.849	81.56
260.081	85.56
260.314	64.56
260.547	69.56
260.779	66.56
261.012	85.56
261.244	72.56
261.477	74.56
261.71	70.56
261.942	76.56
262.175	93.56
262.407	79.56
262.64	83.56
262.872	65.56
263.105	68.56
263.337	88.56
263.57	83.56
263.802	75.56
264.035	74.56
264.267	84.56
264.499	90.56
264.732	66.56
264.964	72.56
265.197	76.56
265.429	76.56
265.661	77.56
265.894	77.56
266.126	75.56
266.358	73.56
266.591	80.56
266.823	96.56
267.055	72.56
267.287	74.56
267.52	72.56
267.752	74.56
267.984	86.56
268.216	82.56
268.448	78.56
268.681	69.56
268.913	85.56
269.145	86.56
269.377	85.56
269.609	78.56
269.841	84.56
270.073	84.56
270.306	96.56
270.538	74.56
270.77	79.56
271.002	60.56
271.234	90.56
271.466	75.56
271.698	95.56
271.93	93.56
272.162	88.56
272.394	88.56
272.626	56.56
272.858	66.56
273.09	86.56
273.322	75.56
273.553	79.56
273.785	79.56
274.017	80.56
274.249	94.56
274.481	74.56
274.713	89.56
274.945	75.56
275.176	73.56
275.408	91.56
275.64	71.56
275.872	71.56
276.104	85.56
276.335	86.56
276.567	78.56
276.799	88.56
277.031	75.56
277.262	83.56
277.494	71.56
277.726	90.56
277.957	74.56
278.189	80.56
278.421	82.56
278.652	89.56
278.884	66.56
279.115	76.56
279.347	89.56
279.579	94.56
279.81	74.56
280.042	79.56
280.273	82.56
280.505	96.56
280.736	89.56
280.968	98.56
281.199	90.56
281.431	88.56
281.662	71.56
281.894	89.56
282.125	66.56
282.356	89.56
282.588	90.56
282.819	84.56
283.051	69.56
283.282	82.56
283.513	88.56
283.745	80.56
283.976	75.56
284.207	71.56
284.439	71.56
284.67	81.56
284.901	67.56
285.132	81.56
285.364	83.56
285.595	88.56
285.826	80.56
286.057	92.56
286.288	94.56
286.52	82.56
286.751	78.56
286.982	74.56
287.213	92.56
287.444	80.56
287.675	83.56
287.906	81.56
288.138	77.56
288.369	69.56
288.6	74.56
288.831	85.56
289.062	81.56
289.293	86.56
289.524	69.56
289.755	85.56
289.986	97.56
290.217	89.56
290.448	75.56
290.679	88.56
290.91	73.56
291.141	76.56
291.371	85.56
291.602	77.56
291.833	90.56
292.064	73.56
292.295	85.56
292.526	92.56
292.757	88.56
292.987	82.56
293.218	93.56
293.449	84.56
293.68	82.56
293.91	89.56
294.141	76.56
294.372	91.56
294.603	90.56
294.833	73.56
295.064	67.56
295.295	90.56
295.525	88.56
295.756	76.56
295.987	95.56
296.217	81.56
296.448	81.56
296.679	81.56
296.909	92.56
297.14	82.56
297.37	88.56
297.601	90.56
297.831	81.56
298.062	83.56
298.292	85.56
298.523	85.56
298.753	79.56
298.984	87.56
299.214	97.56
299.445	84.56
299.675	82.56
299.905	102.56
300.136	74.56
300.366	97.56
300.597	86.56
300.827	83.56
301.057	87.56
301.288	90.56
301.518	95.56
301.748	86.56
301.979	85.56
302.209	80.56
302.439	90.56
302.669	91.56
302.9	90.56
303.13	75.56
303.36	86.56
303.59	110.56
303.82	98.56
304.051	98.56
304.281	79.56
304.511	91.56
304.741	94.56
304.971	88.56
305.201	94.56
305.431	70.56
305.661	74.56
305.891	62.56
306.121	85.56
306.352	83.56
306.582	87.56
306.812	78.56
307.042	71.56
307.272	75.56
307.502	77.56
307.731	80.56
307.961	76.56
308.191	82.56
308.421	83.56
308.651	81.56
308.881	80.56
309.111	78.56
309.341	81.56
309.571	65.56
309.8	85.56
310.03	83.56
310.26	90.56
310.49	72.56
310.72	82.56
310.949	84.56
311.179	86.56
311.409	87.56
311.639	73.56
311.868	72.56
312.098	86.56
312.328	82.56
312.557	89.56
312.787	92.56
313.017	77.56
313.246	84.56
313.476	72.56
313.706	76.56
313.935	79.56
314.165	74.56
314.394	68.56
314.624	80.56
314.853	78.56
315.083	83.56
315.312	88.56
315.542	84.56
315.771	80.56
316.001	81.56
316.23	82.56
316.46	88.56
316.689	82.56
316.919	77.56
317.148	99.56
317.377	95.56
317.607	91.56
317.836	91.56
318.065	86.56
318.295	85.56
318.524	97.56
318.753	81.56
318.983	100.56
319.212	80.56
319.441	75.56
319.67	86.56
319.9	97.56
320.129	94.56
320.358	79.56
320.587	94.56
320.816	81.56
321.046	88.56
321.275	78.56
321.504	85.56
321.733	74.56
321.962	96.56
322.191	87.56
322.42	81.56
322.649	78.56
322.878	81.56
323.108	86.56
323.337	67.56
323.566	77.56
323.795	74.56
324.024	95.56
324.253	86.56
324.482	80.56
324.71	94.56
324.939	96.56
325.168	97.56
325.397	89.56
325.626	63.56
325.855	92.56
326.084	95.56
326.313	86.56
326.542	81.56
326.77	77.56
326.999	82.56
327.228	83.56
327.457	79.56
327.686	80.56
327.914	70.56
328.143	86.56
328.372	98.56
328.6	79.56
328.829	72.56
329.058	86.56
329.287	89.56
329.515	74.56
329.744	84.56
329.972	84.56
330.201	82.56
330.43	89.56
330.658	85.56
330.887	97.56
331.115	89.56
331.344	91.56
331.572	98.56
331.801	80.56
332.03	80.56
332.258	102.56
332.486	90.56
332.715	89.56
332.943	79.56
333.172	87.56
333.4	78.56
333.629	76.56
333.857	74.56
334.085	85.56
334.314	97.56
334.542	70.56
334.771	93.56
334.999	94.56
335.227	89.56
335.455	80.56
335.684	91.56
335.912	83.56
336.14	77.56
336.369	62.56
336.597	81.56
336.825	79.56
337.053	79.56
337.281	67.56
337.51	70.56
337.738	95.56
337.966	81.56
338.194	96.56
338.422	87.56
338.65	86.56
338.878	78.56
339.106	71.56
339.334	89.56
339.562	78.56
339.79	86.56
340.018	75.56
340.246	83.56
340.474	78.56
340.702	87.56
340.93	70.56
341.158	91.56
341.386	80.56
341.614	76.56
341.842	98.56
342.07	102.56
342.298	89.56
342.526	94.56
342.754	80.56
342.981	73.56
343.209	72.56
343.437	83.56
343.665	87.56
343.893	79.56
344.12	91.56
344.348	81.56
344.576	82.56
344.804	87.56
345.031	93.56
345.259	97.56
345.487	89.56
345.714	73.56
345.942	79.56
346.17	77.56
346.397	77.56
346.625	84.56
346.853	94.56
347.08	79.56
347.308	73.56
347.535	74.56
347.763	77.56
347.99	73.56
348.218	83.56
348.445	74.56
348.673	94.56
348.9	75.56
349.128	78.56
349.355	91.56
349.583	95.56
349.81	84.56
350.037	88.56
350.265	83.56
350.492	89.56
350.72	73.56
350.947	83.56
351.174	79.56
351.402	78.56
351.629	73.56
351.856	90.56
352.083	84.56
352.311	95.56
352.538	89.56
352.765	67.56
352.992	81.56
353.22	66.56
353.447	84.56
353.674	82.56
353.901	87.56
354.128	82.56
354.355	93.56
354.583	85.56
354.81	76.56
355.037	81.56
355.264	97.56
355.491	77.56
355.718	88.56
355.945	91.56
356.172	83.56
356.399	89.56
356.626	80.56
356.853	65.56
357.08	78.56
357.307	78.56
357.534	73.56
357.761	89.56
357.988	82.56
358.215	77.56
358.441	90.56
358.668	88.56
358.895	86.56
359.122	96.56
359.349	72.56
359.576	88.56
359.802	89.56
360.029	73.56
360.256	75.56
360.483	92.56
360.709	87.56
360.936	96.56
361.163	76.56
361.39	66.56
361.616	80.56
361.843	76.56
362.07	81.56
362.296	87.56
362.523	69.56
362.749	79.56
362.976	94.56
363.203	78.56
363.429	80.56
363.656	77.56
363.882	86.56
364.109	87.56
364.335	91.56
364.562	81.56
364.788	79.56
365.015	76.56
365.241	86.56
365.468	76.56
365.694	73.56
365.92	85.56
366.147	68.56
366.373	88.56
366.599	81.56
366.826	75.56
367.052	81.56
367.278	76.56
367.505	90.56
367.731	93.56
367.957	83.56
368.184	82.56
368.41	84.56
368.636	88.56
368.862	89.56
369.089	84.56
369.315	86.56
369.541	85.56
369.767	80.56
369.993	72.56
370.219	74.56
370.445	79.56
370.672	103.56
370.898	91.56
371.124	113.56
371.35	87.56
371.576	74.56
371.802	78.56
372.028	85.56
372.254	103.56
372.48	77.56
372.706	79.56
372.932	85.56
373.158	81.56
373.384	85.56
373.61	92.56
373.835	90.56
374.061	97.56
374.287	104.56
374.513	89.56
374.739	83.56
374.965	87.56
375.191	82.56
375.416	100.56
375.642	99.56
375.868	88.56
376.094	111.56
376.319	90.56
376.545	91.56
376.771	96.56
376.997	100.56
377.222	88.56
377.448	95.56
377.674	88.56
377.899	104.56
378.125	80.56
378.35	94.56
378.576	93.56
378.802	79.56
379.027	87.56
379.253	88.56
379.478	83.56
379.704	106.56
379.929	100.56
380.155	86.56
380.38	87.56
380.606	89.56
380.831	98.56
381.057	89.56
381.282	97.56
381.507	89.56
381.733	107.56
381.958	88.56
382.184	87.56
382.409	88.56
382.634	90.56
382.86	94.56
383.085	99.56
383.31	89.56
383.535	82.56
383.761	88.56
383.986	93.56
384.211	89.56
384.436	87.56
384.662	96.56
384.887	111.56
385.112	96.56
385.337	112.56
385.562	97.56
385.787	90.56
386.013	88.56
386.238	89.56
386.463	97.56
386.688	94.56
386.913	97.56
387.138	105.56
387.363	98.56
387.588	86.56
387.813	109.56
388.038	101.56
388.263	90.56
388.488	87.56
388.713	99.56
388.938	104.56
389.163	91.56
389.387	101.56
389.612	97.56
389.837	88.56
390.062	91.56
390.287	93.56
390.512	99.56
390.736	98.56
390.961	98.56
391.186	106.56
391.411	107.56
391.636	114.56
391.86	106.56
392.085	91.56
392.31	99.56
392.534	109.56
392.759	104.56
392.984	102.56
393.208	111.56
393.433	107.56
393.658	95.56
393.882	105.56
394.107	101.56
394.331	110.56
394.556	107.56
394.78	104.56
395.005	101.56
395.229	109.56
395.454	110.56
395.678	117.56
395.903	111.56
396.127	99.56
396.352	101.56
396.576	107.56
396.801	110.56
397.025	102.56
397.249	104.56
397.474	105.56
397.698	111.56
397.922	114.56
398.147	115.56
398.371	110.56
398.595	107.56
398.82	105.56
399.044	106.56
399.268	112.56
399.492	104.56
399.717	100.56
399.941	114.56
400.165	110.56
400.389	113.56
400.613	116.56
400.837	120.56
401.062	112.56
401.286	114.56
401.51	110.56
401.734	110.56
401.958	105.56
402.182	96.56
402.406	123.56
402.63	115.56
402.854	122.56
403.078	112.56
403.302	121.56
403.526	105.56
403.75	106.56
403.974	105.56
404.198	120.56
404.422	121.56
404.645	125.56
404.869	110.56
405.093	103.56
405.317	106.56
405.541	103.56
405.765	123.56
405.988	113.56
406.212	125.56
406.436	118.56
406.66	126.56
406.883	130.56
407.107	130.56
407.331	115.56
407.555	116.56
407.778	110.56
408.002	108.56
408.226	113.56
408.449	117.56
408.673	112.56
408.896	114.56
409.12	111.56
409.344	112.56
409.567	120.56
409.791	117.56
410.014	110.56
410.238	127.56
410.461	108.56
410.685	104.56
410.908	114.56
411.132	119.56
411.355	119.56
411.578	147.56
411.802	125.56
412.025	119.56
412.249	120.56
412.472	115.56
412.695	128.56
412.919	120.56
413.142	122.56
413.365	120.56
413.589	120.56
413.812	123.56
414.035	121.56
414.258	120.56
414.482	110.56
414.705	103.56
414.928	113.56
415.151	119.56
415.374	131.56
415.597	112.56
415.821	127.56
416.044	107.56
416.267	120.56
416.49	119.56
416.713	128.56
416.936	121.56
417.159	116.56
417.382	112.56
417.605	128.56
417.828	128.56
418.051	132.56
418.274	135.56
418.497	130.56
418.72	133.56
418.943	122.56
419.166	125.56
419.389	137.56
419.611	139.56
419.834	141.56
420.057	125.56
420.28	124.56
420.503	130.56
420.726	133.56
420.948	134.56
421.171	129.56
421.394	123.56
421.617	154.56
421.839	147.56
422.062	150.56
422.285	125.56
422.507	119.56
422.73	123.56
422.953	122.56
423.175	130.56
423.398	121.56
423.621	136.56
423.843	137.56
424.066	133.56
424.288	136.56
424.511	141.56
424.733	143.56
424.956	132.56
425.178	129.56
425.401	139.56
425.623	144.56
425.846	133.56
426.068	122.56
426.291	129.56
426.513	132.56
426.735	139.56
426.958	128.56
427.18	135.56
427.402	131.56
427.625	134.56
427.847	135.56
428.069	133.56
428.292	129.56
428.514	126.56
428.736	147.56
428.958	139.56
429.181	131.56
429.403	136.56
429.625	132.56
429.847	129.56
430.069	125.56
430.292	122.56
430.514	142.56
430.736	127.56
430.958	136.56
431.18	119.56
431.402	133.56
431.624	126.56
431.846	103.56
432.068	106.56
432.29	112.56
432.512	113.56
432.734	115.56
432.956	128.56
433.178	129.56
433.4	129.56
433.622	125.56
433.844	119.56
434.066	115.56
434.287	97.56
434.509	100.56
434.731	98.56
434.953	116.56
435.175	118.56
435.397	133.56
435.618	125.56
435.84	125.56
436.062	113.56
436.284	107.56
436.505	129.56
436.727	124.56
436.949	131.56
437.17	127.56
437.392	128.56
437.614	114.56
437.835	98.56
438.057	104.56
438.278	129.56
438.5	127.56
438.721	132.56
438.943	139.56
439.165	125.56
439.386	137.56
439.608	136.56
439.829	135.56
440.05	147.56
440.272	146.56
440.493	138.56
440.715	135.56
440.936	147.56
441.158	137.56
441.379	140.56
441.6	144.56
441.822	128.56
442.043	151.56
442.264	121.56
442.486	148.56
442.707	138.56
442.928	130.56
443.149	127.56
443.371	143.56
443.592	125.56
443.813	131.56
444.034	145.56
444.255	146.56
444.476	121.56
444.698	143.56
444.919	144.56
445.14	250.56
445.361	199.56
445.582	137.56
445.803	144.56
446.024	135.56
446.245	161.56
446.466	146.56
446.687	155.56
446.908	163.56
447.129	159.56
447.35	139.56
447.571	142.56
447.792	145.56
448.013	142.56
448.234	131.56
448.455	140.56
448.675	138.56
448.896	147.56
449.117	145.56
449.338	137.56
449.559	125.56
449.779	130.56
450	131.56
450.221	146.56
450.442	142.56
450.662	123.56
450.883	119.56
451.104	135.56
451.324	149.56
451.545	141.56
451.766	129.56
451.986	118.56
452.207	128.56
452.428	140.56
452.648	132.56
452.869	116.56
453.089	122.56
453.31	112.56
453.53	115.56
453.751	105.56
453.971	99.56
454.192	100.56
454.412	111.56
454.633	115.56
454.853	106.56
455.073	119.56
455.294	117.56
455.514	133.56
455.734	107.56
455.955	129.56
456.175	125.56
456.395	109.56
456.616	109.56
456.836	104.56
457.056	111.56
457.276	111.56
457.497	111.56
457.717	105.56
457.937	104.56
458.157	97.56
458.377	84.56
458.598	84.56
458.818	87.56
459.038	91.56
459.258	94.56
459.478	88.56
459.698	85.56
459.918	101.56
460.138	98.56
460.358	105.56
460.578	111.56
460.798	95.56
461.018	112.56
461.238	116.56
461.458	121.56
461.678	117.56
461.898	104.56
462.118	114.56
462.338	99.56
462.558	101.56
462.777	109.56
462.997	106.56
463.217	95.56
463.437	113.56
463.657	112.56
463.876	99.56
464.096	121.56
464.316	95.56
464.536	109.56
464.755	121.56
464.975	123.56
465.195	114.56
465.414	113.56
465.634	104.56
465.854	115.56
466.073	110.56
466.293	125.56
466.512	122.56
466.732	106.56
466.951	115.56
467.171	121.56
467.391	122.56
467.61	121.56
467.829	127.56
468.049	146.56
468.268	131.56
468.488	122.56
468.707	123.56
468.927	148.56
469.146	137.56
469.365	133.56
469.585	146.56
469.804	129.56
470.023	129.56
470.243	137.56
470.462	152.56
470.681	135.56
470.901	148.56
471.12	149.56
471.339	146.56
471.558	125.56
471.777	149.56
471.997	135.56
472.216	128.56
472.435	120.56
472.654	119.56
472.873	122.56
473.092	118.56
473.311	121.56
473.53	122.56
473.749	126.56
473.968	121.56
474.187	117.56
474.406	114.56
474.625	129.56
474.844	120.56
475.063	137.56
475.282	135.56
475.501	138.56
475.72	118.56
475.939	110.56
476.158	133.56
476.377	125.56
476.596	123.56
476.814	117.56
477.033	110.56
477.252	126.56
477.471	106.56
477.69	126.56
477.908	121.56
478.127	129.56
478.346	122.56
478.564	142.56
478.783	152.56
479.002	144.56
479.22	140.56
479.439	134.56
479.658	119.56
479.876	109.56
480.095	120.56
480.313	119.56
480.532	126.56
480.751	118.56
480.969	86.56
481.188	95.56
481.406	87.56
481.624	83.56
481.843	98.56
482.061	106.56
482.28	97.56
482.498	106.56
482.717	90.56
482.935	102.56
483.153	152.56
483.372	134.56
483.59	146.56
483.808	129.56
484.027	139.56
484.245	125.56
484.463	135.56
484.681	140.56
484.9	129.56
485.118	141.56
485.336	115.56
485.554	115.56
485.772	114.56
485.99	107.56
486.209	94.56
486.427	109.56
486.645	118.56
486.863	127.56
487.081	144.56
487.299	128.56
487.517	139.56
487.735	173.56
487.953	175.56
488.171	183.56
488.389	152.56
488.607	162.56
488.825	164.56
489.043	143.56
489.261	135.56
489.479	136.56
489.696	143.56
489.914	139.56
490.132	147.56
490.35	136.56
490.568	161.56
490.786	166.56
491.003	161.56
491.221	182.56
491.439	164.56
491.657	175.56
491.874	203.56
492.092	213.56
492.31	223.56
492.527	211.56
492.745	187.56
492.963	189.56
493.18	182.56
493.398	180.56
493.615	186.56
493.833	179.56
494.05	183.56
494.268	169.56
494.485	169.56
494.703	164.56
494.92	170.56
495.138	165.56
495.355	167.56
495.573	171.56
495.79	158.56
496.008	161.56
496.225	179.56
496.442	161.56
496.66	160.56
496.877	150.56
497.094	163.56
497.312	140.56
497.529	162.56
497.746	151.56
497.963	122.56
498.181	123.56
498.398	119.56
498.615	127.56
498.832	117.56
499.049	121.56
499.267	124.56
499.484	121.56
499.701	120.56
499.918	126.56
500.135	136.56
500.352	130.56
500.569	135.56
500.786	146.56
501.003	155.56
501.22	140.56
501.437	140.56
501.654	119.56
501.871	119.56
502.088	137.56
502.305	140.56
502.522	118.56
502.739	132.56
502.956	127.56
503.172	128.56
503.389	111.56
503.606	130.56
503.823	120.56
504.04	119.56
504.256	132.56
504.473	129.56
504.69	104.56
504.907	117.56
505.123	119.56
505.34	121.56
505.557	136.56
505.773	116.56
505.99	107.56
506.207	123.56
506.423	119.56
506.64	104.56
506.856	105.56
507.073	119.56
507.289	106.56
507.506	126.56
507.722	114.56
507.939	112.56
508.155	127.56
508.372	111.56
508.588	101.56
508.805	109.56
509.021	96.56
509.238	112.56
509.454	94.56
509.67	98.56
509.887	103.56
510.103	89.56
510.319	94.56
510.536	88.56
510.752	93.56
510.968	88.56
511.184	85.56
511.401	86.56
511.617	75.56
511.833	79.56
