Data from Location2.07152019.Energy5.Lamp.07192019.3%Agarose_HRD10591_14-55-46-358.txt Node
Date: Fri Jul 19 14:55:46 EDT 2019
User: cochatt
Spectrometer: HR+D1059
Trigger mode: 1
Integration Time (sec): 1.000000E-1
Scans to average: 1
Electric dark correction enabled: true
Nonlinearity correction enabled: false
Boxcar width: 0
XAxis mode: Wavelengths
Number of Pixels in Spectrum: 2048
>>>>>Begin Spectral Data<<<<<
223.165	-13.19
223.4	-13.19
223.635	-13.19
223.869	-2.19
224.104	-14.19
224.338	-11.19
224.573	-18.19
224.808	-18.19
225.042	-5.19
225.277	-10.19
225.511	4.81
225.746	5.81
225.98	9.81
226.215	8.81
226.449	10.81
226.683	5.81
226.918	24.81
227.152	21.81
227.387	43.81
227.621	40.81
227.856	40.81
228.09	43.81
228.324	50.81
228.559	52.81
228.793	73.81
229.027	59.81
229.262	60.81
229.496	71.81
229.73	64.81
229.964	68.81
230.199	74.81
230.433	72.81
230.667	73.81
230.901	78.81
231.136	86.81
231.37	87.81
231.604	74.81
231.838	69.81
232.072	78.81
232.306	75.81
232.541	88.81
232.775	81.81
233.009	85.81
233.243	65.81
233.477	83.81
233.711	94.81
233.945	90.81
234.179	86.81
234.413	69.81
234.647	68.81
234.881	86.81
235.115	102.81
235.349	77.81
235.583	90.81
235.817	80.81
236.051	68.81
236.285	76.81
236.519	83.81
236.753	83.81
236.987	86.81
237.221	73.81
237.455	80.81
237.689	75.81
237.922	78.81
238.156	62.81
238.39	86.81
238.624	86.81
238.858	82.81
239.091	85.81
239.325	84.81
239.559	84.81
239.793	96.81
240.027	75.81
240.26	80.81
240.494	66.81
240.728	75.81
240.961	81.81
241.195	83.81
241.429	92.81
241.662	71.81
241.896	68.81
242.13	73.81
242.363	83.81
242.597	72.81
242.83	76.81
243.064	74.81
243.298	81.81
243.531	82.81
243.765	83.81
243.998	81.81
244.232	75.81
244.465	94.81
244.699	78.81
244.932	74.81
245.166	68.81
245.399	84.81
245.633	79.81
245.866	78.81
246.099	73.81
246.333	92.81
246.566	78.81
246.8	73.81
247.033	76.81
247.266	84.81
247.5	87.81
247.733	87.81
247.966	83.81
248.2	80.81
248.433	81.81
248.666	81.81
248.899	87.81
249.133	88.81
249.366	83.81
249.599	89.81
249.832	77.81
250.066	89.81
250.299	77.81
250.532	86.81
250.765	77.81
250.998	81.81
251.231	73.81
251.465	88.81
251.698	88.81
251.931	85.81
252.164	92.81
252.397	76.81
252.63	80.81
252.863	93.81
253.096	74.81
253.329	75.81
253.562	88.81
253.795	84.81
254.028	77.81
254.261	76.81
254.494	87.81
254.727	88.81
254.96	75.81
255.193	72.81
255.426	83.81
255.659	77.81
255.892	79.81
256.124	84.81
256.357	79.81
256.59	70.81
256.823	85.81
257.056	72.81
257.289	86.81
257.521	78.81
257.754	85.81
257.987	88.81
258.22	80.81
258.452	77.81
258.685	79.81
258.918	87.81
259.151	90.81
259.383	91.81
259.616	84.81
259.849	88.81
260.081	79.81
260.314	89.81
260.547	85.81
260.779	75.81
261.012	74.81
261.244	88.81
261.477	84.81
261.71	83.81
261.942	76.81
262.175	93.81
262.407	76.81
262.64	85.81
262.872	73.81
263.105	83.81
263.337	84.81
263.57	83.81
263.802	88.81
264.035	79.81
264.267	70.81
264.499	94.81
264.732	92.81
264.964	95.81
265.197	69.81
265.429	73.81
265.661	71.81
265.894	82.81
266.126	98.81
266.358	83.81
266.591	73.81
266.823	82.81
267.055	98.81
267.287	87.81
267.52	77.81
267.752	81.81
267.984	85.81
268.216	75.81
268.448	85.81
268.681	72.81
268.913	78.81
269.145	73.81
269.377	74.81
269.609	82.81
269.841	88.81
270.073	83.81
270.306	96.81
270.538	96.81
270.77	81.81
271.002	89.81
271.234	82.81
271.466	92.81
271.698	97.81
271.93	90.81
272.162	83.81
272.394	86.81
272.626	89.81
272.858	94.81
273.09	89.81
273.322	97.81
273.553	80.81
273.785	65.81
274.017	83.81
274.249	78.81
274.481	83.81
274.713	79.81
274.945	96.81
275.176	79.81
275.408	86.81
275.64	89.81
275.872	89.81
276.104	68.81
276.335	80.81
276.567	86.81
276.799	84.81
277.031	88.81
277.262	79.81
277.494	80.81
277.726	105.81
277.957	88.81
278.189	78.81
278.421	78.81
278.652	85.81
278.884	77.81
279.115	84.81
279.347	73.81
279.579	81.81
279.81	77.81
280.042	72.81
280.273	74.81
280.505	85.81
280.736	91.81
280.968	96.81
281.199	66.81
281.431	77.81
281.662	95.81
281.894	86.81
282.125	86.81
282.356	77.81
282.588	74.81
282.819	67.81
283.051	74.81
283.282	89.81
283.513	86.81
283.745	97.81
283.976	91.81
284.207	85.81
284.439	85.81
284.67	87.81
284.901	89.81
285.132	97.81
285.364	86.81
285.595	76.81
285.826	82.81
286.057	87.81
286.288	84.81
286.52	84.81
286.751	93.81
286.982	79.81
287.213	86.81
287.444	100.81
287.675	86.81
287.906	92.81
288.138	83.81
288.369	90.81
288.6	80.81
288.831	92.81
289.062	85.81
289.293	85.81
289.524	87.81
289.755	75.81
289.986	86.81
290.217	102.81
290.448	71.81
290.679	87.81
290.91	108.81
291.141	88.81
291.371	78.81
291.602	84.81
291.833	88.81
292.064	85.81
292.295	81.81
292.526	81.81
292.757	88.81
292.987	86.81
293.218	81.81
293.449	90.81
293.68	94.81
293.91	79.81
294.141	79.81
294.372	91.81
294.603	89.81
294.833	99.81
295.064	88.81
295.295	97.81
295.525	91.81
295.756	96.81
295.987	88.81
296.217	83.81
296.448	79.81
296.679	92.81
296.909	95.81
297.14	83.81
297.37	93.81
297.601	87.81
297.831	84.81
298.062	95.81
298.292	98.81
298.523	90.81
298.753	85.81
298.984	100.81
299.214	76.81
299.445	94.81
299.675	90.81
299.905	87.81
300.136	73.81
300.366	88.81
300.597	83.81
300.827	77.81
301.057	86.81
301.288	97.81
301.518	87.81
301.748	81.81
301.979	91.81
302.209	95.81
302.439	90.81
302.669	86.81
302.9	94.81
303.13	88.81
303.36	70.81
303.59	92.81
303.82	82.81
304.051	80.81
304.281	84.81
304.511	78.81
304.741	96.81
304.971	90.81
305.201	91.81
305.431	100.81
305.661	88.81
305.891	74.81
306.121	86.81
306.352	89.81
306.582	93.81
306.812	77.81
307.042	78.81
307.272	85.81
307.502	84.81
307.731	73.81
307.961	92.81
308.191	83.81
308.421	81.81
308.651	77.81
308.881	76.81
309.111	98.81
309.341	92.81
309.571	102.81
309.8	102.81
310.03	91.81
310.26	85.81
310.49	95.81
310.72	75.81
310.949	87.81
311.179	67.81
311.409	81.81
311.639	90.81
311.868	87.81
312.098	78.81
312.328	92.81
312.557	94.81
312.787	90.81
313.017	91.81
313.246	70.81
313.476	80.81
313.706	84.81
313.935	94.81
314.165	77.81
314.394	81.81
314.624	82.81
314.853	79.81
315.083	87.81
315.312	82.81
315.542	83.81
315.771	84.81
316.001	88.81
316.23	101.81
316.46	97.81
316.689	83.81
316.919	78.81
317.148	98.81
317.377	85.81
317.607	86.81
317.836	80.81
318.065	82.81
318.295	91.81
318.524	79.81
318.753	87.81
318.983	79.81
319.212	101.81
319.441	88.81
319.67	97.81
319.9	76.81
320.129	75.81
320.358	80.81
320.587	84.81
320.816	93.81
321.046	84.81
321.275	82.81
321.504	96.81
321.733	93.81
321.962	85.81
322.191	92.81
322.42	95.81
322.649	100.81
322.878	92.81
323.108	85.81
323.337	86.81
323.566	92.81
323.795	82.81
324.024	90.81
324.253	83.81
324.482	93.81
324.71	81.81
324.939	75.81
325.168	89.81
325.397	101.81
325.626	79.81
325.855	80.81
326.084	87.81
326.313	92.81
326.542	78.81
326.77	84.81
326.999	82.81
327.228	79.81
327.457	83.81
327.686	83.81
327.914	84.81
328.143	85.81
328.372	96.81
328.6	85.81
328.829	81.81
329.058	83.81
329.287	97.81
329.515	80.81
329.744	89.81
329.972	92.81
330.201	72.81
330.43	84.81
330.658	81.81
330.887	76.81
331.115	82.81
331.344	85.81
331.572	93.81
331.801	81.81
332.03	88.81
332.258	99.81
332.486	97.81
332.715	89.81
332.943	100.81
333.172	98.81
333.4	95.81
333.629	84.81
333.857	77.81
334.085	96.81
334.314	86.81
334.542	84.81
334.771	86.81
334.999	90.81
335.227	74.81
335.455	94.81
335.684	100.81
335.912	89.81
336.14	90.81
336.369	83.81
336.597	98.81
336.825	70.81
337.053	78.81
337.281	91.81
337.51	89.81
337.738	75.81
337.966	89.81
338.194	96.81
338.422	88.81
338.65	87.81
338.878	100.81
339.106	89.81
339.334	95.81
339.562	81.81
339.79	91.81
340.018	87.81
340.246	86.81
340.474	79.81
340.702	76.81
340.93	82.81
341.158	98.81
341.386	79.81
341.614	83.81
341.842	87.81
342.07	85.81
342.298	90.81
342.526	98.81
342.754	86.81
342.981	85.81
343.209	85.81
343.437	87.81
343.665	92.81
343.893	74.81
344.12	104.81
344.348	93.81
344.576	85.81
344.804	82.81
345.031	85.81
345.259	88.81
345.487	83.81
345.714	85.81
345.942	91.81
346.17	88.81
346.397	70.81
346.625	88.81
346.853	82.81
347.08	94.81
347.308	93.81
347.535	91.81
347.763	93.81
347.99	84.81
348.218	78.81
348.445	91.81
348.673	88.81
348.9	76.81
349.128	84.81
349.355	87.81
349.583	79.81
349.81	89.81
350.037	78.81
350.265	81.81
350.492	78.81
350.72	90.81
350.947	76.81
351.174	86.81
351.402	71.81
351.629	85.81
351.856	93.81
352.083	77.81
352.311	85.81
352.538	95.81
352.765	85.81
352.992	97.81
353.22	93.81
353.447	84.81
353.674	84.81
353.901	78.81
354.128	83.81
354.355	90.81
354.583	84.81
354.81	83.81
355.037	95.81
355.264	74.81
355.491	73.81
355.718	80.81
355.945	89.81
356.172	82.81
356.399	91.81
356.626	82.81
356.853	98.81
357.08	78.81
357.307	89.81
357.534	88.81
357.761	93.81
357.988	79.81
358.215	79.81
358.441	91.81
358.668	87.81
358.895	90.81
359.122	84.81
359.349	68.81
359.576	87.81
359.802	84.81
360.029	99.81
360.256	72.81
360.483	80.81
360.709	83.81
360.936	93.81
361.163	80.81
361.39	84.81
361.616	87.81
361.843	80.81
362.07	90.81
362.296	94.81
362.523	74.81
362.749	87.81
362.976	101.81
363.203	80.81
363.429	69.81
363.656	85.81
363.882	103.81
364.109	82.81
364.335	98.81
364.562	83.81
364.788	73.81
365.015	88.81
365.241	86.81
365.468	91.81
365.694	81.81
365.92	84.81
366.147	77.81
366.373	87.81
366.599	95.81
366.826	89.81
367.052	85.81
367.278	78.81
367.505	86.81
367.731	93.81
367.957	88.81
368.184	81.81
368.41	89.81
368.636	104.81
368.862	104.81
369.089	88.81
369.315	99.81
369.541	83.81
369.767	90.81
369.993	88.81
370.219	84.81
370.445	79.81
370.672	87.81
370.898	86.81
371.124	95.81
371.35	69.81
371.576	116.81
371.802	88.81
372.028	78.81
372.254	97.81
372.48	106.81
372.706	97.81
372.932	88.81
373.158	85.81
373.384	96.81
373.61	102.81
373.835	94.81
374.061	79.81
374.287	94.81
374.513	97.81
374.739	83.81
374.965	100.81
375.191	106.81
375.416	96.81
375.642	104.81
375.868	94.81
376.094	82.81
376.319	92.81
376.545	77.81
376.771	84.81
376.997	96.81
377.222	81.81
377.448	91.81
377.674	94.81
377.899	95.81
378.125	94.81
378.35	91.81
378.576	82.81
378.802	90.81
379.027	106.81
379.253	96.81
379.478	101.81
379.704	86.81
379.929	106.81
380.155	91.81
380.38	97.81
380.606	106.81
380.831	99.81
381.057	99.81
381.282	106.81
381.507	87.81
381.733	105.81
381.958	99.81
382.184	99.81
382.409	100.81
382.634	96.81
382.86	92.81
383.085	107.81
383.31	106.81
383.535	90.81
383.761	94.81
383.986	96.81
384.211	97.81
384.436	86.81
384.662	89.81
384.887	98.81
385.112	98.81
385.337	111.81
385.562	90.81
385.787	106.81
386.013	96.81
386.238	120.81
386.463	100.81
386.688	105.81
386.913	93.81
387.138	98.81
387.363	97.81
387.588	93.81
387.813	107.81
388.038	110.81
388.263	119.81
388.488	116.81
388.713	104.81
388.938	97.81
389.163	76.81
389.387	103.81
389.612	101.81
389.837	89.81
390.062	112.81
390.287	100.81
390.512	96.81
390.736	106.81
390.961	97.81
391.186	120.81
391.411	116.81
391.636	101.81
391.86	98.81
392.085	107.81
392.31	90.81
392.534	110.81
392.759	96.81
392.984	105.81
393.208	106.81
393.433	114.81
393.658	102.81
393.882	122.81
394.107	104.81
394.331	113.81
394.556	102.81
394.78	102.81
395.005	113.81
395.229	97.81
395.454	97.81
395.678	103.81
395.903	114.81
396.127	100.81
396.352	104.81
396.576	121.81
396.801	88.81
397.025	108.81
397.249	114.81
397.474	116.81
397.698	120.81
397.922	117.81
398.147	108.81
398.371	121.81
398.595	106.81
398.82	110.81
399.044	113.81
399.268	116.81
399.492	112.81
399.717	120.81
399.941	115.81
400.165	108.81
400.389	122.81
400.613	102.81
400.837	109.81
401.062	100.81
401.286	119.81
401.51	122.81
401.734	120.81
401.958	112.81
402.182	100.81
402.406	102.81
402.63	105.81
402.854	117.81
403.078	116.81
403.302	110.81
403.526	122.81
403.75	115.81
403.974	130.81
404.198	119.81
404.422	124.81
404.645	116.81
404.869	112.81
405.093	114.81
405.317	119.81
405.541	120.81
405.765	122.81
405.988	115.81
406.212	120.81
406.436	143.81
406.66	120.81
406.883	125.81
407.107	112.81
407.331	110.81
407.555	117.81
407.778	123.81
408.002	121.81
408.226	119.81
408.449	123.81
408.673	135.81
408.896	108.81
409.12	113.81
409.344	135.81
409.567	132.81
409.791	121.81
410.014	114.81
410.238	132.81
410.461	139.81
410.685	129.81
410.908	120.81
411.132	120.81
411.355	128.81
411.578	120.81
411.802	115.81
412.025	121.81
412.249	122.81
412.472	125.81
412.695	117.81
412.919	116.81
413.142	125.81
413.365	114.81
413.589	114.81
413.812	121.81
414.035	133.81
414.258	125.81
414.482	132.81
414.705	118.81
414.928	126.81
415.151	136.81
415.374	126.81
415.597	106.81
415.821	139.81
416.044	126.81
416.267	124.81
416.49	139.81
416.713	120.81
416.936	130.81
417.159	130.81
417.382	121.81
417.605	128.81
417.828	130.81
418.051	127.81
418.274	141.81
418.497	127.81
418.72	134.81
418.943	128.81
419.166	140.81
419.389	134.81
419.611	133.81
419.834	120.81
420.057	140.81
420.28	137.81
420.503	121.81
420.726	154.81
420.948	135.81
421.171	139.81
421.394	134.81
421.617	134.81
421.839	154.81
422.062	137.81
422.285	129.81
422.507	113.81
422.73	142.81
422.953	124.81
423.175	122.81
423.398	124.81
423.621	125.81
423.843	140.81
424.066	130.81
424.288	145.81
424.511	148.81
424.733	131.81
424.956	140.81
425.178	130.81
425.401	123.81
425.623	127.81
425.846	147.81
426.068	129.81
426.291	120.81
426.513	128.81
426.735	135.81
426.958	119.81
427.18	143.81
427.402	122.81
427.625	140.81
427.847	138.81
428.069	134.81
428.292	133.81
428.514	120.81
428.736	123.81
428.958	128.81
429.181	148.81
429.403	132.81
429.625	139.81
429.847	122.81
430.069	149.81
430.292	134.81
430.514	122.81
430.736	134.81
430.958	128.81
431.18	121.81
431.402	128.81
431.624	122.81
431.846	105.81
432.068	110.81
432.29	94.81
432.512	111.81
432.734	118.81
432.956	134.81
433.178	130.81
433.4	136.81
433.622	132.81
433.844	125.81
434.066	115.81
434.287	117.81
434.509	105.81
434.731	105.81
434.953	110.81
435.175	133.81
435.397	131.81
435.618	110.81
435.84	120.81
436.062	111.81
436.284	132.81
436.505	132.81
436.727	132.81
436.949	139.81
437.17	134.81
437.392	134.81
437.614	109.81
437.835	112.81
438.057	103.81
438.278	112.81
438.5	106.81
438.721	138.81
438.943	136.81
439.165	136.81
439.386	142.81
439.608	135.81
439.829	133.81
440.05	137.81
440.272	141.81
440.493	133.81
440.715	137.81
440.936	133.81
441.158	146.81
441.379	138.81
441.6	130.81
441.822	146.81
442.043	147.81
442.264	138.81
442.486	140.81
442.707	145.81
442.928	138.81
443.149	135.81
443.371	142.81
443.592	133.81
443.813	132.81
444.034	140.81
444.255	134.81
444.476	138.81
444.698	127.81
444.919	142.81
445.14	261.81
445.361	204.81
445.582	144.81
445.803	144.81
446.024	146.81
446.245	153.81
446.466	145.81
446.687	148.81
446.908	146.81
447.129	142.81
447.35	149.81
447.571	154.81
447.792	148.81
448.013	143.81
448.234	147.81
448.455	141.81
448.675	154.81
448.896	152.81
449.117	145.81
449.338	137.81
449.559	148.81
449.779	138.81
450	146.81
450.221	132.81
450.442	134.81
450.662	126.81
450.883	152.81
451.104	141.81
451.324	134.81
451.545	124.81
451.766	131.81
451.986	134.81
452.207	125.81
452.428	124.81
452.648	117.81
452.869	127.81
453.089	107.81
453.31	120.81
453.53	105.81
453.751	101.81
453.971	113.81
454.192	119.81
454.412	109.81
454.633	117.81
454.853	113.81
455.073	117.81
455.294	125.81
455.514	128.81
455.734	118.81
455.955	105.81
456.175	126.81
456.395	121.81
456.616	102.81
456.836	99.81
457.056	115.81
457.276	101.81
457.497	99.81
457.717	104.81
457.937	108.81
458.157	99.81
458.377	92.81
458.598	89.81
458.818	100.81
459.038	70.81
459.258	88.81
459.478	79.81
459.698	93.81
459.918	94.81
460.138	93.81
460.358	110.81
460.578	117.81
460.798	121.81
461.018	126.81
461.238	126.81
461.458	109.81
461.678	104.81
461.898	109.81
462.118	109.81
462.338	102.81
462.558	113.81
462.777	122.81
462.997	105.81
463.217	93.81
463.437	120.81
463.657	112.81
463.876	109.81
464.096	100.81
464.316	105.81
464.536	107.81
464.755	110.81
464.975	125.81
465.195	112.81
465.414	113.81
465.634	121.81
465.854	126.81
466.073	128.81
466.293	124.81
466.512	132.81
466.732	124.81
466.951	142.81
467.171	134.81
467.391	128.81
467.61	137.81
467.829	124.81
468.049	134.81
468.268	140.81
468.488	126.81
468.707	143.81
468.927	131.81
469.146	136.81
469.365	141.81
469.585	158.81
469.804	144.81
470.023	131.81
470.243	134.81
470.462	158.81
470.681	147.81
470.901	149.81
471.12	134.81
471.339	143.81
471.558	129.81
471.777	142.81
471.997	143.81
472.216	135.81
472.435	124.81
472.654	120.81
472.873	110.81
473.092	112.81
473.311	124.81
473.53	123.81
473.749	136.81
473.968	129.81
474.187	131.81
474.406	119.81
474.625	119.81
474.844	131.81
475.063	134.81
475.282	140.81
475.501	123.81
475.72	121.81
475.939	126.81
476.158	138.81
476.377	134.81
476.596	104.81
476.814	122.81
477.033	116.81
477.252	100.81
477.471	116.81
477.69	130.81
477.908	139.81
478.127	140.81
478.346	133.81
478.564	131.81
478.783	136.81
479.002	140.81
479.22	139.81
479.439	131.81
479.658	125.81
479.876	118.81
480.095	104.81
480.313	128.81
480.532	106.81
480.751	122.81
480.969	98.81
481.188	94.81
481.406	87.81
481.624	102.81
481.843	86.81
482.061	101.81
482.28	109.81
482.498	115.81
482.717	98.81
482.935	115.81
483.153	142.81
483.372	136.81
483.59	134.81
483.808	143.81
484.027	130.81
484.245	130.81
484.463	138.81
484.681	146.81
484.9	158.81
485.118	142.81
485.336	127.81
485.554	113.81
485.772	117.81
485.99	100.81
486.209	119.81
486.427	109.81
486.645	111.81
486.863	141.81
487.081	129.81
487.299	124.81
487.517	142.81
487.735	165.81
487.953	185.81
488.171	184.81
488.389	172.81
488.607	157.81
488.825	148.81
489.043	134.81
489.261	133.81
489.479	137.81
489.696	138.81
489.914	149.81
490.132	143.81
490.35	149.81
490.568	156.81
490.786	174.81
491.003	189.81
491.221	163.81
491.439	188.81
491.657	191.81
491.874	205.81
492.092	218.81
492.31	230.81
492.527	222.81
492.745	187.81
492.963	206.81
493.18	184.81
493.398	182.81
493.615	183.81
493.833	186.81
494.05	187.81
494.268	162.81
494.485	173.81
494.703	193.81
494.92	177.81
495.138	161.81
495.355	160.81
495.573	163.81
495.79	172.81
496.008	166.81
496.225	186.81
496.442	162.81
496.66	184.81
496.877	178.81
497.094	159.81
497.312	157.81
497.529	156.81
497.746	166.81
497.963	147.81
498.181	132.81
498.398	105.81
498.615	122.81
498.832	109.81
499.049	124.81
499.267	126.81
499.484	127.81
499.701	140.81
499.918	139.81
500.135	135.81
500.352	137.81
500.569	147.81
500.786	161.81
501.003	143.81
501.22	148.81
501.437	123.81
501.654	134.81
501.871	136.81
502.088	125.81
502.305	144.81
502.522	125.81
502.739	137.81
502.956	142.81
503.172	132.81
503.389	128.81
503.606	131.81
503.823	125.81
504.04	123.81
504.256	125.81
504.473	111.81
504.69	117.81
504.907	124.81
505.123	118.81
505.34	132.81
505.557	130.81
505.773	128.81
505.99	122.81
506.207	121.81
506.423	124.81
506.64	110.81
506.856	118.81
507.073	117.81
507.289	131.81
507.506	119.81
507.722	122.81
507.939	110.81
508.155	112.81
508.372	107.81
508.588	110.81
508.805	122.81
509.021	104.81
509.238	118.81
509.454	96.81
509.67	101.81
509.887	94.81
510.103	99.81
510.319	88.81
510.536	99.81
510.752	94.81
510.968	91.81
511.184	90.81
511.401	102.81
