Data from Location6.07152019.Energy5.Lamp.07192019.3%Agarose_HRD10591_16-10-42-394.txt Node
Date: Fri Jul 19 16:10:42 EDT 2019
User: cochatt
Spectrometer: HR+D1059
Trigger mode: 1
Integration Time (sec): 1.000000E-1
Scans to average: 1
Electric dark correction enabled: true
Nonlinearity correction enabled: false
Boxcar width: 0
XAxis mode: Wavelengths
Number of Pixels in Spectrum: 2048
>>>>>Begin Spectral Data<<<<<
223.165	-18.38
223.4	-18.38
223.635	-18.38
223.869	-11.38
224.104	-19.38
224.338	-6.38
224.573	-3.38
224.808	-10.38
225.042	-3.38
225.277	-4.38
225.511	1.62
225.746	7.62
225.98	-0.38
226.215	-7.38
226.449	5.62
226.683	19.62
226.918	25.62
227.152	24.62
227.387	34.62
227.621	35.62
227.856	32.62
228.09	51.62
228.324	50.62
228.559	49.62
228.793	66.62
229.027	65.62
229.262	50.62
229.496	63.62
229.73	69.62
229.964	70.62
230.199	73.62
230.433	82.62
230.667	82.62
230.901	77.62
231.136	72.62
231.37	72.62
231.604	70.62
231.838	87.62
232.072	79.62
232.306	73.62
232.541	77.62
232.775	75.62
233.009	92.62
233.243	80.62
233.477	72.62
233.711	80.62
233.945	67.62
234.179	84.62
234.413	87.62
234.647	82.62
234.881	92.62
235.115	84.62
235.349	82.62
235.583	76.62
235.817	77.62
236.051	72.62
236.285	85.62
236.519	72.62
236.753	80.62
236.987	82.62
237.221	70.62
237.455	86.62
237.689	91.62
237.922	93.62
238.156	75.62
238.39	84.62
238.624	69.62
238.858	78.62
239.091	76.62
239.325	76.62
239.559	80.62
239.793	82.62
240.027	85.62
240.26	79.62
240.494	81.62
240.728	76.62
240.961	71.62
241.195	73.62
241.429	97.62
241.662	77.62
241.896	68.62
242.13	67.62
242.363	93.62
242.597	76.62
242.83	72.62
243.064	77.62
243.298	68.62
243.531	85.62
243.765	81.62
243.998	73.62
244.232	88.62
244.465	74.62
244.699	69.62
244.932	89.62
245.166	72.62
245.399	89.62
245.633	86.62
245.866	73.62
246.099	71.62
246.333	87.62
246.566	69.62
246.8	68.62
247.033	77.62
247.266	71.62
247.5	95.62
247.733	75.62
247.966	80.62
248.2	80.62
248.433	68.62
248.666	69.62
248.899	87.62
249.133	83.62
249.366	83.62
249.599	97.62
249.832	86.62
250.066	87.62
250.299	89.62
250.532	87.62
250.765	83.62
250.998	63.62
251.231	83.62
251.465	86.62
251.698	83.62
251.931	86.62
252.164	79.62
252.397	85.62
252.63	82.62
252.863	88.62
253.096	82.62
253.329	85.62
253.562	68.62
253.795	80.62
254.028	76.62
254.261	71.62
254.494	76.62
254.727	83.62
254.96	76.62
255.193	87.62
255.426	84.62
255.659	81.62
255.892	80.62
256.124	73.62
256.357	76.62
256.59	69.62
256.823	89.62
257.056	60.62
257.289	84.62
257.521	83.62
257.754	84.62
257.987	82.62
258.22	100.62
258.452	71.62
258.685	69.62
258.918	83.62
259.151	77.62
259.383	59.62
259.616	73.62
259.849	76.62
260.081	75.62
260.314	80.62
260.547	73.62
260.779	83.62
261.012	93.62
261.244	83.62
261.477	87.62
261.71	87.62
261.942	79.62
262.175	95.62
262.407	89.62
262.64	70.62
262.872	87.62
263.105	72.62
263.337	91.62
263.57	80.62
263.802	74.62
264.035	87.62
264.267	89.62
264.499	72.62
264.732	85.62
264.964	84.62
265.197	92.62
265.429	82.62
265.661	85.62
265.894	81.62
266.126	70.62
266.358	81.62
266.591	84.62
266.823	102.62
267.055	84.62
267.287	76.62
267.52	83.62
267.752	87.62
267.984	73.62
268.216	63.62
268.448	80.62
268.681	74.62
268.913	81.62
269.145	91.62
269.377	104.62
269.609	82.62
269.841	77.62
270.073	82.62
270.306	91.62
270.538	72.62
270.77	76.62
271.002	94.62
271.234	86.62
271.466	83.62
271.698	83.62
271.93	87.62
272.162	74.62
272.394	89.62
272.626	61.62
272.858	75.62
273.09	96.62
273.322	94.62
273.553	72.62
273.785	76.62
274.017	77.62
274.249	77.62
274.481	88.62
274.713	85.62
274.945	97.62
275.176	81.62
275.408	98.62
275.64	70.62
275.872	94.62
276.104	78.62
276.335	85.62
276.567	92.62
276.799	78.62
277.031	79.62
277.262	65.62
277.494	89.62
277.726	78.62
277.957	80.62
278.189	73.62
278.421	87.62
278.652	70.62
278.884	78.62
279.115	82.62
279.347	83.62
279.579	75.62
279.81	77.62
280.042	75.62
280.273	73.62
280.505	79.62
280.736	81.62
280.968	97.62
281.199	91.62
281.431	96.62
281.662	101.62
281.894	99.62
282.125	74.62
282.356	82.62
282.588	83.62
282.819	89.62
283.051	100.62
283.282	83.62
283.513	86.62
283.745	90.62
283.976	81.62
284.207	91.62
284.439	85.62
284.67	96.62
284.901	84.62
285.132	90.62
285.364	77.62
285.595	81.62
285.826	83.62
286.057	87.62
286.288	92.62
286.52	81.62
286.751	79.62
286.982	73.62
287.213	82.62
287.444	81.62
287.675	74.62
287.906	103.62
288.138	84.62
288.369	91.62
288.6	85.62
288.831	71.62
289.062	79.62
289.293	79.62
289.524	75.62
289.755	85.62
289.986	79.62
290.217	100.62
290.448	83.62
290.679	88.62
290.91	84.62
291.141	82.62
291.371	84.62
291.602	81.62
291.833	88.62
292.064	98.62
292.295	82.62
292.526	82.62
292.757	91.62
292.987	85.62
293.218	76.62
293.449	83.62
293.68	79.62
293.91	81.62
294.141	81.62
294.372	84.62
294.603	80.62
294.833	74.62
295.064	88.62
295.295	83.62
295.525	96.62
295.756	86.62
295.987	86.62
296.217	99.62
296.448	92.62
296.679	89.62
296.909	101.62
297.14	95.62
297.37	80.62
297.601	84.62
297.831	83.62
298.062	88.62
298.292	79.62
298.523	99.62
298.753	95.62
298.984	82.62
299.214	83.62
299.445	85.62
299.675	84.62
299.905	84.62
300.136	89.62
300.366	90.62
300.597	76.62
300.827	88.62
301.057	87.62
301.288	87.62
301.518	92.62
301.748	90.62
301.979	74.62
302.209	81.62
302.439	81.62
302.669	98.62
302.9	89.62
303.13	84.62
303.36	74.62
303.59	81.62
303.82	82.62
304.051	86.62
304.281	90.62
304.511	84.62
304.741	83.62
304.971	75.62
305.201	91.62
305.431	91.62
305.661	92.62
305.891	90.62
306.121	99.62
306.352	82.62
306.582	74.62
306.812	89.62
307.042	90.62
307.272	83.62
307.502	83.62
307.731	77.62
307.961	92.62
308.191	95.62
308.421	97.62
308.651	73.62
308.881	82.62
309.111	74.62
309.341	90.62
309.571	83.62
309.8	93.62
310.03	75.62
310.26	92.62
310.49	95.62
310.72	90.62
310.949	91.62
311.179	90.62
311.409	84.62
311.639	79.62
311.868	79.62
312.098	87.62
312.328	97.62
312.557	70.62
312.787	88.62
313.017	90.62
313.246	82.62
313.476	96.62
313.706	76.62
313.935	71.62
314.165	68.62
314.394	87.62
314.624	74.62
314.853	88.62
315.083	81.62
315.312	95.62
315.542	93.62
315.771	87.62
316.001	82.62
316.23	92.62
316.46	84.62
316.689	92.62
316.919	87.62
317.148	88.62
317.377	77.62
317.607	85.62
317.836	91.62
318.065	93.62
318.295	84.62
318.524	91.62
318.753	68.62
318.983	87.62
319.212	95.62
319.441	88.62
319.67	75.62
319.9	93.62
320.129	95.62
320.358	75.62
320.587	92.62
320.816	84.62
321.046	83.62
321.275	92.62
321.504	86.62
321.733	78.62
321.962	100.62
322.191	87.62
322.42	79.62
322.649	86.62
322.878	96.62
323.108	87.62
323.337	88.62
323.566	89.62
323.795	98.62
324.024	89.62
324.253	87.62
324.482	74.62
324.71	83.62
324.939	97.62
325.168	93.62
325.397	94.62
325.626	80.62
325.855	73.62
326.084	77.62
326.313	100.62
326.542	98.62
326.77	82.62
326.999	82.62
327.228	85.62
327.457	85.62
327.686	69.62
327.914	101.62
328.143	81.62
328.372	81.62
328.6	91.62
328.829	93.62
329.058	77.62
329.287	77.62
329.515	76.62
329.744	90.62
329.972	78.62
330.201	96.62
330.43	90.62
330.658	87.62
330.887	80.62
331.115	75.62
331.344	77.62
331.572	74.62
331.801	70.62
332.03	79.62
332.258	82.62
332.486	78.62
332.715	75.62
332.943	96.62
333.172	82.62
333.4	78.62
333.629	86.62
333.857	89.62
334.085	92.62
334.314	85.62
334.542	87.62
334.771	97.62
334.999	76.62
335.227	87.62
335.455	76.62
335.684	92.62
335.912	88.62
336.14	77.62
336.369	74.62
336.597	79.62
336.825	80.62
337.053	92.62
337.281	85.62
337.51	81.62
337.738	86.62
337.966	85.62
338.194	86.62
338.422	91.62
338.65	83.62
338.878	87.62
339.106	75.62
339.334	89.62
339.562	94.62
339.79	90.62
340.018	84.62
340.246	78.62
340.474	82.62
340.702	90.62
340.93	77.62
341.158	78.62
341.386	83.62
341.614	94.62
341.842	93.62
342.07	92.62
342.298	87.62
342.526	91.62
342.754	84.62
342.981	76.62
343.209	63.62
343.437	83.62
343.665	97.62
343.893	67.62
344.12	94.62
344.348	93.62
344.576	87.62
344.804	88.62
345.031	88.62
345.259	70.62
345.487	81.62
345.714	86.62
345.942	82.62
346.17	86.62
346.397	91.62
346.625	90.62
346.853	97.62
347.08	77.62
347.308	75.62
347.535	90.62
347.763	81.62
347.99	79.62
348.218	82.62
348.445	87.62
348.673	86.62
348.9	92.62
349.128	82.62
349.355	87.62
349.583	81.62
349.81	77.62
350.037	71.62
350.265	96.62
350.492	81.62
350.72	84.62
350.947	86.62
351.174	97.62
351.402	87.62
351.629	83.62
351.856	101.62
352.083	88.62
352.311	91.62
352.538	85.62
352.765	81.62
352.992	77.62
353.22	95.62
353.447	86.62
353.674	90.62
353.901	82.62
354.128	84.62
354.355	80.62
354.583	78.62
354.81	81.62
355.037	92.62
355.264	77.62
355.491	83.62
355.718	85.62
355.945	83.62
356.172	83.62
356.399	77.62
356.626	77.62
356.853	97.62
357.08	89.62
357.307	89.62
357.534	82.62
357.761	82.62
357.988	91.62
358.215	87.62
358.441	82.62
358.668	85.62
358.895	90.62
359.122	90.62
359.349	85.62
359.576	87.62
359.802	97.62
360.029	91.62
360.256	81.62
360.483	78.62
360.709	88.62
360.936	103.62
361.163	94.62
361.39	79.62
361.616	91.62
361.843	88.62
362.07	67.62
362.296	94.62
362.523	89.62
362.749	83.62
362.976	72.62
363.203	99.62
363.429	90.62
363.656	95.62
363.882	86.62
364.109	85.62
364.335	96.62
364.562	98.62
364.788	82.62
365.015	91.62
365.241	77.62
365.468	83.62
365.694	77.62
365.92	85.62
366.147	87.62
366.373	89.62
366.599	91.62
366.826	76.62
367.052	99.62
367.278	87.62
367.505	93.62
367.731	102.62
367.957	76.62
368.184	88.62
368.41	89.62
368.636	97.62
368.862	99.62
369.089	107.62
369.315	82.62
369.541	91.62
369.767	87.62
369.993	88.62
370.219	91.62
370.445	82.62
370.672	97.62
370.898	97.62
371.124	93.62
371.35	84.62
371.576	83.62
371.802	107.62
372.028	82.62
372.254	95.62
372.48	97.62
372.706	92.62
372.932	86.62
373.158	91.62
373.384	84.62
373.61	90.62
373.835	100.62
374.061	92.62
374.287	92.62
374.513	96.62
374.739	92.62
374.965	94.62
375.191	107.62
375.416	105.62
375.642	96.62
375.868	99.62
376.094	106.62
376.319	97.62
376.545	87.62
376.771	99.62
376.997	83.62
377.222	92.62
377.448	96.62
377.674	92.62
377.899	98.62
378.125	87.62
378.35	93.62
378.576	101.62
378.802	95.62
379.027	101.62
379.253	104.62
379.478	89.62
379.704	93.62
379.929	92.62
380.155	92.62
380.38	95.62
380.606	99.62
380.831	92.62
381.057	89.62
381.282	102.62
381.507	93.62
381.733	86.62
381.958	97.62
382.184	92.62
382.409	96.62
382.634	99.62
382.86	102.62
383.085	91.62
383.31	109.62
383.535	86.62
383.761	111.62
383.986	99.62
384.211	101.62
384.436	97.62
384.662	92.62
384.887	93.62
385.112	109.62
385.337	105.62
385.562	95.62
385.787	95.62
386.013	101.62
386.238	94.62
386.463	88.62
386.688	101.62
386.913	98.62
387.138	90.62
387.363	87.62
387.588	97.62
387.813	92.62
388.038	112.62
388.263	100.62
388.488	99.62
388.713	99.62
388.938	100.62
389.163	103.62
389.387	100.62
389.612	108.62
389.837	96.62
390.062	81.62
390.287	104.62
390.512	106.62
390.736	100.62
390.961	105.62
391.186	113.62
391.411	119.62
391.636	102.62
391.86	113.62
392.085	99.62
392.31	119.62
392.534	106.62
392.759	110.62
392.984	93.62
393.208	104.62
393.433	115.62
393.658	103.62
393.882	111.62
394.107	104.62
394.331	113.62
394.556	104.62
394.78	103.62
395.005	105.62
395.229	120.62
395.454	119.62
395.678	122.62
395.903	108.62
396.127	101.62
396.352	106.62
396.576	106.62
396.801	113.62
397.025	115.62
397.249	106.62
397.474	129.62
397.698	115.62
397.922	113.62
398.147	116.62
398.371	108.62
398.595	123.62
398.82	106.62
399.044	93.62
399.268	103.62
399.492	123.62
399.717	116.62
399.941	123.62
400.165	116.62
400.389	106.62
400.613	113.62
400.837	121.62
401.062	118.62
401.286	121.62
401.51	116.62
401.734	116.62
401.958	101.62
402.182	115.62
402.406	120.62
402.63	105.62
402.854	114.62
403.078	120.62
403.302	117.62
403.526	114.62
403.75	119.62
403.974	119.62
404.198	120.62
404.422	120.62
404.645	104.62
404.869	111.62
405.093	127.62
405.317	115.62
405.541	119.62
405.765	117.62
405.988	120.62
406.212	115.62
406.436	111.62
406.66	117.62
406.883	117.62
407.107	127.62
407.331	124.62
407.555	127.62
407.778	127.62
408.002	139.62
408.226	142.62
408.449	122.62
408.673	112.62
408.896	104.62
409.12	121.62
409.344	125.62
409.567	122.62
409.791	121.62
410.014	111.62
410.238	127.62
410.461	125.62
410.685	120.62
410.908	120.62
411.132	120.62
411.355	132.62
411.578	130.62
411.802	134.62
412.025	120.62
412.249	122.62
412.472	120.62
412.695	124.62
412.919	115.62
413.142	131.62
413.365	120.62
413.589	125.62
413.812	136.62
414.035	130.62
414.258	119.62
414.482	125.62
414.705	131.62
414.928	131.62
415.151	123.62
415.374	130.62
415.597	122.62
415.821	126.62
416.044	131.62
416.267	130.62
416.49	116.62
416.713	131.62
416.936	123.62
417.159	135.62
417.382	129.62
417.605	130.62
417.828	127.62
418.051	122.62
418.274	127.62
418.497	129.62
418.72	132.62
418.943	132.62
419.166	130.62
419.389	162.62
419.611	137.62
419.834	132.62
420.057	123.62
420.28	128.62
420.503	123.62
420.726	138.62
420.948	122.62
421.171	141.62
421.394	145.62
421.617	146.62
421.839	145.62
422.062	147.62
422.285	141.62
422.507	127.62
422.73	130.62
422.953	129.62
423.175	137.62
423.398	128.62
423.621	133.62
423.843	145.62
424.066	147.62
424.288	141.62
424.511	160.62
424.733	153.62
424.956	142.62
425.178	139.62
425.401	121.62
425.623	144.62
425.846	139.62
426.068	127.62
426.291	136.62
426.513	134.62
426.735	137.62
426.958	132.62
427.18	143.62
427.402	138.62
427.625	147.62
427.847	134.62
428.069	121.62
428.292	128.62
428.514	136.62
428.736	141.62
428.958	135.62
429.181	140.62
429.403	136.62
429.625	131.62
429.847	138.62
430.069	136.62
430.292	148.62
430.514	128.62
430.736	135.62
430.958	139.62
431.18	125.62
431.402	123.62
431.624	112.62
431.846	97.62
432.068	102.62
432.29	99.62
432.512	133.62
432.734	131.62
432.956	129.62
433.178	148.62
433.4	156.62
433.622	145.62
433.844	131.62
434.066	129.62
434.287	120.62
434.509	95.62
434.731	98.62
434.953	111.62
435.175	128.62
435.397	139.62
435.618	113.62
435.84	132.62
436.062	123.62
436.284	115.62
436.505	146.62
436.727	149.62
436.949	140.62
437.17	143.62
437.392	133.62
437.614	126.62
437.835	116.62
438.057	122.62
438.278	125.62
438.5	118.62
438.721	125.62
438.943	137.62
439.165	138.62
439.386	140.62
439.608	140.62
439.829	158.62
440.05	146.62
440.272	143.62
440.493	149.62
440.715	134.62
440.936	147.62
441.158	153.62
441.379	148.62
441.6	146.62
441.822	135.62
442.043	146.62
442.264	154.62
442.486	154.62
442.707	139.62
442.928	137.62
443.149	151.62
443.371	148.62
443.592	141.62
443.813	142.62
444.034	144.62
444.255	141.62
444.476	147.62
444.698	156.62
444.919	147.62
445.14	264.62
445.361	210.62
445.582	155.62
445.803	146.62
446.024	137.62
446.245	158.62
446.466	170.62
446.687	180.62
446.908	162.62
447.129	179.62
447.35	149.62
447.571	177.62
447.792	158.62
448.013	153.62
448.234	148.62
448.455	145.62
448.675	157.62
448.896	133.62
449.117	148.62
449.338	129.62
449.559	142.62
449.779	147.62
450	129.62
450.221	133.62
450.442	134.62
450.662	135.62
450.883	120.62
451.104	141.62
451.324	136.62
451.545	142.62
451.766	141.62
451.986	123.62
452.207	130.62
452.428	131.62
452.648	127.62
452.869	132.62
453.089	128.62
453.31	107.62
453.53	109.62
453.751	102.62
453.971	96.62
454.192	104.62
454.412	113.62
454.633	130.62
454.853	127.62
455.073	129.62
455.294	129.62
455.514	126.62
455.734	123.62
455.955	111.62
456.175	117.62
456.395	120.62
456.616	119.62
456.836	123.62
457.056	109.62
457.276	107.62
457.497	99.62
457.717	104.62
457.937	112.62
458.157	117.62
458.377	121.62
458.598	106.62
458.818	97.62
459.038	96.62
459.258	82.62
459.478	96.62
459.698	89.62
459.918	92.62
460.138	114.62
460.358	117.62
460.578	123.62
460.798	129.62
461.018	116.62
461.238	124.62
461.458	123.62
461.678	127.62
461.898	122.62
462.118	102.62
462.338	113.62
462.558	121.62
462.777	108.62
462.997	111.62
463.217	111.62
463.437	103.62
463.657	111.62
463.876	122.62
464.096	117.62
464.316	101.62
464.536	120.62
464.755	121.62
464.975	119.62
465.195	98.62
465.414	124.62
465.634	127.62
465.854	132.62
466.073	117.62
466.293	141.62
466.512	135.62
466.732	137.62
466.951	140.62
467.171	139.62
467.391	150.62
467.61	132.62
467.829	139.62
468.049	139.62
468.268	125.62
468.488	139.62
468.707	146.62
468.927	136.62
469.146	139.62
469.365	145.62
469.585	139.62
469.804	151.62
470.023	151.62
470.243	150.62
470.462	151.62
470.681	148.62
470.901	146.62
471.12	125.62
471.339	132.62
471.558	136.62
471.777	149.62
471.997	161.62
472.216	123.62
472.435	134.62
472.654	118.62
472.873	131.62
473.092	121.62
473.311	132.62
473.53	123.62
473.749	121.62
473.968	135.62
474.187	110.62
474.406	120.62
474.625	124.62
474.844	144.62
475.063	153.62
475.282	128.62
475.501	126.62
475.72	129.62
475.939	135.62
476.158	127.62
476.377	140.62
476.596	135.62
476.814	130.62
477.033	115.62
477.252	119.62
477.471	119.62
477.69	135.62
477.908	140.62
478.127	136.62
478.346	138.62
478.564	146.62
478.783	132.62
479.002	152.62
479.22	147.62
479.439	127.62
479.658	121.62
479.876	113.62
480.095	118.62
480.313	125.62
480.532	127.62
480.751	121.62
480.969	111.62
481.188	97.62
481.406	106.62
481.624	82.62
481.843	85.62
482.061	105.62
482.28	119.62
482.498	123.62
482.717	119.62
482.935	124.62
483.153	149.62
483.372	150.62
483.59	158.62
483.808	130.62
484.027	137.62
484.245	151.62
484.463	150.62
484.681	168.62
484.9	155.62
485.118	145.62
485.336	132.62
485.554	118.62
485.772	98.62
485.99	105.62
486.209	103.62
486.427	116.62
486.645	119.62
486.863	155.62
487.081	146.62
487.299	131.62
487.517	158.62
487.735	172.62
487.953	216.62
488.171	188.62
488.389	164.62
488.607	166.62
488.825	148.62
489.043	155.62
489.261	125.62
489.479	159.62
489.696	146.62
489.914	148.62
490.132	147.62
490.35	166.62
490.568	170.62
490.786	178.62
491.003	171.62
491.221	191.62
491.439	200.62
491.657	211.62
491.874	204.62
492.092	228.62
492.31	257.62
492.527	249.62
492.745	228.62
492.963	210.62
493.18	177.62
493.398	185.62
493.615	192.62
493.833	194.62
494.05	185.62
494.268	201.62
494.485	184.62
494.703	175.62
494.92	168.62
495.138	166.62
495.355	177.62
495.573	193.62
495.79	181.62
496.008	176.62
496.225	169.62
496.442	182.62
496.66	173.62
496.877	168.62
497.094	175.62
497.312	161.62
497.529	164.62
497.746	158.62
497.963	142.62
498.181	146.62
498.398	129.62
498.615	119.62
498.832	124.62
499.049	118.62
499.267	123.62
499.484	149.62
499.701	133.62
499.918	156.62
500.135	149.62
500.352	138.62
500.569	174.62
500.786	135.62
501.003	159.62
501.22	155.62
501.437	140.62
501.654	141.62
501.871	149.62
502.088	124.62
502.305	130.62
502.522	141.62
502.739	139.62
502.956	131.62
503.172	116.62
503.389	107.62
503.606	121.62
503.823	111.62
504.04	122.62
504.256	124.62
504.473	119.62
504.69	114.62
504.907	105.62
505.123	127.62
505.34	111.62
505.557	116.62
505.773	127.62
505.99	116.62
506.207	123.62
506.423	119.62
506.64	122.62
506.856	123.62
507.073	116.62
507.289	119.62
507.506	121.62
507.722	139.62
507.939	121.62
508.155	122.62
508.372	123.62
508.588	118.62
508.805	104.62
509.021	103.62
509.238	103.62
509.454	112.62
509.67	107.62
509.887	101.62
510.103	100.62
510.319	104.62
510.536	112.62
510.752	99.62
510.968	95.62
511.184	80.62
511.401	84.62
