Data from Location6.07152019.Energy5.Lamp.07192019.3%Agarose_HRD10591_16-13-53-396.txt Node
Date: Fri Jul 19 16:13:53 EDT 2019
User: cochatt
Spectrometer: HR+D1059
Trigger mode: 1
Integration Time (sec): 1.000000E-1
Scans to average: 1
Electric dark correction enabled: true
Nonlinearity correction enabled: false
Boxcar width: 0
XAxis mode: Wavelengths
Number of Pixels in Spectrum: 2048
>>>>>Begin Spectral Data<<<<<
223.165	-23.81
223.4	-23.81
223.635	-23.81
223.869	-26.81
224.104	-12.81
224.338	-25.81
224.573	-10.81
224.808	-19.81
225.042	-2.81
225.277	-11.81
225.511	-0.81
225.746	7.19
225.98	7.19
226.215	11.19
226.449	23.19
226.683	9.19
226.918	39.19
227.152	38.19
227.387	30.19
227.621	40.19
227.856	43.19
228.09	29.19
228.324	47.19
228.559	66.19
228.793	68.19
229.027	60.19
229.262	73.19
229.496	68.19
229.73	71.19
229.964	71.19
230.199	67.19
230.433	73.19
230.667	80.19
230.901	83.19
231.136	74.19
231.37	76.19
231.604	84.19
231.838	64.19
232.072	83.19
232.306	72.19
232.541	75.19
232.775	81.19
233.009	87.19
233.243	88.19
233.477	72.19
233.711	88.19
233.945	88.19
234.179	89.19
234.413	75.19
234.647	83.19
234.881	82.19
235.115	76.19
235.349	88.19
235.583	78.19
235.817	72.19
236.051	77.19
236.285	64.19
236.519	77.19
236.753	80.19
236.987	88.19
237.221	74.19
237.455	75.19
237.689	86.19
237.922	85.19
238.156	70.19
238.39	79.19
238.624	71.19
238.858	55.19
239.091	88.19
239.325	72.19
239.559	76.19
239.793	69.19
240.027	78.19
240.26	87.19
240.494	84.19
240.728	72.19
240.961	81.19
241.195	73.19
241.429	69.19
241.662	75.19
241.896	67.19
242.13	66.19
242.363	79.19
242.597	79.19
242.83	82.19
243.064	80.19
243.298	76.19
243.531	83.19
243.765	69.19
243.998	82.19
244.232	90.19
244.465	78.19
244.699	68.19
244.932	77.19
245.166	75.19
245.399	72.19
245.633	79.19
245.866	68.19
246.099	69.19
246.333	58.19
246.566	67.19
246.8	95.19
247.033	86.19
247.266	78.19
247.5	99.19
247.733	81.19
247.966	82.19
248.2	79.19
248.433	85.19
248.666	77.19
248.899	68.19
249.133	90.19
249.366	82.19
249.599	80.19
249.832	62.19
250.066	74.19
250.299	69.19
250.532	89.19
250.765	89.19
250.998	94.19
251.231	78.19
251.465	74.19
251.698	78.19
251.931	91.19
252.164	78.19
252.397	89.19
252.63	67.19
252.863	81.19
253.096	83.19
253.329	85.19
253.562	82.19
253.795	81.19
254.028	83.19
254.261	84.19
254.494	76.19
254.727	83.19
254.96	83.19
255.193	78.19
255.426	75.19
255.659	78.19
255.892	86.19
256.124	64.19
256.357	76.19
256.59	84.19
256.823	75.19
257.056	69.19
257.289	95.19
257.521	93.19
257.754	95.19
257.987	81.19
258.22	81.19
258.452	76.19
258.685	86.19
258.918	79.19
259.151	78.19
259.383	81.19
259.616	86.19
259.849	76.19
260.081	86.19
260.314	71.19
260.547	78.19
260.779	75.19
261.012	81.19
261.244	84.19
261.477	82.19
261.71	84.19
261.942	88.19
262.175	77.19
262.407	68.19
262.64	77.19
262.872	69.19
263.105	78.19
263.337	80.19
263.57	73.19
263.802	77.19
264.035	81.19
264.267	71.19
264.499	84.19
264.732	71.19
264.964	89.19
265.197	93.19
265.429	80.19
265.661	83.19
265.894	92.19
266.126	88.19
266.358	69.19
266.591	89.19
266.823	90.19
267.055	80.19
267.287	83.19
267.52	72.19
267.752	81.19
267.984	88.19
268.216	87.19
268.448	90.19
268.681	85.19
268.913	86.19
269.145	87.19
269.377	84.19
269.609	89.19
269.841	89.19
270.073	87.19
270.306	89.19
270.538	74.19
270.77	89.19
271.002	87.19
271.234	88.19
271.466	70.19
271.698	83.19
271.93	74.19
272.162	75.19
272.394	89.19
272.626	84.19
272.858	73.19
273.09	87.19
273.322	86.19
273.553	77.19
273.785	85.19
274.017	84.19
274.249	73.19
274.481	85.19
274.713	69.19
274.945	83.19
275.176	76.19
275.408	77.19
275.64	81.19
275.872	81.19
276.104	77.19
276.335	95.19
276.567	76.19
276.799	80.19
277.031	95.19
277.262	75.19
277.494	91.19
277.726	91.19
277.957	71.19
278.189	83.19
278.421	78.19
278.652	92.19
278.884	89.19
279.115	93.19
279.347	82.19
279.579	91.19
279.81	76.19
280.042	84.19
280.273	72.19
280.505	83.19
280.736	73.19
280.968	81.19
281.199	89.19
281.431	83.19
281.662	87.19
281.894	82.19
282.125	92.19
282.356	73.19
282.588	69.19
282.819	83.19
283.051	92.19
283.282	92.19
283.513	83.19
283.745	83.19
283.976	92.19
284.207	86.19
284.439	94.19
284.67	69.19
284.901	84.19
285.132	71.19
285.364	84.19
285.595	86.19
285.826	89.19
286.057	88.19
286.288	81.19
286.52	81.19
286.751	88.19
286.982	74.19
287.213	84.19
287.444	79.19
287.675	88.19
287.906	82.19
288.138	87.19
288.369	76.19
288.6	87.19
288.831	84.19
289.062	77.19
289.293	81.19
289.524	84.19
289.755	89.19
289.986	85.19
290.217	80.19
290.448	81.19
290.679	95.19
290.91	68.19
291.141	97.19
291.371	95.19
291.602	79.19
291.833	77.19
292.064	76.19
292.295	83.19
292.526	92.19
292.757	84.19
292.987	83.19
293.218	71.19
293.449	89.19
293.68	103.19
293.91	81.19
294.141	93.19
294.372	94.19
294.603	78.19
294.833	84.19
295.064	71.19
295.295	63.19
295.525	80.19
295.756	81.19
295.987	91.19
296.217	100.19
296.448	89.19
296.679	71.19
296.909	93.19
297.14	87.19
297.37	80.19
297.601	86.19
297.831	76.19
298.062	78.19
298.292	91.19
298.523	79.19
298.753	81.19
298.984	73.19
299.214	87.19
299.445	83.19
299.675	87.19
299.905	92.19
300.136	87.19
300.366	80.19
300.597	82.19
300.827	80.19
301.057	85.19
301.288	79.19
301.518	83.19
301.748	98.19
301.979	99.19
302.209	92.19
302.439	73.19
302.669	82.19
302.9	96.19
303.13	91.19
303.36	89.19
303.59	80.19
303.82	77.19
304.051	73.19
304.281	90.19
304.511	97.19
304.741	82.19
304.971	83.19
305.201	89.19
305.431	85.19
305.661	88.19
305.891	74.19
306.121	81.19
306.352	81.19
306.582	96.19
306.812	83.19
307.042	81.19
307.272	76.19
307.502	79.19
307.731	87.19
307.961	76.19
308.191	70.19
308.421	81.19
308.651	83.19
308.881	79.19
309.111	94.19
309.341	76.19
309.571	99.19
309.8	78.19
310.03	83.19
310.26	92.19
310.49	68.19
310.72	81.19
310.949	71.19
311.179	95.19
311.409	81.19
311.639	98.19
311.868	74.19
312.098	75.19
312.328	83.19
312.557	72.19
312.787	77.19
313.017	87.19
313.246	83.19
313.476	99.19
313.706	91.19
313.935	88.19
314.165	84.19
314.394	77.19
314.624	88.19
314.853	71.19
315.083	77.19
315.312	90.19
315.542	92.19
315.771	95.19
316.001	95.19
316.23	71.19
316.46	80.19
316.689	74.19
316.919	79.19
317.148	96.19
317.377	84.19
317.607	79.19
317.836	92.19
318.065	97.19
318.295	80.19
318.524	95.19
318.753	92.19
318.983	79.19
319.212	85.19
319.441	82.19
319.67	77.19
319.9	81.19
320.129	74.19
320.358	87.19
320.587	93.19
320.816	85.19
321.046	78.19
321.275	78.19
321.504	103.19
321.733	74.19
321.962	81.19
322.191	76.19
322.42	86.19
322.649	86.19
322.878	88.19
323.108	87.19
323.337	76.19
323.566	84.19
323.795	67.19
324.024	82.19
324.253	80.19
324.482	94.19
324.71	73.19
324.939	91.19
325.168	86.19
325.397	101.19
325.626	83.19
325.855	90.19
326.084	89.19
326.313	84.19
326.542	79.19
326.77	89.19
326.999	102.19
327.228	92.19
327.457	88.19
327.686	86.19
327.914	80.19
328.143	90.19
328.372	79.19
328.6	79.19
328.829	79.19
329.058	77.19
329.287	80.19
329.515	81.19
329.744	85.19
329.972	88.19
330.201	95.19
330.43	80.19
330.658	92.19
330.887	84.19
331.115	88.19
331.344	85.19
331.572	87.19
331.801	98.19
332.03	71.19
332.258	74.19
332.486	85.19
332.715	75.19
332.943	89.19
333.172	80.19
333.4	85.19
333.629	86.19
333.857	83.19
334.085	76.19
334.314	84.19
334.542	77.19
334.771	91.19
334.999	83.19
335.227	77.19
335.455	77.19
335.684	81.19
335.912	78.19
336.14	70.19
336.369	74.19
336.597	95.19
336.825	87.19
337.053	91.19
337.281	101.19
337.51	75.19
337.738	92.19
337.966	77.19
338.194	76.19
338.422	81.19
338.65	87.19
338.878	87.19
339.106	82.19
339.334	96.19
339.562	70.19
339.79	73.19
340.018	70.19
340.246	85.19
340.474	79.19
340.702	82.19
340.93	94.19
341.158	80.19
341.386	90.19
341.614	91.19
341.842	83.19
342.07	88.19
342.298	74.19
342.526	89.19
342.754	89.19
342.981	94.19
343.209	81.19
343.437	88.19
343.665	83.19
343.893	86.19
344.12	75.19
344.348	89.19
344.576	82.19
344.804	76.19
345.031	79.19
345.259	75.19
345.487	87.19
345.714	81.19
345.942	96.19
346.17	88.19
346.397	80.19
346.625	74.19
346.853	70.19
347.08	89.19
347.308	73.19
347.535	98.19
347.763	87.19
347.99	84.19
348.218	84.19
348.445	72.19
348.673	83.19
348.9	76.19
349.128	95.19
349.355	90.19
349.583	82.19
349.81	87.19
350.037	88.19
350.265	93.19
350.492	77.19
350.72	71.19
350.947	100.19
351.174	89.19
351.402	89.19
351.629	82.19
351.856	96.19
352.083	79.19
352.311	88.19
352.538	90.19
352.765	74.19
352.992	95.19
353.22	93.19
353.447	58.19
353.674	83.19
353.901	93.19
354.128	79.19
354.355	80.19
354.583	86.19
354.81	89.19
355.037	86.19
355.264	83.19
355.491	76.19
355.718	83.19
355.945	89.19
356.172	81.19
356.399	98.19
356.626	80.19
356.853	89.19
357.08	90.19
357.307	77.19
357.534	78.19
357.761	79.19
357.988	74.19
358.215	87.19
358.441	77.19
358.668	90.19
358.895	82.19
359.122	91.19
359.349	88.19
359.576	81.19
359.802	88.19
360.029	88.19
360.256	68.19
360.483	87.19
360.709	88.19
360.936	78.19
361.163	83.19
361.39	84.19
361.616	83.19
361.843	81.19
362.07	93.19
362.296	69.19
362.523	87.19
362.749	87.19
362.976	88.19
363.203	98.19
363.429	65.19
363.656	81.19
363.882	90.19
364.109	78.19
364.335	81.19
364.562	77.19
364.788	79.19
365.015	92.19
365.241	89.19
365.468	86.19
365.694	87.19
365.92	77.19
366.147	80.19
366.373	79.19
366.599	68.19
366.826	71.19
367.052	74.19
367.278	89.19
367.505	74.19
367.731	84.19
367.957	82.19
368.184	94.19
368.41	94.19
368.636	97.19
368.862	91.19
369.089	81.19
369.315	95.19
369.541	91.19
369.767	93.19
369.993	94.19
370.219	89.19
370.445	82.19
370.672	80.19
370.898	100.19
371.124	96.19
371.35	79.19
371.576	90.19
371.802	89.19
372.028	92.19
372.254	93.19
372.48	87.19
372.706	84.19
372.932	84.19
373.158	90.19
373.384	87.19
373.61	97.19
373.835	81.19
374.061	86.19
374.287	97.19
374.513	96.19
374.739	98.19
374.965	114.19
375.191	88.19
375.416	91.19
375.642	75.19
375.868	95.19
376.094	112.19
376.319	87.19
376.545	80.19
376.771	91.19
376.997	89.19
377.222	77.19
377.448	95.19
377.674	98.19
377.899	98.19
378.125	96.19
378.35	99.19
378.576	93.19
378.802	93.19
379.027	96.19
379.253	90.19
379.478	95.19
379.704	88.19
379.929	104.19
380.155	100.19
380.38	98.19
380.606	92.19
380.831	86.19
381.057	101.19
381.282	75.19
381.507	93.19
381.733	97.19
381.958	106.19
382.184	96.19
382.409	94.19
382.634	94.19
382.86	96.19
383.085	95.19
383.31	100.19
383.535	92.19
383.761	106.19
383.986	82.19
384.211	98.19
384.436	98.19
384.662	97.19
384.887	87.19
385.112	96.19
385.337	99.19
385.562	89.19
385.787	92.19
386.013	101.19
386.238	106.19
386.463	104.19
386.688	99.19
386.913	86.19
387.138	97.19
387.363	93.19
387.588	110.19
387.813	111.19
388.038	100.19
388.263	81.19
388.488	100.19
388.713	93.19
388.938	94.19
389.163	99.19
389.387	113.19
389.612	98.19
389.837	98.19
390.062	114.19
390.287	107.19
390.512	107.19
390.736	94.19
390.961	95.19
391.186	108.19
391.411	104.19
391.636	107.19
391.86	114.19
392.085	95.19
392.31	104.19
392.534	92.19
392.759	91.19
392.984	116.19
393.208	92.19
393.433	97.19
393.658	88.19
393.882	102.19
394.107	112.19
394.331	111.19
394.556	91.19
394.78	101.19
395.005	103.19
395.229	99.19
395.454	106.19
395.678	112.19
395.903	105.19
396.127	105.19
396.352	114.19
396.576	125.19
396.801	120.19
397.025	109.19
397.249	119.19
397.474	118.19
397.698	103.19
397.922	113.19
398.147	118.19
398.371	106.19
398.595	118.19
398.82	117.19
399.044	111.19
399.268	124.19
399.492	121.19
399.717	123.19
399.941	123.19
400.165	98.19
400.389	117.19
400.613	116.19
400.837	112.19
401.062	116.19
401.286	105.19
401.51	117.19
401.734	107.19
401.958	106.19
402.182	120.19
402.406	117.19
402.63	105.19
402.854	108.19
403.078	123.19
403.302	117.19
403.526	115.19
403.75	115.19
403.974	105.19
404.198	115.19
404.422	109.19
404.645	121.19
404.869	113.19
405.093	120.19
405.317	119.19
405.541	123.19
405.765	117.19
405.988	117.19
406.212	121.19
406.436	123.19
406.66	116.19
406.883	118.19
407.107	124.19
407.331	123.19
407.555	119.19
407.778	122.19
408.002	119.19
408.226	119.19
408.449	116.19
408.673	116.19
408.896	99.19
409.12	119.19
409.344	116.19
409.567	120.19
409.791	120.19
410.014	120.19
410.238	110.19
410.461	134.19
410.685	123.19
410.908	123.19
411.132	129.19
411.355	110.19
411.578	127.19
411.802	124.19
412.025	117.19
412.249	114.19
412.472	121.19
412.695	131.19
412.919	114.19
413.142	132.19
413.365	124.19
413.589	128.19
413.812	122.19
414.035	126.19
414.258	121.19
414.482	133.19
414.705	118.19
414.928	121.19
415.151	124.19
415.374	119.19
415.597	114.19
415.821	116.19
416.044	115.19
416.267	126.19
416.49	133.19
416.713	139.19
416.936	134.19
417.159	119.19
417.382	123.19
417.605	122.19
417.828	124.19
418.051	116.19
418.274	144.19
418.497	125.19
418.72	114.19
418.943	131.19
419.166	135.19
419.389	133.19
419.611	135.19
419.834	127.19
420.057	137.19
420.28	127.19
420.503	124.19
420.726	136.19
420.948	139.19
421.171	133.19
421.394	147.19
421.617	139.19
421.839	158.19
422.062	133.19
422.285	128.19
422.507	135.19
422.73	124.19
422.953	126.19
423.175	135.19
423.398	128.19
423.621	147.19
423.843	152.19
424.066	134.19
424.288	137.19
424.511	136.19
424.733	131.19
424.956	147.19
425.178	137.19
425.401	152.19
425.623	140.19
425.846	146.19
426.068	135.19
426.291	143.19
426.513	142.19
426.735	127.19
426.958	126.19
427.18	128.19
427.402	120.19
427.625	128.19
427.847	133.19
428.069	122.19
428.292	124.19
428.514	128.19
428.736	128.19
428.958	119.19
429.181	123.19
429.403	140.19
429.625	141.19
429.847	127.19
430.069	130.19
430.292	133.19
430.514	125.19
430.736	120.19
430.958	122.19
431.18	136.19
431.402	131.19
431.624	103.19
431.846	119.19
432.068	99.19
432.29	97.19
432.512	129.19
432.734	123.19
432.956	137.19
433.178	149.19
433.4	141.19
433.622	140.19
433.844	116.19
434.066	120.19
434.287	122.19
434.509	92.19
434.731	97.19
434.953	119.19
435.175	122.19
435.397	117.19
435.618	124.19
435.84	135.19
436.062	118.19
436.284	127.19
436.505	149.19
436.727	132.19
436.949	125.19
437.17	127.19
437.392	141.19
437.614	129.19
437.835	111.19
438.057	111.19
438.278	122.19
438.5	124.19
438.721	140.19
438.943	144.19
439.165	134.19
439.386	147.19
439.608	132.19
439.829	159.19
440.05	144.19
440.272	143.19
440.493	144.19
440.715	150.19
440.936	150.19
441.158	156.19
441.379	151.19
441.6	153.19
441.822	138.19
442.043	136.19
442.264	129.19
442.486	148.19
442.707	140.19
442.928	129.19
443.149	138.19
443.371	133.19
443.592	147.19
443.813	138.19
444.034	134.19
444.255	145.19
444.476	132.19
444.698	142.19
444.919	133.19
445.14	283.19
445.361	214.19
445.582	161.19
445.803	148.19
446.024	143.19
446.245	146.19
446.466	137.19
446.687	151.19
446.908	157.19
447.129	170.19
447.35	149.19
447.571	148.19
447.792	139.19
448.013	153.19
448.234	141.19
448.455	132.19
448.675	143.19
448.896	131.19
449.117	136.19
449.338	135.19
449.559	144.19
449.779	126.19
450	153.19
450.221	151.19
450.442	135.19
450.662	140.19
450.883	134.19
451.104	134.19
451.324	142.19
451.545	125.19
451.766	129.19
451.986	147.19
452.207	122.19
452.428	119.19
452.648	141.19
452.869	122.19
453.089	114.19
453.31	118.19
453.53	108.19
453.751	106.19
453.971	103.19
454.192	99.19
454.412	100.19
454.633	128.19
454.853	115.19
455.073	121.19
455.294	119.19
455.514	125.19
455.734	126.19
455.955	118.19
456.175	123.19
456.395	117.19
456.616	113.19
456.836	113.19
457.056	103.19
457.276	95.19
457.497	119.19
457.717	98.19
457.937	96.19
458.157	122.19
458.377	123.19
458.598	96.19
458.818	91.19
459.038	87.19
459.258	104.19
459.478	116.19
459.698	89.19
459.918	97.19
460.138	108.19
460.358	120.19
460.578	123.19
460.798	118.19
461.018	108.19
461.238	115.19
461.458	122.19
461.678	123.19
461.898	127.19
462.118	118.19
462.338	113.19
462.558	124.19
462.777	120.19
462.997	113.19
463.217	107.19
463.437	112.19
463.657	119.19
463.876	101.19
464.096	102.19
464.316	109.19
464.536	123.19
464.755	119.19
464.975	122.19
465.195	117.19
465.414	119.19
465.634	104.19
465.854	97.19
466.073	105.19
466.293	134.19
466.512	123.19
466.732	138.19
466.951	137.19
467.171	133.19
467.391	134.19
467.61	147.19
467.829	159.19
468.049	148.19
468.268	131.19
468.488	139.19
468.707	159.19
468.927	127.19
469.146	124.19
469.365	157.19
469.585	159.19
469.804	149.19
470.023	137.19
470.243	145.19
470.462	140.19
470.681	143.19
470.901	148.19
471.12	143.19
471.339	143.19
471.558	149.19
471.777	135.19
471.997	139.19
472.216	129.19
472.435	116.19
472.654	113.19
472.873	108.19
473.092	113.19
473.311	120.19
473.53	113.19
473.749	142.19
473.968	123.19
474.187	135.19
474.406	131.19
474.625	127.19
474.844	123.19
475.063	130.19
475.282	134.19
475.501	118.19
475.72	130.19
475.939	110.19
476.158	132.19
476.377	127.19
476.596	125.19
476.814	123.19
477.033	115.19
477.252	115.19
477.471	134.19
477.69	141.19
477.908	121.19
478.127	140.19
478.346	134.19
478.564	127.19
478.783	127.19
479.002	144.19
479.22	135.19
479.439	141.19
479.658	127.19
479.876	107.19
480.095	102.19
480.313	122.19
480.532	116.19
480.751	107.19
480.969	106.19
481.188	97.19
481.406	90.19
481.624	80.19
481.843	97.19
482.061	91.19
482.28	105.19
482.498	101.19
482.717	108.19
482.935	123.19
483.153	137.19
483.372	149.19
483.59	159.19
483.808	140.19
484.027	132.19
484.245	139.19
484.463	158.19
484.681	174.19
484.9	142.19
485.118	155.19
485.336	126.19
485.554	119.19
485.772	108.19
485.99	107.19
486.209	107.19
486.427	111.19
486.645	119.19
486.863	136.19
487.081	148.19
487.299	136.19
487.517	157.19
487.735	186.19
487.953	206.19
488.171	198.19
488.389	180.19
488.607	171.19
488.825	148.19
489.043	149.19
489.261	124.19
489.479	152.19
489.696	143.19
489.914	133.19
490.132	143.19
490.35	168.19
490.568	162.19
490.786	166.19
491.003	167.19
491.221	175.19
491.439	203.19
491.657	196.19
491.874	191.19
492.092	245.19
492.31	243.19
492.527	247.19
492.745	204.19
492.963	188.19
493.18	196.19
493.398	185.19
493.615	187.19
493.833	187.19
494.05	174.19
494.268	165.19
494.485	166.19
494.703	176.19
494.92	166.19
495.138	177.19
495.355	177.19
495.573	185.19
495.79	167.19
496.008	182.19
496.225	168.19
496.442	163.19
496.66	167.19
496.877	165.19
497.094	185.19
497.312	159.19
497.529	151.19
497.746	154.19
497.963	149.19
498.181	124.19
498.398	121.19
498.615	123.19
498.832	120.19
499.049	112.19
499.267	132.19
499.484	128.19
499.701	133.19
499.918	135.19
500.135	146.19
500.352	138.19
500.569	136.19
500.786	164.19
501.003	155.19
501.22	150.19
501.437	147.19
501.654	119.19
501.871	152.19
502.088	143.19
502.305	135.19
502.522	133.19
502.739	137.19
502.956	115.19
503.172	125.19
503.389	118.19
503.606	125.19
503.823	115.19
504.04	118.19
504.256	116.19
504.473	117.19
504.69	119.19
504.907	125.19
505.123	120.19
505.34	115.19
505.557	124.19
505.773	117.19
505.99	115.19
506.207	118.19
506.423	120.19
506.64	120.19
506.856	117.19
507.073	129.19
507.289	119.19
507.506	131.19
507.722	127.19
507.939	124.19
508.155	126.19
508.372	126.19
508.588	121.19
508.805	111.19
509.021	104.19
509.238	93.19
509.454	107.19
509.67	95.19
509.887	100.19
510.103	84.19
510.319	93.19
510.536	96.19
510.752	86.19
510.968	85.19
511.184	93.19
511.401	79.19
511.617	76.19
511.833	99.19
