Data from Location6.07152019.Energy5.Lamp.07192019.3%Agarose_HRD10591_16-10-44-394.txt Node
Date: Fri Jul 19 16:10:44 EDT 2019
User: cochatt
Spectrometer: HR+D1059
Trigger mode: 1
Integration Time (sec): 1.000000E-1
Scans to average: 1
Electric dark correction enabled: true
Nonlinearity correction enabled: false
Boxcar width: 0
XAxis mode: Wavelengths
Number of Pixels in Spectrum: 2048
>>>>>Begin Spectral Data<<<<<
223.165	-16.38
223.4	-16.38
223.635	-16.38
223.869	-12.38
224.104	-22.38
224.338	-12.38
224.573	-6.38
224.808	-11.38
225.042	-16.38
225.277	7.62
225.511	-2.38
225.746	-0.38
225.98	-0.38
226.215	-6.38
226.449	36.62
226.683	21.62
226.918	14.62
227.152	26.62
227.387	35.62
227.621	30.62
227.856	48.62
228.09	51.62
228.324	50.62
228.559	56.62
228.793	45.62
229.027	71.62
229.262	65.62
229.496	72.62
229.73	73.62
229.964	78.62
230.199	74.62
230.433	55.62
230.667	84.62
230.901	73.62
231.136	87.62
231.37	90.62
231.604	94.62
231.838	93.62
232.072	85.62
232.306	82.62
232.541	95.62
232.775	99.62
233.009	76.62
233.243	80.62
233.477	72.62
233.711	80.62
233.945	69.62
234.179	84.62
234.413	78.62
234.647	76.62
234.881	80.62
235.115	73.62
235.349	87.62
235.583	91.62
235.817	81.62
236.051	69.62
236.285	77.62
236.519	86.62
236.753	78.62
236.987	78.62
237.221	83.62
237.455	83.62
237.689	71.62
237.922	83.62
238.156	65.62
238.39	66.62
238.624	73.62
238.858	86.62
239.091	75.62
239.325	83.62
239.559	89.62
239.793	74.62
240.027	76.62
240.26	82.62
240.494	63.62
240.728	59.62
240.961	86.62
241.195	64.62
241.429	77.62
241.662	90.62
241.896	86.62
242.13	83.62
242.363	64.62
242.597	79.62
242.83	70.62
243.064	71.62
243.298	78.62
243.531	66.62
243.765	68.62
243.998	67.62
244.232	73.62
244.465	71.62
244.699	79.62
244.932	76.62
245.166	85.62
245.399	65.62
245.633	69.62
245.866	73.62
246.099	69.62
246.333	88.62
246.566	79.62
246.8	84.62
247.033	81.62
247.266	69.62
247.5	85.62
247.733	79.62
247.966	68.62
248.2	76.62
248.433	83.62
248.666	72.62
248.899	88.62
249.133	79.62
249.366	80.62
249.599	78.62
249.832	92.62
250.066	77.62
250.299	77.62
250.532	83.62
250.765	71.62
250.998	73.62
251.231	80.62
251.465	81.62
251.698	61.62
251.931	71.62
252.164	95.62
252.397	85.62
252.63	87.62
252.863	74.62
253.096	89.62
253.329	83.62
253.562	82.62
253.795	87.62
254.028	68.62
254.261	68.62
254.494	78.62
254.727	74.62
254.96	79.62
255.193	87.62
255.426	78.62
255.659	84.62
255.892	85.62
256.124	86.62
256.357	75.62
256.59	89.62
256.823	81.62
257.056	73.62
257.289	68.62
257.521	93.62
257.754	70.62
257.987	84.62
258.22	82.62
258.452	68.62
258.685	77.62
258.918	64.62
259.151	73.62
259.383	69.62
259.616	94.62
259.849	77.62
260.081	84.62
260.314	74.62
260.547	91.62
260.779	91.62
261.012	77.62
261.244	74.62
261.477	71.62
261.71	68.62
261.942	89.62
262.175	68.62
262.407	73.62
262.64	81.62
262.872	77.62
263.105	91.62
263.337	90.62
263.57	69.62
263.802	96.62
264.035	79.62
264.267	76.62
264.499	87.62
264.732	80.62
264.964	74.62
265.197	83.62
265.429	73.62
265.661	75.62
265.894	79.62
266.126	91.62
266.358	79.62
266.591	77.62
266.823	83.62
267.055	74.62
267.287	95.62
267.52	87.62
267.752	84.62
267.984	85.62
268.216	85.62
268.448	95.62
268.681	82.62
268.913	85.62
269.145	78.62
269.377	77.62
269.609	78.62
269.841	92.62
270.073	80.62
270.306	77.62
270.538	91.62
270.77	79.62
271.002	75.62
271.234	80.62
271.466	89.62
271.698	74.62
271.93	79.62
272.162	88.62
272.394	93.62
272.626	83.62
272.858	90.62
273.09	73.62
273.322	81.62
273.553	70.62
273.785	75.62
274.017	85.62
274.249	97.62
274.481	85.62
274.713	91.62
274.945	71.62
275.176	89.62
275.408	82.62
275.64	87.62
275.872	84.62
276.104	94.62
276.335	87.62
276.567	78.62
276.799	75.62
277.031	83.62
277.262	79.62
277.494	92.62
277.726	80.62
277.957	85.62
278.189	79.62
278.421	92.62
278.652	94.62
278.884	75.62
279.115	76.62
279.347	75.62
279.579	83.62
279.81	84.62
280.042	73.62
280.273	78.62
280.505	66.62
280.736	86.62
280.968	93.62
281.199	79.62
281.431	85.62
281.662	72.62
281.894	83.62
282.125	78.62
282.356	78.62
282.588	86.62
282.819	87.62
283.051	87.62
283.282	90.62
283.513	84.62
283.745	77.62
283.976	77.62
284.207	81.62
284.439	71.62
284.67	76.62
284.901	91.62
285.132	97.62
285.364	88.62
285.595	91.62
285.826	87.62
286.057	89.62
286.288	66.62
286.52	95.62
286.751	74.62
286.982	77.62
287.213	85.62
287.444	78.62
287.675	81.62
287.906	102.62
288.138	82.62
288.369	85.62
288.6	88.62
288.831	74.62
289.062	90.62
289.293	90.62
289.524	85.62
289.755	70.62
289.986	93.62
290.217	86.62
290.448	80.62
290.679	73.62
290.91	87.62
291.141	76.62
291.371	76.62
291.602	80.62
291.833	97.62
292.064	95.62
292.295	90.62
292.526	96.62
292.757	85.62
292.987	84.62
293.218	89.62
293.449	95.62
293.68	95.62
293.91	81.62
294.141	92.62
294.372	83.62
294.603	98.62
294.833	87.62
295.064	89.62
295.295	79.62
295.525	91.62
295.756	81.62
295.987	78.62
296.217	88.62
296.448	73.62
296.679	78.62
296.909	83.62
297.14	84.62
297.37	100.62
297.601	100.62
297.831	83.62
298.062	95.62
298.292	73.62
298.523	74.62
298.753	82.62
298.984	77.62
299.214	86.62
299.445	86.62
299.675	76.62
299.905	89.62
300.136	71.62
300.366	83.62
300.597	98.62
300.827	80.62
301.057	99.62
301.288	95.62
301.518	85.62
301.748	85.62
301.979	82.62
302.209	92.62
302.439	78.62
302.669	97.62
302.9	89.62
303.13	100.62
303.36	86.62
303.59	81.62
303.82	88.62
304.051	83.62
304.281	66.62
304.511	100.62
304.741	92.62
304.971	80.62
305.201	102.62
305.431	87.62
305.661	92.62
305.891	94.62
306.121	100.62
306.352	83.62
306.582	82.62
306.812	88.62
307.042	83.62
307.272	82.62
307.502	97.62
307.731	97.62
307.961	90.62
308.191	90.62
308.421	77.62
308.651	83.62
308.881	87.62
309.111	87.62
309.341	82.62
309.571	82.62
309.8	67.62
310.03	74.62
310.26	91.62
310.49	84.62
310.72	70.62
310.949	84.62
311.179	87.62
311.409	73.62
311.639	84.62
311.868	81.62
312.098	81.62
312.328	84.62
312.557	104.62
312.787	92.62
313.017	99.62
313.246	75.62
313.476	93.62
313.706	81.62
313.935	80.62
314.165	84.62
314.394	75.62
314.624	68.62
314.853	92.62
315.083	74.62
315.312	85.62
315.542	92.62
315.771	76.62
316.001	87.62
316.23	90.62
316.46	93.62
316.689	79.62
316.919	90.62
317.148	81.62
317.377	86.62
317.607	84.62
317.836	83.62
318.065	96.62
318.295	81.62
318.524	83.62
318.753	98.62
318.983	95.62
319.212	90.62
319.441	96.62
319.67	95.62
319.9	86.62
320.129	84.62
320.358	76.62
320.587	76.62
320.816	85.62
321.046	84.62
321.275	102.62
321.504	81.62
321.733	84.62
321.962	97.62
322.191	87.62
322.42	84.62
322.649	67.62
322.878	83.62
323.108	97.62
323.337	83.62
323.566	95.62
323.795	96.62
324.024	88.62
324.253	84.62
324.482	85.62
324.71	80.62
324.939	80.62
325.168	81.62
325.397	83.62
325.626	104.62
325.855	83.62
326.084	89.62
326.313	86.62
326.542	88.62
326.77	97.62
326.999	85.62
327.228	89.62
327.457	81.62
327.686	74.62
327.914	79.62
328.143	89.62
328.372	90.62
328.6	87.62
328.829	84.62
329.058	85.62
329.287	76.62
329.515	83.62
329.744	74.62
329.972	83.62
330.201	88.62
330.43	79.62
330.658	87.62
330.887	91.62
331.115	81.62
331.344	85.62
331.572	97.62
331.801	83.62
332.03	81.62
332.258	89.62
332.486	75.62
332.715	84.62
332.943	85.62
333.172	86.62
333.4	75.62
333.629	80.62
333.857	86.62
334.085	101.62
334.314	91.62
334.542	89.62
334.771	87.62
334.999	88.62
335.227	82.62
335.455	89.62
335.684	84.62
335.912	91.62
336.14	74.62
336.369	92.62
336.597	88.62
336.825	88.62
337.053	87.62
337.281	82.62
337.51	81.62
337.738	88.62
337.966	83.62
338.194	93.62
338.422	70.62
338.65	80.62
338.878	70.62
339.106	85.62
339.334	94.62
339.562	87.62
339.79	68.62
340.018	83.62
340.246	83.62
340.474	82.62
340.702	88.62
340.93	80.62
341.158	75.62
341.386	75.62
341.614	93.62
341.842	95.62
342.07	80.62
342.298	76.62
342.526	79.62
342.754	95.62
342.981	75.62
343.209	93.62
343.437	86.62
343.665	87.62
343.893	85.62
344.12	98.62
344.348	93.62
344.576	87.62
344.804	90.62
345.031	73.62
345.259	74.62
345.487	81.62
345.714	78.62
345.942	86.62
346.17	78.62
346.397	88.62
346.625	82.62
346.853	83.62
347.08	80.62
347.308	83.62
347.535	85.62
347.763	73.62
347.99	80.62
348.218	92.62
348.445	86.62
348.673	83.62
348.9	71.62
349.128	90.62
349.355	88.62
349.583	85.62
349.81	81.62
350.037	81.62
350.265	93.62
350.492	90.62
350.72	80.62
350.947	93.62
351.174	85.62
351.402	77.62
351.629	92.62
351.856	100.62
352.083	77.62
352.311	77.62
352.538	99.62
352.765	88.62
352.992	101.62
353.22	87.62
353.447	85.62
353.674	78.62
353.901	89.62
354.128	84.62
354.355	61.62
354.583	75.62
354.81	72.62
355.037	79.62
355.264	77.62
355.491	86.62
355.718	86.62
355.945	91.62
356.172	75.62
356.399	77.62
356.626	82.62
356.853	74.62
357.08	76.62
357.307	96.62
357.534	91.62
357.761	82.62
357.988	84.62
358.215	97.62
358.441	81.62
358.668	80.62
358.895	88.62
359.122	81.62
359.349	73.62
359.576	87.62
359.802	89.62
360.029	80.62
360.256	84.62
360.483	91.62
360.709	92.62
360.936	92.62
361.163	93.62
361.39	85.62
361.616	92.62
361.843	94.62
362.07	92.62
362.296	82.62
362.523	74.62
362.749	81.62
362.976	84.62
363.203	87.62
363.429	81.62
363.656	88.62
363.882	77.62
364.109	85.62
364.335	87.62
364.562	90.62
364.788	75.62
365.015	84.62
365.241	85.62
365.468	89.62
365.694	84.62
365.92	91.62
366.147	99.62
366.373	92.62
366.599	99.62
366.826	91.62
367.052	87.62
367.278	91.62
367.505	97.62
367.731	95.62
367.957	88.62
368.184	86.62
368.41	82.62
368.636	108.62
368.862	87.62
369.089	103.62
369.315	89.62
369.541	88.62
369.767	83.62
369.993	86.62
370.219	102.62
370.445	89.62
370.672	90.62
370.898	84.62
371.124	91.62
371.35	84.62
371.576	100.62
371.802	99.62
372.028	90.62
372.254	92.62
372.48	85.62
372.706	80.62
372.932	87.62
373.158	77.62
373.384	98.62
373.61	93.62
373.835	89.62
374.061	99.62
374.287	98.62
374.513	82.62
374.739	84.62
374.965	90.62
375.191	92.62
375.416	91.62
375.642	91.62
375.868	86.62
376.094	102.62
376.319	80.62
376.545	97.62
376.771	94.62
376.997	98.62
377.222	97.62
377.448	95.62
377.674	98.62
377.899	93.62
378.125	89.62
378.35	103.62
378.576	114.62
378.802	110.62
379.027	117.62
379.253	91.62
379.478	104.62
379.704	95.62
379.929	97.62
380.155	85.62
380.38	101.62
380.606	109.62
380.831	99.62
381.057	92.62
381.282	79.62
381.507	85.62
381.733	94.62
381.958	93.62
382.184	118.62
382.409	103.62
382.634	107.62
382.86	96.62
383.085	115.62
383.31	98.62
383.535	109.62
383.761	92.62
383.986	99.62
384.211	104.62
384.436	114.62
384.662	111.62
384.887	95.62
385.112	91.62
385.337	99.62
385.562	90.62
385.787	95.62
386.013	91.62
386.238	111.62
386.463	93.62
386.688	99.62
386.913	97.62
387.138	94.62
387.363	100.62
387.588	108.62
387.813	109.62
388.038	118.62
388.263	114.62
388.488	123.62
388.713	98.62
388.938	90.62
389.163	115.62
389.387	111.62
389.612	100.62
389.837	90.62
390.062	114.62
390.287	99.62
390.512	108.62
390.736	93.62
390.961	106.62
391.186	103.62
391.411	111.62
391.636	103.62
391.86	101.62
392.085	99.62
392.31	101.62
392.534	113.62
392.759	108.62
392.984	105.62
393.208	100.62
393.433	103.62
393.658	105.62
393.882	112.62
394.107	101.62
394.331	99.62
394.556	119.62
394.78	113.62
395.005	92.62
395.229	105.62
395.454	123.62
395.678	110.62
395.903	118.62
396.127	98.62
396.352	105.62
396.576	108.62
396.801	93.62
397.025	107.62
397.249	99.62
397.474	120.62
397.698	99.62
397.922	119.62
398.147	112.62
398.371	123.62
398.595	116.62
398.82	103.62
399.044	103.62
399.268	98.62
399.492	121.62
399.717	117.62
399.941	99.62
400.165	117.62
400.389	109.62
400.613	100.62
400.837	119.62
401.062	123.62
401.286	111.62
401.51	123.62
401.734	99.62
401.958	123.62
402.182	119.62
402.406	109.62
402.63	123.62
402.854	124.62
403.078	133.62
403.302	111.62
403.526	111.62
403.75	114.62
403.974	118.62
404.198	106.62
404.422	127.62
404.645	113.62
404.869	111.62
405.093	120.62
405.317	116.62
405.541	129.62
405.765	125.62
405.988	120.62
406.212	116.62
406.436	115.62
406.66	122.62
406.883	113.62
407.107	112.62
407.331	130.62
407.555	119.62
407.778	113.62
408.002	121.62
408.226	110.62
408.449	123.62
408.673	124.62
408.896	124.62
409.12	143.62
409.344	133.62
409.567	117.62
409.791	117.62
410.014	128.62
410.238	113.62
410.461	125.62
410.685	129.62
410.908	113.62
411.132	129.62
411.355	133.62
411.578	123.62
411.802	142.62
412.025	121.62
412.249	112.62
412.472	120.62
412.695	130.62
412.919	141.62
413.142	127.62
413.365	120.62
413.589	131.62
413.812	120.62
414.035	123.62
414.258	118.62
414.482	133.62
414.705	130.62
414.928	126.62
415.151	119.62
415.374	119.62
415.597	111.62
415.821	129.62
416.044	132.62
416.267	122.62
416.49	127.62
416.713	119.62
416.936	136.62
417.159	141.62
417.382	126.62
417.605	139.62
417.828	133.62
418.051	135.62
418.274	141.62
418.497	134.62
418.72	140.62
418.943	135.62
419.166	138.62
419.389	151.62
419.611	139.62
419.834	138.62
420.057	128.62
420.28	149.62
420.503	137.62
420.726	142.62
420.948	135.62
421.171	129.62
421.394	141.62
421.617	151.62
421.839	150.62
422.062	134.62
422.285	138.62
422.507	136.62
422.73	116.62
422.953	133.62
423.175	123.62
423.398	121.62
423.621	135.62
423.843	155.62
424.066	132.62
424.288	149.62
424.511	146.62
424.733	138.62
424.956	150.62
425.178	135.62
425.401	130.62
425.623	139.62
425.846	144.62
426.068	135.62
426.291	129.62
426.513	132.62
426.735	123.62
426.958	123.62
427.18	133.62
427.402	124.62
427.625	125.62
427.847	135.62
428.069	120.62
428.292	141.62
428.514	130.62
428.736	141.62
428.958	128.62
429.181	149.62
429.403	124.62
429.625	116.62
429.847	129.62
430.069	127.62
430.292	129.62
430.514	140.62
430.736	138.62
430.958	130.62
431.18	142.62
431.402	131.62
431.624	106.62
431.846	104.62
432.068	102.62
432.29	95.62
432.512	119.62
432.734	129.62
432.956	143.62
433.178	141.62
433.4	139.62
433.622	152.62
433.844	130.62
434.066	112.62
434.287	114.62
434.509	101.62
434.731	122.62
434.953	118.62
435.175	127.62
435.397	143.62
435.618	131.62
435.84	121.62
436.062	125.62
436.284	135.62
436.505	122.62
436.727	137.62
436.949	137.62
437.17	127.62
437.392	136.62
437.614	129.62
437.835	111.62
438.057	119.62
438.278	113.62
438.5	117.62
438.721	144.62
438.943	140.62
439.165	138.62
439.386	137.62
439.608	145.62
439.829	157.62
440.05	144.62
440.272	156.62
440.493	143.62
440.715	152.62
440.936	139.62
441.158	149.62
441.379	162.62
441.6	149.62
441.822	149.62
442.043	166.62
442.264	153.62
442.486	149.62
442.707	148.62
442.928	153.62
443.149	153.62
443.371	142.62
443.592	136.62
443.813	145.62
444.034	138.62
444.255	145.62
444.476	142.62
444.698	141.62
444.919	149.62
445.14	265.62
445.361	191.62
445.582	163.62
445.803	159.62
446.024	160.62
446.245	145.62
446.466	171.62
446.687	151.62
446.908	164.62
447.129	179.62
447.35	157.62
447.571	153.62
447.792	158.62
448.013	138.62
448.234	139.62
448.455	157.62
448.675	147.62
448.896	153.62
449.117	140.62
449.338	124.62
449.559	144.62
449.779	133.62
450	146.62
450.221	139.62
450.442	135.62
450.662	140.62
450.883	131.62
451.104	150.62
451.324	127.62
451.545	128.62
451.766	139.62
451.986	129.62
452.207	125.62
452.428	115.62
452.648	125.62
452.869	128.62
453.089	121.62
453.31	129.62
453.53	103.62
453.751	101.62
453.971	113.62
454.192	103.62
454.412	113.62
454.633	107.62
454.853	118.62
455.073	127.62
455.294	113.62
455.514	120.62
455.734	119.62
455.955	124.62
456.175	121.62
456.395	121.62
456.616	108.62
456.836	118.62
457.056	108.62
457.276	109.62
457.497	120.62
457.717	106.62
457.937	111.62
458.157	111.62
458.377	93.62
458.598	117.62
458.818	89.62
459.038	92.62
459.258	85.62
459.478	91.62
459.698	100.62
459.918	105.62
460.138	120.62
460.358	114.62
460.578	99.62
460.798	113.62
461.018	126.62
461.238	119.62
461.458	109.62
461.678	109.62
461.898	125.62
462.118	117.62
462.338	126.62
462.558	116.62
462.777	105.62
462.997	122.62
463.217	98.62
463.437	110.62
463.657	109.62
463.876	124.62
464.096	109.62
464.316	119.62
464.536	109.62
464.755	121.62
464.975	117.62
465.195	128.62
465.414	122.62
465.634	119.62
465.854	128.62
466.073	122.62
466.293	129.62
466.512	146.62
466.732	139.62
466.951	147.62
467.171	159.62
467.391	139.62
467.61	155.62
467.829	125.62
468.049	132.62
468.268	123.62
468.488	134.62
468.707	138.62
468.927	147.62
469.146	148.62
469.365	149.62
469.585	152.62
469.804	129.62
470.023	150.62
470.243	144.62
470.462	156.62
470.681	140.62
470.901	152.62
471.12	137.62
471.339	159.62
471.558	159.62
471.777	159.62
471.997	151.62
472.216	140.62
472.435	137.62
472.654	112.62
472.873	119.62
473.092	105.62
473.311	125.62
473.53	124.62
473.749	135.62
473.968	131.62
474.187	131.62
474.406	135.62
474.625	136.62
474.844	133.62
475.063	125.62
475.282	123.62
475.501	118.62
475.72	119.62
475.939	126.62
476.158	141.62
476.377	136.62
476.596	120.62
476.814	116.62
477.033	119.62
477.252	111.62
477.471	113.62
477.69	130.62
477.908	143.62
478.127	148.62
478.346	131.62
478.564	135.62
478.783	132.62
479.002	143.62
479.22	146.62
479.439	143.62
479.658	130.62
479.876	119.62
480.095	109.62
480.313	125.62
480.532	124.62
480.751	104.62
480.969	109.62
481.188	88.62
481.406	93.62
481.624	91.62
481.843	90.62
482.061	100.62
482.28	131.62
482.498	117.62
482.717	122.62
482.935	147.62
483.153	159.62
483.372	172.62
483.59	152.62
483.808	159.62
484.027	131.62
484.245	145.62
484.463	151.62
484.681	164.62
484.9	161.62
485.118	152.62
485.336	133.62
485.554	131.62
485.772	111.62
485.99	100.62
486.209	117.62
486.427	112.62
486.645	133.62
486.863	140.62
487.081	159.62
487.299	124.62
487.517	135.62
487.735	183.62
487.953	187.62
488.171	208.62
488.389	177.62
488.607	175.62
488.825	143.62
489.043	147.62
489.261	147.62
489.479	147.62
489.696	161.62
489.914	152.62
490.132	154.62
490.35	161.62
490.568	169.62
490.786	185.62
491.003	167.62
491.221	176.62
491.439	203.62
491.657	197.62
491.874	223.62
492.092	232.62
492.31	244.62
492.527	243.62
492.745	212.62
492.963	205.62
493.18	178.62
493.398	192.62
493.615	192.62
493.833	191.62
494.05	173.62
494.268	175.62
494.485	183.62
494.703	179.62
494.92	178.62
495.138	182.62
495.355	172.62
495.573	195.62
495.79	173.62
496.008	167.62
496.225	164.62
496.442	170.62
496.66	162.62
496.877	186.62
497.094	164.62
497.312	175.62
497.529	167.62
497.746	161.62
497.963	158.62
498.181	132.62
498.398	137.62
498.615	127.62
498.832	108.62
499.049	109.62
499.267	132.62
499.484	129.62
499.701	129.62
499.918	133.62
500.135	142.62
500.352	133.62
500.569	133.62
500.786	155.62
501.003	157.62
501.22	155.62
501.437	148.62
501.654	150.62
501.871	133.62
502.088	119.62
502.305	137.62
502.522	139.62
502.739	136.62
502.956	145.62
503.172	121.62
503.389	126.62
503.606	124.62
503.823	126.62
504.04	125.62
504.256	122.62
504.473	119.62
504.69	134.62
504.907	133.62
505.123	127.62
505.34	127.62
505.557	126.62
505.773	119.62
505.99	139.62
506.207	124.62
506.423	104.62
506.64	133.62
506.856	114.62
507.073	126.62
507.289	138.62
507.506	123.62
507.722	126.62
507.939	119.62
508.155	105.62
508.372	125.62
508.588	131.62
508.805	115.62
509.021	123.62
509.238	105.62
509.454	104.62
509.67	106.62
509.887	115.62
510.103	98.62
510.319	91.62
510.536	96.62
510.752	83.62
510.968	85.62
511.184	86.62
511.401	85.62
