Data from Location6.07152019.Energy5.Lamp.07192019.3%Agarose_HRD10591_16-10-54-394.txt Node
Date: Fri Jul 19 16:10:54 EDT 2019
User: cochatt
Spectrometer: HR+D1059
Trigger mode: 1
Integration Time (sec): 1.000000E-1
Scans to average: 1
Electric dark correction enabled: true
Nonlinearity correction enabled: false
Boxcar width: 0
XAxis mode: Wavelengths
Number of Pixels in Spectrum: 2048
>>>>>Begin Spectral Data<<<<<
223.165	-17.75
223.4	-17.75
223.635	-17.75
223.869	-16.75
224.104	-16.75
224.338	-14.75
224.573	-1.75
224.808	-30.75
225.042	-8.75
225.277	-9.75
225.511	0.25
225.746	-1.75
225.98	6.25
226.215	14.25
226.449	14.25
226.683	28.25
226.918	25.25
227.152	30.25
227.387	31.25
227.621	45.25
227.856	55.25
228.09	51.25
228.324	49.25
228.559	59.25
228.793	53.25
229.027	58.25
229.262	51.25
229.496	75.25
229.73	60.25
229.964	70.25
230.199	76.25
230.433	81.25
230.667	77.25
230.901	75.25
231.136	80.25
231.37	76.25
231.604	79.25
231.838	87.25
232.072	84.25
232.306	104.25
232.541	86.25
232.775	97.25
233.009	80.25
233.243	83.25
233.477	79.25
233.711	99.25
233.945	76.25
234.179	80.25
234.413	66.25
234.647	96.25
234.881	96.25
235.115	83.25
235.349	72.25
235.583	78.25
235.817	73.25
236.051	79.25
236.285	67.25
236.519	69.25
236.753	75.25
236.987	72.25
237.221	78.25
237.455	66.25
237.689	69.25
237.922	62.25
238.156	71.25
238.39	66.25
238.624	75.25
238.858	85.25
239.091	86.25
239.325	78.25
239.559	83.25
239.793	61.25
240.027	81.25
240.26	82.25
240.494	84.25
240.728	62.25
240.961	82.25
241.195	61.25
241.429	83.25
241.662	74.25
241.896	72.25
242.13	57.25
242.363	62.25
242.597	77.25
242.83	78.25
243.064	87.25
243.298	73.25
243.531	73.25
243.765	67.25
243.998	74.25
244.232	80.25
244.465	74.25
244.699	70.25
244.932	75.25
245.166	75.25
245.399	78.25
245.633	69.25
245.866	73.25
246.099	77.25
246.333	78.25
246.566	68.25
246.8	87.25
247.033	77.25
247.266	86.25
247.5	84.25
247.733	84.25
247.966	74.25
248.2	71.25
248.433	74.25
248.666	72.25
248.899	67.25
249.133	83.25
249.366	75.25
249.599	91.25
249.832	77.25
250.066	73.25
250.299	82.25
250.532	73.25
250.765	74.25
250.998	70.25
251.231	72.25
251.465	72.25
251.698	90.25
251.931	77.25
252.164	72.25
252.397	70.25
252.63	64.25
252.863	68.25
253.096	79.25
253.329	72.25
253.562	84.25
253.795	88.25
254.028	82.25
254.261	74.25
254.494	90.25
254.727	84.25
254.96	79.25
255.193	76.25
255.426	85.25
255.659	85.25
255.892	77.25
256.124	76.25
256.357	77.25
256.59	89.25
256.823	86.25
257.056	82.25
257.289	77.25
257.521	86.25
257.754	83.25
257.987	72.25
258.22	80.25
258.452	86.25
258.685	73.25
258.918	84.25
259.151	89.25
259.383	79.25
259.616	76.25
259.849	81.25
260.081	80.25
260.314	88.25
260.547	85.25
260.779	83.25
261.012	74.25
261.244	70.25
261.477	84.25
261.71	81.25
261.942	72.25
262.175	76.25
262.407	66.25
262.64	74.25
262.872	83.25
263.105	74.25
263.337	81.25
263.57	85.25
263.802	72.25
264.035	69.25
264.267	75.25
264.499	75.25
264.732	81.25
264.964	79.25
265.197	81.25
265.429	76.25
265.661	66.25
265.894	68.25
266.126	65.25
266.358	97.25
266.591	79.25
266.823	82.25
267.055	87.25
267.287	82.25
267.52	72.25
267.752	76.25
267.984	104.25
268.216	83.25
268.448	79.25
268.681	74.25
268.913	74.25
269.145	79.25
269.377	78.25
269.609	85.25
269.841	75.25
270.073	78.25
270.306	80.25
270.538	73.25
270.77	72.25
271.002	92.25
271.234	77.25
271.466	92.25
271.698	82.25
271.93	77.25
272.162	79.25
272.394	82.25
272.626	87.25
272.858	90.25
273.09	79.25
273.322	88.25
273.553	85.25
273.785	92.25
274.017	91.25
274.249	88.25
274.481	85.25
274.713	75.25
274.945	88.25
275.176	79.25
275.408	83.25
275.64	79.25
275.872	81.25
276.104	86.25
276.335	90.25
276.567	79.25
276.799	76.25
277.031	90.25
277.262	88.25
277.494	76.25
277.726	81.25
277.957	80.25
278.189	73.25
278.421	73.25
278.652	82.25
278.884	91.25
279.115	71.25
279.347	80.25
279.579	90.25
279.81	81.25
280.042	77.25
280.273	74.25
280.505	76.25
280.736	76.25
280.968	67.25
281.199	90.25
281.431	83.25
281.662	87.25
281.894	84.25
282.125	86.25
282.356	84.25
282.588	80.25
282.819	83.25
283.051	87.25
283.282	70.25
283.513	96.25
283.745	84.25
283.976	85.25
284.207	86.25
284.439	78.25
284.67	76.25
284.901	89.25
285.132	75.25
285.364	83.25
285.595	101.25
285.826	86.25
286.057	81.25
286.288	87.25
286.52	79.25
286.751	77.25
286.982	91.25
287.213	75.25
287.444	71.25
287.675	82.25
287.906	87.25
288.138	85.25
288.369	71.25
288.6	75.25
288.831	86.25
289.062	95.25
289.293	82.25
289.524	84.25
289.755	79.25
289.986	84.25
290.217	96.25
290.448	86.25
290.679	79.25
290.91	80.25
291.141	79.25
291.371	73.25
291.602	88.25
291.833	79.25
292.064	74.25
292.295	80.25
292.526	89.25
292.757	77.25
292.987	89.25
293.218	87.25
293.449	80.25
293.68	85.25
293.91	83.25
294.141	70.25
294.372	83.25
294.603	76.25
294.833	83.25
295.064	86.25
295.295	84.25
295.525	78.25
295.756	88.25
295.987	95.25
296.217	83.25
296.448	89.25
296.679	95.25
296.909	90.25
297.14	97.25
297.37	79.25
297.601	91.25
297.831	75.25
298.062	84.25
298.292	85.25
298.523	84.25
298.753	93.25
298.984	86.25
299.214	80.25
299.445	85.25
299.675	99.25
299.905	99.25
300.136	88.25
300.366	81.25
300.597	94.25
300.827	91.25
301.057	72.25
301.288	77.25
301.518	85.25
301.748	70.25
301.979	84.25
302.209	81.25
302.439	94.25
302.669	89.25
302.9	82.25
303.13	73.25
303.36	92.25
303.59	94.25
303.82	97.25
304.051	97.25
304.281	94.25
304.511	78.25
304.741	71.25
304.971	80.25
305.201	73.25
305.431	83.25
305.661	83.25
305.891	76.25
306.121	91.25
306.352	86.25
306.582	74.25
306.812	85.25
307.042	79.25
307.272	73.25
307.502	90.25
307.731	91.25
307.961	85.25
308.191	81.25
308.421	86.25
308.651	74.25
308.881	74.25
309.111	89.25
309.341	84.25
309.571	95.25
309.8	70.25
310.03	95.25
310.26	80.25
310.49	92.25
310.72	87.25
310.949	83.25
311.179	69.25
311.409	80.25
311.639	88.25
311.868	80.25
312.098	88.25
312.328	89.25
312.557	74.25
312.787	84.25
313.017	82.25
313.246	85.25
313.476	82.25
313.706	79.25
313.935	94.25
314.165	79.25
314.394	83.25
314.624	86.25
314.853	78.25
315.083	80.25
315.312	97.25
315.542	91.25
315.771	97.25
316.001	93.25
316.23	80.25
316.46	80.25
316.689	87.25
316.919	89.25
317.148	75.25
317.377	83.25
317.607	89.25
317.836	81.25
318.065	79.25
318.295	76.25
318.524	83.25
318.753	92.25
318.983	82.25
319.212	75.25
319.441	89.25
319.67	83.25
319.9	83.25
320.129	76.25
320.358	75.25
320.587	73.25
320.816	83.25
321.046	88.25
321.275	83.25
321.504	64.25
321.733	80.25
321.962	74.25
322.191	88.25
322.42	82.25
322.649	81.25
322.878	83.25
323.108	79.25
323.337	74.25
323.566	80.25
323.795	69.25
324.024	90.25
324.253	80.25
324.482	74.25
324.71	87.25
324.939	101.25
325.168	84.25
325.397	87.25
325.626	94.25
325.855	91.25
326.084	93.25
326.313	84.25
326.542	85.25
326.77	85.25
326.999	77.25
327.228	76.25
327.457	80.25
327.686	75.25
327.914	82.25
328.143	88.25
328.372	86.25
328.6	84.25
328.829	83.25
329.058	80.25
329.287	66.25
329.515	83.25
329.744	95.25
329.972	97.25
330.201	78.25
330.43	79.25
330.658	83.25
330.887	84.25
331.115	103.25
331.344	81.25
331.572	70.25
331.801	91.25
332.03	85.25
332.258	82.25
332.486	87.25
332.715	77.25
332.943	86.25
333.172	76.25
333.4	73.25
333.629	80.25
333.857	94.25
334.085	74.25
334.314	89.25
334.542	86.25
334.771	73.25
334.999	90.25
335.227	87.25
335.455	79.25
335.684	83.25
335.912	91.25
336.14	78.25
336.369	93.25
336.597	87.25
336.825	98.25
337.053	77.25
337.281	83.25
337.51	87.25
337.738	91.25
337.966	81.25
338.194	77.25
338.422	74.25
338.65	92.25
338.878	81.25
339.106	67.25
339.334	90.25
339.562	79.25
339.79	75.25
340.018	83.25
340.246	85.25
340.474	93.25
340.702	80.25
340.93	89.25
341.158	87.25
341.386	77.25
341.614	88.25
341.842	96.25
342.07	65.25
342.298	74.25
342.526	97.25
342.754	64.25
342.981	87.25
343.209	94.25
343.437	94.25
343.665	89.25
343.893	75.25
344.12	65.25
344.348	83.25
344.576	86.25
344.804	80.25
345.031	81.25
345.259	74.25
345.487	74.25
345.714	73.25
345.942	85.25
346.17	87.25
346.397	95.25
346.625	75.25
346.853	73.25
347.08	68.25
347.308	64.25
347.535	86.25
347.763	87.25
347.99	87.25
348.218	87.25
348.445	74.25
348.673	81.25
348.9	80.25
349.128	73.25
349.355	74.25
349.583	80.25
349.81	87.25
350.037	90.25
350.265	82.25
350.492	69.25
350.72	82.25
350.947	57.25
351.174	84.25
351.402	84.25
351.629	89.25
351.856	75.25
352.083	90.25
352.311	80.25
352.538	90.25
352.765	86.25
352.992	92.25
353.22	74.25
353.447	84.25
353.674	91.25
353.901	83.25
354.128	95.25
354.355	84.25
354.583	90.25
354.81	87.25
355.037	76.25
355.264	83.25
355.491	81.25
355.718	84.25
355.945	98.25
356.172	85.25
356.399	80.25
356.626	88.25
356.853	76.25
357.08	86.25
357.307	89.25
357.534	89.25
357.761	70.25
357.988	91.25
358.215	72.25
358.441	85.25
358.668	86.25
358.895	79.25
359.122	83.25
359.349	84.25
359.576	72.25
359.802	73.25
360.029	79.25
360.256	87.25
360.483	92.25
360.709	83.25
360.936	88.25
361.163	100.25
361.39	98.25
361.616	85.25
361.843	75.25
362.07	86.25
362.296	81.25
362.523	82.25
362.749	71.25
362.976	93.25
363.203	84.25
363.429	86.25
363.656	79.25
363.882	90.25
364.109	91.25
364.335	95.25
364.562	91.25
364.788	74.25
365.015	85.25
365.241	88.25
365.468	84.25
365.694	77.25
365.92	82.25
366.147	92.25
366.373	79.25
366.599	79.25
366.826	86.25
367.052	91.25
367.278	92.25
367.505	92.25
367.731	87.25
367.957	80.25
368.184	76.25
368.41	104.25
368.636	79.25
368.862	88.25
369.089	92.25
369.315	105.25
369.541	106.25
369.767	91.25
369.993	100.25
370.219	89.25
370.445	90.25
370.672	86.25
370.898	94.25
371.124	88.25
371.35	88.25
371.576	91.25
371.802	88.25
372.028	89.25
372.254	81.25
372.48	88.25
372.706	83.25
372.932	95.25
373.158	79.25
373.384	99.25
373.61	92.25
373.835	104.25
374.061	81.25
374.287	87.25
374.513	95.25
374.739	84.25
374.965	85.25
375.191	94.25
375.416	90.25
375.642	97.25
375.868	94.25
376.094	95.25
376.319	103.25
376.545	85.25
376.771	86.25
376.997	87.25
377.222	80.25
377.448	86.25
377.674	75.25
377.899	96.25
378.125	98.25
378.35	108.25
378.576	105.25
378.802	97.25
379.027	99.25
379.253	102.25
379.478	101.25
379.704	96.25
379.929	98.25
380.155	93.25
380.38	102.25
380.606	99.25
380.831	84.25
381.057	84.25
381.282	108.25
381.507	100.25
381.733	83.25
381.958	89.25
382.184	103.25
382.409	105.25
382.634	80.25
382.86	100.25
383.085	97.25
383.31	93.25
383.535	101.25
383.761	92.25
383.986	106.25
384.211	110.25
384.436	80.25
384.662	92.25
384.887	99.25
385.112	94.25
385.337	89.25
385.562	100.25
385.787	114.25
386.013	114.25
386.238	103.25
386.463	110.25
386.688	103.25
386.913	110.25
387.138	110.25
387.363	112.25
387.588	118.25
387.813	102.25
388.038	99.25
388.263	102.25
388.488	107.25
388.713	84.25
388.938	102.25
389.163	120.25
389.387	105.25
389.612	108.25
389.837	106.25
390.062	96.25
390.287	114.25
390.512	107.25
390.736	92.25
390.961	100.25
391.186	89.25
391.411	106.25
391.636	114.25
391.86	105.25
392.085	104.25
392.31	102.25
392.534	98.25
392.759	103.25
392.984	106.25
393.208	112.25
393.433	106.25
393.658	110.25
393.882	104.25
394.107	110.25
394.331	115.25
394.556	110.25
394.78	107.25
395.005	107.25
395.229	115.25
395.454	107.25
395.678	107.25
395.903	122.25
396.127	122.25
396.352	108.25
396.576	125.25
396.801	112.25
397.025	103.25
397.249	110.25
397.474	112.25
397.698	115.25
397.922	106.25
398.147	118.25
398.371	95.25
398.595	113.25
398.82	108.25
399.044	119.25
399.268	107.25
399.492	117.25
399.717	119.25
399.941	119.25
400.165	119.25
400.389	100.25
400.613	116.25
400.837	122.25
401.062	100.25
401.286	120.25
401.51	123.25
401.734	112.25
401.958	103.25
402.182	122.25
402.406	106.25
402.63	119.25
402.854	118.25
403.078	129.25
403.302	132.25
403.526	122.25
403.75	111.25
403.974	117.25
404.198	127.25
404.422	132.25
404.645	112.25
404.869	107.25
405.093	104.25
405.317	123.25
405.541	124.25
405.765	123.25
405.988	123.25
406.212	105.25
406.436	126.25
406.66	118.25
406.883	111.25
407.107	128.25
407.331	120.25
407.555	110.25
407.778	119.25
408.002	124.25
408.226	117.25
408.449	112.25
408.673	114.25
408.896	122.25
409.12	135.25
409.344	141.25
409.567	124.25
409.791	118.25
410.014	115.25
410.238	128.25
410.461	116.25
410.685	128.25
410.908	134.25
411.132	111.25
411.355	123.25
411.578	128.25
411.802	126.25
412.025	134.25
412.249	120.25
412.472	112.25
412.695	127.25
412.919	105.25
413.142	123.25
413.365	122.25
413.589	137.25
413.812	119.25
414.035	107.25
414.258	122.25
414.482	123.25
414.705	132.25
414.928	125.25
415.151	120.25
415.374	116.25
415.597	115.25
415.821	127.25
416.044	128.25
416.267	139.25
416.49	124.25
416.713	122.25
416.936	128.25
417.159	137.25
417.382	136.25
417.605	134.25
417.828	134.25
418.051	127.25
418.274	136.25
418.497	128.25
418.72	120.25
418.943	138.25
419.166	127.25
419.389	137.25
419.611	149.25
419.834	135.25
420.057	136.25
420.28	140.25
420.503	112.25
420.726	122.25
420.948	129.25
421.171	141.25
421.394	139.25
421.617	138.25
421.839	139.25
422.062	152.25
422.285	140.25
422.507	158.25
422.73	128.25
422.953	118.25
423.175	136.25
423.398	130.25
423.621	145.25
423.843	135.25
424.066	149.25
424.288	160.25
424.511	155.25
424.733	162.25
424.956	148.25
425.178	144.25
425.401	138.25
425.623	149.25
425.846	118.25
426.068	133.25
426.291	148.25
426.513	144.25
426.735	126.25
426.958	151.25
427.18	114.25
427.402	119.25
427.625	128.25
427.847	139.25
428.069	132.25
428.292	134.25
428.514	138.25
428.736	137.25
428.958	128.25
429.181	131.25
429.403	128.25
429.625	130.25
429.847	131.25
430.069	132.25
430.292	124.25
430.514	130.25
430.736	138.25
430.958	127.25
431.18	128.25
431.402	131.25
431.624	133.25
431.846	112.25
432.068	104.25
432.29	105.25
432.512	121.25
432.734	122.25
432.956	135.25
433.178	130.25
433.4	141.25
433.622	136.25
433.844	150.25
434.066	125.25
434.287	110.25
434.509	93.25
434.731	88.25
434.953	115.25
435.175	136.25
435.397	132.25
435.618	116.25
435.84	114.25
436.062	117.25
436.284	130.25
436.505	135.25
436.727	128.25
436.949	131.25
437.17	122.25
437.392	118.25
437.614	118.25
437.835	110.25
438.057	97.25
438.278	114.25
438.5	130.25
438.721	129.25
438.943	133.25
439.165	144.25
439.386	138.25
439.608	141.25
439.829	151.25
440.05	155.25
440.272	164.25
440.493	149.25
440.715	137.25
440.936	141.25
441.158	152.25
441.379	152.25
441.6	144.25
441.822	158.25
442.043	156.25
442.264	134.25
442.486	154.25
442.707	145.25
442.928	142.25
443.149	155.25
443.371	134.25
443.592	134.25
443.813	147.25
444.034	132.25
444.255	132.25
444.476	147.25
444.698	154.25
444.919	154.25
445.14	274.25
445.361	214.25
445.582	158.25
445.803	144.25
446.024	158.25
446.245	150.25
446.466	165.25
446.687	167.25
446.908	162.25
447.129	164.25
447.35	164.25
447.571	166.25
447.792	162.25
448.013	154.25
448.234	129.25
448.455	144.25
448.675	137.25
448.896	150.25
449.117	160.25
449.338	144.25
449.559	146.25
449.779	139.25
450	139.25
450.221	135.25
450.442	127.25
450.662	143.25
450.883	138.25
451.104	131.25
451.324	136.25
451.545	124.25
451.766	129.25
451.986	136.25
452.207	135.25
452.428	136.25
452.648	135.25
452.869	119.25
453.089	124.25
453.31	110.25
453.53	118.25
453.751	97.25
453.971	104.25
454.192	112.25
454.412	116.25
454.633	116.25
454.853	132.25
455.073	130.25
455.294	127.25
455.514	133.25
455.734	123.25
455.955	113.25
456.175	116.25
456.395	107.25
456.616	105.25
456.836	104.25
457.056	113.25
457.276	108.25
457.497	122.25
457.717	116.25
457.937	123.25
458.157	122.25
458.377	93.25
458.598	101.25
458.818	101.25
459.038	84.25
459.258	86.25
459.478	88.25
459.698	92.25
459.918	99.25
460.138	116.25
460.358	119.25
460.578	126.25
460.798	120.25
461.018	121.25
461.238	118.25
461.458	113.25
461.678	118.25
461.898	129.25
462.118	117.25
462.338	121.25
462.558	111.25
462.777	127.25
462.997	100.25
463.217	122.25
463.437	112.25
463.657	109.25
463.876	121.25
464.096	107.25
464.316	115.25
464.536	118.25
464.755	130.25
464.975	123.25
465.195	114.25
465.414	131.25
465.634	98.25
465.854	120.25
466.073	136.25
466.293	131.25
466.512	120.25
466.732	123.25
466.951	142.25
467.171	150.25
467.391	125.25
467.61	134.25
467.829	137.25
468.049	147.25
468.268	135.25
468.488	149.25
468.707	139.25
468.927	141.25
469.146	142.25
469.365	146.25
469.585	136.25
469.804	124.25
470.023	134.25
470.243	148.25
470.462	168.25
470.681	150.25
470.901	146.25
471.12	140.25
471.339	157.25
471.558	139.25
471.777	149.25
471.997	150.25
472.216	134.25
472.435	106.25
472.654	108.25
472.873	108.25
473.092	133.25
473.311	115.25
473.53	132.25
473.749	141.25
473.968	146.25
474.187	125.25
474.406	118.25
474.625	116.25
474.844	138.25
475.063	132.25
475.282	114.25
475.501	133.25
475.72	142.25
475.939	120.25
476.158	142.25
476.377	134.25
476.596	128.25
476.814	123.25
477.033	107.25
477.252	113.25
477.471	116.25
477.69	119.25
477.908	130.25
478.127	143.25
478.346	135.25
478.564	130.25
478.783	134.25
479.002	146.25
479.22	135.25
479.439	141.25
479.658	130.25
479.876	123.25
480.095	112.25
480.313	115.25
480.532	136.25
480.751	112.25
480.969	94.25
481.188	90.25
481.406	108.25
481.624	93.25
481.843	89.25
482.061	99.25
482.28	121.25
482.498	101.25
482.717	113.25
482.935	126.25
483.153	138.25
483.372	147.25
483.59	146.25
483.808	135.25
484.027	144.25
484.245	135.25
484.463	159.25
484.681	169.25
484.9	163.25
485.118	127.25
485.336	120.25
485.554	115.25
485.772	104.25
485.99	112.25
486.209	110.25
486.427	117.25
486.645	126.25
486.863	153.25
487.081	135.25
487.299	139.25
487.517	140.25
487.735	187.25
487.953	188.25
488.171	204.25
488.389	182.25
488.607	176.25
488.825	143.25
489.043	136.25
489.261	142.25
489.479	163.25
489.696	160.25
489.914	147.25
490.132	147.25
490.35	139.25
490.568	150.25
490.786	158.25
491.003	176.25
491.221	169.25
491.439	190.25
491.657	186.25
491.874	210.25
492.092	229.25
492.31	255.25
492.527	240.25
492.745	218.25
492.963	196.25
493.18	191.25
493.398	180.25
493.615	191.25
493.833	189.25
494.05	193.25
494.268	186.25
494.485	184.25
494.703	178.25
494.92	189.25
495.138	175.25
495.355	196.25
495.573	174.25
495.79	163.25
496.008	190.25
496.225	180.25
496.442	167.25
496.66	170.25
496.877	175.25
497.094	167.25
497.312	168.25
497.529	164.25
497.746	157.25
497.963	136.25
498.181	131.25
498.398	123.25
498.615	117.25
498.832	120.25
499.049	128.25
499.267	130.25
499.484	129.25
499.701	126.25
499.918	116.25
500.135	139.25
500.352	148.25
500.569	152.25
500.786	142.25
501.003	146.25
501.22	144.25
501.437	149.25
501.654	140.25
501.871	150.25
502.088	146.25
502.305	127.25
502.522	139.25
502.739	122.25
502.956	138.25
503.172	139.25
503.389	134.25
503.606	130.25
503.823	135.25
504.04	122.25
504.256	142.25
504.473	130.25
504.69	124.25
504.907	117.25
505.123	123.25
505.34	129.25
505.557	127.25
505.773	139.25
505.99	133.25
506.207	138.25
506.423	142.25
506.64	132.25
506.856	114.25
507.073	122.25
507.289	132.25
507.506	122.25
507.722	110.25
507.939	120.25
508.155	125.25
508.372	120.25
508.588	110.25
508.805	120.25
509.021	106.25
509.238	122.25
509.454	113.25
509.67	107.25
509.887	94.25
510.103	92.25
510.319	92.25
510.536	95.25
510.752	107.25
510.968	83.25
511.184	73.25
511.401	91.25
