Data from Location6.07152019.Energy5.Lamp.07192019.3%Agarose_HRD10591_16-10-58-393.txt Node
Date: Fri Jul 19 16:10:58 EDT 2019
User: cochatt
Spectrometer: HR+D1059
Trigger mode: 1
Integration Time (sec): 1.000000E-1
Scans to average: 1
Electric dark correction enabled: true
Nonlinearity correction enabled: false
Boxcar width: 0
XAxis mode: Wavelengths
Number of Pixels in Spectrum: 2048
>>>>>Begin Spectral Data<<<<<
223.165	-11.56
223.4	-11.56
223.635	-11.56
223.869	-12.56
224.104	-24.56
224.338	-9.56
224.573	-12.56
224.808	-11.56
225.042	-8.56
225.277	-19.56
225.511	-5.56
225.746	4.44
225.98	15.44
226.215	10.44
226.449	8.44
226.683	26.44
226.918	20.44
227.152	30.44
227.387	36.44
227.621	46.44
227.856	40.44
228.09	57.44
228.324	47.44
228.559	58.44
228.793	49.44
229.027	55.44
229.262	61.44
229.496	54.44
229.73	62.44
229.964	57.44
230.199	72.44
230.433	69.44
230.667	69.44
230.901	88.44
231.136	79.44
231.37	70.44
231.604	80.44
231.838	76.44
232.072	75.44
232.306	87.44
232.541	70.44
232.775	79.44
233.009	80.44
233.243	69.44
233.477	69.44
233.711	72.44
233.945	72.44
234.179	83.44
234.413	77.44
234.647	85.44
234.881	83.44
235.115	73.44
235.349	71.44
235.583	73.44
235.817	81.44
236.051	76.44
236.285	74.44
236.519	83.44
236.753	59.44
236.987	74.44
237.221	90.44
237.455	85.44
237.689	77.44
237.922	83.44
238.156	75.44
238.39	71.44
238.624	94.44
238.858	84.44
239.091	77.44
239.325	80.44
239.559	83.44
239.793	78.44
240.027	87.44
240.26	67.44
240.494	81.44
240.728	63.44
240.961	80.44
241.195	87.44
241.429	90.44
241.662	75.44
241.896	64.44
242.13	76.44
242.363	80.44
242.597	79.44
242.83	77.44
243.064	84.44
243.298	65.44
243.531	87.44
243.765	68.44
243.998	79.44
244.232	71.44
244.465	61.44
244.699	79.44
244.932	74.44
245.166	82.44
245.399	82.44
245.633	93.44
245.866	82.44
246.099	70.44
246.333	83.44
246.566	78.44
246.8	72.44
247.033	84.44
247.266	76.44
247.5	74.44
247.733	73.44
247.966	80.44
248.2	78.44
248.433	88.44
248.666	76.44
248.899	75.44
249.133	63.44
249.366	81.44
249.599	72.44
249.832	75.44
250.066	84.44
250.299	88.44
250.532	80.44
250.765	74.44
250.998	88.44
251.231	72.44
251.465	84.44
251.698	71.44
251.931	74.44
252.164	84.44
252.397	89.44
252.63	80.44
252.863	71.44
253.096	76.44
253.329	87.44
253.562	85.44
253.795	89.44
254.028	70.44
254.261	73.44
254.494	79.44
254.727	80.44
254.96	87.44
255.193	90.44
255.426	87.44
255.659	69.44
255.892	91.44
256.124	85.44
256.357	76.44
256.59	91.44
256.823	79.44
257.056	83.44
257.289	97.44
257.521	78.44
257.754	85.44
257.987	84.44
258.22	86.44
258.452	98.44
258.685	74.44
258.918	97.44
259.151	91.44
259.383	86.44
259.616	82.44
259.849	83.44
260.081	72.44
260.314	71.44
260.547	93.44
260.779	66.44
261.012	70.44
261.244	85.44
261.477	80.44
261.71	73.44
261.942	76.44
262.175	69.44
262.407	78.44
262.64	82.44
262.872	73.44
263.105	88.44
263.337	82.44
263.57	96.44
263.802	76.44
264.035	76.44
264.267	85.44
264.499	98.44
264.732	87.44
264.964	80.44
265.197	84.44
265.429	83.44
265.661	80.44
265.894	87.44
266.126	99.44
266.358	78.44
266.591	75.44
266.823	80.44
267.055	77.44
267.287	75.44
267.52	81.44
267.752	88.44
267.984	96.44
268.216	75.44
268.448	79.44
268.681	81.44
268.913	83.44
269.145	87.44
269.377	87.44
269.609	77.44
269.841	81.44
270.073	66.44
270.306	88.44
270.538	77.44
270.77	73.44
271.002	95.44
271.234	82.44
271.466	96.44
271.698	69.44
271.93	81.44
272.162	75.44
272.394	88.44
272.626	81.44
272.858	83.44
273.09	86.44
273.322	77.44
273.553	68.44
273.785	70.44
274.017	87.44
274.249	83.44
274.481	74.44
274.713	87.44
274.945	78.44
275.176	80.44
275.408	85.44
275.64	85.44
275.872	86.44
276.104	87.44
276.335	86.44
276.567	88.44
276.799	86.44
277.031	82.44
277.262	83.44
277.494	90.44
277.726	85.44
277.957	70.44
278.189	80.44
278.421	85.44
278.652	80.44
278.884	78.44
279.115	92.44
279.347	73.44
279.579	77.44
279.81	75.44
280.042	90.44
280.273	75.44
280.505	83.44
280.736	80.44
280.968	76.44
281.199	86.44
281.431	90.44
281.662	84.44
281.894	79.44
282.125	85.44
282.356	91.44
282.588	78.44
282.819	79.44
283.051	78.44
283.282	63.44
283.513	77.44
283.745	78.44
283.976	81.44
284.207	99.44
284.439	83.44
284.67	83.44
284.901	67.44
285.132	83.44
285.364	88.44
285.595	83.44
285.826	73.44
286.057	82.44
286.288	73.44
286.52	91.44
286.751	98.44
286.982	70.44
287.213	90.44
287.444	74.44
287.675	74.44
287.906	83.44
288.138	74.44
288.369	90.44
288.6	97.44
288.831	66.44
289.062	90.44
289.293	87.44
289.524	79.44
289.755	77.44
289.986	82.44
290.217	76.44
290.448	79.44
290.679	80.44
290.91	86.44
291.141	86.44
291.371	82.44
291.602	88.44
291.833	82.44
292.064	92.44
292.295	80.44
292.526	73.44
292.757	79.44
292.987	83.44
293.218	80.44
293.449	87.44
293.68	56.44
293.91	79.44
294.141	95.44
294.372	74.44
294.603	73.44
294.833	80.44
295.064	85.44
295.295	71.44
295.525	65.44
295.756	87.44
295.987	88.44
296.217	89.44
296.448	93.44
296.679	85.44
296.909	72.44
297.14	83.44
297.37	85.44
297.601	80.44
297.831	82.44
298.062	79.44
298.292	97.44
298.523	83.44
298.753	80.44
298.984	90.44
299.214	95.44
299.445	72.44
299.675	83.44
299.905	87.44
300.136	79.44
300.366	82.44
300.597	98.44
300.827	74.44
301.057	84.44
301.288	78.44
301.518	83.44
301.748	95.44
301.979	66.44
302.209	74.44
302.439	83.44
302.669	79.44
302.9	60.44
303.13	92.44
303.36	76.44
303.59	84.44
303.82	91.44
304.051	88.44
304.281	79.44
304.511	91.44
304.741	81.44
304.971	76.44
305.201	90.44
305.431	92.44
305.661	86.44
305.891	92.44
306.121	74.44
306.352	100.44
306.582	84.44
306.812	88.44
307.042	84.44
307.272	67.44
307.502	92.44
307.731	82.44
307.961	78.44
308.191	76.44
308.421	87.44
308.651	91.44
308.881	91.44
309.111	79.44
309.341	82.44
309.571	85.44
309.8	92.44
310.03	86.44
310.26	86.44
310.49	80.44
310.72	80.44
310.949	93.44
311.179	72.44
311.409	99.44
311.639	91.44
311.868	93.44
312.098	89.44
312.328	86.44
312.557	71.44
312.787	87.44
313.017	88.44
313.246	82.44
313.476	98.44
313.706	82.44
313.935	82.44
314.165	70.44
314.394	93.44
314.624	81.44
314.853	97.44
315.083	91.44
315.312	86.44
315.542	87.44
315.771	84.44
316.001	86.44
316.23	88.44
316.46	82.44
316.689	66.44
316.919	102.44
317.148	82.44
317.377	90.44
317.607	88.44
317.836	79.44
318.065	81.44
318.295	81.44
318.524	76.44
318.753	75.44
318.983	91.44
319.212	79.44
319.441	82.44
319.67	87.44
319.9	78.44
320.129	78.44
320.358	83.44
320.587	95.44
320.816	71.44
321.046	94.44
321.275	86.44
321.504	74.44
321.733	81.44
321.962	100.44
322.191	73.44
322.42	83.44
322.649	92.44
322.878	80.44
323.108	76.44
323.337	82.44
323.566	92.44
323.795	89.44
324.024	93.44
324.253	76.44
324.482	70.44
324.71	96.44
324.939	78.44
325.168	71.44
325.397	77.44
325.626	90.44
325.855	85.44
326.084	75.44
326.313	96.44
326.542	82.44
326.77	90.44
326.999	71.44
327.228	90.44
327.457	88.44
327.686	70.44
327.914	98.44
328.143	80.44
328.372	87.44
328.6	103.44
328.829	91.44
329.058	88.44
329.287	76.44
329.515	76.44
329.744	99.44
329.972	88.44
330.201	87.44
330.43	89.44
330.658	91.44
330.887	83.44
331.115	91.44
331.344	88.44
331.572	91.44
331.801	79.44
332.03	98.44
332.258	82.44
332.486	68.44
332.715	69.44
332.943	78.44
333.172	79.44
333.4	90.44
333.629	79.44
333.857	86.44
334.085	70.44
334.314	85.44
334.542	72.44
334.771	82.44
334.999	79.44
335.227	83.44
335.455	67.44
335.684	74.44
335.912	75.44
336.14	79.44
336.369	84.44
336.597	85.44
336.825	83.44
337.053	86.44
337.281	86.44
337.51	65.44
337.738	100.44
337.966	100.44
338.194	74.44
338.422	74.44
338.65	85.44
338.878	98.44
339.106	92.44
339.334	80.44
339.562	92.44
339.79	78.44
340.018	75.44
340.246	90.44
340.474	84.44
340.702	79.44
340.93	89.44
341.158	81.44
341.386	71.44
341.614	72.44
341.842	88.44
342.07	97.44
342.298	78.44
342.526	96.44
342.754	67.44
342.981	81.44
343.209	81.44
343.437	82.44
343.665	92.44
343.893	81.44
344.12	84.44
344.348	89.44
344.576	70.44
344.804	70.44
345.031	70.44
345.259	80.44
345.487	79.44
345.714	80.44
345.942	61.44
346.17	84.44
346.397	76.44
346.625	83.44
346.853	89.44
347.08	84.44
347.308	88.44
347.535	84.44
347.763	82.44
347.99	80.44
348.218	85.44
348.445	92.44
348.673	75.44
348.9	89.44
349.128	97.44
349.355	70.44
349.583	82.44
349.81	86.44
350.037	89.44
350.265	93.44
350.492	77.44
350.72	84.44
350.947	88.44
351.174	79.44
351.402	77.44
351.629	69.44
351.856	76.44
352.083	73.44
352.311	78.44
352.538	101.44
352.765	70.44
352.992	87.44
353.22	84.44
353.447	88.44
353.674	71.44
353.901	90.44
354.128	89.44
354.355	93.44
354.583	77.44
354.81	76.44
355.037	84.44
355.264	74.44
355.491	96.44
355.718	74.44
355.945	90.44
356.172	89.44
356.399	85.44
356.626	78.44
356.853	83.44
357.08	84.44
357.307	80.44
357.534	81.44
357.761	78.44
357.988	84.44
358.215	79.44
358.441	80.44
358.668	75.44
358.895	92.44
359.122	86.44
359.349	91.44
359.576	89.44
359.802	71.44
360.029	76.44
360.256	82.44
360.483	69.44
360.709	97.44
360.936	84.44
361.163	85.44
361.39	80.44
361.616	88.44
361.843	83.44
362.07	79.44
362.296	95.44
362.523	66.44
362.749	87.44
362.976	85.44
363.203	85.44
363.429	79.44
363.656	78.44
363.882	80.44
364.109	86.44
364.335	90.44
364.562	83.44
364.788	76.44
365.015	95.44
365.241	88.44
365.468	100.44
365.694	94.44
365.92	77.44
366.147	87.44
366.373	95.44
366.599	86.44
366.826	83.44
367.052	86.44
367.278	82.44
367.505	87.44
367.731	102.44
367.957	92.44
368.184	98.44
368.41	91.44
368.636	95.44
368.862	96.44
369.089	84.44
369.315	98.44
369.541	98.44
369.767	89.44
369.993	92.44
370.219	90.44
370.445	100.44
370.672	91.44
370.898	84.44
371.124	88.44
371.35	92.44
371.576	88.44
371.802	87.44
372.028	88.44
372.254	80.44
372.48	94.44
372.706	82.44
372.932	98.44
373.158	75.44
373.384	96.44
373.61	91.44
373.835	88.44
374.061	102.44
374.287	96.44
374.513	100.44
374.739	93.44
374.965	92.44
375.191	90.44
375.416	97.44
375.642	86.44
375.868	103.44
376.094	88.44
376.319	83.44
376.545	79.44
376.771	82.44
376.997	102.44
377.222	89.44
377.448	106.44
377.674	99.44
377.899	89.44
378.125	97.44
378.35	97.44
378.576	87.44
378.802	101.44
379.027	108.44
379.253	97.44
379.478	95.44
379.704	93.44
379.929	101.44
380.155	107.44
380.38	104.44
380.606	86.44
380.831	98.44
381.057	97.44
381.282	92.44
381.507	105.44
381.733	112.44
381.958	90.44
382.184	90.44
382.409	86.44
382.634	98.44
382.86	107.44
383.085	90.44
383.31	80.44
383.535	92.44
383.761	97.44
383.986	106.44
384.211	79.44
384.436	107.44
384.662	97.44
384.887	91.44
385.112	80.44
385.337	89.44
385.562	98.44
385.787	105.44
386.013	110.44
386.238	99.44
386.463	105.44
386.688	106.44
386.913	107.44
387.138	92.44
387.363	107.44
387.588	116.44
387.813	100.44
388.038	101.44
388.263	91.44
388.488	94.44
388.713	113.44
388.938	112.44
389.163	118.44
389.387	107.44
389.612	100.44
389.837	83.44
390.062	111.44
390.287	95.44
390.512	104.44
390.736	116.44
390.961	119.44
391.186	105.44
391.411	101.44
391.636	100.44
391.86	106.44
392.085	101.44
392.31	106.44
392.534	115.44
392.759	105.44
392.984	119.44
393.208	113.44
393.433	110.44
393.658	102.44
393.882	118.44
394.107	107.44
394.331	115.44
394.556	98.44
394.78	102.44
395.005	109.44
395.229	96.44
395.454	104.44
395.678	117.44
395.903	96.44
396.127	106.44
396.352	85.44
396.576	118.44
396.801	100.44
397.025	96.44
397.249	96.44
397.474	122.44
397.698	102.44
397.922	115.44
398.147	107.44
398.371	104.44
398.595	107.44
398.82	107.44
399.044	103.44
399.268	102.44
399.492	107.44
399.717	118.44
399.941	102.44
400.165	113.44
400.389	110.44
400.613	120.44
400.837	112.44
401.062	107.44
401.286	108.44
401.51	106.44
401.734	114.44
401.958	126.44
402.182	109.44
402.406	121.44
402.63	98.44
402.854	122.44
403.078	108.44
403.302	108.44
403.526	115.44
403.75	114.44
403.974	134.44
404.198	122.44
404.422	126.44
404.645	126.44
404.869	129.44
405.093	126.44
405.317	118.44
405.541	108.44
405.765	126.44
405.988	142.44
406.212	124.44
406.436	129.44
406.66	130.44
406.883	122.44
407.107	108.44
407.331	122.44
407.555	114.44
407.778	118.44
408.002	114.44
408.226	124.44
408.449	133.44
408.673	123.44
408.896	131.44
409.12	117.44
409.344	110.44
409.567	123.44
409.791	123.44
410.014	133.44
410.238	131.44
410.461	124.44
410.685	119.44
410.908	126.44
411.132	136.44
411.355	122.44
411.578	139.44
411.802	124.44
412.025	128.44
412.249	107.44
412.472	122.44
412.695	122.44
412.919	121.44
413.142	134.44
413.365	124.44
413.589	120.44
413.812	120.44
414.035	115.44
414.258	126.44
414.482	129.44
414.705	123.44
414.928	124.44
415.151	128.44
415.374	122.44
415.597	121.44
415.821	125.44
416.044	112.44
416.267	122.44
416.49	134.44
416.713	124.44
416.936	118.44
417.159	113.44
417.382	135.44
417.605	134.44
417.828	135.44
418.051	137.44
418.274	144.44
418.497	125.44
418.72	138.44
418.943	132.44
419.166	145.44
419.389	134.44
419.611	142.44
419.834	138.44
420.057	142.44
420.28	144.44
420.503	126.44
420.726	137.44
420.948	117.44
421.171	142.44
421.394	142.44
421.617	150.44
421.839	144.44
422.062	132.44
422.285	136.44
422.507	139.44
422.73	122.44
422.953	124.44
423.175	134.44
423.398	124.44
423.621	130.44
423.843	132.44
424.066	130.44
424.288	135.44
424.511	134.44
424.733	148.44
424.956	130.44
425.178	147.44
425.401	136.44
425.623	132.44
425.846	155.44
426.068	132.44
426.291	132.44
426.513	138.44
426.735	127.44
426.958	138.44
427.18	142.44
427.402	135.44
427.625	146.44
427.847	132.44
428.069	150.44
428.292	130.44
428.514	118.44
428.736	120.44
428.958	130.44
429.181	130.44
429.403	134.44
429.625	131.44
429.847	135.44
430.069	134.44
430.292	140.44
430.514	125.44
430.736	144.44
430.958	143.44
431.18	148.44
431.402	129.44
431.624	111.44
431.846	96.44
432.068	102.44
432.29	93.44
432.512	116.44
432.734	134.44
432.956	131.44
433.178	145.44
433.4	153.44
433.622	137.44
433.844	143.44
434.066	126.44
434.287	112.44
434.509	90.44
434.731	100.44
434.953	125.44
435.175	134.44
435.397	134.44
435.618	108.44
435.84	118.44
436.062	94.44
436.284	112.44
436.505	118.44
436.727	128.44
436.949	123.44
437.17	121.44
437.392	133.44
437.614	130.44
437.835	109.44
438.057	110.44
438.278	90.44
438.5	127.44
438.721	126.44
438.943	154.44
439.165	144.44
439.386	149.44
439.608	138.44
439.829	139.44
440.05	136.44
440.272	144.44
440.493	159.44
440.715	149.44
440.936	138.44
441.158	150.44
441.379	140.44
441.6	156.44
441.822	136.44
442.043	148.44
442.264	148.44
442.486	141.44
442.707	150.44
442.928	139.44
443.149	126.44
443.371	137.44
443.592	150.44
443.813	146.44
444.034	134.44
444.255	135.44
444.476	149.44
444.698	145.44
444.919	152.44
445.14	278.44
445.361	214.44
445.582	148.44
445.803	144.44
446.024	156.44
446.245	175.44
446.466	159.44
446.687	165.44
446.908	164.44
447.129	165.44
447.35	140.44
447.571	153.44
447.792	152.44
448.013	151.44
448.234	155.44
448.455	143.44
448.675	167.44
448.896	145.44
449.117	151.44
449.338	132.44
449.559	140.44
449.779	131.44
450	138.44
450.221	144.44
450.442	141.44
450.662	134.44
450.883	139.44
451.104	139.44
451.324	131.44
451.545	127.44
451.766	129.44
451.986	134.44
452.207	146.44
452.428	125.44
452.648	136.44
452.869	113.44
453.089	136.44
453.31	106.44
453.53	107.44
453.751	107.44
453.971	114.44
454.192	122.44
454.412	103.44
454.633	105.44
454.853	129.44
455.073	137.44
455.294	139.44
455.514	128.44
455.734	124.44
455.955	126.44
456.175	122.44
456.395	113.44
456.616	106.44
456.836	98.44
457.056	110.44
457.276	95.44
457.497	119.44
457.717	116.44
457.937	115.44
458.157	97.44
458.377	97.44
458.598	110.44
458.818	107.44
459.038	86.44
459.258	88.44
459.478	87.44
459.698	92.44
459.918	101.44
460.138	114.44
460.358	124.44
460.578	123.44
460.798	120.44
461.018	114.44
461.238	121.44
461.458	123.44
461.678	119.44
461.898	124.44
462.118	123.44
462.338	111.44
462.558	115.44
462.777	113.44
462.997	103.44
463.217	101.44
463.437	116.44
463.657	102.44
463.876	116.44
464.096	120.44
464.316	110.44
464.536	119.44
464.755	103.44
464.975	111.44
465.195	118.44
465.414	115.44
465.634	114.44
465.854	124.44
466.073	110.44
466.293	127.44
466.512	130.44
466.732	149.44
466.951	131.44
467.171	129.44
467.391	134.44
467.61	137.44
467.829	126.44
468.049	134.44
468.268	135.44
468.488	128.44
468.707	145.44
468.927	148.44
469.146	155.44
469.365	135.44
469.585	141.44
469.804	140.44
470.023	135.44
470.243	150.44
470.462	144.44
470.681	154.44
470.901	146.44
471.12	144.44
471.339	148.44
471.558	150.44
471.777	134.44
471.997	141.44
472.216	130.44
472.435	130.44
472.654	100.44
472.873	113.44
473.092	117.44
473.311	125.44
473.53	134.44
473.749	133.44
473.968	144.44
474.187	132.44
474.406	124.44
474.625	124.44
474.844	124.44
475.063	132.44
475.282	118.44
475.501	120.44
475.72	119.44
475.939	126.44
476.158	118.44
476.377	116.44
476.596	128.44
476.814	120.44
477.033	100.44
477.252	115.44
477.471	105.44
477.69	130.44
477.908	147.44
478.127	139.44
478.346	142.44
478.564	132.44
478.783	130.44
479.002	135.44
479.22	147.44
479.439	128.44
479.658	132.44
479.876	114.44
480.095	110.44
480.313	111.44
480.532	128.44
480.751	106.44
480.969	98.44
481.188	84.44
481.406	86.44
481.624	88.44
481.843	83.44
482.061	104.44
482.28	115.44
482.498	119.44
482.717	107.44
482.935	134.44
483.153	160.44
483.372	148.44
483.59	168.44
483.808	140.44
484.027	137.44
484.245	134.44
484.463	158.44
484.681	168.44
484.9	160.44
485.118	148.44
485.336	121.44
485.554	108.44
485.772	104.44
485.99	118.44
486.209	104.44
486.427	115.44
486.645	122.44
486.863	132.44
487.081	161.44
487.299	147.44
487.517	147.44
487.735	172.44
487.953	184.44
488.171	196.44
488.389	185.44
488.607	180.44
488.825	154.44
489.043	132.44
489.261	155.44
489.479	144.44
489.696	148.44
489.914	143.44
490.132	141.44
490.35	161.44
490.568	175.44
490.786	192.44
491.003	187.44
491.221	192.44
491.439	195.44
491.657	202.44
491.874	228.44
492.092	235.44
492.31	244.44
492.527	224.44
492.745	206.44
492.963	193.44
493.18	204.44
493.398	195.44
493.615	187.44
493.833	191.44
494.05	192.44
494.268	182.44
494.485	176.44
494.703	185.44
494.92	164.44
495.138	188.44
495.355	186.44
495.573	170.44
495.79	185.44
496.008	174.44
496.225	176.44
496.442	174.44
496.66	170.44
496.877	162.44
497.094	162.44
497.312	157.44
497.529	148.44
497.746	158.44
497.963	148.44
498.181	140.44
498.398	119.44
498.615	128.44
498.832	124.44
499.049	122.44
499.267	125.44
499.484	123.44
499.701	132.44
499.918	141.44
500.135	149.44
500.352	156.44
500.569	164.44
500.786	161.44
501.003	148.44
501.22	141.44
501.437	123.44
501.654	139.44
501.871	142.44
502.088	120.44
502.305	125.44
502.522	120.44
502.739	138.44
502.956	147.44
503.172	131.44
503.389	127.44
503.606	106.44
503.823	126.44
504.04	114.44
504.256	134.44
504.473	122.44
504.69	123.44
504.907	127.44
505.123	134.44
505.34	121.44
505.557	127.44
505.773	130.44
505.99	126.44
506.207	125.44
506.423	122.44
506.64	134.44
506.856	129.44
507.073	133.44
507.289	119.44
507.506	122.44
507.722	124.44
507.939	120.44
508.155	126.44
508.372	118.44
508.588	107.44
508.805	121.44
509.021	97.44
509.238	113.44
509.454	110.44
509.67	115.44
509.887	112.44
510.103	103.44
510.319	91.44
510.536	86.44
510.752	95.44
510.968	85.44
511.184	79.44
511.401	83.44
