Data from Location6.07152019.Energy5.Lamp.07192019.3%Agarose_HRD10591_16-10-52-395.txt Node
Date: Fri Jul 19 16:10:52 EDT 2019
User: cochatt
Spectrometer: HR+D1059
Trigger mode: 1
Integration Time (sec): 1.000000E-1
Scans to average: 1
Electric dark correction enabled: true
Nonlinearity correction enabled: false
Boxcar width: 0
XAxis mode: Wavelengths
Number of Pixels in Spectrum: 2048
>>>>>Begin Spectral Data<<<<<
223.165	-15.19
223.4	-15.19
223.635	-15.19
223.869	-15.19
224.104	-9.19
224.338	-41.19
224.573	-25.19
224.808	-22.19
225.042	-13.19
225.277	9.81
225.511	-10.19
225.746	1.81
225.98	20.81
226.215	13.81
226.449	18.81
226.683	33.81
226.918	27.81
227.152	24.81
227.387	40.81
227.621	38.81
227.856	41.81
228.09	49.81
228.324	55.81
228.559	60.81
228.793	46.81
229.027	61.81
229.262	51.81
229.496	65.81
229.73	74.81
229.964	68.81
230.199	77.81
230.433	63.81
230.667	71.81
230.901	90.81
231.136	81.81
231.37	78.81
231.604	77.81
231.838	82.81
232.072	81.81
232.306	85.81
232.541	79.81
232.775	78.81
233.009	68.81
233.243	73.81
233.477	81.81
233.711	69.81
233.945	77.81
234.179	57.81
234.413	77.81
234.647	76.81
234.881	84.81
235.115	81.81
235.349	78.81
235.583	72.81
235.817	70.81
236.051	78.81
236.285	85.81
236.519	74.81
236.753	84.81
236.987	88.81
237.221	68.81
237.455	83.81
237.689	85.81
237.922	84.81
238.156	74.81
238.39	63.81
238.624	54.81
238.858	76.81
239.091	68.81
239.325	86.81
239.559	75.81
239.793	59.81
240.027	74.81
240.26	68.81
240.494	72.81
240.728	78.81
240.961	81.81
241.195	71.81
241.429	66.81
241.662	74.81
241.896	82.81
242.13	82.81
242.363	83.81
242.597	90.81
242.83	81.81
243.064	79.81
243.298	74.81
243.531	67.81
243.765	79.81
243.998	74.81
244.232	79.81
244.465	81.81
244.699	84.81
244.932	78.81
245.166	70.81
245.399	74.81
245.633	73.81
245.866	64.81
246.099	79.81
246.333	88.81
246.566	74.81
246.8	79.81
247.033	79.81
247.266	61.81
247.5	73.81
247.733	70.81
247.966	67.81
248.2	77.81
248.433	76.81
248.666	82.81
248.899	70.81
249.133	62.81
249.366	74.81
249.599	81.81
249.832	74.81
250.066	80.81
250.299	79.81
250.532	77.81
250.765	78.81
250.998	83.81
251.231	78.81
251.465	88.81
251.698	81.81
251.931	79.81
252.164	83.81
252.397	72.81
252.63	98.81
252.863	61.81
253.096	85.81
253.329	75.81
253.562	68.81
253.795	83.81
254.028	81.81
254.261	77.81
254.494	71.81
254.727	79.81
254.96	67.81
255.193	80.81
255.426	81.81
255.659	74.81
255.892	81.81
256.124	82.81
256.357	89.81
256.59	90.81
256.823	75.81
257.056	94.81
257.289	65.81
257.521	74.81
257.754	82.81
257.987	79.81
258.22	81.81
258.452	89.81
258.685	90.81
258.918	86.81
259.151	71.81
259.383	70.81
259.616	64.81
259.849	84.81
260.081	97.81
260.314	65.81
260.547	82.81
260.779	80.81
261.012	76.81
261.244	71.81
261.477	87.81
261.71	87.81
261.942	70.81
262.175	83.81
262.407	79.81
262.64	86.81
262.872	85.81
263.105	85.81
263.337	84.81
263.57	87.81
263.802	63.81
264.035	85.81
264.267	81.81
264.499	75.81
264.732	91.81
264.964	78.81
265.197	56.81
265.429	77.81
265.661	98.81
265.894	84.81
266.126	81.81
266.358	81.81
266.591	76.81
266.823	72.81
267.055	81.81
267.287	78.81
267.52	95.81
267.752	90.81
267.984	79.81
268.216	88.81
268.448	78.81
268.681	73.81
268.913	85.81
269.145	71.81
269.377	85.81
269.609	71.81
269.841	73.81
270.073	81.81
270.306	71.81
270.538	80.81
270.77	96.81
271.002	82.81
271.234	95.81
271.466	80.81
271.698	72.81
271.93	86.81
272.162	87.81
272.394	76.81
272.626	67.81
272.858	77.81
273.09	70.81
273.322	79.81
273.553	87.81
273.785	85.81
274.017	88.81
274.249	83.81
274.481	78.81
274.713	90.81
274.945	93.81
275.176	82.81
275.408	83.81
275.64	84.81
275.872	66.81
276.104	80.81
276.335	72.81
276.567	72.81
276.799	88.81
277.031	79.81
277.262	91.81
277.494	89.81
277.726	76.81
277.957	79.81
278.189	79.81
278.421	88.81
278.652	82.81
278.884	89.81
279.115	98.81
279.347	86.81
279.579	86.81
279.81	84.81
280.042	83.81
280.273	93.81
280.505	76.81
280.736	86.81
280.968	87.81
281.199	78.81
281.431	82.81
281.662	90.81
281.894	76.81
282.125	86.81
282.356	84.81
282.588	68.81
282.819	86.81
283.051	91.81
283.282	70.81
283.513	72.81
283.745	84.81
283.976	90.81
284.207	86.81
284.439	74.81
284.67	79.81
284.901	84.81
285.132	80.81
285.364	94.81
285.595	88.81
285.826	94.81
286.057	82.81
286.288	81.81
286.52	83.81
286.751	84.81
286.982	66.81
287.213	83.81
287.444	83.81
287.675	85.81
287.906	82.81
288.138	88.81
288.369	90.81
288.6	86.81
288.831	85.81
289.062	84.81
289.293	72.81
289.524	73.81
289.755	77.81
289.986	86.81
290.217	90.81
290.448	78.81
290.679	89.81
290.91	90.81
291.141	92.81
291.371	93.81
291.602	81.81
291.833	75.81
292.064	75.81
292.295	90.81
292.526	94.81
292.757	83.81
292.987	75.81
293.218	84.81
293.449	73.81
293.68	85.81
293.91	103.81
294.141	90.81
294.372	90.81
294.603	74.81
294.833	85.81
295.064	71.81
295.295	90.81
295.525	83.81
295.756	77.81
295.987	70.81
296.217	89.81
296.448	89.81
296.679	75.81
296.909	97.81
297.14	79.81
297.37	81.81
297.601	82.81
297.831	79.81
298.062	87.81
298.292	75.81
298.523	88.81
298.753	87.81
298.984	103.81
299.214	76.81
299.445	88.81
299.675	72.81
299.905	87.81
300.136	85.81
300.366	79.81
300.597	83.81
300.827	73.81
301.057	87.81
301.288	70.81
301.518	81.81
301.748	78.81
301.979	95.81
302.209	72.81
302.439	79.81
302.669	87.81
302.9	68.81
303.13	79.81
303.36	84.81
303.59	89.81
303.82	83.81
304.051	78.81
304.281	82.81
304.511	88.81
304.741	78.81
304.971	72.81
305.201	87.81
305.431	98.81
305.661	82.81
305.891	81.81
306.121	75.81
306.352	69.81
306.582	83.81
306.812	88.81
307.042	82.81
307.272	72.81
307.502	83.81
307.731	89.81
307.961	76.81
308.191	79.81
308.421	81.81
308.651	70.81
308.881	89.81
309.111	88.81
309.341	88.81
309.571	79.81
309.8	84.81
310.03	79.81
310.26	91.81
310.49	96.81
310.72	77.81
310.949	82.81
311.179	94.81
311.409	87.81
311.639	75.81
311.868	92.81
312.098	77.81
312.328	81.81
312.557	81.81
312.787	71.81
313.017	87.81
313.246	97.81
313.476	82.81
313.706	96.81
313.935	84.81
314.165	82.81
314.394	78.81
314.624	87.81
314.853	82.81
315.083	91.81
315.312	75.81
315.542	82.81
315.771	80.81
316.001	83.81
316.23	75.81
316.46	83.81
316.689	80.81
316.919	80.81
317.148	81.81
317.377	86.81
317.607	87.81
317.836	88.81
318.065	67.81
318.295	83.81
318.524	90.81
318.753	72.81
318.983	82.81
319.212	103.81
319.441	69.81
319.67	85.81
319.9	89.81
320.129	79.81
320.358	75.81
320.587	81.81
320.816	87.81
321.046	88.81
321.275	81.81
321.504	88.81
321.733	86.81
321.962	82.81
322.191	79.81
322.42	90.81
322.649	78.81
322.878	80.81
323.108	80.81
323.337	65.81
323.566	89.81
323.795	92.81
324.024	89.81
324.253	87.81
324.482	80.81
324.71	91.81
324.939	89.81
325.168	98.81
325.397	83.81
325.626	96.81
325.855	79.81
326.084	84.81
326.313	67.81
326.542	92.81
326.77	90.81
326.999	79.81
327.228	81.81
327.457	88.81
327.686	80.81
327.914	80.81
328.143	80.81
328.372	72.81
328.6	88.81
328.829	84.81
329.058	85.81
329.287	78.81
329.515	83.81
329.744	88.81
329.972	69.81
330.201	88.81
330.43	84.81
330.658	78.81
330.887	85.81
331.115	83.81
331.344	78.81
331.572	72.81
331.801	83.81
332.03	78.81
332.258	89.81
332.486	69.81
332.715	78.81
332.943	91.81
333.172	72.81
333.4	73.81
333.629	89.81
333.857	76.81
334.085	83.81
334.314	82.81
334.542	82.81
334.771	75.81
334.999	93.81
335.227	99.81
335.455	89.81
335.684	83.81
335.912	77.81
336.14	86.81
336.369	94.81
336.597	82.81
336.825	95.81
337.053	88.81
337.281	86.81
337.51	89.81
337.738	87.81
337.966	74.81
338.194	88.81
338.422	81.81
338.65	70.81
338.878	86.81
339.106	70.81
339.334	90.81
339.562	83.81
339.79	75.81
340.018	82.81
340.246	70.81
340.474	88.81
340.702	84.81
340.93	82.81
341.158	98.81
341.386	87.81
341.614	91.81
341.842	86.81
342.07	77.81
342.298	94.81
342.526	90.81
342.754	85.81
342.981	84.81
343.209	89.81
343.437	99.81
343.665	79.81
343.893	97.81
344.12	97.81
344.348	73.81
344.576	81.81
344.804	74.81
345.031	94.81
345.259	92.81
345.487	82.81
345.714	71.81
345.942	87.81
346.17	81.81
346.397	90.81
346.625	76.81
346.853	93.81
347.08	75.81
347.308	87.81
347.535	75.81
347.763	81.81
347.99	81.81
348.218	74.81
348.445	71.81
348.673	78.81
348.9	83.81
349.128	96.81
349.355	76.81
349.583	75.81
349.81	75.81
350.037	76.81
350.265	67.81
350.492	79.81
350.72	72.81
350.947	91.81
351.174	89.81
351.402	82.81
351.629	69.81
351.856	76.81
352.083	84.81
352.311	82.81
352.538	80.81
352.765	82.81
352.992	72.81
353.22	76.81
353.447	100.81
353.674	85.81
353.901	89.81
354.128	85.81
354.355	90.81
354.583	93.81
354.81	72.81
355.037	84.81
355.264	88.81
355.491	88.81
355.718	77.81
355.945	67.81
356.172	85.81
356.399	82.81
356.626	86.81
356.853	80.81
357.08	75.81
357.307	87.81
357.534	81.81
357.761	79.81
357.988	91.81
358.215	88.81
358.441	79.81
358.668	65.81
358.895	78.81
359.122	102.81
359.349	84.81
359.576	72.81
359.802	89.81
360.029	75.81
360.256	83.81
360.483	91.81
360.709	84.81
360.936	77.81
361.163	89.81
361.39	76.81
361.616	85.81
361.843	83.81
362.07	82.81
362.296	97.81
362.523	83.81
362.749	86.81
362.976	69.81
363.203	89.81
363.429	77.81
363.656	83.81
363.882	93.81
364.109	88.81
364.335	87.81
364.562	88.81
364.788	62.81
365.015	85.81
365.241	86.81
365.468	90.81
365.694	96.81
365.92	73.81
366.147	85.81
366.373	93.81
366.599	89.81
366.826	80.81
367.052	80.81
367.278	87.81
367.505	80.81
367.731	81.81
367.957	98.81
368.184	75.81
368.41	91.81
368.636	101.81
368.862	86.81
369.089	93.81
369.315	87.81
369.541	81.81
369.767	89.81
369.993	80.81
370.219	81.81
370.445	81.81
370.672	78.81
370.898	80.81
371.124	91.81
371.35	91.81
371.576	86.81
371.802	85.81
372.028	83.81
372.254	101.81
372.48	72.81
372.706	85.81
372.932	76.81
373.158	95.81
373.384	91.81
373.61	96.81
373.835	79.81
374.061	90.81
374.287	90.81
374.513	98.81
374.739	85.81
374.965	84.81
375.191	84.81
375.416	97.81
375.642	86.81
375.868	89.81
376.094	101.81
376.319	81.81
376.545	83.81
376.771	94.81
376.997	98.81
377.222	92.81
377.448	94.81
377.674	100.81
377.899	77.81
378.125	93.81
378.35	86.81
378.576	81.81
378.802	86.81
379.027	81.81
379.253	87.81
379.478	87.81
379.704	99.81
379.929	103.81
380.155	84.81
380.38	101.81
380.606	90.81
380.831	92.81
381.057	100.81
381.282	98.81
381.507	89.81
381.733	97.81
381.958	96.81
382.184	95.81
382.409	93.81
382.634	96.81
382.86	105.81
383.085	111.81
383.31	109.81
383.535	89.81
383.761	100.81
383.986	103.81
384.211	104.81
384.436	102.81
384.662	102.81
384.887	104.81
385.112	99.81
385.337	102.81
385.562	101.81
385.787	104.81
386.013	98.81
386.238	90.81
386.463	95.81
386.688	97.81
386.913	95.81
387.138	100.81
387.363	99.81
387.588	102.81
387.813	95.81
388.038	90.81
388.263	104.81
388.488	84.81
388.713	91.81
388.938	106.81
389.163	99.81
389.387	96.81
389.612	101.81
389.837	113.81
390.062	106.81
390.287	111.81
390.512	89.81
390.736	90.81
390.961	101.81
391.186	85.81
391.411	85.81
391.636	97.81
391.86	100.81
392.085	114.81
392.31	95.81
392.534	101.81
392.759	95.81
392.984	89.81
393.208	84.81
393.433	111.81
393.658	103.81
393.882	103.81
394.107	106.81
394.331	104.81
394.556	110.81
394.78	113.81
395.005	101.81
395.229	109.81
395.454	95.81
395.678	100.81
395.903	111.81
396.127	109.81
396.352	101.81
396.576	92.81
396.801	111.81
397.025	102.81
397.249	123.81
397.474	92.81
397.698	99.81
397.922	98.81
398.147	103.81
398.371	98.81
398.595	118.81
398.82	110.81
399.044	108.81
399.268	114.81
399.492	110.81
399.717	110.81
399.941	107.81
400.165	117.81
400.389	113.81
400.613	112.81
400.837	110.81
401.062	120.81
401.286	121.81
401.51	120.81
401.734	105.81
401.958	119.81
402.182	111.81
402.406	109.81
402.63	119.81
402.854	110.81
403.078	113.81
403.302	122.81
403.526	118.81
403.75	99.81
403.974	125.81
404.198	129.81
404.422	120.81
404.645	119.81
404.869	133.81
405.093	115.81
405.317	115.81
405.541	119.81
405.765	116.81
405.988	104.81
406.212	125.81
406.436	129.81
406.66	130.81
406.883	133.81
407.107	131.81
407.331	122.81
407.555	126.81
407.778	124.81
408.002	121.81
408.226	120.81
408.449	122.81
408.673	133.81
408.896	123.81
409.12	110.81
409.344	115.81
409.567	120.81
409.791	117.81
410.014	123.81
410.238	104.81
410.461	113.81
410.685	129.81
410.908	122.81
411.132	109.81
411.355	116.81
411.578	113.81
411.802	115.81
412.025	138.81
412.249	126.81
412.472	117.81
412.695	128.81
412.919	126.81
413.142	121.81
413.365	109.81
413.589	130.81
413.812	121.81
414.035	118.81
414.258	118.81
414.482	118.81
414.705	110.81
414.928	122.81
415.151	124.81
415.374	105.81
415.597	125.81
415.821	126.81
416.044	118.81
416.267	135.81
416.49	125.81
416.713	123.81
416.936	130.81
417.159	115.81
417.382	126.81
417.605	122.81
417.828	119.81
418.051	122.81
418.274	144.81
418.497	146.81
418.72	135.81
418.943	147.81
419.166	130.81
419.389	145.81
419.611	125.81
419.834	127.81
420.057	148.81
420.28	141.81
420.503	130.81
420.726	127.81
420.948	127.81
421.171	123.81
421.394	135.81
421.617	127.81
421.839	134.81
422.062	137.81
422.285	128.81
422.507	144.81
422.73	137.81
422.953	120.81
423.175	117.81
423.398	134.81
423.621	132.81
423.843	134.81
424.066	145.81
424.288	135.81
424.511	145.81
424.733	147.81
424.956	138.81
425.178	144.81
425.401	141.81
425.623	133.81
425.846	133.81
426.068	132.81
426.291	122.81
426.513	132.81
426.735	136.81
426.958	137.81
427.18	130.81
427.402	134.81
427.625	139.81
427.847	122.81
428.069	127.81
428.292	129.81
428.514	138.81
428.736	117.81
428.958	141.81
429.181	123.81
429.403	132.81
429.625	135.81
429.847	133.81
430.069	137.81
430.292	116.81
430.514	120.81
430.736	138.81
430.958	128.81
431.18	122.81
431.402	131.81
431.624	117.81
431.846	124.81
432.068	93.81
432.29	98.81
432.512	118.81
432.734	120.81
432.956	131.81
433.178	143.81
433.4	141.81
433.622	139.81
433.844	129.81
434.066	127.81
434.287	122.81
434.509	98.81
434.731	106.81
434.953	97.81
435.175	129.81
435.397	131.81
435.618	132.81
435.84	119.81
436.062	123.81
436.284	134.81
436.505	131.81
436.727	136.81
436.949	149.81
437.17	128.81
437.392	124.81
437.614	120.81
437.835	113.81
438.057	117.81
438.278	98.81
438.5	145.81
438.721	123.81
438.943	143.81
439.165	123.81
439.386	133.81
439.608	139.81
439.829	136.81
440.05	131.81
440.272	141.81
440.493	163.81
440.715	139.81
440.936	136.81
441.158	152.81
441.379	154.81
441.6	149.81
441.822	154.81
442.043	147.81
442.264	137.81
442.486	156.81
442.707	146.81
442.928	136.81
443.149	136.81
443.371	146.81
443.592	135.81
443.813	133.81
444.034	134.81
444.255	136.81
444.476	152.81
444.698	150.81
444.919	148.81
445.14	272.81
445.361	192.81
445.582	144.81
445.803	133.81
446.024	145.81
446.245	153.81
446.466	157.81
446.687	170.81
446.908	178.81
447.129	160.81
447.35	157.81
447.571	157.81
447.792	158.81
448.013	161.81
448.234	137.81
448.455	154.81
448.675	139.81
448.896	132.81
449.117	145.81
449.338	145.81
449.559	126.81
449.779	145.81
450	139.81
450.221	131.81
450.442	137.81
450.662	137.81
450.883	133.81
451.104	137.81
451.324	139.81
451.545	121.81
451.766	139.81
451.986	137.81
452.207	126.81
452.428	139.81
452.648	130.81
452.869	117.81
453.089	115.81
453.31	106.81
453.53	106.81
453.751	116.81
453.971	105.81
454.192	125.81
454.412	109.81
454.633	125.81
454.853	104.81
455.073	120.81
455.294	123.81
455.514	113.81
455.734	112.81
455.955	124.81
456.175	112.81
456.395	105.81
456.616	106.81
456.836	99.81
457.056	113.81
457.276	110.81
457.497	103.81
457.717	114.81
457.937	118.81
458.157	104.81
458.377	99.81
458.598	95.81
458.818	97.81
459.038	89.81
459.258	66.81
459.478	74.81
459.698	98.81
459.918	99.81
460.138	112.81
460.358	125.81
460.578	129.81
460.798	107.81
461.018	117.81
461.238	121.81
461.458	117.81
461.678	112.81
461.898	109.81
462.118	106.81
462.338	123.81
462.558	99.81
462.777	105.81
462.997	96.81
463.217	101.81
463.437	114.81
463.657	94.81
463.876	113.81
464.096	107.81
464.316	106.81
464.536	115.81
464.755	115.81
464.975	113.81
465.195	115.81
465.414	115.81
465.634	121.81
465.854	120.81
466.073	118.81
466.293	132.81
466.512	135.81
466.732	131.81
466.951	148.81
467.171	130.81
467.391	142.81
467.61	129.81
467.829	135.81
468.049	140.81
468.268	135.81
468.488	124.81
468.707	123.81
468.927	124.81
469.146	134.81
469.365	146.81
469.585	145.81
469.804	141.81
470.023	141.81
470.243	146.81
470.462	136.81
470.681	151.81
470.901	151.81
471.12	133.81
471.339	142.81
471.558	133.81
471.777	135.81
471.997	133.81
472.216	129.81
472.435	116.81
472.654	104.81
472.873	110.81
473.092	123.81
473.311	129.81
473.53	124.81
473.749	138.81
473.968	127.81
474.187	125.81
474.406	120.81
474.625	138.81
474.844	132.81
475.063	143.81
475.282	123.81
475.501	129.81
475.72	118.81
475.939	133.81
476.158	127.81
476.377	119.81
476.596	128.81
476.814	136.81
477.033	118.81
477.252	116.81
477.471	127.81
477.69	134.81
477.908	135.81
478.127	151.81
478.346	133.81
478.564	129.81
478.783	135.81
479.002	142.81
479.22	133.81
479.439	118.81
479.658	134.81
479.876	109.81
480.095	110.81
480.313	112.81
480.532	119.81
480.751	116.81
480.969	105.81
481.188	88.81
481.406	94.81
481.624	90.81
481.843	81.81
482.061	89.81
482.28	115.81
482.498	106.81
482.717	104.81
482.935	128.81
483.153	137.81
483.372	158.81
483.59	145.81
483.808	140.81
484.027	132.81
484.245	145.81
484.463	165.81
484.681	176.81
484.9	152.81
485.118	150.81
485.336	109.81
485.554	106.81
485.772	102.81
485.99	104.81
486.209	111.81
486.427	120.81
486.645	137.81
486.863	127.81
487.081	148.81
487.299	154.81
487.517	143.81
487.735	163.81
487.953	194.81
488.171	181.81
488.389	179.81
488.607	188.81
488.825	151.81
489.043	143.81
489.261	143.81
489.479	138.81
489.696	140.81
489.914	157.81
490.132	147.81
490.35	181.81
490.568	159.81
490.786	163.81
491.003	170.81
491.221	204.81
491.439	183.81
491.657	223.81
491.874	206.81
492.092	228.81
492.31	246.81
492.527	243.81
492.745	197.81
492.963	191.81
493.18	189.81
493.398	180.81
493.615	185.81
493.833	171.81
494.05	198.81
494.268	181.81
494.485	189.81
494.703	171.81
494.92	165.81
495.138	159.81
495.355	176.81
495.573	158.81
495.79	160.81
496.008	162.81
496.225	160.81
496.442	189.81
496.66	182.81
496.877	179.81
497.094	165.81
497.312	177.81
497.529	166.81
497.746	152.81
497.963	142.81
498.181	134.81
498.398	123.81
498.615	137.81
498.832	123.81
499.049	113.81
499.267	129.81
499.484	141.81
499.701	141.81
499.918	145.81
500.135	126.81
500.352	142.81
500.569	143.81
500.786	129.81
501.003	156.81
501.22	148.81
501.437	148.81
501.654	131.81
501.871	143.81
502.088	136.81
502.305	144.81
502.522	136.81
502.739	147.81
502.956	132.81
503.172	120.81
503.389	121.81
503.606	115.81
503.823	131.81
504.04	122.81
504.256	123.81
504.473	106.81
504.69	129.81
504.907	122.81
505.123	121.81
505.34	128.81
505.557	122.81
505.773	123.81
505.99	107.81
506.207	120.81
506.423	130.81
506.64	112.81
506.856	125.81
507.073	116.81
507.289	126.81
507.506	113.81
507.722	117.81
507.939	125.81
508.155	117.81
508.372	98.81
508.588	109.81
508.805	105.81
509.021	114.81
509.238	108.81
509.454	110.81
509.67	98.81
509.887	91.81
510.103	98.81
510.319	98.81
510.536	75.81
510.752	77.81
510.968	88.81
511.184	79.81
511.401	72.81
511.617	77.81
511.833	83.81
