Data from Location6.07152019.Energy5.Lamp.07192019.3%Agarose_HRD10591_16-11-06-395.txt Node
Date: Fri Jul 19 16:11:06 EDT 2019
User: cochatt
Spectrometer: HR+D1059
Trigger mode: 1
Integration Time (sec): 1.000000E-1
Scans to average: 1
Electric dark correction enabled: true
Nonlinearity correction enabled: false
Boxcar width: 0
XAxis mode: Wavelengths
Number of Pixels in Spectrum: 2048
>>>>>Begin Spectral Data<<<<<
223.165	-12.19
223.4	-12.19
223.635	-12.19
223.869	-18.19
224.104	-20.19
224.338	-32.19
224.573	-29.19
224.808	-10.19
225.042	-4.19
225.277	0.81
225.511	1.81
225.746	3.81
225.98	15.81
226.215	13.81
226.449	9.81
226.683	17.81
226.918	25.81
227.152	36.81
227.387	31.81
227.621	32.81
227.856	38.81
228.09	22.81
228.324	40.81
228.559	55.81
228.793	62.81
229.027	49.81
229.262	65.81
229.496	60.81
229.73	59.81
229.964	61.81
230.199	72.81
230.433	68.81
230.667	71.81
230.901	73.81
231.136	70.81
231.37	85.81
231.604	65.81
231.838	60.81
232.072	80.81
232.306	81.81
232.541	79.81
232.775	76.81
233.009	75.81
233.243	76.81
233.477	92.81
233.711	65.81
233.945	65.81
234.179	67.81
234.413	73.81
234.647	72.81
234.881	68.81
235.115	69.81
235.349	87.81
235.583	73.81
235.817	73.81
236.051	75.81
236.285	80.81
236.519	79.81
236.753	79.81
236.987	84.81
237.221	72.81
237.455	73.81
237.689	84.81
237.922	68.81
238.156	66.81
238.39	61.81
238.624	65.81
238.858	78.81
239.091	78.81
239.325	60.81
239.559	68.81
239.793	71.81
240.027	79.81
240.26	86.81
240.494	68.81
240.728	81.81
240.961	77.81
241.195	86.81
241.429	71.81
241.662	71.81
241.896	73.81
242.13	71.81
242.363	75.81
242.597	67.81
242.83	76.81
243.064	69.81
243.298	71.81
243.531	62.81
243.765	75.81
243.998	71.81
244.232	69.81
244.465	72.81
244.699	66.81
244.932	83.81
245.166	72.81
245.399	80.81
245.633	77.81
245.866	83.81
246.099	62.81
246.333	73.81
246.566	72.81
246.8	62.81
247.033	63.81
247.266	71.81
247.5	67.81
247.733	72.81
247.966	79.81
248.2	67.81
248.433	67.81
248.666	78.81
248.899	83.81
249.133	69.81
249.366	84.81
249.599	78.81
249.832	75.81
250.066	80.81
250.299	76.81
250.532	80.81
250.765	76.81
250.998	71.81
251.231	68.81
251.465	77.81
251.698	76.81
251.931	70.81
252.164	66.81
252.397	86.81
252.63	64.81
252.863	70.81
253.096	80.81
253.329	74.81
253.562	88.81
253.795	77.81
254.028	65.81
254.261	61.81
254.494	68.81
254.727	71.81
254.96	68.81
255.193	72.81
255.426	82.81
255.659	73.81
255.892	70.81
256.124	73.81
256.357	71.81
256.59	73.81
256.823	90.81
257.056	72.81
257.289	73.81
257.521	81.81
257.754	104.81
257.987	86.81
258.22	80.81
258.452	82.81
258.685	69.81
258.918	83.81
259.151	65.81
259.383	85.81
259.616	91.81
259.849	77.81
260.081	73.81
260.314	88.81
260.547	76.81
260.779	70.81
261.012	84.81
261.244	66.81
261.477	83.81
261.71	87.81
261.942	80.81
262.175	73.81
262.407	86.81
262.64	81.81
262.872	73.81
263.105	81.81
263.337	88.81
263.57	70.81
263.802	81.81
264.035	83.81
264.267	77.81
264.499	76.81
264.732	83.81
264.964	56.81
265.197	83.81
265.429	78.81
265.661	78.81
265.894	85.81
266.126	88.81
266.358	81.81
266.591	66.81
266.823	81.81
267.055	69.81
267.287	96.81
267.52	79.81
267.752	77.81
267.984	80.81
268.216	83.81
268.448	71.81
268.681	80.81
268.913	91.81
269.145	88.81
269.377	74.81
269.609	71.81
269.841	91.81
270.073	71.81
270.306	80.81
270.538	79.81
270.77	77.81
271.002	78.81
271.234	77.81
271.466	75.81
271.698	80.81
271.93	81.81
272.162	66.81
272.394	83.81
272.626	87.81
272.858	75.81
273.09	72.81
273.322	79.81
273.553	63.81
273.785	80.81
274.017	85.81
274.249	76.81
274.481	76.81
274.713	79.81
274.945	86.81
275.176	76.81
275.408	81.81
275.64	89.81
275.872	75.81
276.104	63.81
276.335	81.81
276.567	80.81
276.799	78.81
277.031	84.81
277.262	68.81
277.494	71.81
277.726	93.81
277.957	72.81
278.189	80.81
278.421	78.81
278.652	79.81
278.884	77.81
279.115	76.81
279.347	78.81
279.579	84.81
279.81	68.81
280.042	88.81
280.273	81.81
280.505	76.81
280.736	86.81
280.968	91.81
281.199	80.81
281.431	86.81
281.662	71.81
281.894	78.81
282.125	71.81
282.356	74.81
282.588	60.81
282.819	71.81
283.051	88.81
283.282	80.81
283.513	80.81
283.745	72.81
283.976	79.81
284.207	86.81
284.439	76.81
284.67	88.81
284.901	82.81
285.132	70.81
285.364	66.81
285.595	71.81
285.826	76.81
286.057	82.81
286.288	64.81
286.52	72.81
286.751	74.81
286.982	80.81
287.213	71.81
287.444	76.81
287.675	81.81
287.906	69.81
288.138	85.81
288.369	86.81
288.6	74.81
288.831	86.81
289.062	83.81
289.293	94.81
289.524	75.81
289.755	76.81
289.986	68.81
290.217	72.81
290.448	76.81
290.679	64.81
290.91	72.81
291.141	85.81
291.371	76.81
291.602	79.81
291.833	68.81
292.064	98.81
292.295	81.81
292.526	86.81
292.757	85.81
292.987	76.81
293.218	76.81
293.449	83.81
293.68	81.81
293.91	87.81
294.141	78.81
294.372	88.81
294.603	81.81
294.833	86.81
295.064	91.81
295.295	80.81
295.525	81.81
295.756	90.81
295.987	68.81
296.217	94.81
296.448	90.81
296.679	83.81
296.909	82.81
297.14	81.81
297.37	96.81
297.601	73.81
297.831	78.81
298.062	81.81
298.292	87.81
298.523	84.81
298.753	75.81
298.984	79.81
299.214	93.81
299.445	83.81
299.675	84.81
299.905	82.81
300.136	77.81
300.366	76.81
300.597	78.81
300.827	83.81
301.057	89.81
301.288	78.81
301.518	92.81
301.748	88.81
301.979	86.81
302.209	65.81
302.439	82.81
302.669	75.81
302.9	82.81
303.13	71.81
303.36	82.81
303.59	79.81
303.82	74.81
304.051	87.81
304.281	74.81
304.511	79.81
304.741	80.81
304.971	81.81
305.201	84.81
305.431	87.81
305.661	87.81
305.891	96.81
306.121	78.81
306.352	73.81
306.582	87.81
306.812	86.81
307.042	76.81
307.272	79.81
307.502	69.81
307.731	86.81
307.961	108.81
308.191	77.81
308.421	81.81
308.651	86.81
308.881	85.81
309.111	76.81
309.341	86.81
309.571	69.81
309.8	98.81
310.03	87.81
310.26	82.81
310.49	78.81
310.72	80.81
310.949	83.81
311.179	94.81
311.409	82.81
311.639	59.81
311.868	80.81
312.098	73.81
312.328	77.81
312.557	73.81
312.787	83.81
313.017	76.81
313.246	86.81
313.476	73.81
313.706	83.81
313.935	91.81
314.165	78.81
314.394	79.81
314.624	79.81
314.853	76.81
315.083	93.81
315.312	80.81
315.542	72.81
315.771	86.81
316.001	72.81
316.23	87.81
316.46	86.81
316.689	94.81
316.919	80.81
317.148	83.81
317.377	84.81
317.607	77.81
317.836	79.81
318.065	85.81
318.295	78.81
318.524	77.81
318.753	89.81
318.983	72.81
319.212	76.81
319.441	83.81
319.67	77.81
319.9	79.81
320.129	94.81
320.358	80.81
320.587	67.81
320.816	78.81
321.046	86.81
321.275	85.81
321.504	83.81
321.733	82.81
321.962	69.81
322.191	76.81
322.42	81.81
322.649	81.81
322.878	88.81
323.108	87.81
323.337	81.81
323.566	75.81
323.795	78.81
324.024	92.81
324.253	86.81
324.482	73.81
324.71	73.81
324.939	79.81
325.168	72.81
325.397	89.81
325.626	83.81
325.855	78.81
326.084	87.81
326.313	94.81
326.542	100.81
326.77	79.81
326.999	85.81
327.228	91.81
327.457	78.81
327.686	60.81
327.914	94.81
328.143	98.81
328.372	72.81
328.6	84.81
328.829	79.81
329.058	83.81
329.287	78.81
329.515	76.81
329.744	94.81
329.972	79.81
330.201	84.81
330.43	79.81
330.658	67.81
330.887	77.81
331.115	78.81
331.344	84.81
331.572	84.81
331.801	72.81
332.03	87.81
332.258	86.81
332.486	78.81
332.715	78.81
332.943	73.81
333.172	87.81
333.4	79.81
333.629	87.81
333.857	77.81
334.085	74.81
334.314	88.81
334.542	77.81
334.771	89.81
334.999	80.81
335.227	75.81
335.455	70.81
335.684	89.81
335.912	98.81
336.14	80.81
336.369	83.81
336.597	75.81
336.825	89.81
337.053	81.81
337.281	84.81
337.51	92.81
337.738	97.81
337.966	72.81
338.194	85.81
338.422	84.81
338.65	86.81
338.878	77.81
339.106	77.81
339.334	89.81
339.562	81.81
339.79	81.81
340.018	85.81
340.246	88.81
340.474	80.81
340.702	77.81
340.93	97.81
341.158	91.81
341.386	76.81
341.614	79.81
341.842	87.81
342.07	68.81
342.298	77.81
342.526	78.81
342.754	66.81
342.981	72.81
343.209	78.81
343.437	83.81
343.665	67.81
343.893	83.81
344.12	88.81
344.348	89.81
344.576	83.81
344.804	95.81
345.031	83.81
345.259	83.81
345.487	84.81
345.714	84.81
345.942	76.81
346.17	78.81
346.397	78.81
346.625	78.81
346.853	65.81
347.08	84.81
347.308	72.81
347.535	77.81
347.763	91.81
347.99	80.81
348.218	87.81
348.445	83.81
348.673	82.81
348.9	87.81
349.128	80.81
349.355	73.81
349.583	82.81
349.81	78.81
350.037	79.81
350.265	71.81
350.492	94.81
350.72	72.81
350.947	79.81
351.174	90.81
351.402	96.81
351.629	93.81
351.856	94.81
352.083	84.81
352.311	84.81
352.538	88.81
352.765	77.81
352.992	81.81
353.22	83.81
353.447	81.81
353.674	79.81
353.901	90.81
354.128	87.81
354.355	89.81
354.583	70.81
354.81	79.81
355.037	96.81
355.264	82.81
355.491	87.81
355.718	82.81
355.945	84.81
356.172	76.81
356.399	82.81
356.626	78.81
356.853	84.81
357.08	76.81
357.307	81.81
357.534	77.81
357.761	78.81
357.988	86.81
358.215	84.81
358.441	92.81
358.668	99.81
358.895	78.81
359.122	72.81
359.349	65.81
359.576	79.81
359.802	97.81
360.029	82.81
360.256	87.81
360.483	82.81
360.709	78.81
360.936	88.81
361.163	83.81
361.39	77.81
361.616	79.81
361.843	78.81
362.07	71.81
362.296	91.81
362.523	84.81
362.749	72.81
362.976	62.81
363.203	72.81
363.429	78.81
363.656	70.81
363.882	72.81
364.109	88.81
364.335	103.81
364.562	86.81
364.788	80.81
365.015	85.81
365.241	70.81
365.468	81.81
365.694	90.81
365.92	77.81
366.147	69.81
366.373	76.81
366.599	102.81
366.826	87.81
367.052	92.81
367.278	88.81
367.505	70.81
367.731	84.81
367.957	75.81
368.184	91.81
368.41	87.81
368.636	89.81
368.862	80.81
369.089	100.81
369.315	86.81
369.541	95.81
369.767	81.81
369.993	85.81
370.219	79.81
370.445	81.81
370.672	88.81
370.898	79.81
371.124	76.81
371.35	84.81
371.576	103.81
371.802	78.81
372.028	83.81
372.254	95.81
372.48	88.81
372.706	94.81
372.932	100.81
373.158	83.81
373.384	90.81
373.61	89.81
373.835	92.81
374.061	102.81
374.287	99.81
374.513	91.81
374.739	86.81
374.965	94.81
375.191	95.81
375.416	90.81
375.642	104.81
375.868	89.81
376.094	96.81
376.319	89.81
376.545	103.81
376.771	95.81
376.997	79.81
377.222	79.81
377.448	85.81
377.674	82.81
377.899	86.81
378.125	79.81
378.35	100.81
378.576	103.81
378.802	86.81
379.027	83.81
379.253	94.81
379.478	87.81
379.704	96.81
379.929	77.81
380.155	96.81
380.38	88.81
380.606	103.81
380.831	93.81
381.057	95.81
381.282	100.81
381.507	92.81
381.733	97.81
381.958	102.81
382.184	84.81
382.409	79.81
382.634	96.81
382.86	100.81
383.085	91.81
383.31	96.81
383.535	100.81
383.761	93.81
383.986	85.81
384.211	96.81
384.436	86.81
384.662	104.81
384.887	100.81
385.112	98.81
385.337	71.81
385.562	92.81
385.787	89.81
386.013	100.81
386.238	103.81
386.463	89.81
386.688	90.81
386.913	101.81
387.138	93.81
387.363	97.81
387.588	107.81
387.813	99.81
388.038	89.81
388.263	99.81
388.488	107.81
388.713	103.81
388.938	115.81
389.163	80.81
389.387	87.81
389.612	101.81
389.837	89.81
390.062	98.81
390.287	105.81
390.512	109.81
390.736	102.81
390.961	101.81
391.186	108.81
391.411	99.81
391.636	102.81
391.86	101.81
392.085	97.81
392.31	98.81
392.534	114.81
392.759	107.81
392.984	107.81
393.208	102.81
393.433	111.81
393.658	101.81
393.882	93.81
394.107	109.81
394.331	107.81
394.556	108.81
394.78	107.81
395.005	102.81
395.229	103.81
395.454	99.81
395.678	123.81
395.903	85.81
396.127	111.81
396.352	111.81
396.576	109.81
396.801	110.81
397.025	103.81
397.249	103.81
397.474	115.81
397.698	111.81
397.922	121.81
398.147	109.81
398.371	118.81
398.595	124.81
398.82	102.81
399.044	100.81
399.268	100.81
399.492	112.81
399.717	109.81
399.941	115.81
400.165	109.81
400.389	116.81
400.613	101.81
400.837	118.81
401.062	114.81
401.286	104.81
401.51	101.81
401.734	103.81
401.958	113.81
402.182	117.81
402.406	99.81
402.63	111.81
402.854	116.81
403.078	109.81
403.302	115.81
403.526	108.81
403.75	118.81
403.974	103.81
404.198	110.81
404.422	108.81
404.645	112.81
404.869	120.81
405.093	108.81
405.317	98.81
405.541	123.81
405.765	117.81
405.988	121.81
406.212	123.81
406.436	116.81
406.66	120.81
406.883	100.81
407.107	123.81
407.331	119.81
407.555	116.81
407.778	127.81
408.002	110.81
408.226	132.81
408.449	119.81
408.673	112.81
408.896	119.81
409.12	121.81
409.344	119.81
409.567	111.81
409.791	124.81
410.014	112.81
410.238	116.81
410.461	110.81
410.685	120.81
410.908	118.81
411.132	128.81
411.355	123.81
411.578	137.81
411.802	112.81
412.025	141.81
412.249	123.81
412.472	129.81
412.695	128.81
412.919	121.81
413.142	120.81
413.365	122.81
413.589	129.81
413.812	121.81
414.035	129.81
414.258	126.81
414.482	116.81
414.705	115.81
414.928	143.81
415.151	119.81
415.374	117.81
415.597	119.81
415.821	112.81
416.044	128.81
416.267	121.81
416.49	117.81
416.713	122.81
416.936	123.81
417.159	129.81
417.382	135.81
417.605	123.81
417.828	132.81
418.051	131.81
418.274	131.81
418.497	129.81
418.72	125.81
418.943	148.81
419.166	131.81
419.389	131.81
419.611	128.81
419.834	134.81
420.057	131.81
420.28	130.81
420.503	130.81
420.726	128.81
420.948	139.81
421.171	135.81
421.394	146.81
421.617	140.81
421.839	150.81
422.062	129.81
422.285	145.81
422.507	159.81
422.73	122.81
422.953	129.81
423.175	139.81
423.398	127.81
423.621	136.81
423.843	124.81
424.066	140.81
424.288	155.81
424.511	154.81
424.733	133.81
424.956	129.81
425.178	137.81
425.401	127.81
425.623	127.81
425.846	131.81
426.068	136.81
426.291	139.81
426.513	133.81
426.735	118.81
426.958	130.81
427.18	131.81
427.402	143.81
427.625	126.81
427.847	127.81
428.069	124.81
428.292	141.81
428.514	129.81
428.736	140.81
428.958	137.81
429.181	127.81
429.403	132.81
429.625	132.81
429.847	133.81
430.069	135.81
430.292	129.81
430.514	137.81
430.736	121.81
430.958	134.81
431.18	125.81
431.402	143.81
431.624	126.81
431.846	116.81
432.068	97.81
432.29	99.81
432.512	115.81
432.734	124.81
432.956	115.81
433.178	132.81
433.4	138.81
433.622	133.81
433.844	137.81
434.066	144.81
434.287	121.81
434.509	91.81
434.731	102.81
434.953	125.81
435.175	118.81
435.397	134.81
435.618	117.81
435.84	112.81
436.062	115.81
436.284	139.81
436.505	133.81
436.727	132.81
436.949	136.81
437.17	127.81
437.392	122.81
437.614	132.81
437.835	114.81
438.057	115.81
438.278	117.81
438.5	119.81
438.721	117.81
438.943	125.81
439.165	143.81
439.386	133.81
439.608	143.81
439.829	145.81
440.05	147.81
440.272	152.81
440.493	151.81
440.715	140.81
440.936	162.81
441.158	129.81
441.379	165.81
441.6	148.81
441.822	156.81
442.043	145.81
442.264	143.81
442.486	136.81
442.707	153.81
442.928	143.81
443.149	142.81
443.371	136.81
443.592	139.81
443.813	143.81
444.034	152.81
444.255	150.81
444.476	134.81
444.698	144.81
444.919	144.81
445.14	252.81
445.361	205.81
445.582	141.81
445.803	150.81
446.024	174.81
446.245	161.81
446.466	159.81
446.687	155.81
446.908	153.81
447.129	162.81
447.35	145.81
447.571	140.81
447.792	148.81
448.013	144.81
448.234	151.81
448.455	144.81
448.675	135.81
448.896	133.81
449.117	146.81
449.338	139.81
449.559	128.81
449.779	122.81
450	127.81
450.221	133.81
450.442	143.81
450.662	149.81
450.883	143.81
451.104	136.81
451.324	133.81
451.545	142.81
451.766	137.81
451.986	125.81
452.207	124.81
452.428	126.81
452.648	138.81
452.869	132.81
453.089	124.81
453.31	121.81
453.53	109.81
453.751	86.81
453.971	112.81
454.192	107.81
454.412	92.81
454.633	113.81
454.853	119.81
455.073	117.81
455.294	130.81
455.514	140.81
455.734	117.81
455.955	124.81
456.175	111.81
456.395	114.81
456.616	102.81
456.836	104.81
457.056	92.81
457.276	101.81
457.497	113.81
457.717	105.81
457.937	112.81
458.157	109.81
458.377	105.81
458.598	117.81
458.818	109.81
459.038	95.81
459.258	86.81
459.478	89.81
459.698	88.81
459.918	98.81
460.138	115.81
460.358	119.81
460.578	137.81
460.798	124.81
461.018	108.81
461.238	109.81
461.458	123.81
461.678	109.81
461.898	118.81
462.118	117.81
462.338	116.81
462.558	108.81
462.777	115.81
462.997	112.81
463.217	103.81
463.437	113.81
463.657	112.81
463.876	112.81
464.096	102.81
464.316	103.81
464.536	129.81
464.755	120.81
464.975	113.81
465.195	122.81
465.414	111.81
465.634	119.81
465.854	105.81
466.073	119.81
466.293	131.81
466.512	119.81
466.732	127.81
466.951	144.81
467.171	127.81
467.391	135.81
467.61	132.81
467.829	145.81
468.049	136.81
468.268	136.81
468.488	142.81
468.707	131.81
468.927	136.81
469.146	135.81
469.365	159.81
469.585	154.81
469.804	144.81
470.023	149.81
470.243	147.81
470.462	145.81
470.681	159.81
470.901	135.81
471.12	140.81
471.339	135.81
471.558	141.81
471.777	139.81
471.997	135.81
472.216	137.81
472.435	130.81
472.654	100.81
472.873	107.81
473.092	122.81
473.311	120.81
473.53	137.81
473.749	119.81
473.968	143.81
474.187	131.81
474.406	122.81
474.625	140.81
474.844	127.81
475.063	131.81
475.282	121.81
475.501	116.81
475.72	115.81
475.939	134.81
476.158	133.81
476.377	112.81
476.596	125.81
476.814	131.81
477.033	115.81
477.252	120.81
477.471	118.81
477.69	125.81
477.908	147.81
478.127	155.81
478.346	144.81
478.564	136.81
478.783	133.81
479.002	143.81
479.22	134.81
479.439	133.81
479.658	133.81
479.876	119.81
480.095	114.81
480.313	111.81
480.532	117.81
480.751	102.81
480.969	92.81
481.188	89.81
481.406	85.81
481.624	79.81
481.843	85.81
482.061	109.81
482.28	112.81
482.498	125.81
482.717	93.81
482.935	119.81
483.153	153.81
483.372	154.81
483.59	153.81
483.808	151.81
484.027	129.81
484.245	128.81
484.463	148.81
484.681	147.81
484.9	167.81
485.118	155.81
485.336	130.81
485.554	115.81
485.772	95.81
485.99	87.81
486.209	121.81
486.427	111.81
486.645	118.81
486.863	144.81
487.081	149.81
487.299	138.81
487.517	141.81
487.735	182.81
487.953	168.81
488.171	166.81
488.389	178.81
488.607	178.81
488.825	144.81
489.043	121.81
489.261	136.81
489.479	123.81
489.696	139.81
489.914	138.81
490.132	150.81
490.35	147.81
490.568	155.81
490.786	176.81
491.003	185.81
491.221	177.81
491.439	185.81
491.657	193.81
491.874	215.81
492.092	231.81
492.31	247.81
492.527	239.81
492.745	216.81
492.963	207.81
493.18	209.81
493.398	197.81
493.615	182.81
493.833	169.81
494.05	188.81
494.268	187.81
494.485	186.81
494.703	191.81
494.92	174.81
495.138	168.81
495.355	167.81
495.573	168.81
495.79	179.81
496.008	169.81
496.225	179.81
496.442	184.81
496.66	192.81
496.877	163.81
497.094	183.81
497.312	165.81
497.529	163.81
497.746	146.81
497.963	150.81
498.181	133.81
498.398	133.81
498.615	134.81
498.832	120.81
499.049	102.81
499.267	125.81
499.484	126.81
499.701	121.81
499.918	141.81
500.135	149.81
500.352	137.81
500.569	143.81
500.786	161.81
501.003	143.81
501.22	140.81
501.437	149.81
501.654	140.81
501.871	128.81
502.088	137.81
502.305	136.81
502.522	127.81
502.739	136.81
502.956	111.81
503.172	131.81
503.389	126.81
503.606	129.81
503.823	127.81
504.04	105.81
504.256	117.81
504.473	123.81
504.69	125.81
504.907	122.81
505.123	117.81
505.34	123.81
505.557	119.81
505.773	133.81
505.99	114.81
506.207	122.81
506.423	134.81
506.64	123.81
506.856	116.81
507.073	117.81
507.289	117.81
507.506	126.81
507.722	119.81
507.939	111.81
508.155	117.81
508.372	124.81
508.588	111.81
508.805	113.81
509.021	103.81
509.238	98.81
509.454	101.81
509.67	105.81
509.887	99.81
510.103	96.81
510.319	84.81
510.536	93.81
510.752	79.81
510.968	81.81
511.184	85.81
511.401	82.81
511.617	79.81
