Data from Location6.07152019.Energy5.Lamp.07192019.3%Agarose_HRD10591_16-11-21-396.txt Node
Date: Fri Jul 19 16:11:21 EDT 2019
User: cochatt
Spectrometer: HR+D1059
Trigger mode: 1
Integration Time (sec): 1.000000E-1
Scans to average: 1
Electric dark correction enabled: true
Nonlinearity correction enabled: false
Boxcar width: 0
XAxis mode: Wavelengths
Number of Pixels in Spectrum: 2048
>>>>>Begin Spectral Data<<<<<
223.165	-6.31
223.4	-6.31
223.635	-6.31
223.869	-14.31
224.104	-21.31
224.338	13.69
224.573	-22.31
224.808	-17.31
225.042	-12.31
225.277	-0.31
225.511	-6.31
225.746	6.69
225.98	-8.31
226.215	16.69
226.449	14.69
226.683	13.69
226.918	22.69
227.152	20.69
227.387	38.69
227.621	49.69
227.856	46.69
228.09	21.69
228.324	53.69
228.559	42.69
228.793	59.69
229.027	67.69
229.262	57.69
229.496	56.69
229.73	70.69
229.964	73.69
230.199	72.69
230.433	60.69
230.667	83.69
230.901	76.69
231.136	84.69
231.37	78.69
231.604	76.69
231.838	84.69
232.072	82.69
232.306	79.69
232.541	89.69
232.775	81.69
233.009	79.69
233.243	88.69
233.477	76.69
233.711	97.69
233.945	85.69
234.179	83.69
234.413	75.69
234.647	90.69
234.881	91.69
235.115	75.69
235.349	84.69
235.583	92.69
235.817	82.69
236.051	95.69
236.285	75.69
236.519	83.69
236.753	73.69
236.987	87.69
237.221	79.69
237.455	78.69
237.689	66.69
237.922	76.69
238.156	78.69
238.39	82.69
238.624	74.69
238.858	77.69
239.091	73.69
239.325	80.69
239.559	86.69
239.793	77.69
240.027	85.69
240.26	84.69
240.494	69.69
240.728	80.69
240.961	91.69
241.195	101.69
241.429	79.69
241.662	82.69
241.896	88.69
242.13	76.69
242.363	75.69
242.597	82.69
242.83	73.69
243.064	81.69
243.298	77.69
243.531	75.69
243.765	89.69
243.998	95.69
244.232	78.69
244.465	78.69
244.699	82.69
244.932	70.69
245.166	88.69
245.399	69.69
245.633	73.69
245.866	79.69
246.099	84.69
246.333	83.69
246.566	83.69
246.8	75.69
247.033	94.69
247.266	80.69
247.5	79.69
247.733	89.69
247.966	61.69
248.2	85.69
248.433	82.69
248.666	91.69
248.899	86.69
249.133	81.69
249.366	91.69
249.599	71.69
249.832	87.69
250.066	75.69
250.299	81.69
250.532	83.69
250.765	88.69
250.998	84.69
251.231	73.69
251.465	75.69
251.698	78.69
251.931	76.69
252.164	79.69
252.397	85.69
252.63	81.69
252.863	91.69
253.096	84.69
253.329	93.69
253.562	84.69
253.795	86.69
254.028	89.69
254.261	81.69
254.494	83.69
254.727	82.69
254.96	68.69
255.193	97.69
255.426	79.69
255.659	65.69
255.892	73.69
256.124	96.69
256.357	98.69
256.59	84.69
256.823	81.69
257.056	83.69
257.289	79.69
257.521	78.69
257.754	94.69
257.987	82.69
258.22	88.69
258.452	76.69
258.685	78.69
258.918	83.69
259.151	95.69
259.383	91.69
259.616	77.69
259.849	79.69
260.081	79.69
260.314	97.69
260.547	87.69
260.779	89.69
261.012	91.69
261.244	92.69
261.477	86.69
261.71	81.69
261.942	86.69
262.175	84.69
262.407	73.69
262.64	78.69
262.872	71.69
263.105	90.69
263.337	82.69
263.57	79.69
263.802	79.69
264.035	77.69
264.267	69.69
264.499	87.69
264.732	91.69
264.964	94.69
265.197	81.69
265.429	88.69
265.661	92.69
265.894	91.69
266.126	88.69
266.358	85.69
266.591	87.69
266.823	83.69
267.055	89.69
267.287	91.69
267.52	87.69
267.752	89.69
267.984	101.69
268.216	88.69
268.448	76.69
268.681	88.69
268.913	84.69
269.145	94.69
269.377	97.69
269.609	83.69
269.841	86.69
270.073	90.69
270.306	102.69
270.538	90.69
270.77	65.69
271.002	85.69
271.234	71.69
271.466	72.69
271.698	100.69
271.93	78.69
272.162	87.69
272.394	93.69
272.626	85.69
272.858	83.69
273.09	86.69
273.322	83.69
273.553	70.69
273.785	91.69
274.017	93.69
274.249	92.69
274.481	90.69
274.713	93.69
274.945	84.69
275.176	92.69
275.408	83.69
275.64	79.69
275.872	90.69
276.104	89.69
276.335	69.69
276.567	84.69
276.799	85.69
277.031	85.69
277.262	86.69
277.494	89.69
277.726	87.69
277.957	91.69
278.189	79.69
278.421	84.69
278.652	93.69
278.884	74.69
279.115	82.69
279.347	73.69
279.579	84.69
279.81	71.69
280.042	77.69
280.273	79.69
280.505	79.69
280.736	97.69
280.968	78.69
281.199	77.69
281.431	69.69
281.662	95.69
281.894	85.69
282.125	79.69
282.356	92.69
282.588	90.69
282.819	81.69
283.051	81.69
283.282	66.69
283.513	70.69
283.745	84.69
283.976	80.69
284.207	81.69
284.439	85.69
284.67	81.69
284.901	89.69
285.132	77.69
285.364	87.69
285.595	81.69
285.826	87.69
286.057	88.69
286.288	77.69
286.52	75.69
286.751	84.69
286.982	82.69
287.213	95.69
287.444	89.69
287.675	80.69
287.906	99.69
288.138	83.69
288.369	104.69
288.6	81.69
288.831	87.69
289.062	84.69
289.293	86.69
289.524	86.69
289.755	83.69
289.986	79.69
290.217	78.69
290.448	85.69
290.679	82.69
290.91	92.69
291.141	94.69
291.371	94.69
291.602	87.69
291.833	84.69
292.064	81.69
292.295	82.69
292.526	82.69
292.757	96.69
292.987	86.69
293.218	77.69
293.449	79.69
293.68	73.69
293.91	88.69
294.141	98.69
294.372	80.69
294.603	89.69
294.833	88.69
295.064	90.69
295.295	91.69
295.525	90.69
295.756	85.69
295.987	78.69
296.217	84.69
296.448	96.69
296.679	83.69
296.909	97.69
297.14	96.69
297.37	70.69
297.601	81.69
297.831	91.69
298.062	74.69
298.292	78.69
298.523	99.69
298.753	91.69
298.984	83.69
299.214	99.69
299.445	93.69
299.675	97.69
299.905	86.69
300.136	87.69
300.366	92.69
300.597	86.69
300.827	92.69
301.057	82.69
301.288	94.69
301.518	91.69
301.748	69.69
301.979	84.69
302.209	88.69
302.439	86.69
302.669	99.69
302.9	73.69
303.13	77.69
303.36	92.69
303.59	88.69
303.82	107.69
304.051	79.69
304.281	85.69
304.511	91.69
304.741	106.69
304.971	86.69
305.201	90.69
305.431	82.69
305.661	86.69
305.891	95.69
306.121	87.69
306.352	93.69
306.582	78.69
306.812	77.69
307.042	85.69
307.272	92.69
307.502	90.69
307.731	102.69
307.961	87.69
308.191	75.69
308.421	89.69
308.651	93.69
308.881	93.69
309.111	93.69
309.341	79.69
309.571	90.69
309.8	97.69
310.03	90.69
310.26	90.69
310.49	77.69
310.72	83.69
310.949	90.69
311.179	81.69
311.409	89.69
311.639	74.69
311.868	97.69
312.098	82.69
312.328	88.69
312.557	84.69
312.787	71.69
313.017	103.69
313.246	85.69
313.476	78.69
313.706	78.69
313.935	76.69
314.165	90.69
314.394	85.69
314.624	88.69
314.853	91.69
315.083	80.69
315.312	86.69
315.542	87.69
315.771	93.69
316.001	87.69
316.23	99.69
316.46	93.69
316.689	87.69
316.919	90.69
317.148	94.69
317.377	81.69
317.607	91.69
317.836	98.69
318.065	83.69
318.295	89.69
318.524	104.69
318.753	74.69
318.983	86.69
319.212	79.69
319.441	91.69
319.67	90.69
319.9	86.69
320.129	74.69
320.358	85.69
320.587	97.69
320.816	78.69
321.046	94.69
321.275	92.69
321.504	89.69
321.733	92.69
321.962	91.69
322.191	91.69
322.42	95.69
322.649	91.69
322.878	91.69
323.108	93.69
323.337	88.69
323.566	101.69
323.795	93.69
324.024	72.69
324.253	91.69
324.482	88.69
324.71	88.69
324.939	86.69
325.168	80.69
325.397	93.69
325.626	89.69
325.855	90.69
326.084	88.69
326.313	80.69
326.542	78.69
326.77	106.69
326.999	84.69
327.228	83.69
327.457	93.69
327.686	92.69
327.914	81.69
328.143	95.69
328.372	97.69
328.6	77.69
328.829	80.69
329.058	81.69
329.287	90.69
329.515	99.69
329.744	86.69
329.972	76.69
330.201	81.69
330.43	98.69
330.658	80.69
330.887	85.69
331.115	75.69
331.344	85.69
331.572	88.69
331.801	83.69
332.03	99.69
332.258	83.69
332.486	87.69
332.715	104.69
332.943	81.69
333.172	73.69
333.4	92.69
333.629	86.69
333.857	90.69
334.085	99.69
334.314	92.69
334.542	88.69
334.771	85.69
334.999	89.69
335.227	105.69
335.455	83.69
335.684	75.69
335.912	85.69
336.14	84.69
336.369	83.69
336.597	82.69
336.825	76.69
337.053	104.69
337.281	71.69
337.51	81.69
337.738	86.69
337.966	90.69
338.194	86.69
338.422	89.69
338.65	103.69
338.878	96.69
339.106	101.69
339.334	93.69
339.562	87.69
339.79	93.69
340.018	98.69
340.246	84.69
340.474	99.69
340.702	102.69
340.93	77.69
341.158	91.69
341.386	84.69
341.614	93.69
341.842	104.69
342.07	79.69
342.298	96.69
342.526	96.69
342.754	85.69
342.981	94.69
343.209	89.69
343.437	95.69
343.665	90.69
343.893	90.69
344.12	84.69
344.348	93.69
344.576	91.69
344.804	83.69
345.031	75.69
345.259	105.69
345.487	82.69
345.714	88.69
345.942	99.69
346.17	78.69
346.397	89.69
346.625	82.69
346.853	83.69
347.08	88.69
347.308	84.69
347.535	91.69
347.763	80.69
347.99	105.69
348.218	87.69
348.445	101.69
348.673	72.69
348.9	74.69
349.128	83.69
349.355	95.69
349.583	86.69
349.81	97.69
350.037	81.69
350.265	95.69
350.492	98.69
350.72	89.69
350.947	100.69
351.174	97.69
351.402	86.69
351.629	104.69
351.856	95.69
352.083	99.69
352.311	90.69
352.538	97.69
352.765	80.69
352.992	73.69
353.22	76.69
353.447	76.69
353.674	87.69
353.901	78.69
354.128	103.69
354.355	82.69
354.583	89.69
354.81	90.69
355.037	94.69
355.264	92.69
355.491	99.69
355.718	88.69
355.945	104.69
356.172	104.69
356.399	86.69
356.626	84.69
356.853	92.69
357.08	106.69
357.307	89.69
357.534	92.69
357.761	89.69
357.988	94.69
358.215	97.69
358.441	82.69
358.668	92.69
358.895	88.69
359.122	101.69
359.349	78.69
359.576	92.69
359.802	98.69
360.029	85.69
360.256	97.69
360.483	82.69
360.709	85.69
360.936	98.69
361.163	89.69
361.39	95.69
361.616	93.69
361.843	91.69
362.07	95.69
362.296	93.69
362.523	78.69
362.749	78.69
362.976	82.69
363.203	74.69
363.429	90.69
363.656	92.69
363.882	97.69
364.109	86.69
364.335	93.69
364.562	87.69
364.788	104.69
365.015	87.69
365.241	106.69
365.468	94.69
365.694	89.69
365.92	107.69
366.147	103.69
366.373	83.69
366.599	95.69
366.826	79.69
367.052	82.69
367.278	92.69
367.505	85.69
367.731	98.69
367.957	88.69
368.184	98.69
368.41	89.69
368.636	94.69
368.862	105.69
369.089	104.69
369.315	89.69
369.541	95.69
369.767	89.69
369.993	100.69
370.219	106.69
370.445	103.69
370.672	92.69
370.898	78.69
371.124	102.69
371.35	90.69
371.576	79.69
371.802	102.69
372.028	86.69
372.254	91.69
372.48	89.69
372.706	88.69
372.932	79.69
373.158	84.69
373.384	98.69
373.61	101.69
373.835	94.69
374.061	84.69
374.287	94.69
374.513	107.69
374.739	89.69
374.965	93.69
375.191	98.69
375.416	95.69
375.642	99.69
375.868	85.69
376.094	106.69
376.319	94.69
376.545	105.69
376.771	79.69
376.997	91.69
377.222	90.69
377.448	85.69
377.674	94.69
377.899	106.69
378.125	98.69
378.35	102.69
378.576	85.69
378.802	82.69
379.027	97.69
379.253	104.69
379.478	102.69
379.704	91.69
379.929	95.69
380.155	95.69
380.38	86.69
380.606	107.69
380.831	98.69
381.057	97.69
381.282	100.69
381.507	102.69
381.733	98.69
381.958	99.69
382.184	99.69
382.409	100.69
382.634	112.69
382.86	90.69
383.085	101.69
383.31	107.69
383.535	102.69
383.761	97.69
383.986	106.69
384.211	91.69
384.436	102.69
384.662	97.69
384.887	108.69
385.112	87.69
385.337	98.69
385.562	106.69
385.787	106.69
386.013	127.69
386.238	108.69
386.463	96.69
386.688	113.69
386.913	97.69
387.138	103.69
387.363	102.69
387.588	102.69
387.813	109.69
388.038	90.69
388.263	105.69
388.488	98.69
388.713	113.69
388.938	110.69
389.163	109.69
389.387	107.69
389.612	99.69
389.837	107.69
390.062	122.69
390.287	117.69
390.512	104.69
390.736	106.69
390.961	101.69
391.186	123.69
391.411	111.69
391.636	102.69
391.86	103.69
392.085	115.69
392.31	121.69
392.534	124.69
392.759	110.69
392.984	105.69
393.208	115.69
393.433	107.69
393.658	117.69
393.882	100.69
394.107	104.69
394.331	114.69
394.556	115.69
394.78	103.69
395.005	105.69
395.229	111.69
395.454	103.69
395.678	116.69
395.903	110.69
396.127	109.69
396.352	119.69
396.576	112.69
396.801	113.69
397.025	102.69
397.249	106.69
397.474	104.69
397.698	107.69
397.922	108.69
398.147	116.69
398.371	116.69
398.595	115.69
398.82	123.69
399.044	111.69
399.268	106.69
399.492	118.69
399.717	125.69
399.941	118.69
400.165	129.69
400.389	117.69
400.613	105.69
400.837	109.69
401.062	123.69
401.286	121.69
401.51	142.69
401.734	118.69
401.958	119.69
402.182	117.69
402.406	98.69
402.63	119.69
402.854	128.69
403.078	106.69
403.302	121.69
403.526	113.69
403.75	119.69
403.974	116.69
404.198	114.69
404.422	116.69
404.645	119.69
404.869	115.69
405.093	126.69
405.317	135.69
405.541	129.69
405.765	122.69
405.988	136.69
406.212	127.69
406.436	128.69
406.66	127.69
406.883	124.69
407.107	137.69
407.331	137.69
407.555	124.69
407.778	126.69
408.002	126.69
408.226	135.69
408.449	135.69
408.673	129.69
408.896	129.69
409.12	131.69
409.344	118.69
409.567	121.69
409.791	124.69
410.014	126.69
410.238	126.69
410.461	125.69
410.685	123.69
410.908	122.69
411.132	135.69
411.355	117.69
411.578	127.69
411.802	126.69
412.025	123.69
412.249	122.69
412.472	119.69
412.695	122.69
412.919	117.69
413.142	124.69
413.365	117.69
413.589	141.69
413.812	120.69
414.035	125.69
414.258	129.69
414.482	127.69
414.705	120.69
414.928	123.69
415.151	141.69
415.374	131.69
415.597	137.69
415.821	121.69
416.044	119.69
416.267	134.69
416.49	125.69
416.713	134.69
416.936	136.69
417.159	129.69
417.382	131.69
417.605	134.69
417.828	135.69
418.051	137.69
418.274	131.69
418.497	122.69
418.72	134.69
418.943	143.69
419.166	139.69
419.389	155.69
419.611	135.69
419.834	137.69
420.057	133.69
420.28	142.69
420.503	139.69
420.726	136.69
420.948	140.69
421.171	135.69
421.394	141.69
421.617	151.69
421.839	150.69
422.062	135.69
422.285	128.69
422.507	145.69
422.73	146.69
422.953	132.69
423.175	139.69
423.398	150.69
423.621	128.69
423.843	129.69
424.066	155.69
424.288	140.69
424.511	145.69
424.733	150.69
424.956	151.69
425.178	155.69
425.401	135.69
425.623	145.69
425.846	143.69
426.068	131.69
426.291	130.69
426.513	127.69
426.735	127.69
426.958	148.69
427.18	126.69
427.402	141.69
427.625	143.69
427.847	133.69
428.069	136.69
428.292	158.69
428.514	144.69
428.736	124.69
428.958	121.69
429.181	139.69
429.403	138.69
429.625	132.69
429.847	132.69
430.069	138.69
430.292	152.69
430.514	140.69
430.736	145.69
430.958	129.69
431.18	128.69
431.402	138.69
431.624	122.69
431.846	108.69
432.068	92.69
432.29	103.69
432.512	108.69
432.734	129.69
432.956	124.69
433.178	138.69
433.4	136.69
433.622	148.69
433.844	127.69
434.066	118.69
434.287	98.69
434.509	100.69
434.731	119.69
434.953	107.69
435.175	125.69
435.397	123.69
435.618	130.69
435.84	120.69
436.062	139.69
436.284	143.69
436.505	125.69
436.727	145.69
436.949	138.69
437.17	126.69
437.392	135.69
437.614	127.69
437.835	135.69
438.057	123.69
438.278	109.69
438.5	139.69
438.721	126.69
438.943	135.69
439.165	145.69
439.386	137.69
439.608	145.69
439.829	147.69
440.05	145.69
440.272	144.69
440.493	160.69
440.715	150.69
440.936	155.69
441.158	168.69
441.379	165.69
441.6	175.69
441.822	133.69
442.043	166.69
442.264	151.69
442.486	148.69
442.707	134.69
442.928	145.69
443.149	149.69
443.371	153.69
443.592	148.69
443.813	139.69
444.034	135.69
444.255	155.69
444.476	158.69
444.698	157.69
444.919	159.69
445.14	261.69
445.361	207.69
445.582	166.69
445.803	152.69
446.024	163.69
446.245	176.69
446.466	164.69
446.687	165.69
446.908	161.69
447.129	163.69
447.35	158.69
447.571	149.69
447.792	143.69
448.013	162.69
448.234	167.69
448.455	152.69
448.675	151.69
448.896	148.69
449.117	148.69
449.338	142.69
449.559	143.69
449.779	143.69
450	140.69
450.221	149.69
450.442	147.69
450.662	146.69
450.883	140.69
451.104	143.69
451.324	130.69
451.545	148.69
451.766	132.69
451.986	141.69
452.207	142.69
452.428	135.69
452.648	138.69
452.869	121.69
453.089	129.69
453.31	109.69
453.53	110.69
453.751	86.69
453.971	110.69
454.192	105.69
454.412	111.69
454.633	120.69
454.853	113.69
455.073	119.69
455.294	136.69
455.514	125.69
455.734	130.69
455.955	115.69
456.175	115.69
456.395	121.69
456.616	118.69
456.836	134.69
457.056	116.69
457.276	110.69
457.497	108.69
457.717	111.69
457.937	119.69
458.157	112.69
458.377	102.69
458.598	102.69
458.818	101.69
459.038	110.69
459.258	94.69
459.478	90.69
459.698	85.69
459.918	110.69
460.138	115.69
460.358	114.69
460.578	120.69
460.798	111.69
461.018	118.69
461.238	111.69
461.458	136.69
461.678	116.69
461.898	124.69
462.118	123.69
462.338	122.69
462.558	119.69
462.777	115.69
462.997	110.69
463.217	110.69
463.437	122.69
463.657	124.69
463.876	111.69
464.096	124.69
464.316	110.69
464.536	113.69
464.755	129.69
464.975	133.69
465.195	122.69
465.414	124.69
465.634	121.69
465.854	127.69
466.073	128.69
466.293	124.69
466.512	135.69
466.732	145.69
466.951	130.69
467.171	127.69
467.391	149.69
467.61	147.69
467.829	158.69
468.049	158.69
468.268	135.69
468.488	134.69
468.707	140.69
468.927	134.69
469.146	148.69
469.365	141.69
469.585	153.69
469.804	152.69
470.023	141.69
470.243	157.69
470.462	164.69
470.681	162.69
470.901	142.69
471.12	153.69
471.339	141.69
471.558	155.69
471.777	146.69
471.997	141.69
472.216	126.69
472.435	123.69
472.654	115.69
472.873	112.69
473.092	134.69
473.311	122.69
473.53	126.69
473.749	130.69
473.968	125.69
474.187	114.69
474.406	129.69
474.625	139.69
474.844	131.69
475.063	127.69
475.282	134.69
475.501	117.69
475.72	125.69
475.939	137.69
476.158	127.69
476.377	133.69
476.596	135.69
476.814	118.69
477.033	130.69
477.252	114.69
477.471	139.69
477.69	134.69
477.908	139.69
478.127	131.69
478.346	147.69
478.564	144.69
478.783	155.69
479.002	152.69
479.22	146.69
479.439	151.69
479.658	151.69
479.876	125.69
480.095	133.69
480.313	120.69
480.532	126.69
480.751	109.69
480.969	102.69
481.188	92.69
481.406	101.69
481.624	91.69
481.843	91.69
482.061	98.69
482.28	119.69
482.498	133.69
482.717	111.69
482.935	129.69
483.153	165.69
483.372	153.69
483.59	153.69
483.808	143.69
484.027	145.69
484.245	146.69
484.463	147.69
484.681	174.69
484.9	144.69
485.118	149.69
485.336	150.69
485.554	116.69
485.772	103.69
485.99	113.69
486.209	114.69
486.427	118.69
486.645	122.69
486.863	135.69
487.081	139.69
487.299	138.69
487.517	155.69
487.735	189.69
487.953	207.69
488.171	177.69
488.389	168.69
488.607	163.69
488.825	160.69
489.043	141.69
489.261	149.69
489.479	168.69
489.696	156.69
489.914	156.69
490.132	153.69
490.35	156.69
490.568	185.69
490.786	180.69
491.003	179.69
491.221	183.69
491.439	203.69
491.657	211.69
491.874	214.69
492.092	241.69
492.31	272.69
492.527	263.69
492.745	206.69
492.963	204.69
493.18	199.69
493.398	191.69
493.615	199.69
493.833	189.69
494.05	175.69
494.268	182.69
494.485	185.69
494.703	172.69
494.92	187.69
495.138	194.69
495.355	169.69
495.573	172.69
495.79	186.69
496.008	201.69
496.225	181.69
496.442	172.69
496.66	174.69
496.877	158.69
497.094	190.69
497.312	164.69
497.529	155.69
497.746	157.69
497.963	152.69
498.181	149.69
498.398	141.69
498.615	133.69
498.832	126.69
499.049	135.69
499.267	131.69
499.484	130.69
499.701	142.69
499.918	143.69
500.135	156.69
500.352	139.69
500.569	147.69
500.786	135.69
501.003	143.69
501.22	150.69
501.437	145.69
501.654	129.69
501.871	132.69
502.088	143.69
502.305	140.69
502.522	144.69
502.739	123.69
502.956	135.69
503.172	105.69
503.389	141.69
503.606	127.69
503.823	135.69
504.04	121.69
504.256	135.69
504.473	125.69
504.69	139.69
504.907	131.69
505.123	122.69
505.34	110.69
505.557	137.69
505.773	141.69
505.99	126.69
506.207	125.69
506.423	123.69
506.64	132.69
506.856	127.69
507.073	129.69
507.289	125.69
507.506	122.69
507.722	123.69
507.939	113.69
508.155	121.69
508.372	117.69
508.588	124.69
508.805	110.69
509.021	110.69
509.238	110.69
509.454	91.69
509.67	94.69
509.887	116.69
510.103	101.69
510.319	89.69
510.536	94.69
510.752	105.69
