Data from Location6.07152019.Energy5.Lamp.07192019.3%Agarose_HRD10591_16-11-29-394.txt Node
Date: Fri Jul 19 16:11:29 EDT 2019
User: cochatt
Spectrometer: HR+D1059
Trigger mode: 1
Integration Time (sec): 1.000000E-1
Scans to average: 1
Electric dark correction enabled: true
Nonlinearity correction enabled: false
Boxcar width: 0
XAxis mode: Wavelengths
Number of Pixels in Spectrum: 2048
>>>>>Begin Spectral Data<<<<<
223.165	-8.75
223.4	-8.75
223.635	-8.75
223.869	-20.75
224.104	-14.75
224.338	2.25
224.573	-9.75
224.808	-7.75
225.042	-14.75
225.277	-11.75
225.511	-10.75
225.746	9.25
225.98	10.25
226.215	9.25
226.449	6.25
226.683	4.25
226.918	32.25
227.152	25.25
227.387	36.25
227.621	28.25
227.856	54.25
228.09	49.25
228.324	59.25
228.559	51.25
228.793	74.25
229.027	56.25
229.262	69.25
229.496	68.25
229.73	72.25
229.964	76.25
230.199	80.25
230.433	87.25
230.667	86.25
230.901	68.25
231.136	73.25
231.37	90.25
231.604	82.25
231.838	77.25
232.072	72.25
232.306	80.25
232.541	89.25
232.775	90.25
233.009	77.25
233.243	87.25
233.477	92.25
233.711	79.25
233.945	83.25
234.179	92.25
234.413	87.25
234.647	80.25
234.881	84.25
235.115	90.25
235.349	78.25
235.583	75.25
235.817	78.25
236.051	84.25
236.285	73.25
236.519	73.25
236.753	73.25
236.987	82.25
237.221	73.25
237.455	77.25
237.689	74.25
237.922	94.25
238.156	72.25
238.39	76.25
238.624	77.25
238.858	80.25
239.091	76.25
239.325	82.25
239.559	76.25
239.793	76.25
240.027	72.25
240.26	81.25
240.494	80.25
240.728	90.25
240.961	72.25
241.195	98.25
241.429	72.25
241.662	73.25
241.896	70.25
242.13	91.25
242.363	83.25
242.597	87.25
242.83	68.25
243.064	61.25
243.298	80.25
243.531	76.25
243.765	76.25
243.998	76.25
244.232	65.25
244.465	78.25
244.699	67.25
244.932	82.25
245.166	82.25
245.399	69.25
245.633	74.25
245.866	81.25
246.099	71.25
246.333	87.25
246.566	86.25
246.8	76.25
247.033	73.25
247.266	86.25
247.5	82.25
247.733	75.25
247.966	81.25
248.2	71.25
248.433	69.25
248.666	79.25
248.899	93.25
249.133	68.25
249.366	76.25
249.599	81.25
249.832	73.25
250.066	79.25
250.299	92.25
250.532	89.25
250.765	70.25
250.998	82.25
251.231	83.25
251.465	83.25
251.698	76.25
251.931	79.25
252.164	84.25
252.397	82.25
252.63	79.25
252.863	63.25
253.096	65.25
253.329	71.25
253.562	73.25
253.795	88.25
254.028	95.25
254.261	91.25
254.494	98.25
254.727	98.25
254.96	84.25
255.193	88.25
255.426	77.25
255.659	77.25
255.892	67.25
256.124	73.25
256.357	63.25
256.59	84.25
256.823	79.25
257.056	76.25
257.289	70.25
257.521	86.25
257.754	81.25
257.987	93.25
258.22	84.25
258.452	70.25
258.685	88.25
258.918	86.25
259.151	79.25
259.383	81.25
259.616	85.25
259.849	78.25
260.081	83.25
260.314	86.25
260.547	93.25
260.779	83.25
261.012	87.25
261.244	96.25
261.477	75.25
261.71	90.25
261.942	79.25
262.175	79.25
262.407	84.25
262.64	76.25
262.872	60.25
263.105	77.25
263.337	91.25
263.57	75.25
263.802	88.25
264.035	84.25
264.267	73.25
264.499	96.25
264.732	93.25
264.964	93.25
265.197	96.25
265.429	84.25
265.661	81.25
265.894	92.25
266.126	75.25
266.358	81.25
266.591	77.25
266.823	94.25
267.055	88.25
267.287	91.25
267.52	86.25
267.752	68.25
267.984	76.25
268.216	73.25
268.448	88.25
268.681	101.25
268.913	78.25
269.145	70.25
269.377	78.25
269.609	71.25
269.841	86.25
270.073	88.25
270.306	76.25
270.538	99.25
270.77	68.25
271.002	85.25
271.234	84.25
271.466	76.25
271.698	83.25
271.93	72.25
272.162	89.25
272.394	77.25
272.626	87.25
272.858	90.25
273.09	76.25
273.322	92.25
273.553	82.25
273.785	84.25
274.017	87.25
274.249	89.25
274.481	83.25
274.713	67.25
274.945	90.25
275.176	83.25
275.408	91.25
275.64	105.25
275.872	87.25
276.104	86.25
276.335	71.25
276.567	79.25
276.799	91.25
277.031	81.25
277.262	73.25
277.494	81.25
277.726	85.25
277.957	91.25
278.189	106.25
278.421	86.25
278.652	84.25
278.884	88.25
279.115	75.25
279.347	84.25
279.579	78.25
279.81	77.25
280.042	77.25
280.273	77.25
280.505	73.25
280.736	83.25
280.968	98.25
281.199	90.25
281.431	78.25
281.662	74.25
281.894	67.25
282.125	76.25
282.356	78.25
282.588	76.25
282.819	78.25
283.051	80.25
283.282	80.25
283.513	78.25
283.745	84.25
283.976	86.25
284.207	74.25
284.439	88.25
284.67	84.25
284.901	83.25
285.132	78.25
285.364	93.25
285.595	91.25
285.826	89.25
286.057	79.25
286.288	96.25
286.52	90.25
286.751	88.25
286.982	91.25
287.213	91.25
287.444	82.25
287.675	84.25
287.906	75.25
288.138	75.25
288.369	84.25
288.6	93.25
288.831	76.25
289.062	69.25
289.293	82.25
289.524	75.25
289.755	92.25
289.986	101.25
290.217	105.25
290.448	81.25
290.679	90.25
290.91	74.25
291.141	88.25
291.371	87.25
291.602	88.25
291.833	85.25
292.064	83.25
292.295	92.25
292.526	84.25
292.757	78.25
292.987	104.25
293.218	92.25
293.449	84.25
293.68	85.25
293.91	73.25
294.141	94.25
294.372	84.25
294.603	81.25
294.833	79.25
295.064	63.25
295.295	84.25
295.525	79.25
295.756	84.25
295.987	94.25
296.217	77.25
296.448	87.25
296.679	96.25
296.909	82.25
297.14	100.25
297.37	86.25
297.601	71.25
297.831	81.25
298.062	74.25
298.292	86.25
298.523	83.25
298.753	86.25
298.984	78.25
299.214	82.25
299.445	82.25
299.675	97.25
299.905	78.25
300.136	70.25
300.366	87.25
300.597	78.25
300.827	90.25
301.057	66.25
301.288	84.25
301.518	96.25
301.748	97.25
301.979	94.25
302.209	91.25
302.439	81.25
302.669	88.25
302.9	88.25
303.13	77.25
303.36	80.25
303.59	90.25
303.82	96.25
304.051	81.25
304.281	79.25
304.511	93.25
304.741	99.25
304.971	69.25
305.201	96.25
305.431	66.25
305.661	96.25
305.891	85.25
306.121	86.25
306.352	87.25
306.582	104.25
306.812	78.25
307.042	88.25
307.272	76.25
307.502	97.25
307.731	93.25
307.961	86.25
308.191	97.25
308.421	89.25
308.651	85.25
308.881	86.25
309.111	81.25
309.341	85.25
309.571	81.25
309.8	75.25
310.03	71.25
310.26	62.25
310.49	99.25
310.72	100.25
310.949	73.25
311.179	75.25
311.409	96.25
311.639	96.25
311.868	85.25
312.098	72.25
312.328	79.25
312.557	93.25
312.787	89.25
313.017	93.25
313.246	79.25
313.476	75.25
313.706	90.25
313.935	82.25
314.165	74.25
314.394	93.25
314.624	85.25
314.853	95.25
315.083	84.25
315.312	68.25
315.542	85.25
315.771	88.25
316.001	84.25
316.23	93.25
316.46	93.25
316.689	91.25
316.919	92.25
317.148	86.25
317.377	87.25
317.607	89.25
317.836	92.25
318.065	88.25
318.295	75.25
318.524	89.25
318.753	83.25
318.983	86.25
319.212	81.25
319.441	86.25
319.67	73.25
319.9	76.25
320.129	96.25
320.358	88.25
320.587	66.25
320.816	87.25
321.046	84.25
321.275	77.25
321.504	78.25
321.733	80.25
321.962	85.25
322.191	85.25
322.42	68.25
322.649	73.25
322.878	78.25
323.108	85.25
323.337	83.25
323.566	87.25
323.795	84.25
324.024	99.25
324.253	83.25
324.482	80.25
324.71	74.25
324.939	90.25
325.168	87.25
325.397	93.25
325.626	86.25
325.855	83.25
326.084	95.25
326.313	87.25
326.542	81.25
326.77	82.25
326.999	81.25
327.228	88.25
327.457	87.25
327.686	90.25
327.914	74.25
328.143	92.25
328.372	94.25
328.6	77.25
328.829	91.25
329.058	79.25
329.287	81.25
329.515	86.25
329.744	76.25
329.972	87.25
330.201	88.25
330.43	74.25
330.658	76.25
330.887	85.25
331.115	80.25
331.344	82.25
331.572	81.25
331.801	81.25
332.03	73.25
332.258	78.25
332.486	74.25
332.715	71.25
332.943	82.25
333.172	80.25
333.4	100.25
333.629	94.25
333.857	93.25
334.085	95.25
334.314	76.25
334.542	87.25
334.771	91.25
334.999	82.25
335.227	83.25
335.455	82.25
335.684	89.25
335.912	84.25
336.14	84.25
336.369	83.25
336.597	93.25
336.825	75.25
337.053	76.25
337.281	80.25
337.51	90.25
337.738	89.25
337.966	86.25
338.194	83.25
338.422	94.25
338.65	86.25
338.878	88.25
339.106	100.25
339.334	84.25
339.562	83.25
339.79	90.25
340.018	87.25
340.246	98.25
340.474	93.25
340.702	77.25
340.93	94.25
341.158	81.25
341.386	92.25
341.614	85.25
341.842	96.25
342.07	91.25
342.298	79.25
342.526	90.25
342.754	87.25
342.981	85.25
343.209	83.25
343.437	91.25
343.665	80.25
343.893	96.25
344.12	88.25
344.348	84.25
344.576	93.25
344.804	91.25
345.031	86.25
345.259	87.25
345.487	94.25
345.714	84.25
345.942	94.25
346.17	74.25
346.397	80.25
346.625	86.25
346.853	83.25
347.08	85.25
347.308	83.25
347.535	89.25
347.763	86.25
347.99	82.25
348.218	91.25
348.445	80.25
348.673	83.25
348.9	91.25
349.128	85.25
349.355	74.25
349.583	82.25
349.81	86.25
350.037	75.25
350.265	83.25
350.492	82.25
350.72	75.25
350.947	84.25
351.174	99.25
351.402	95.25
351.629	78.25
351.856	99.25
352.083	97.25
352.311	92.25
352.538	84.25
352.765	74.25
352.992	80.25
353.22	80.25
353.447	84.25
353.674	88.25
353.901	68.25
354.128	77.25
354.355	88.25
354.583	84.25
354.81	81.25
355.037	92.25
355.264	80.25
355.491	99.25
355.718	78.25
355.945	89.25
356.172	88.25
356.399	76.25
356.626	78.25
356.853	89.25
357.08	98.25
357.307	90.25
357.534	94.25
357.761	80.25
357.988	83.25
358.215	93.25
358.441	85.25
358.668	96.25
358.895	93.25
359.122	87.25
359.349	79.25
359.576	88.25
359.802	77.25
360.029	84.25
360.256	74.25
360.483	83.25
360.709	77.25
360.936	101.25
361.163	84.25
361.39	79.25
361.616	92.25
361.843	94.25
362.07	86.25
362.296	88.25
362.523	82.25
362.749	91.25
362.976	87.25
363.203	83.25
363.429	91.25
363.656	88.25
363.882	87.25
364.109	92.25
364.335	82.25
364.562	88.25
364.788	96.25
365.015	87.25
365.241	71.25
365.468	93.25
365.694	79.25
365.92	76.25
366.147	84.25
366.373	94.25
366.599	86.25
366.826	85.25
367.052	90.25
367.278	86.25
367.505	87.25
367.731	94.25
367.957	78.25
368.184	84.25
368.41	90.25
368.636	93.25
368.862	92.25
369.089	89.25
369.315	92.25
369.541	89.25
369.767	88.25
369.993	84.25
370.219	101.25
370.445	90.25
370.672	82.25
370.898	90.25
371.124	107.25
371.35	89.25
371.576	94.25
371.802	85.25
372.028	96.25
372.254	95.25
372.48	105.25
372.706	96.25
372.932	101.25
373.158	90.25
373.384	89.25
373.61	86.25
373.835	102.25
374.061	99.25
374.287	102.25
374.513	87.25
374.739	90.25
374.965	102.25
375.191	87.25
375.416	99.25
375.642	92.25
375.868	86.25
376.094	94.25
376.319	91.25
376.545	98.25
376.771	113.25
376.997	86.25
377.222	87.25
377.448	98.25
377.674	101.25
377.899	96.25
378.125	93.25
378.35	91.25
378.576	96.25
378.802	101.25
379.027	106.25
379.253	107.25
379.478	117.25
379.704	97.25
379.929	109.25
380.155	110.25
380.38	84.25
380.606	84.25
380.831	97.25
381.057	106.25
381.282	104.25
381.507	107.25
381.733	105.25
381.958	92.25
382.184	91.25
382.409	102.25
382.634	98.25
382.86	93.25
383.085	104.25
383.31	101.25
383.535	100.25
383.761	97.25
383.986	97.25
384.211	101.25
384.436	91.25
384.662	99.25
384.887	96.25
385.112	93.25
385.337	104.25
385.562	114.25
385.787	107.25
386.013	104.25
386.238	105.25
386.463	96.25
386.688	90.25
386.913	98.25
387.138	104.25
387.363	113.25
387.588	119.25
387.813	101.25
388.038	109.25
388.263	93.25
388.488	106.25
388.713	95.25
388.938	105.25
389.163	97.25
389.387	107.25
389.612	104.25
389.837	109.25
390.062	121.25
390.287	100.25
390.512	116.25
390.736	94.25
390.961	118.25
391.186	116.25
391.411	122.25
391.636	115.25
391.86	105.25
392.085	104.25
392.31	109.25
392.534	116.25
392.759	113.25
392.984	117.25
393.208	112.25
393.433	99.25
393.658	109.25
393.882	96.25
394.107	104.25
394.331	102.25
394.556	114.25
394.78	106.25
395.005	112.25
395.229	101.25
395.454	98.25
395.678	100.25
395.903	99.25
396.127	107.25
396.352	120.25
396.576	124.25
396.801	117.25
397.025	106.25
397.249	116.25
397.474	116.25
397.698	101.25
397.922	110.25
398.147	126.25
398.371	114.25
398.595	120.25
398.82	100.25
399.044	102.25
399.268	107.25
399.492	127.25
399.717	107.25
399.941	118.25
400.165	125.25
400.389	108.25
400.613	106.25
400.837	113.25
401.062	112.25
401.286	118.25
401.51	122.25
401.734	120.25
401.958	112.25
402.182	111.25
402.406	121.25
402.63	110.25
402.854	125.25
403.078	124.25
403.302	106.25
403.526	114.25
403.75	124.25
403.974	132.25
404.198	141.25
404.422	121.25
404.645	107.25
404.869	117.25
405.093	119.25
405.317	132.25
405.541	141.25
405.765	119.25
405.988	109.25
406.212	128.25
406.436	120.25
406.66	113.25
406.883	105.25
407.107	122.25
407.331	113.25
407.555	116.25
407.778	118.25
408.002	119.25
408.226	124.25
408.449	110.25
408.673	121.25
408.896	117.25
409.12	122.25
409.344	130.25
409.567	127.25
409.791	118.25
410.014	128.25
410.238	132.25
410.461	134.25
410.685	124.25
410.908	120.25
411.132	123.25
411.355	136.25
411.578	141.25
411.802	118.25
412.025	136.25
412.249	121.25
412.472	133.25
412.695	124.25
412.919	113.25
413.142	121.25
413.365	122.25
413.589	131.25
413.812	126.25
414.035	128.25
414.258	139.25
414.482	126.25
414.705	131.25
414.928	118.25
415.151	116.25
415.374	117.25
415.597	130.25
415.821	132.25
416.044	116.25
416.267	128.25
416.49	124.25
416.713	126.25
416.936	129.25
417.159	137.25
417.382	122.25
417.605	125.25
417.828	138.25
418.051	135.25
418.274	135.25
418.497	126.25
418.72	134.25
418.943	129.25
419.166	136.25
419.389	142.25
419.611	146.25
419.834	133.25
420.057	129.25
420.28	123.25
420.503	136.25
420.726	148.25
420.948	143.25
421.171	139.25
421.394	160.25
421.617	153.25
421.839	147.25
422.062	137.25
422.285	138.25
422.507	144.25
422.73	131.25
422.953	134.25
423.175	134.25
423.398	140.25
423.621	141.25
423.843	151.25
424.066	144.25
424.288	158.25
424.511	162.25
424.733	150.25
424.956	161.25
425.178	148.25
425.401	153.25
425.623	153.25
425.846	147.25
426.068	143.25
426.291	141.25
426.513	136.25
426.735	132.25
426.958	138.25
427.18	132.25
427.402	135.25
427.625	131.25
427.847	126.25
428.069	131.25
428.292	134.25
428.514	137.25
428.736	124.25
428.958	144.25
429.181	132.25
429.403	132.25
429.625	139.25
429.847	143.25
430.069	123.25
430.292	149.25
430.514	132.25
430.736	142.25
430.958	123.25
431.18	134.25
431.402	139.25
431.624	136.25
431.846	118.25
432.068	114.25
432.29	120.25
432.512	100.25
432.734	130.25
432.956	131.25
433.178	134.25
433.4	138.25
433.622	148.25
433.844	140.25
434.066	128.25
434.287	102.25
434.509	109.25
434.731	112.25
434.953	118.25
435.175	134.25
435.397	133.25
435.618	128.25
435.84	114.25
436.062	120.25
436.284	131.25
436.505	118.25
436.727	136.25
436.949	130.25
437.17	130.25
437.392	120.25
437.614	128.25
437.835	103.25
438.057	120.25
438.278	121.25
438.5	118.25
438.721	142.25
438.943	133.25
439.165	133.25
439.386	140.25
439.608	139.25
439.829	160.25
440.05	148.25
440.272	157.25
440.493	158.25
440.715	138.25
440.936	145.25
441.158	148.25
441.379	149.25
441.6	163.25
441.822	148.25
442.043	149.25
442.264	152.25
442.486	146.25
442.707	146.25
442.928	161.25
443.149	142.25
443.371	140.25
443.592	140.25
443.813	171.25
444.034	148.25
444.255	139.25
444.476	151.25
444.698	154.25
444.919	137.25
445.14	291.25
445.361	202.25
445.582	174.25
445.803	141.25
446.024	149.25
446.245	149.25
446.466	171.25
446.687	161.25
446.908	163.25
447.129	167.25
447.35	169.25
447.571	183.25
447.792	161.25
448.013	142.25
448.234	138.25
448.455	132.25
448.675	136.25
448.896	134.25
449.117	142.25
449.338	140.25
449.559	138.25
449.779	134.25
450	126.25
450.221	154.25
450.442	149.25
450.662	138.25
450.883	134.25
451.104	130.25
451.324	147.25
451.545	142.25
451.766	130.25
451.986	132.25
452.207	128.25
452.428	131.25
452.648	138.25
452.869	128.25
453.089	124.25
453.31	146.25
453.53	114.25
453.751	117.25
453.971	117.25
454.192	114.25
454.412	115.25
454.633	126.25
454.853	118.25
455.073	123.25
455.294	125.25
455.514	130.25
455.734	116.25
455.955	121.25
456.175	116.25
456.395	123.25
456.616	118.25
456.836	102.25
457.056	112.25
457.276	114.25
457.497	120.25
457.717	113.25
457.937	116.25
458.157	108.25
458.377	112.25
458.598	106.25
458.818	92.25
459.038	93.25
459.258	83.25
459.478	103.25
459.698	95.25
459.918	109.25
460.138	118.25
460.358	109.25
460.578	115.25
460.798	118.25
461.018	120.25
461.238	112.25
461.458	126.25
461.678	119.25
461.898	122.25
462.118	120.25
462.338	128.25
462.558	118.25
462.777	118.25
462.997	124.25
463.217	122.25
463.437	124.25
463.657	115.25
463.876	108.25
464.096	114.25
464.316	107.25
464.536	115.25
464.755	118.25
464.975	126.25
465.195	132.25
465.414	119.25
465.634	124.25
465.854	128.25
466.073	128.25
466.293	135.25
466.512	137.25
466.732	139.25
466.951	133.25
467.171	151.25
467.391	148.25
467.61	145.25
467.829	148.25
468.049	132.25
468.268	132.25
468.488	133.25
468.707	148.25
468.927	147.25
469.146	140.25
469.365	147.25
469.585	149.25
469.804	145.25
470.023	149.25
470.243	142.25
470.462	156.25
470.681	138.25
470.901	140.25
471.12	146.25
471.339	148.25
471.558	137.25
471.777	151.25
471.997	141.25
472.216	125.25
472.435	116.25
472.654	113.25
472.873	122.25
473.092	124.25
473.311	136.25
473.53	144.25
473.749	144.25
473.968	126.25
474.187	130.25
474.406	124.25
474.625	141.25
474.844	136.25
475.063	139.25
475.282	127.25
475.501	125.25
475.72	126.25
475.939	116.25
476.158	129.25
476.377	128.25
476.596	122.25
476.814	117.25
477.033	126.25
477.252	131.25
477.471	138.25
477.69	142.25
477.908	142.25
478.127	146.25
478.346	126.25
478.564	132.25
478.783	144.25
479.002	147.25
479.22	144.25
479.439	118.25
479.658	132.25
479.876	111.25
480.095	119.25
480.313	117.25
480.532	117.25
480.751	114.25
480.969	96.25
481.188	98.25
481.406	96.25
481.624	113.25
481.843	84.25
482.061	91.25
482.28	109.25
482.498	115.25
482.717	108.25
482.935	125.25
483.153	148.25
483.372	148.25
483.59	161.25
483.808	151.25
484.027	144.25
484.245	152.25
484.463	153.25
484.681	158.25
484.9	151.25
485.118	144.25
485.336	139.25
485.554	129.25
485.772	104.25
485.99	128.25
486.209	101.25
486.427	122.25
486.645	124.25
486.863	137.25
487.081	144.25
487.299	148.25
487.517	158.25
487.735	170.25
487.953	198.25
488.171	179.25
488.389	178.25
488.607	163.25
488.825	145.25
489.043	132.25
489.261	146.25
489.479	152.25
489.696	139.25
489.914	138.25
490.132	166.25
490.35	154.25
490.568	163.25
490.786	179.25
491.003	170.25
491.221	171.25
491.439	171.25
491.657	211.25
491.874	213.25
492.092	236.25
492.31	259.25
492.527	240.25
492.745	226.25
492.963	216.25
493.18	186.25
493.398	192.25
493.615	176.25
493.833	171.25
494.05	180.25
494.268	172.25
494.485	178.25
494.703	194.25
494.92	185.25
495.138	170.25
495.355	185.25
495.573	182.25
495.79	150.25
496.008	176.25
496.225	176.25
496.442	154.25
496.66	170.25
496.877	173.25
497.094	173.25
497.312	171.25
497.529	167.25
497.746	149.25
497.963	148.25
498.181	130.25
498.398	137.25
498.615	130.25
498.832	120.25
499.049	117.25
499.267	126.25
499.484	121.25
499.701	137.25
499.918	148.25
500.135	134.25
500.352	142.25
500.569	162.25
500.786	135.25
501.003	156.25
501.22	140.25
501.437	143.25
501.654	138.25
501.871	146.25
502.088	137.25
502.305	136.25
502.522	134.25
502.739	144.25
502.956	122.25
503.172	130.25
503.389	123.25
503.606	117.25
503.823	122.25
504.04	130.25
504.256	128.25
504.473	120.25
504.69	121.25
504.907	138.25
505.123	127.25
505.34	121.25
505.557	132.25
505.773	123.25
505.99	128.25
506.207	125.25
506.423	127.25
506.64	133.25
506.856	138.25
507.073	124.25
507.289	118.25
507.506	123.25
507.722	123.25
507.939	122.25
508.155	128.25
508.372	126.25
508.588	119.25
508.805	123.25
509.021	124.25
509.238	103.25
509.454	101.25
509.67	107.25
509.887	92.25
510.103	84.25
510.319	102.25
510.536	100.25
510.752	78.25
510.968	91.25
511.184	77.25
