Data from Location6.07152019.Energy5.Lamp.07192019.3%Agarose_HRD10591_16-13-37-396.txt Node
Date: Fri Jul 19 16:13:37 EDT 2019
User: cochatt
Spectrometer: HR+D1059
Trigger mode: 1
Integration Time (sec): 1.000000E-1
Scans to average: 1
Electric dark correction enabled: true
Nonlinearity correction enabled: false
Boxcar width: 0
XAxis mode: Wavelengths
Number of Pixels in Spectrum: 2048
>>>>>Begin Spectral Data<<<<<
223.165	-15.62
223.4	-15.62
223.635	-15.62
223.869	-12.62
224.104	-14.62
224.338	-7.62
224.573	-15.62
224.808	-4.62
225.042	-4.62
225.277	-5.62
225.511	-0.62
225.746	-7.62
225.98	0.38
226.215	-1.62
226.449	13.38
226.683	22.38
226.918	17.38
227.152	37.38
227.387	31.38
227.621	34.38
227.856	43.38
228.09	50.38
228.324	47.38
228.559	57.38
228.793	56.38
229.027	72.38
229.262	70.38
229.496	56.38
229.73	71.38
229.964	71.38
230.199	62.38
230.433	67.38
230.667	61.38
230.901	71.38
231.136	81.38
231.37	64.38
231.604	80.38
231.838	71.38
232.072	71.38
232.306	81.38
232.541	74.38
232.775	71.38
233.009	86.38
233.243	74.38
233.477	77.38
233.711	80.38
233.945	67.38
234.179	74.38
234.413	71.38
234.647	71.38
234.881	86.38
235.115	72.38
235.349	75.38
235.583	74.38
235.817	67.38
236.051	74.38
236.285	65.38
236.519	82.38
236.753	71.38
236.987	77.38
237.221	86.38
237.455	74.38
237.689	68.38
237.922	65.38
238.156	79.38
238.39	68.38
238.624	65.38
238.858	71.38
239.091	67.38
239.325	65.38
239.559	80.38
239.793	69.38
240.027	74.38
240.26	80.38
240.494	65.38
240.728	72.38
240.961	84.38
241.195	89.38
241.429	78.38
241.662	67.38
241.896	74.38
242.13	78.38
242.363	79.38
242.597	69.38
242.83	71.38
243.064	74.38
243.298	73.38
243.531	76.38
243.765	82.38
243.998	66.38
244.232	75.38
244.465	67.38
244.699	82.38
244.932	66.38
245.166	70.38
245.399	85.38
245.633	71.38
245.866	75.38
246.099	77.38
246.333	84.38
246.566	73.38
246.8	73.38
247.033	75.38
247.266	81.38
247.5	74.38
247.733	80.38
247.966	61.38
248.2	66.38
248.433	78.38
248.666	81.38
248.899	77.38
249.133	78.38
249.366	72.38
249.599	71.38
249.832	72.38
250.066	93.38
250.299	83.38
250.532	74.38
250.765	58.38
250.998	72.38
251.231	75.38
251.465	81.38
251.698	69.38
251.931	73.38
252.164	78.38
252.397	81.38
252.63	87.38
252.863	72.38
253.096	86.38
253.329	93.38
253.562	73.38
253.795	75.38
254.028	75.38
254.261	78.38
254.494	83.38
254.727	64.38
254.96	89.38
255.193	81.38
255.426	76.38
255.659	67.38
255.892	76.38
256.124	86.38
256.357	86.38
256.59	84.38
256.823	85.38
257.056	64.38
257.289	72.38
257.521	77.38
257.754	70.38
257.987	84.38
258.22	80.38
258.452	71.38
258.685	73.38
258.918	71.38
259.151	68.38
259.383	76.38
259.616	75.38
259.849	74.38
260.081	91.38
260.314	82.38
260.547	74.38
260.779	77.38
261.012	70.38
261.244	72.38
261.477	81.38
261.71	70.38
261.942	81.38
262.175	73.38
262.407	80.38
262.64	82.38
262.872	82.38
263.105	84.38
263.337	68.38
263.57	73.38
263.802	82.38
264.035	93.38
264.267	77.38
264.499	80.38
264.732	71.38
264.964	91.38
265.197	94.38
265.429	82.38
265.661	75.38
265.894	75.38
266.126	88.38
266.358	91.38
266.591	72.38
266.823	55.38
267.055	71.38
267.287	82.38
267.52	87.38
267.752	77.38
267.984	87.38
268.216	80.38
268.448	69.38
268.681	87.38
268.913	80.38
269.145	69.38
269.377	74.38
269.609	74.38
269.841	77.38
270.073	84.38
270.306	96.38
270.538	82.38
270.77	72.38
271.002	84.38
271.234	71.38
271.466	81.38
271.698	72.38
271.93	81.38
272.162	93.38
272.394	74.38
272.626	79.38
272.858	75.38
273.09	75.38
273.322	79.38
273.553	89.38
273.785	79.38
274.017	73.38
274.249	85.38
274.481	89.38
274.713	85.38
274.945	79.38
275.176	77.38
275.408	85.38
275.64	87.38
275.872	76.38
276.104	91.38
276.335	85.38
276.567	74.38
276.799	59.38
277.031	69.38
277.262	79.38
277.494	79.38
277.726	78.38
277.957	84.38
278.189	80.38
278.421	72.38
278.652	88.38
278.884	90.38
279.115	74.38
279.347	77.38
279.579	81.38
279.81	89.38
280.042	87.38
280.273	85.38
280.505	93.38
280.736	74.38
280.968	77.38
281.199	82.38
281.431	90.38
281.662	82.38
281.894	83.38
282.125	90.38
282.356	73.38
282.588	77.38
282.819	71.38
283.051	79.38
283.282	88.38
283.513	81.38
283.745	82.38
283.976	87.38
284.207	80.38
284.439	97.38
284.67	76.38
284.901	81.38
285.132	83.38
285.364	67.38
285.595	81.38
285.826	81.38
286.057	77.38
286.288	77.38
286.52	68.38
286.751	70.38
286.982	70.38
287.213	91.38
287.444	81.38
287.675	73.38
287.906	89.38
288.138	82.38
288.369	82.38
288.6	74.38
288.831	84.38
289.062	77.38
289.293	80.38
289.524	67.38
289.755	80.38
289.986	77.38
290.217	87.38
290.448	111.38
290.679	75.38
290.91	78.38
291.141	82.38
291.371	89.38
291.602	78.38
291.833	79.38
292.064	72.38
292.295	84.38
292.526	87.38
292.757	90.38
292.987	69.38
293.218	83.38
293.449	79.38
293.68	88.38
293.91	70.38
294.141	79.38
294.372	64.38
294.603	77.38
294.833	81.38
295.064	76.38
295.295	96.38
295.525	78.38
295.756	86.38
295.987	80.38
296.217	86.38
296.448	79.38
296.679	74.38
296.909	81.38
297.14	75.38
297.37	78.38
297.601	75.38
297.831	79.38
298.062	77.38
298.292	79.38
298.523	87.38
298.753	63.38
298.984	86.38
299.214	77.38
299.445	74.38
299.675	90.38
299.905	73.38
300.136	89.38
300.366	81.38
300.597	85.38
300.827	73.38
301.057	85.38
301.288	86.38
301.518	93.38
301.748	75.38
301.979	81.38
302.209	73.38
302.439	89.38
302.669	70.38
302.9	69.38
303.13	81.38
303.36	83.38
303.59	68.38
303.82	82.38
304.051	79.38
304.281	98.38
304.511	86.38
304.741	83.38
304.971	85.38
305.201	80.38
305.431	70.38
305.661	73.38
305.891	71.38
306.121	77.38
306.352	83.38
306.582	72.38
306.812	85.38
307.042	78.38
307.272	88.38
307.502	80.38
307.731	88.38
307.961	83.38
308.191	82.38
308.421	75.38
308.651	69.38
308.881	70.38
309.111	90.38
309.341	75.38
309.571	88.38
309.8	80.38
310.03	88.38
310.26	84.38
310.49	70.38
310.72	83.38
310.949	62.38
311.179	73.38
311.409	65.38
311.639	81.38
311.868	80.38
312.098	86.38
312.328	69.38
312.557	82.38
312.787	75.38
313.017	81.38
313.246	81.38
313.476	89.38
313.706	88.38
313.935	77.38
314.165	85.38
314.394	64.38
314.624	74.38
314.853	70.38
315.083	78.38
315.312	84.38
315.542	89.38
315.771	78.38
316.001	75.38
316.23	79.38
316.46	88.38
316.689	85.38
316.919	82.38
317.148	66.38
317.377	90.38
317.607	85.38
317.836	75.38
318.065	104.38
318.295	82.38
318.524	80.38
318.753	76.38
318.983	77.38
319.212	77.38
319.441	69.38
319.67	79.38
319.9	75.38
320.129	67.38
320.358	79.38
320.587	81.38
320.816	71.38
321.046	79.38
321.275	94.38
321.504	76.38
321.733	79.38
321.962	85.38
322.191	85.38
322.42	82.38
322.649	69.38
322.878	80.38
323.108	91.38
323.337	93.38
323.566	81.38
323.795	85.38
324.024	85.38
324.253	82.38
324.482	92.38
324.71	81.38
324.939	84.38
325.168	74.38
325.397	83.38
325.626	78.38
325.855	80.38
326.084	98.38
326.313	82.38
326.542	78.38
326.77	75.38
326.999	78.38
327.228	83.38
327.457	83.38
327.686	93.38
327.914	87.38
328.143	75.38
328.372	83.38
328.6	81.38
328.829	66.38
329.058	70.38
329.287	86.38
329.515	69.38
329.744	78.38
329.972	73.38
330.201	83.38
330.43	79.38
330.658	93.38
330.887	73.38
331.115	86.38
331.344	81.38
331.572	66.38
331.801	84.38
332.03	77.38
332.258	70.38
332.486	82.38
332.715	82.38
332.943	76.38
333.172	87.38
333.4	95.38
333.629	86.38
333.857	79.38
334.085	75.38
334.314	71.38
334.542	95.38
334.771	75.38
334.999	90.38
335.227	86.38
335.455	83.38
335.684	93.38
335.912	90.38
336.14	78.38
336.369	79.38
336.597	83.38
336.825	90.38
337.053	82.38
337.281	68.38
337.51	89.38
337.738	86.38
337.966	69.38
338.194	79.38
338.422	95.38
338.65	98.38
338.878	92.38
339.106	83.38
339.334	89.38
339.562	82.38
339.79	81.38
340.018	78.38
340.246	74.38
340.474	81.38
340.702	68.38
340.93	73.38
341.158	86.38
341.386	74.38
341.614	80.38
341.842	80.38
342.07	86.38
342.298	87.38
342.526	81.38
342.754	82.38
342.981	102.38
343.209	69.38
343.437	81.38
343.665	96.38
343.893	80.38
344.12	79.38
344.348	79.38
344.576	79.38
344.804	81.38
345.031	85.38
345.259	74.38
345.487	77.38
345.714	70.38
345.942	80.38
346.17	85.38
346.397	77.38
346.625	81.38
346.853	82.38
347.08	93.38
347.308	89.38
347.535	83.38
347.763	82.38
347.99	84.38
348.218	86.38
348.445	73.38
348.673	79.38
348.9	86.38
349.128	83.38
349.355	88.38
349.583	81.38
349.81	84.38
350.037	81.38
350.265	95.38
350.492	74.38
350.72	81.38
350.947	78.38
351.174	82.38
351.402	77.38
351.629	77.38
351.856	82.38
352.083	88.38
352.311	87.38
352.538	74.38
352.765	81.38
352.992	81.38
353.22	76.38
353.447	72.38
353.674	86.38
353.901	82.38
354.128	75.38
354.355	79.38
354.583	81.38
354.81	78.38
355.037	93.38
355.264	91.38
355.491	93.38
355.718	80.38
355.945	74.38
356.172	73.38
356.399	88.38
356.626	87.38
356.853	72.38
357.08	84.38
357.307	84.38
357.534	76.38
357.761	71.38
357.988	93.38
358.215	83.38
358.441	71.38
358.668	81.38
358.895	75.38
359.122	80.38
359.349	81.38
359.576	95.38
359.802	83.38
360.029	81.38
360.256	76.38
360.483	82.38
360.709	74.38
360.936	83.38
361.163	79.38
361.39	78.38
361.616	74.38
361.843	81.38
362.07	81.38
362.296	85.38
362.523	97.38
362.749	90.38
362.976	69.38
363.203	90.38
363.429	79.38
363.656	83.38
363.882	80.38
364.109	83.38
364.335	87.38
364.562	81.38
364.788	73.38
365.015	90.38
365.241	69.38
365.468	93.38
365.694	86.38
365.92	89.38
366.147	89.38
366.373	81.38
366.599	79.38
366.826	80.38
367.052	89.38
367.278	87.38
367.505	90.38
367.731	81.38
367.957	89.38
368.184	82.38
368.41	89.38
368.636	88.38
368.862	83.38
369.089	100.38
369.315	95.38
369.541	91.38
369.767	99.38
369.993	96.38
370.219	69.38
370.445	90.38
370.672	98.38
370.898	82.38
371.124	101.38
371.35	83.38
371.576	90.38
371.802	84.38
372.028	87.38
372.254	90.38
372.48	88.38
372.706	99.38
372.932	85.38
373.158	86.38
373.384	90.38
373.61	82.38
373.835	77.38
374.061	86.38
374.287	97.38
374.513	85.38
374.739	82.38
374.965	101.38
375.191	90.38
375.416	81.38
375.642	93.38
375.868	90.38
376.094	86.38
376.319	101.38
376.545	93.38
376.771	96.38
376.997	86.38
377.222	97.38
377.448	95.38
377.674	90.38
377.899	89.38
378.125	109.38
378.35	95.38
378.576	99.38
378.802	92.38
379.027	95.38
379.253	86.38
379.478	96.38
379.704	96.38
379.929	86.38
380.155	96.38
380.38	86.38
380.606	96.38
380.831	93.38
381.057	102.38
381.282	99.38
381.507	97.38
381.733	105.38
381.958	95.38
382.184	89.38
382.409	86.38
382.634	89.38
382.86	92.38
383.085	96.38
383.31	97.38
383.535	102.38
383.761	107.38
383.986	87.38
384.211	109.38
384.436	109.38
384.662	110.38
384.887	95.38
385.112	91.38
385.337	85.38
385.562	95.38
385.787	97.38
386.013	100.38
386.238	102.38
386.463	111.38
386.688	104.38
386.913	106.38
387.138	102.38
387.363	128.38
387.588	107.38
387.813	110.38
388.038	93.38
388.263	105.38
388.488	104.38
388.713	91.38
388.938	98.38
389.163	97.38
389.387	78.38
389.612	94.38
389.837	120.38
390.062	102.38
390.287	112.38
390.512	103.38
390.736	101.38
390.961	113.38
391.186	111.38
391.411	104.38
391.636	102.38
391.86	99.38
392.085	106.38
392.31	98.38
392.534	97.38
392.759	101.38
392.984	110.38
393.208	106.38
393.433	106.38
393.658	102.38
393.882	114.38
394.107	103.38
394.331	119.38
394.556	103.38
394.78	100.38
395.005	102.38
395.229	106.38
395.454	85.38
395.678	102.38
395.903	111.38
396.127	109.38
396.352	92.38
396.576	109.38
396.801	115.38
397.025	116.38
397.249	101.38
397.474	113.38
397.698	125.38
397.922	106.38
398.147	108.38
398.371	125.38
398.595	114.38
398.82	111.38
399.044	130.38
399.268	117.38
399.492	105.38
399.717	118.38
399.941	117.38
400.165	118.38
400.389	115.38
400.613	112.38
400.837	102.38
401.062	108.38
401.286	123.38
401.51	129.38
401.734	96.38
401.958	110.38
402.182	109.38
402.406	109.38
402.63	104.38
402.854	131.38
403.078	111.38
403.302	116.38
403.526	122.38
403.75	117.38
403.974	113.38
404.198	116.38
404.422	110.38
404.645	122.38
404.869	116.38
405.093	110.38
405.317	102.38
405.541	125.38
405.765	111.38
405.988	122.38
406.212	105.38
406.436	123.38
406.66	124.38
406.883	109.38
407.107	103.38
407.331	124.38
407.555	115.38
407.778	117.38
408.002	127.38
408.226	120.38
408.449	117.38
408.673	129.38
408.896	134.38
409.12	115.38
409.344	118.38
409.567	117.38
409.791	133.38
410.014	129.38
410.238	117.38
410.461	131.38
410.685	129.38
410.908	117.38
411.132	125.38
411.355	118.38
411.578	121.38
411.802	123.38
412.025	122.38
412.249	134.38
412.472	119.38
412.695	133.38
412.919	122.38
413.142	135.38
413.365	114.38
413.589	139.38
413.812	130.38
414.035	117.38
414.258	121.38
414.482	121.38
414.705	125.38
414.928	125.38
415.151	130.38
415.374	128.38
415.597	129.38
415.821	122.38
416.044	118.38
416.267	114.38
416.49	138.38
416.713	122.38
416.936	122.38
417.159	116.38
417.382	139.38
417.605	134.38
417.828	120.38
418.051	119.38
418.274	136.38
418.497	144.38
418.72	138.38
418.943	121.38
419.166	122.38
419.389	138.38
419.611	143.38
419.834	129.38
420.057	146.38
420.28	141.38
420.503	123.38
420.726	138.38
420.948	134.38
421.171	118.38
421.394	133.38
421.617	142.38
421.839	141.38
422.062	151.38
422.285	137.38
422.507	128.38
422.73	131.38
422.953	115.38
423.175	131.38
423.398	135.38
423.621	148.38
423.843	139.38
424.066	135.38
424.288	140.38
424.511	136.38
424.733	149.38
424.956	150.38
425.178	134.38
425.401	126.38
425.623	129.38
425.846	131.38
426.068	146.38
426.291	123.38
426.513	125.38
426.735	125.38
426.958	134.38
427.18	137.38
427.402	138.38
427.625	135.38
427.847	130.38
428.069	125.38
428.292	142.38
428.514	130.38
428.736	127.38
428.958	125.38
429.181	129.38
429.403	145.38
429.625	131.38
429.847	121.38
430.069	125.38
430.292	126.38
430.514	124.38
430.736	140.38
430.958	129.38
431.18	129.38
431.402	132.38
431.624	121.38
431.846	99.38
432.068	99.38
432.29	111.38
432.512	110.38
432.734	120.38
432.956	131.38
433.178	142.38
433.4	139.38
433.622	142.38
433.844	145.38
434.066	138.38
434.287	129.38
434.509	100.38
434.731	103.38
434.953	111.38
435.175	126.38
435.397	121.38
435.618	123.38
435.84	110.38
436.062	113.38
436.284	122.38
436.505	118.38
436.727	138.38
436.949	129.38
437.17	125.38
437.392	129.38
437.614	117.38
437.835	104.38
438.057	89.38
438.278	115.38
438.5	131.38
438.721	131.38
438.943	134.38
439.165	135.38
439.386	136.38
439.608	122.38
439.829	145.38
440.05	155.38
440.272	152.38
440.493	144.38
440.715	143.38
440.936	150.38
441.158	150.38
441.379	149.38
441.6	154.38
441.822	152.38
442.043	155.38
442.264	159.38
442.486	140.38
442.707	163.38
442.928	149.38
443.149	141.38
443.371	148.38
443.592	132.38
443.813	143.38
444.034	133.38
444.255	136.38
444.476	151.38
444.698	140.38
444.919	155.38
445.14	287.38
445.361	214.38
445.582	141.38
445.803	162.38
446.024	152.38
446.245	169.38
446.466	146.38
446.687	149.38
446.908	163.38
447.129	154.38
447.35	161.38
447.571	161.38
447.792	138.38
448.013	149.38
448.234	133.38
448.455	131.38
448.675	134.38
448.896	139.38
449.117	148.38
449.338	149.38
449.559	140.38
449.779	159.38
450	136.38
450.221	133.38
450.442	141.38
450.662	143.38
450.883	134.38
451.104	139.38
451.324	130.38
451.545	146.38
451.766	130.38
451.986	113.38
452.207	138.38
452.428	129.38
452.648	126.38
452.869	119.38
453.089	120.38
453.31	116.38
453.53	111.38
453.751	96.38
453.971	102.38
454.192	97.38
454.412	112.38
454.633	121.38
454.853	126.38
455.073	125.38
455.294	118.38
455.514	125.38
455.734	126.38
455.955	131.38
456.175	117.38
456.395	119.38
456.616	120.38
456.836	115.38
457.056	112.38
457.276	109.38
457.497	108.38
457.717	122.38
457.937	104.38
458.157	108.38
458.377	119.38
458.598	122.38
458.818	106.38
459.038	94.38
459.258	92.38
459.478	79.38
459.698	98.38
459.918	100.38
460.138	99.38
460.358	107.38
460.578	115.38
460.798	125.38
461.018	113.38
461.238	112.38
461.458	123.38
461.678	106.38
461.898	116.38
462.118	99.38
462.338	121.38
462.558	114.38
462.777	125.38
462.997	118.38
463.217	108.38
463.437	112.38
463.657	110.38
463.876	111.38
464.096	101.38
464.316	111.38
464.536	111.38
464.755	123.38
464.975	124.38
465.195	117.38
465.414	117.38
465.634	120.38
465.854	123.38
466.073	127.38
466.293	128.38
466.512	137.38
466.732	138.38
466.951	137.38
467.171	136.38
467.391	138.38
467.61	133.38
467.829	134.38
468.049	154.38
468.268	137.38
468.488	132.38
468.707	133.38
468.927	145.38
469.146	153.38
469.365	151.38
469.585	163.38
469.804	147.38
470.023	142.38
470.243	139.38
470.462	165.38
470.681	137.38
470.901	153.38
471.12	151.38
471.339	145.38
471.558	150.38
471.777	141.38
471.997	143.38
472.216	130.38
472.435	121.38
472.654	117.38
472.873	130.38
473.092	134.38
473.311	130.38
473.53	123.38
473.749	133.38
473.968	138.38
474.187	112.38
474.406	121.38
474.625	138.38
474.844	109.38
475.063	148.38
475.282	130.38
475.501	118.38
475.72	135.38
475.939	140.38
476.158	145.38
476.377	135.38
476.596	141.38
476.814	119.38
477.033	112.38
477.252	111.38
477.471	123.38
477.69	135.38
477.908	144.38
478.127	153.38
478.346	143.38
478.564	125.38
478.783	154.38
479.002	128.38
479.22	137.38
479.439	129.38
479.658	119.38
479.876	118.38
480.095	110.38
480.313	119.38
480.532	112.38
480.751	119.38
480.969	98.38
481.188	96.38
481.406	88.38
481.624	91.38
481.843	99.38
482.061	104.38
482.28	109.38
482.498	119.38
482.717	132.38
482.935	118.38
483.153	149.38
483.372	159.38
483.59	146.38
483.808	143.38
484.027	146.38
484.245	150.38
484.463	142.38
484.681	171.38
484.9	170.38
485.118	148.38
485.336	133.38
485.554	132.38
485.772	105.38
485.99	119.38
486.209	114.38
486.427	115.38
486.645	115.38
486.863	128.38
487.081	137.38
487.299	138.38
487.517	160.38
487.735	168.38
487.953	208.38
488.171	207.38
488.389	176.38
488.607	177.38
488.825	146.38
489.043	135.38
489.261	120.38
489.479	129.38
489.696	158.38
489.914	151.38
490.132	151.38
490.35	167.38
490.568	164.38
490.786	174.38
491.003	175.38
491.221	184.38
491.439	181.38
491.657	203.38
491.874	211.38
492.092	247.38
492.31	271.38
492.527	243.38
492.745	220.38
492.963	201.38
493.18	194.38
493.398	207.38
493.615	188.38
493.833	173.38
494.05	186.38
494.268	175.38
494.485	164.38
494.703	173.38
494.92	193.38
495.138	179.38
495.355	171.38
495.573	177.38
495.79	167.38
496.008	171.38
496.225	173.38
496.442	170.38
496.66	178.38
496.877	159.38
497.094	169.38
497.312	181.38
497.529	161.38
497.746	148.38
497.963	149.38
498.181	139.38
498.398	120.38
498.615	125.38
498.832	124.38
499.049	121.38
499.267	114.38
499.484	120.38
499.701	130.38
499.918	136.38
500.135	123.38
500.352	133.38
500.569	141.38
500.786	145.38
501.003	135.38
501.22	146.38
501.437	142.38
501.654	140.38
501.871	144.38
502.088	140.38
502.305	119.38
502.522	113.38
502.739	137.38
502.956	139.38
503.172	131.38
503.389	144.38
503.606	115.38
503.823	106.38
504.04	113.38
504.256	115.38
504.473	113.38
504.69	123.38
504.907	126.38
505.123	120.38
505.34	116.38
505.557	136.38
505.773	130.38
505.99	122.38
506.207	125.38
506.423	127.38
506.64	123.38
506.856	122.38
507.073	124.38
507.289	125.38
507.506	118.38
507.722	133.38
507.939	127.38
508.155	117.38
508.372	121.38
508.588	121.38
508.805	109.38
509.021	109.38
509.238	109.38
509.454	99.38
509.67	97.38
509.887	107.38
510.103	98.38
510.319	102.38
510.536	96.38
510.752	85.38
510.968	86.38
511.184	88.38
511.401	79.38
511.617	90.38
