Data from Location6.07152019.Energy5.Lamp.07192019.3%Agarose_HRD10591_16-13-18-395.txt Node
Date: Fri Jul 19 16:13:18 EDT 2019
User: cochatt
Spectrometer: HR+D1059
Trigger mode: 1
Integration Time (sec): 1.000000E-1
Scans to average: 1
Electric dark correction enabled: true
Nonlinearity correction enabled: false
Boxcar width: 0
XAxis mode: Wavelengths
Number of Pixels in Spectrum: 2048
>>>>>Begin Spectral Data<<<<<
223.165	-23.88
223.4	-23.88
223.635	-23.88
223.869	-19.88
224.104	-24.88
224.338	-0.88
224.573	-12.88
224.808	-22.88
225.042	-1.88
225.277	-8.88
225.511	-7.88
225.746	3.12
225.98	10.12
226.215	20.12
226.449	8.12
226.683	24.12
226.918	30.12
227.152	28.12
227.387	32.12
227.621	26.12
227.856	32.12
228.09	49.12
228.324	42.12
228.559	54.12
228.793	58.12
229.027	58.12
229.262	62.12
229.496	55.12
229.73	70.12
229.964	78.12
230.199	78.12
230.433	66.12
230.667	65.12
230.901	77.12
231.136	86.12
231.37	78.12
231.604	77.12
231.838	79.12
232.072	76.12
232.306	68.12
232.541	90.12
232.775	72.12
233.009	80.12
233.243	68.12
233.477	84.12
233.711	87.12
233.945	74.12
234.179	74.12
234.413	75.12
234.647	83.12
234.881	89.12
235.115	77.12
235.349	78.12
235.583	73.12
235.817	77.12
236.051	74.12
236.285	74.12
236.519	86.12
236.753	81.12
236.987	53.12
237.221	76.12
237.455	83.12
237.689	84.12
237.922	66.12
238.156	71.12
238.39	85.12
238.624	74.12
238.858	85.12
239.091	71.12
239.325	70.12
239.559	76.12
239.793	61.12
240.027	72.12
240.26	73.12
240.494	77.12
240.728	79.12
240.961	70.12
241.195	82.12
241.429	76.12
241.662	84.12
241.896	67.12
242.13	85.12
242.363	78.12
242.597	67.12
242.83	85.12
243.064	80.12
243.298	85.12
243.531	74.12
243.765	75.12
243.998	77.12
244.232	66.12
244.465	73.12
244.699	80.12
244.932	86.12
245.166	65.12
245.399	79.12
245.633	86.12
245.866	77.12
246.099	82.12
246.333	76.12
246.566	84.12
246.8	79.12
247.033	88.12
247.266	72.12
247.5	71.12
247.733	83.12
247.966	84.12
248.2	74.12
248.433	71.12
248.666	77.12
248.899	98.12
249.133	73.12
249.366	83.12
249.599	82.12
249.832	74.12
250.066	74.12
250.299	64.12
250.532	66.12
250.765	85.12
250.998	85.12
251.231	81.12
251.465	87.12
251.698	76.12
251.931	71.12
252.164	74.12
252.397	71.12
252.63	76.12
252.863	75.12
253.096	80.12
253.329	75.12
253.562	81.12
253.795	73.12
254.028	85.12
254.261	77.12
254.494	65.12
254.727	62.12
254.96	81.12
255.193	66.12
255.426	79.12
255.659	86.12
255.892	84.12
256.124	74.12
256.357	84.12
256.59	76.12
256.823	76.12
257.056	87.12
257.289	78.12
257.521	77.12
257.754	81.12
257.987	80.12
258.22	75.12
258.452	73.12
258.685	84.12
258.918	78.12
259.151	76.12
259.383	79.12
259.616	81.12
259.849	88.12
260.081	103.12
260.314	90.12
260.547	84.12
260.779	82.12
261.012	83.12
261.244	69.12
261.477	83.12
261.71	80.12
261.942	79.12
262.175	82.12
262.407	80.12
262.64	72.12
262.872	77.12
263.105	91.12
263.337	85.12
263.57	70.12
263.802	74.12
264.035	87.12
264.267	89.12
264.499	86.12
264.732	87.12
264.964	79.12
265.197	79.12
265.429	71.12
265.661	68.12
265.894	82.12
266.126	90.12
266.358	88.12
266.591	92.12
266.823	73.12
267.055	82.12
267.287	97.12
267.52	93.12
267.752	80.12
267.984	101.12
268.216	89.12
268.448	74.12
268.681	82.12
268.913	92.12
269.145	90.12
269.377	81.12
269.609	74.12
269.841	88.12
270.073	80.12
270.306	74.12
270.538	82.12
270.77	66.12
271.002	82.12
271.234	73.12
271.466	77.12
271.698	88.12
271.93	78.12
272.162	82.12
272.394	97.12
272.626	82.12
272.858	74.12
273.09	76.12
273.322	76.12
273.553	73.12
273.785	79.12
274.017	80.12
274.249	81.12
274.481	90.12
274.713	73.12
274.945	85.12
275.176	68.12
275.408	67.12
275.64	86.12
275.872	84.12
276.104	84.12
276.335	84.12
276.567	102.12
276.799	92.12
277.031	90.12
277.262	75.12
277.494	88.12
277.726	85.12
277.957	74.12
278.189	76.12
278.421	71.12
278.652	73.12
278.884	82.12
279.115	82.12
279.347	84.12
279.579	79.12
279.81	82.12
280.042	77.12
280.273	82.12
280.505	80.12
280.736	71.12
280.968	81.12
281.199	67.12
281.431	74.12
281.662	89.12
281.894	84.12
282.125	87.12
282.356	91.12
282.588	75.12
282.819	75.12
283.051	91.12
283.282	75.12
283.513	86.12
283.745	72.12
283.976	77.12
284.207	84.12
284.439	72.12
284.67	72.12
284.901	80.12
285.132	73.12
285.364	77.12
285.595	74.12
285.826	86.12
286.057	74.12
286.288	92.12
286.52	79.12
286.751	73.12
286.982	78.12
287.213	86.12
287.444	90.12
287.675	81.12
287.906	81.12
288.138	79.12
288.369	83.12
288.6	85.12
288.831	74.12
289.062	98.12
289.293	78.12
289.524	80.12
289.755	74.12
289.986	83.12
290.217	77.12
290.448	83.12
290.679	84.12
290.91	76.12
291.141	87.12
291.371	77.12
291.602	86.12
291.833	73.12
292.064	89.12
292.295	96.12
292.526	78.12
292.757	90.12
292.987	86.12
293.218	66.12
293.449	89.12
293.68	85.12
293.91	90.12
294.141	100.12
294.372	92.12
294.603	76.12
294.833	80.12
295.064	79.12
295.295	85.12
295.525	82.12
295.756	81.12
295.987	81.12
296.217	80.12
296.448	76.12
296.679	78.12
296.909	73.12
297.14	70.12
297.37	80.12
297.601	75.12
297.831	81.12
298.062	65.12
298.292	91.12
298.523	90.12
298.753	87.12
298.984	98.12
299.214	81.12
299.445	82.12
299.675	74.12
299.905	83.12
300.136	85.12
300.366	87.12
300.597	80.12
300.827	77.12
301.057	75.12
301.288	84.12
301.518	78.12
301.748	87.12
301.979	84.12
302.209	81.12
302.439	86.12
302.669	76.12
302.9	70.12
303.13	82.12
303.36	96.12
303.59	95.12
303.82	82.12
304.051	82.12
304.281	79.12
304.511	73.12
304.741	79.12
304.971	79.12
305.201	63.12
305.431	71.12
305.661	90.12
305.891	75.12
306.121	92.12
306.352	86.12
306.582	65.12
306.812	74.12
307.042	87.12
307.272	82.12
307.502	85.12
307.731	78.12
307.961	92.12
308.191	80.12
308.421	76.12
308.651	85.12
308.881	87.12
309.111	82.12
309.341	80.12
309.571	81.12
309.8	74.12
310.03	71.12
310.26	72.12
310.49	80.12
310.72	68.12
310.949	78.12
311.179	92.12
311.409	87.12
311.639	71.12
311.868	86.12
312.098	71.12
312.328	86.12
312.557	79.12
312.787	90.12
313.017	80.12
313.246	74.12
313.476	72.12
313.706	71.12
313.935	83.12
314.165	86.12
314.394	89.12
314.624	91.12
314.853	79.12
315.083	88.12
315.312	82.12
315.542	88.12
315.771	71.12
316.001	73.12
316.23	74.12
316.46	81.12
316.689	91.12
316.919	84.12
317.148	84.12
317.377	109.12
317.607	95.12
317.836	79.12
318.065	87.12
318.295	96.12
318.524	76.12
318.753	88.12
318.983	69.12
319.212	81.12
319.441	88.12
319.67	76.12
319.9	79.12
320.129	89.12
320.358	81.12
320.587	84.12
320.816	81.12
321.046	70.12
321.275	76.12
321.504	83.12
321.733	76.12
321.962	92.12
322.191	84.12
322.42	80.12
322.649	78.12
322.878	78.12
323.108	79.12
323.337	91.12
323.566	90.12
323.795	64.12
324.024	80.12
324.253	88.12
324.482	84.12
324.71	94.12
324.939	86.12
325.168	83.12
325.397	83.12
325.626	66.12
325.855	87.12
326.084	85.12
326.313	76.12
326.542	79.12
326.77	76.12
326.999	86.12
327.228	82.12
327.457	80.12
327.686	80.12
327.914	90.12
328.143	79.12
328.372	73.12
328.6	83.12
328.829	89.12
329.058	76.12
329.287	90.12
329.515	84.12
329.744	91.12
329.972	83.12
330.201	92.12
330.43	97.12
330.658	70.12
330.887	88.12
331.115	76.12
331.344	90.12
331.572	73.12
331.801	95.12
332.03	78.12
332.258	76.12
332.486	84.12
332.715	81.12
332.943	80.12
333.172	82.12
333.4	76.12
333.629	86.12
333.857	72.12
334.085	78.12
334.314	87.12
334.542	79.12
334.771	78.12
334.999	76.12
335.227	75.12
335.455	96.12
335.684	86.12
335.912	87.12
336.14	80.12
336.369	82.12
336.597	87.12
336.825	85.12
337.053	78.12
337.281	86.12
337.51	86.12
337.738	81.12
337.966	70.12
338.194	88.12
338.422	81.12
338.65	87.12
338.878	79.12
339.106	78.12
339.334	73.12
339.562	75.12
339.79	92.12
340.018	83.12
340.246	94.12
340.474	75.12
340.702	79.12
340.93	84.12
341.158	71.12
341.386	83.12
341.614	75.12
341.842	87.12
342.07	77.12
342.298	83.12
342.526	81.12
342.754	79.12
342.981	80.12
343.209	93.12
343.437	87.12
343.665	84.12
343.893	85.12
344.12	91.12
344.348	100.12
344.576	75.12
344.804	86.12
345.031	85.12
345.259	89.12
345.487	88.12
345.714	84.12
345.942	73.12
346.17	90.12
346.397	88.12
346.625	81.12
346.853	81.12
347.08	82.12
347.308	83.12
347.535	90.12
347.763	80.12
347.99	88.12
348.218	90.12
348.445	91.12
348.673	83.12
348.9	78.12
349.128	74.12
349.355	88.12
349.583	77.12
349.81	74.12
350.037	89.12
350.265	79.12
350.492	95.12
350.72	75.12
350.947	76.12
351.174	82.12
351.402	88.12
351.629	87.12
351.856	86.12
352.083	79.12
352.311	76.12
352.538	86.12
352.765	80.12
352.992	77.12
353.22	91.12
353.447	82.12
353.674	82.12
353.901	80.12
354.128	75.12
354.355	89.12
354.583	71.12
354.81	66.12
355.037	75.12
355.264	78.12
355.491	76.12
355.718	76.12
355.945	74.12
356.172	78.12
356.399	72.12
356.626	75.12
356.853	85.12
357.08	83.12
357.307	89.12
357.534	73.12
357.761	77.12
357.988	80.12
358.215	77.12
358.441	86.12
358.668	77.12
358.895	69.12
359.122	80.12
359.349	86.12
359.576	86.12
359.802	78.12
360.029	89.12
360.256	69.12
360.483	76.12
360.709	82.12
360.936	84.12
361.163	73.12
361.39	86.12
361.616	74.12
361.843	76.12
362.07	82.12
362.296	87.12
362.523	94.12
362.749	71.12
362.976	67.12
363.203	77.12
363.429	88.12
363.656	92.12
363.882	75.12
364.109	81.12
364.335	81.12
364.562	86.12
364.788	96.12
365.015	90.12
365.241	80.12
365.468	92.12
365.694	79.12
365.92	81.12
366.147	82.12
366.373	80.12
366.599	86.12
366.826	81.12
367.052	95.12
367.278	83.12
367.505	87.12
367.731	96.12
367.957	92.12
368.184	90.12
368.41	110.12
368.636	103.12
368.862	82.12
369.089	76.12
369.315	80.12
369.541	90.12
369.767	87.12
369.993	101.12
370.219	90.12
370.445	89.12
370.672	99.12
370.898	90.12
371.124	84.12
371.35	90.12
371.576	99.12
371.802	102.12
372.028	92.12
372.254	90.12
372.48	88.12
372.706	89.12
372.932	93.12
373.158	82.12
373.384	92.12
373.61	96.12
373.835	95.12
374.061	88.12
374.287	90.12
374.513	94.12
374.739	98.12
374.965	94.12
375.191	87.12
375.416	79.12
375.642	89.12
375.868	96.12
376.094	88.12
376.319	83.12
376.545	85.12
376.771	92.12
376.997	89.12
377.222	90.12
377.448	93.12
377.674	96.12
377.899	92.12
378.125	114.12
378.35	84.12
378.576	98.12
378.802	101.12
379.027	89.12
379.253	104.12
379.478	109.12
379.704	102.12
379.929	98.12
380.155	91.12
380.38	84.12
380.606	89.12
380.831	81.12
381.057	90.12
381.282	106.12
381.507	99.12
381.733	106.12
381.958	104.12
382.184	107.12
382.409	102.12
382.634	99.12
382.86	99.12
383.085	106.12
383.31	86.12
383.535	96.12
383.761	88.12
383.986	97.12
384.211	87.12
384.436	88.12
384.662	88.12
384.887	107.12
385.112	100.12
385.337	103.12
385.562	96.12
385.787	111.12
386.013	99.12
386.238	98.12
386.463	96.12
386.688	107.12
386.913	100.12
387.138	100.12
387.363	87.12
387.588	97.12
387.813	108.12
388.038	92.12
388.263	99.12
388.488	113.12
388.713	86.12
388.938	100.12
389.163	91.12
389.387	102.12
389.612	98.12
389.837	96.12
390.062	110.12
390.287	101.12
390.512	96.12
390.736	97.12
390.961	102.12
391.186	106.12
391.411	102.12
391.636	106.12
391.86	111.12
392.085	107.12
392.31	107.12
392.534	104.12
392.759	114.12
392.984	109.12
393.208	116.12
393.433	98.12
393.658	95.12
393.882	107.12
394.107	103.12
394.331	94.12
394.556	103.12
394.78	118.12
395.005	95.12
395.229	102.12
395.454	105.12
395.678	94.12
395.903	106.12
396.127	103.12
396.352	105.12
396.576	107.12
396.801	106.12
397.025	111.12
397.249	99.12
397.474	102.12
397.698	119.12
397.922	112.12
398.147	121.12
398.371	98.12
398.595	124.12
398.82	87.12
399.044	107.12
399.268	120.12
399.492	110.12
399.717	116.12
399.941	111.12
400.165	112.12
400.389	103.12
400.613	122.12
400.837	118.12
401.062	118.12
401.286	103.12
401.51	106.12
401.734	108.12
401.958	104.12
402.182	122.12
402.406	110.12
402.63	111.12
402.854	116.12
403.078	122.12
403.302	112.12
403.526	127.12
403.75	101.12
403.974	134.12
404.198	124.12
404.422	101.12
404.645	113.12
404.869	113.12
405.093	119.12
405.317	110.12
405.541	110.12
405.765	131.12
405.988	120.12
406.212	124.12
406.436	116.12
406.66	124.12
406.883	111.12
407.107	114.12
407.331	108.12
407.555	122.12
407.778	134.12
408.002	118.12
408.226	116.12
408.449	126.12
408.673	118.12
408.896	118.12
409.12	121.12
409.344	115.12
409.567	136.12
409.791	118.12
410.014	110.12
410.238	115.12
410.461	118.12
410.685	122.12
410.908	154.12
411.132	106.12
411.355	124.12
411.578	123.12
411.802	117.12
412.025	133.12
412.249	119.12
412.472	110.12
412.695	126.12
412.919	117.12
413.142	124.12
413.365	122.12
413.589	128.12
413.812	123.12
414.035	108.12
414.258	136.12
414.482	119.12
414.705	112.12
414.928	117.12
415.151	120.12
415.374	116.12
415.597	124.12
415.821	127.12
416.044	128.12
416.267	133.12
416.49	123.12
416.713	113.12
416.936	131.12
417.159	126.12
417.382	130.12
417.605	130.12
417.828	135.12
418.051	124.12
418.274	130.12
418.497	121.12
418.72	133.12
418.943	129.12
419.166	139.12
419.389	127.12
419.611	137.12
419.834	138.12
420.057	135.12
420.28	130.12
420.503	141.12
420.726	134.12
420.948	122.12
421.171	132.12
421.394	153.12
421.617	138.12
421.839	129.12
422.062	146.12
422.285	136.12
422.507	138.12
422.73	135.12
422.953	137.12
423.175	140.12
423.398	120.12
423.621	122.12
423.843	134.12
424.066	138.12
424.288	149.12
424.511	160.12
424.733	144.12
424.956	130.12
425.178	140.12
425.401	150.12
425.623	146.12
425.846	131.12
426.068	114.12
426.291	135.12
426.513	139.12
426.735	119.12
426.958	134.12
427.18	134.12
427.402	129.12
427.625	134.12
427.847	132.12
428.069	147.12
428.292	146.12
428.514	146.12
428.736	127.12
428.958	129.12
429.181	119.12
429.403	138.12
429.625	132.12
429.847	124.12
430.069	137.12
430.292	120.12
430.514	124.12
430.736	144.12
430.958	113.12
431.18	140.12
431.402	142.12
431.624	128.12
431.846	108.12
432.068	102.12
432.29	96.12
432.512	107.12
432.734	134.12
432.956	132.12
433.178	130.12
433.4	138.12
433.622	147.12
433.844	128.12
434.066	123.12
434.287	114.12
434.509	109.12
434.731	94.12
434.953	100.12
435.175	138.12
435.397	129.12
435.618	128.12
435.84	120.12
436.062	133.12
436.284	123.12
436.505	115.12
436.727	135.12
436.949	127.12
437.17	142.12
437.392	126.12
437.614	132.12
437.835	118.12
438.057	107.12
438.278	114.12
438.5	129.12
438.721	120.12
438.943	137.12
439.165	138.12
439.386	129.12
439.608	149.12
439.829	160.12
440.05	157.12
440.272	136.12
440.493	149.12
440.715	147.12
440.936	151.12
441.158	132.12
441.379	118.12
441.6	165.12
441.822	143.12
442.043	139.12
442.264	151.12
442.486	161.12
442.707	140.12
442.928	147.12
443.149	150.12
443.371	140.12
443.592	146.12
443.813	138.12
444.034	143.12
444.255	133.12
444.476	142.12
444.698	146.12
444.919	147.12
445.14	276.12
445.361	209.12
445.582	144.12
445.803	140.12
446.024	152.12
446.245	159.12
446.466	162.12
446.687	163.12
446.908	152.12
447.129	179.12
447.35	152.12
447.571	150.12
447.792	150.12
448.013	134.12
448.234	154.12
448.455	135.12
448.675	139.12
448.896	137.12
449.117	126.12
449.338	130.12
449.559	140.12
449.779	134.12
450	134.12
450.221	150.12
450.442	152.12
450.662	148.12
450.883	116.12
451.104	135.12
451.324	136.12
451.545	127.12
451.766	134.12
451.986	128.12
452.207	120.12
452.428	132.12
452.648	130.12
452.869	130.12
453.089	121.12
453.31	122.12
453.53	110.12
453.751	126.12
453.971	112.12
454.192	120.12
454.412	131.12
454.633	112.12
454.853	122.12
455.073	139.12
455.294	117.12
455.514	124.12
455.734	111.12
455.955	116.12
456.175	116.12
456.395	100.12
456.616	93.12
456.836	105.12
457.056	115.12
457.276	116.12
457.497	111.12
457.717	94.12
457.937	114.12
458.157	97.12
458.377	117.12
458.598	110.12
458.818	93.12
459.038	92.12
459.258	90.12
459.478	89.12
459.698	107.12
459.918	94.12
460.138	117.12
460.358	107.12
460.578	118.12
460.798	116.12
461.018	120.12
461.238	126.12
461.458	102.12
461.678	114.12
461.898	119.12
462.118	119.12
462.338	121.12
462.558	123.12
462.777	104.12
462.997	96.12
463.217	118.12
463.437	106.12
463.657	119.12
463.876	118.12
464.096	103.12
464.316	128.12
464.536	114.12
464.755	126.12
464.975	121.12
465.195	125.12
465.414	104.12
465.634	118.12
465.854	118.12
466.073	123.12
466.293	123.12
466.512	135.12
466.732	122.12
466.951	146.12
467.171	146.12
467.391	138.12
467.61	129.12
467.829	141.12
468.049	137.12
468.268	143.12
468.488	129.12
468.707	139.12
468.927	147.12
469.146	156.12
469.365	136.12
469.585	140.12
469.804	143.12
470.023	155.12
470.243	148.12
470.462	145.12
470.681	148.12
470.901	145.12
471.12	148.12
471.339	149.12
471.558	140.12
471.777	154.12
471.997	128.12
472.216	134.12
472.435	119.12
472.654	106.12
472.873	113.12
473.092	114.12
473.311	121.12
473.53	118.12
473.749	132.12
473.968	121.12
474.187	123.12
474.406	106.12
474.625	140.12
474.844	137.12
475.063	131.12
475.282	143.12
475.501	146.12
475.72	124.12
475.939	122.12
476.158	144.12
476.377	146.12
476.596	114.12
476.814	118.12
477.033	105.12
477.252	122.12
477.471	138.12
477.69	141.12
477.908	144.12
478.127	150.12
478.346	139.12
478.564	138.12
478.783	134.12
479.002	155.12
479.22	147.12
479.439	116.12
479.658	131.12
479.876	122.12
480.095	112.12
480.313	126.12
480.532	113.12
480.751	117.12
480.969	89.12
481.188	89.12
481.406	95.12
481.624	79.12
481.843	79.12
482.061	91.12
482.28	111.12
482.498	114.12
482.717	115.12
482.935	126.12
483.153	146.12
483.372	154.12
483.59	172.12
483.808	147.12
484.027	130.12
484.245	124.12
484.463	152.12
484.681	166.12
484.9	162.12
485.118	141.12
485.336	128.12
485.554	125.12
485.772	111.12
485.99	104.12
486.209	117.12
486.427	112.12
486.645	130.12
486.863	130.12
487.081	146.12
487.299	144.12
487.517	143.12
487.735	180.12
487.953	197.12
488.171	202.12
488.389	180.12
488.607	150.12
488.825	150.12
489.043	134.12
489.261	138.12
489.479	131.12
489.696	146.12
489.914	150.12
490.132	147.12
490.35	148.12
490.568	163.12
490.786	186.12
491.003	163.12
491.221	188.12
491.439	184.12
491.657	192.12
491.874	220.12
492.092	230.12
492.31	242.12
492.527	235.12
492.745	225.12
492.963	195.12
493.18	186.12
493.398	190.12
493.615	196.12
493.833	196.12
494.05	179.12
494.268	163.12
494.485	188.12
494.703	181.12
494.92	174.12
495.138	178.12
495.355	181.12
495.573	171.12
495.79	178.12
496.008	179.12
496.225	180.12
496.442	184.12
496.66	170.12
496.877	177.12
497.094	175.12
497.312	173.12
497.529	163.12
497.746	155.12
497.963	129.12
498.181	137.12
498.398	130.12
498.615	129.12
498.832	121.12
499.049	133.12
499.267	133.12
499.484	138.12
499.701	139.12
499.918	140.12
500.135	132.12
500.352	124.12
500.569	134.12
500.786	156.12
501.003	147.12
501.22	149.12
501.437	151.12
501.654	126.12
501.871	120.12
502.088	132.12
502.305	130.12
502.522	138.12
502.739	149.12
502.956	130.12
503.172	123.12
503.389	124.12
503.606	129.12
503.823	116.12
504.04	123.12
504.256	120.12
504.473	121.12
504.69	119.12
504.907	134.12
505.123	136.12
505.34	137.12
505.557	126.12
505.773	120.12
505.99	118.12
506.207	123.12
506.423	117.12
506.64	121.12
506.856	133.12
507.073	122.12
507.289	120.12
507.506	120.12
507.722	113.12
507.939	110.12
508.155	136.12
508.372	119.12
508.588	115.12
508.805	104.12
509.021	114.12
509.238	104.12
509.454	90.12
509.67	99.12
509.887	105.12
510.103	99.12
510.319	86.12
510.536	75.12
510.752	94.12
510.968	78.12
511.184	80.12
511.401	76.12
511.617	77.12
