Data from Location6.07152019.Energy5.Lamp.07192019.3%Agarose_HRD10591_16-12-34-396.txt Node
Date: Fri Jul 19 16:12:34 EDT 2019
User: cochatt
Spectrometer: HR+D1059
Trigger mode: 1
Integration Time (sec): 1.000000E-1
Scans to average: 1
Electric dark correction enabled: true
Nonlinearity correction enabled: false
Boxcar width: 0
XAxis mode: Wavelengths
Number of Pixels in Spectrum: 2048
>>>>>Begin Spectral Data<<<<<
223.165	-4.31
223.4	-4.31
223.635	-4.31
223.869	-11.31
224.104	-18.31
224.338	-28.31
224.573	-11.31
224.808	-20.31
225.042	-7.31
225.277	-6.31
225.511	1.69
225.746	-7.31
225.98	3.69
226.215	3.69
226.449	28.69
226.683	16.69
226.918	26.69
227.152	33.69
227.387	22.69
227.621	30.69
227.856	33.69
228.09	57.69
228.324	47.69
228.559	61.69
228.793	57.69
229.027	60.69
229.262	55.69
229.496	61.69
229.73	73.69
229.964	70.69
230.199	75.69
230.433	70.69
230.667	76.69
230.901	81.69
231.136	79.69
231.37	83.69
231.604	77.69
231.838	99.69
232.072	77.69
232.306	75.69
232.541	78.69
232.775	82.69
233.009	76.69
233.243	88.69
233.477	73.69
233.711	84.69
233.945	88.69
234.179	84.69
234.413	66.69
234.647	85.69
234.881	74.69
235.115	79.69
235.349	86.69
235.583	71.69
235.817	64.69
236.051	89.69
236.285	71.69
236.519	80.69
236.753	73.69
236.987	72.69
237.221	69.69
237.455	74.69
237.689	69.69
237.922	77.69
238.156	61.69
238.39	57.69
238.624	76.69
238.858	85.69
239.091	81.69
239.325	87.69
239.559	81.69
239.793	83.69
240.027	77.69
240.26	80.69
240.494	72.69
240.728	89.69
240.961	74.69
241.195	84.69
241.429	80.69
241.662	81.69
241.896	83.69
242.13	84.69
242.363	84.69
242.597	70.69
242.83	74.69
243.064	64.69
243.298	84.69
243.531	82.69
243.765	85.69
243.998	70.69
244.232	75.69
244.465	80.69
244.699	71.69
244.932	62.69
245.166	75.69
245.399	77.69
245.633	80.69
245.866	78.69
246.099	72.69
246.333	71.69
246.566	65.69
246.8	62.69
247.033	64.69
247.266	78.69
247.5	88.69
247.733	70.69
247.966	80.69
248.2	77.69
248.433	75.69
248.666	76.69
248.899	83.69
249.133	70.69
249.366	70.69
249.599	75.69
249.832	89.69
250.066	83.69
250.299	75.69
250.532	89.69
250.765	93.69
250.998	82.69
251.231	82.69
251.465	81.69
251.698	88.69
251.931	66.69
252.164	88.69
252.397	69.69
252.63	78.69
252.863	79.69
253.096	77.69
253.329	87.69
253.562	65.69
253.795	77.69
254.028	91.69
254.261	85.69
254.494	71.69
254.727	84.69
254.96	97.69
255.193	83.69
255.426	77.69
255.659	68.69
255.892	75.69
256.124	77.69
256.357	80.69
256.59	87.69
256.823	71.69
257.056	70.69
257.289	58.69
257.521	81.69
257.754	91.69
257.987	98.69
258.22	87.69
258.452	74.69
258.685	89.69
258.918	71.69
259.151	79.69
259.383	84.69
259.616	81.69
259.849	83.69
260.081	82.69
260.314	82.69
260.547	76.69
260.779	97.69
261.012	75.69
261.244	89.69
261.477	79.69
261.71	80.69
261.942	89.69
262.175	81.69
262.407	84.69
262.64	77.69
262.872	79.69
263.105	83.69
263.337	90.69
263.57	80.69
263.802	65.69
264.035	86.69
264.267	75.69
264.499	73.69
264.732	85.69
264.964	90.69
265.197	83.69
265.429	95.69
265.661	90.69
265.894	76.69
266.126	85.69
266.358	81.69
266.591	82.69
266.823	76.69
267.055	78.69
267.287	76.69
267.52	90.69
267.752	92.69
267.984	67.69
268.216	90.69
268.448	88.69
268.681	70.69
268.913	85.69
269.145	87.69
269.377	75.69
269.609	74.69
269.841	74.69
270.073	100.69
270.306	80.69
270.538	88.69
270.77	84.69
271.002	83.69
271.234	84.69
271.466	80.69
271.698	87.69
271.93	77.69
272.162	81.69
272.394	89.69
272.626	82.69
272.858	75.69
273.09	60.69
273.322	95.69
273.553	92.69
273.785	95.69
274.017	95.69
274.249	85.69
274.481	71.69
274.713	82.69
274.945	99.69
275.176	77.69
275.408	77.69
275.64	87.69
275.872	67.69
276.104	83.69
276.335	93.69
276.567	98.69
276.799	79.69
277.031	67.69
277.262	81.69
277.494	73.69
277.726	74.69
277.957	83.69
278.189	77.69
278.421	86.69
278.652	95.69
278.884	83.69
279.115	88.69
279.347	75.69
279.579	75.69
279.81	80.69
280.042	83.69
280.273	84.69
280.505	95.69
280.736	84.69
280.968	84.69
281.199	85.69
281.431	97.69
281.662	81.69
281.894	89.69
282.125	82.69
282.356	89.69
282.588	75.69
282.819	87.69
283.051	86.69
283.282	70.69
283.513	89.69
283.745	88.69
283.976	75.69
284.207	80.69
284.439	93.69
284.67	85.69
284.901	87.69
285.132	77.69
285.364	83.69
285.595	76.69
285.826	71.69
286.057	88.69
286.288	85.69
286.52	84.69
286.751	90.69
286.982	79.69
287.213	89.69
287.444	81.69
287.675	80.69
287.906	88.69
288.138	77.69
288.369	80.69
288.6	81.69
288.831	83.69
289.062	95.69
289.293	81.69
289.524	91.69
289.755	83.69
289.986	99.69
290.217	88.69
290.448	88.69
290.679	73.69
290.91	85.69
291.141	83.69
291.371	71.69
291.602	69.69
291.833	78.69
292.064	97.69
292.295	77.69
292.526	86.69
292.757	91.69
292.987	101.69
293.218	81.69
293.449	73.69
293.68	79.69
293.91	81.69
294.141	87.69
294.372	93.69
294.603	81.69
294.833	93.69
295.064	93.69
295.295	90.69
295.525	75.69
295.756	88.69
295.987	80.69
296.217	95.69
296.448	80.69
296.679	87.69
296.909	81.69
297.14	83.69
297.37	69.69
297.601	84.69
297.831	83.69
298.062	90.69
298.292	86.69
298.523	89.69
298.753	80.69
298.984	76.69
299.214	92.69
299.445	87.69
299.675	71.69
299.905	92.69
300.136	85.69
300.366	75.69
300.597	86.69
300.827	75.69
301.057	83.69
301.288	73.69
301.518	86.69
301.748	95.69
301.979	77.69
302.209	77.69
302.439	79.69
302.669	80.69
302.9	86.69
303.13	67.69
303.36	91.69
303.59	99.69
303.82	78.69
304.051	89.69
304.281	82.69
304.511	91.69
304.741	93.69
304.971	83.69
305.201	79.69
305.431	86.69
305.661	85.69
305.891	89.69
306.121	88.69
306.352	76.69
306.582	87.69
306.812	93.69
307.042	88.69
307.272	95.69
307.502	95.69
307.731	96.69
307.961	96.69
308.191	80.69
308.421	82.69
308.651	91.69
308.881	76.69
309.111	88.69
309.341	88.69
309.571	91.69
309.8	84.69
310.03	91.69
310.26	72.69
310.49	89.69
310.72	77.69
310.949	78.69
311.179	95.69
311.409	82.69
311.639	66.69
311.868	86.69
312.098	77.69
312.328	90.69
312.557	83.69
312.787	76.69
313.017	77.69
313.246	81.69
313.476	73.69
313.706	94.69
313.935	91.69
314.165	80.69
314.394	81.69
314.624	79.69
314.853	79.69
315.083	82.69
315.312	83.69
315.542	85.69
315.771	89.69
316.001	81.69
316.23	80.69
316.46	106.69
316.689	73.69
316.919	98.69
317.148	87.69
317.377	87.69
317.607	82.69
317.836	86.69
318.065	89.69
318.295	75.69
318.524	73.69
318.753	70.69
318.983	84.69
319.212	83.69
319.441	83.69
319.67	83.69
319.9	79.69
320.129	80.69
320.358	92.69
320.587	86.69
320.816	74.69
321.046	84.69
321.275	85.69
321.504	92.69
321.733	77.69
321.962	83.69
322.191	80.69
322.42	84.69
322.649	89.69
322.878	83.69
323.108	92.69
323.337	80.69
323.566	80.69
323.795	88.69
324.024	92.69
324.253	88.69
324.482	100.69
324.71	76.69
324.939	71.69
325.168	81.69
325.397	79.69
325.626	89.69
325.855	101.69
326.084	94.69
326.313	80.69
326.542	67.69
326.77	83.69
326.999	76.69
327.228	81.69
327.457	84.69
327.686	60.69
327.914	77.69
328.143	90.69
328.372	72.69
328.6	88.69
328.829	75.69
329.058	93.69
329.287	89.69
329.515	101.69
329.744	85.69
329.972	77.69
330.201	79.69
330.43	76.69
330.658	66.69
330.887	72.69
331.115	92.69
331.344	91.69
331.572	94.69
331.801	74.69
332.03	88.69
332.258	91.69
332.486	91.69
332.715	89.69
332.943	90.69
333.172	82.69
333.4	84.69
333.629	85.69
333.857	83.69
334.085	85.69
334.314	72.69
334.542	75.69
334.771	89.69
334.999	78.69
335.227	92.69
335.455	85.69
335.684	93.69
335.912	72.69
336.14	85.69
336.369	85.69
336.597	83.69
336.825	89.69
337.053	80.69
337.281	74.69
337.51	95.69
337.738	72.69
337.966	70.69
338.194	99.69
338.422	74.69
338.65	92.69
338.878	100.69
339.106	81.69
339.334	81.69
339.562	82.69
339.79	82.69
340.018	69.69
340.246	82.69
340.474	79.69
340.702	91.69
340.93	97.69
341.158	76.69
341.386	84.69
341.614	72.69
341.842	83.69
342.07	90.69
342.298	84.69
342.526	71.69
342.754	95.69
342.981	89.69
343.209	81.69
343.437	87.69
343.665	85.69
343.893	77.69
344.12	96.69
344.348	90.69
344.576	73.69
344.804	80.69
345.031	83.69
345.259	82.69
345.487	85.69
345.714	87.69
345.942	76.69
346.17	89.69
346.397	96.69
346.625	98.69
346.853	73.69
347.08	73.69
347.308	76.69
347.535	83.69
347.763	76.69
347.99	91.69
348.218	91.69
348.445	79.69
348.673	83.69
348.9	89.69
349.128	80.69
349.355	90.69
349.583	73.69
349.81	74.69
350.037	86.69
350.265	72.69
350.492	91.69
350.72	90.69
350.947	89.69
351.174	101.69
351.402	79.69
351.629	80.69
351.856	74.69
352.083	87.69
352.311	72.69
352.538	86.69
352.765	90.69
352.992	79.69
353.22	72.69
353.447	73.69
353.674	86.69
353.901	88.69
354.128	92.69
354.355	69.69
354.583	83.69
354.81	64.69
355.037	81.69
355.264	82.69
355.491	93.69
355.718	79.69
355.945	91.69
356.172	86.69
356.399	93.69
356.626	83.69
356.853	88.69
357.08	85.69
357.307	90.69
357.534	87.69
357.761	81.69
357.988	86.69
358.215	83.69
358.441	81.69
358.668	78.69
358.895	77.69
359.122	89.69
359.349	96.69
359.576	81.69
359.802	77.69
360.029	95.69
360.256	92.69
360.483	87.69
360.709	82.69
360.936	84.69
361.163	88.69
361.39	88.69
361.616	80.69
361.843	82.69
362.07	88.69
362.296	74.69
362.523	90.69
362.749	89.69
362.976	76.69
363.203	95.69
363.429	86.69
363.656	85.69
363.882	88.69
364.109	87.69
364.335	77.69
364.562	89.69
364.788	90.69
365.015	84.69
365.241	77.69
365.468	95.69
365.694	78.69
365.92	72.69
366.147	98.69
366.373	71.69
366.599	78.69
366.826	85.69
367.052	93.69
367.278	85.69
367.505	88.69
367.731	95.69
367.957	94.69
368.184	89.69
368.41	88.69
368.636	88.69
368.862	92.69
369.089	84.69
369.315	87.69
369.541	99.69
369.767	74.69
369.993	91.69
370.219	79.69
370.445	86.69
370.672	82.69
370.898	89.69
371.124	83.69
371.35	93.69
371.576	109.69
371.802	84.69
372.028	92.69
372.254	104.69
372.48	108.69
372.706	95.69
372.932	85.69
373.158	92.69
373.384	97.69
373.61	81.69
373.835	104.69
374.061	84.69
374.287	83.69
374.513	83.69
374.739	107.69
374.965	91.69
375.191	99.69
375.416	94.69
375.642	99.69
375.868	104.69
376.094	109.69
376.319	106.69
376.545	83.69
376.771	80.69
376.997	103.69
377.222	107.69
377.448	90.69
377.674	97.69
377.899	93.69
378.125	86.69
378.35	92.69
378.576	97.69
378.802	97.69
379.027	87.69
379.253	100.69
379.478	91.69
379.704	98.69
379.929	103.69
380.155	95.69
380.38	101.69
380.606	101.69
380.831	90.69
381.057	113.69
381.282	85.69
381.507	98.69
381.733	98.69
381.958	102.69
382.184	91.69
382.409	96.69
382.634	93.69
382.86	99.69
383.085	107.69
383.31	96.69
383.535	95.69
383.761	102.69
383.986	99.69
384.211	103.69
384.436	98.69
384.662	91.69
384.887	108.69
385.112	87.69
385.337	84.69
385.562	99.69
385.787	97.69
386.013	100.69
386.238	97.69
386.463	101.69
386.688	104.69
386.913	109.69
387.138	94.69
387.363	90.69
387.588	106.69
387.813	105.69
388.038	104.69
388.263	108.69
388.488	93.69
388.713	103.69
388.938	110.69
389.163	123.69
389.387	116.69
389.612	86.69
389.837	92.69
390.062	103.69
390.287	108.69
390.512	108.69
390.736	107.69
390.961	108.69
391.186	95.69
391.411	111.69
391.636	111.69
391.86	104.69
392.085	100.69
392.31	104.69
392.534	106.69
392.759	98.69
392.984	99.69
393.208	106.69
393.433	116.69
393.658	101.69
393.882	101.69
394.107	92.69
394.331	119.69
394.556	119.69
394.78	113.69
395.005	115.69
395.229	110.69
395.454	100.69
395.678	115.69
395.903	108.69
396.127	95.69
396.352	106.69
396.576	115.69
396.801	125.69
397.025	101.69
397.249	123.69
397.474	113.69
397.698	119.69
397.922	113.69
398.147	111.69
398.371	112.69
398.595	108.69
398.82	106.69
399.044	104.69
399.268	125.69
399.492	117.69
399.717	128.69
399.941	116.69
400.165	119.69
400.389	123.69
400.613	118.69
400.837	121.69
401.062	126.69
401.286	123.69
401.51	115.69
401.734	104.69
401.958	115.69
402.182	120.69
402.406	113.69
402.63	117.69
402.854	109.69
403.078	118.69
403.302	99.69
403.526	119.69
403.75	129.69
403.974	117.69
404.198	117.69
404.422	116.69
404.645	127.69
404.869	125.69
405.093	115.69
405.317	120.69
405.541	122.69
405.765	121.69
405.988	107.69
406.212	116.69
406.436	119.69
406.66	131.69
406.883	120.69
407.107	116.69
407.331	127.69
407.555	120.69
407.778	129.69
408.002	108.69
408.226	123.69
408.449	119.69
408.673	133.69
408.896	116.69
409.12	109.69
409.344	131.69
409.567	135.69
409.791	120.69
410.014	130.69
410.238	129.69
410.461	124.69
410.685	119.69
410.908	125.69
411.132	119.69
411.355	124.69
411.578	132.69
411.802	131.69
412.025	135.69
412.249	108.69
412.472	118.69
412.695	115.69
412.919	106.69
413.142	125.69
413.365	133.69
413.589	136.69
413.812	127.69
414.035	126.69
414.258	133.69
414.482	135.69
414.705	125.69
414.928	126.69
415.151	138.69
415.374	115.69
415.597	129.69
415.821	123.69
416.044	127.69
416.267	128.69
416.49	135.69
416.713	124.69
416.936	116.69
417.159	119.69
417.382	114.69
417.605	124.69
417.828	139.69
418.051	124.69
418.274	125.69
418.497	140.69
418.72	141.69
418.943	132.69
419.166	121.69
419.389	139.69
419.611	139.69
419.834	141.69
420.057	136.69
420.28	141.69
420.503	139.69
420.726	136.69
420.948	125.69
421.171	141.69
421.394	139.69
421.617	127.69
421.839	137.69
422.062	138.69
422.285	126.69
422.507	135.69
422.73	136.69
422.953	128.69
423.175	130.69
423.398	137.69
423.621	124.69
423.843	132.69
424.066	149.69
424.288	159.69
424.511	136.69
424.733	163.69
424.956	141.69
425.178	149.69
425.401	155.69
425.623	139.69
425.846	127.69
426.068	133.69
426.291	128.69
426.513	141.69
426.735	119.69
426.958	123.69
427.18	134.69
427.402	140.69
427.625	139.69
427.847	115.69
428.069	144.69
428.292	123.69
428.514	123.69
428.736	130.69
428.958	123.69
429.181	135.69
429.403	128.69
429.625	107.69
429.847	133.69
430.069	150.69
430.292	127.69
430.514	139.69
430.736	123.69
430.958	131.69
431.18	126.69
431.402	131.69
431.624	125.69
431.846	119.69
432.068	92.69
432.29	107.69
432.512	114.69
432.734	119.69
432.956	127.69
433.178	145.69
433.4	138.69
433.622	139.69
433.844	137.69
434.066	123.69
434.287	107.69
434.509	96.69
434.731	109.69
434.953	100.69
435.175	115.69
435.397	139.69
435.618	129.69
435.84	128.69
436.062	117.69
436.284	148.69
436.505	131.69
436.727	135.69
436.949	129.69
437.17	120.69
437.392	124.69
437.614	115.69
437.835	99.69
438.057	100.69
438.278	119.69
438.5	120.69
438.721	142.69
438.943	148.69
439.165	139.69
439.386	167.69
439.608	148.69
439.829	147.69
440.05	154.69
440.272	160.69
440.493	137.69
440.715	148.69
440.936	133.69
441.158	136.69
441.379	151.69
441.6	144.69
441.822	165.69
442.043	151.69
442.264	151.69
442.486	137.69
442.707	138.69
442.928	165.69
443.149	139.69
443.371	149.69
443.592	137.69
443.813	148.69
444.034	147.69
444.255	136.69
444.476	153.69
444.698	136.69
444.919	147.69
445.14	257.69
445.361	199.69
445.582	164.69
445.803	165.69
446.024	158.69
446.245	158.69
446.466	151.69
446.687	160.69
446.908	171.69
447.129	163.69
447.35	152.69
447.571	149.69
447.792	159.69
448.013	142.69
448.234	154.69
448.455	141.69
448.675	155.69
448.896	156.69
449.117	152.69
449.338	142.69
449.559	147.69
449.779	149.69
450	139.69
450.221	140.69
450.442	135.69
450.662	135.69
450.883	128.69
451.104	138.69
451.324	127.69
451.545	135.69
451.766	133.69
451.986	134.69
452.207	139.69
452.428	127.69
452.648	128.69
452.869	135.69
453.089	115.69
453.31	114.69
453.53	100.69
453.751	107.69
453.971	108.69
454.192	103.69
454.412	117.69
454.633	118.69
454.853	121.69
455.073	127.69
455.294	128.69
455.514	124.69
455.734	116.69
455.955	117.69
456.175	124.69
456.395	113.69
456.616	115.69
456.836	108.69
457.056	125.69
457.276	108.69
457.497	106.69
457.717	97.69
457.937	111.69
458.157	111.69
458.377	112.69
458.598	109.69
458.818	101.69
459.038	115.69
459.258	93.69
459.478	96.69
459.698	93.69
459.918	108.69
460.138	102.69
460.358	118.69
460.578	129.69
460.798	120.69
461.018	118.69
461.238	104.69
461.458	123.69
461.678	120.69
461.898	107.69
462.118	117.69
462.338	119.69
462.558	124.69
462.777	120.69
462.997	117.69
463.217	111.69
463.437	108.69
463.657	120.69
463.876	115.69
464.096	108.69
464.316	115.69
464.536	113.69
464.755	127.69
464.975	117.69
465.195	126.69
465.414	120.69
465.634	123.69
465.854	130.69
466.073	111.69
466.293	143.69
466.512	138.69
466.732	145.69
466.951	138.69
467.171	131.69
467.391	125.69
467.61	133.69
467.829	139.69
468.049	146.69
468.268	140.69
468.488	123.69
468.707	148.69
468.927	141.69
469.146	141.69
469.365	159.69
469.585	148.69
469.804	128.69
470.023	141.69
470.243	141.69
470.462	144.69
470.681	147.69
470.901	147.69
471.12	142.69
471.339	140.69
471.558	149.69
471.777	155.69
471.997	133.69
472.216	134.69
472.435	127.69
472.654	113.69
472.873	123.69
473.092	114.69
473.311	127.69
473.53	124.69
473.749	140.69
473.968	133.69
474.187	135.69
474.406	118.69
474.625	143.69
474.844	140.69
475.063	132.69
475.282	133.69
475.501	125.69
475.72	132.69
475.939	133.69
476.158	120.69
476.377	138.69
476.596	116.69
476.814	117.69
477.033	110.69
477.252	121.69
477.471	121.69
477.69	140.69
477.908	145.69
478.127	131.69
478.346	135.69
478.564	146.69
478.783	135.69
479.002	151.69
479.22	141.69
479.439	140.69
479.658	142.69
479.876	115.69
480.095	115.69
480.313	126.69
480.532	107.69
480.751	109.69
480.969	77.69
481.188	94.69
481.406	79.69
481.624	100.69
481.843	97.69
482.061	112.69
482.28	119.69
482.498	120.69
482.717	103.69
482.935	127.69
483.153	146.69
483.372	145.69
483.59	151.69
483.808	145.69
484.027	144.69
484.245	138.69
484.463	147.69
484.681	153.69
484.9	152.69
485.118	130.69
485.336	123.69
485.554	125.69
485.772	111.69
485.99	100.69
486.209	119.69
486.427	127.69
486.645	118.69
486.863	141.69
487.081	139.69
487.299	140.69
487.517	138.69
487.735	187.69
487.953	197.69
488.171	207.69
488.389	178.69
488.607	177.69
488.825	164.69
489.043	131.69
489.261	136.69
489.479	133.69
489.696	141.69
489.914	142.69
490.132	155.69
490.35	141.69
490.568	161.69
490.786	184.69
491.003	181.69
491.221	186.69
491.439	183.69
491.657	184.69
491.874	213.69
492.092	226.69
492.31	263.69
492.527	258.69
492.745	214.69
492.963	213.69
493.18	191.69
493.398	188.69
493.615	178.69
493.833	189.69
494.05	179.69
494.268	183.69
494.485	199.69
494.703	168.69
494.92	191.69
495.138	177.69
495.355	169.69
495.573	179.69
495.79	177.69
496.008	179.69
496.225	173.69
496.442	171.69
496.66	189.69
496.877	187.69
497.094	161.69
497.312	169.69
497.529	164.69
497.746	145.69
497.963	137.69
498.181	132.69
498.398	135.69
498.615	137.69
498.832	120.69
499.049	130.69
499.267	133.69
499.484	120.69
499.701	131.69
499.918	133.69
500.135	148.69
500.352	158.69
500.569	143.69
500.786	136.69
501.003	136.69
501.22	147.69
501.437	147.69
501.654	143.69
501.871	141.69
502.088	141.69
502.305	144.69
502.522	153.69
502.739	145.69
502.956	134.69
503.172	131.69
503.389	131.69
503.606	121.69
503.823	122.69
504.04	128.69
504.256	123.69
504.473	116.69
504.69	122.69
504.907	123.69
505.123	131.69
505.34	117.69
505.557	139.69
505.773	123.69
505.99	120.69
506.207	116.69
506.423	126.69
506.64	118.69
506.856	112.69
507.073	142.69
507.289	129.69
507.506	124.69
507.722	129.69
507.939	113.69
508.155	125.69
508.372	110.69
508.588	117.69
508.805	106.69
509.021	105.69
509.238	108.69
509.454	99.69
509.67	105.69
509.887	122.69
510.103	108.69
510.319	100.69
510.536	94.69
510.752	95.69
510.968	96.69
511.184	85.69
511.401	72.69
