Data from Location6.07152019.Energy5.Lamp.07192019.3%Agarose_HRD10591_16-11-32-396.txt Node
Date: Fri Jul 19 16:11:32 EDT 2019
User: cochatt
Spectrometer: HR+D1059
Trigger mode: 1
Integration Time (sec): 1.000000E-1
Scans to average: 1
Electric dark correction enabled: true
Nonlinearity correction enabled: false
Boxcar width: 0
XAxis mode: Wavelengths
Number of Pixels in Spectrum: 2048
>>>>>Begin Spectral Data<<<<<
223.165	-19.06
223.4	-19.06
223.635	-19.06
223.869	-19.06
224.104	-8.06
224.338	-17.06
224.573	-8.06
224.808	-14.06
225.042	-3.06
225.277	0.94
225.511	6.94
225.746	-3.06
225.98	18.94
226.215	2.94
226.449	-1.06
226.683	27.94
226.918	16.94
227.152	17.94
227.387	29.94
227.621	39.94
227.856	35.94
228.09	49.94
228.324	46.94
228.559	40.94
228.793	40.94
229.027	55.94
229.262	65.94
229.496	64.94
229.73	66.94
229.964	57.94
230.199	58.94
230.433	80.94
230.667	92.94
230.901	80.94
231.136	59.94
231.37	75.94
231.604	73.94
231.838	71.94
232.072	85.94
232.306	81.94
232.541	93.94
232.775	79.94
233.009	82.94
233.243	81.94
233.477	84.94
233.711	88.94
233.945	68.94
234.179	90.94
234.413	80.94
234.647	83.94
234.881	68.94
235.115	70.94
235.349	65.94
235.583	83.94
235.817	76.94
236.051	72.94
236.285	57.94
236.519	81.94
236.753	86.94
236.987	77.94
237.221	76.94
237.455	80.94
237.689	64.94
237.922	81.94
238.156	70.94
238.39	74.94
238.624	72.94
238.858	65.94
239.091	78.94
239.325	74.94
239.559	66.94
239.793	64.94
240.027	73.94
240.26	61.94
240.494	80.94
240.728	80.94
240.961	64.94
241.195	78.94
241.429	72.94
241.662	77.94
241.896	60.94
242.13	69.94
242.363	81.94
242.597	72.94
242.83	80.94
243.064	66.94
243.298	68.94
243.531	64.94
243.765	82.94
243.998	91.94
244.232	81.94
244.465	66.94
244.699	83.94
244.932	70.94
245.166	75.94
245.399	89.94
245.633	80.94
245.866	69.94
246.099	61.94
246.333	65.94
246.566	70.94
246.8	72.94
247.033	79.94
247.266	69.94
247.5	71.94
247.733	67.94
247.966	85.94
248.2	73.94
248.433	70.94
248.666	65.94
248.899	72.94
249.133	73.94
249.366	82.94
249.599	76.94
249.832	77.94
250.066	81.94
250.299	60.94
250.532	58.94
250.765	75.94
250.998	73.94
251.231	71.94
251.465	82.94
251.698	74.94
251.931	98.94
252.164	82.94
252.397	74.94
252.63	68.94
252.863	92.94
253.096	68.94
253.329	70.94
253.562	71.94
253.795	85.94
254.028	86.94
254.261	72.94
254.494	69.94
254.727	87.94
254.96	94.94
255.193	90.94
255.426	82.94
255.659	75.94
255.892	80.94
256.124	71.94
256.357	76.94
256.59	75.94
256.823	74.94
257.056	74.94
257.289	74.94
257.521	79.94
257.754	82.94
257.987	62.94
258.22	74.94
258.452	77.94
258.685	92.94
258.918	81.94
259.151	58.94
259.383	79.94
259.616	70.94
259.849	83.94
260.081	82.94
260.314	71.94
260.547	64.94
260.779	85.94
261.012	67.94
261.244	77.94
261.477	85.94
261.71	80.94
261.942	73.94
262.175	74.94
262.407	69.94
262.64	69.94
262.872	68.94
263.105	82.94
263.337	100.94
263.57	77.94
263.802	70.94
264.035	78.94
264.267	91.94
264.499	89.94
264.732	79.94
264.964	81.94
265.197	75.94
265.429	85.94
265.661	87.94
265.894	86.94
266.126	85.94
266.358	79.94
266.591	83.94
266.823	73.94
267.055	81.94
267.287	70.94
267.52	71.94
267.752	85.94
267.984	74.94
268.216	79.94
268.448	79.94
268.681	73.94
268.913	76.94
269.145	87.94
269.377	86.94
269.609	78.94
269.841	80.94
270.073	86.94
270.306	82.94
270.538	78.94
270.77	82.94
271.002	76.94
271.234	91.94
271.466	82.94
271.698	82.94
271.93	72.94
272.162	80.94
272.394	91.94
272.626	71.94
272.858	83.94
273.09	81.94
273.322	78.94
273.553	89.94
273.785	70.94
274.017	72.94
274.249	80.94
274.481	93.94
274.713	83.94
274.945	91.94
275.176	72.94
275.408	70.94
275.64	73.94
275.872	83.94
276.104	77.94
276.335	89.94
276.567	79.94
276.799	87.94
277.031	79.94
277.262	77.94
277.494	92.94
277.726	88.94
277.957	71.94
278.189	90.94
278.421	81.94
278.652	80.94
278.884	79.94
279.115	77.94
279.347	77.94
279.579	94.94
279.81	84.94
280.042	81.94
280.273	78.94
280.505	83.94
280.736	77.94
280.968	88.94
281.199	91.94
281.431	78.94
281.662	68.94
281.894	87.94
282.125	94.94
282.356	88.94
282.588	82.94
282.819	86.94
283.051	72.94
283.282	73.94
283.513	78.94
283.745	92.94
283.976	65.94
284.207	73.94
284.439	76.94
284.67	88.94
284.901	83.94
285.132	83.94
285.364	96.94
285.595	78.94
285.826	84.94
286.057	72.94
286.288	90.94
286.52	81.94
286.751	80.94
286.982	76.94
287.213	88.94
287.444	88.94
287.675	89.94
287.906	86.94
288.138	85.94
288.369	81.94
288.6	74.94
288.831	82.94
289.062	94.94
289.293	77.94
289.524	70.94
289.755	86.94
289.986	75.94
290.217	101.94
290.448	94.94
290.679	87.94
290.91	87.94
291.141	78.94
291.371	81.94
291.602	69.94
291.833	82.94
292.064	84.94
292.295	88.94
292.526	77.94
292.757	89.94
292.987	80.94
293.218	74.94
293.449	78.94
293.68	71.94
293.91	80.94
294.141	90.94
294.372	92.94
294.603	86.94
294.833	85.94
295.064	85.94
295.295	82.94
295.525	83.94
295.756	87.94
295.987	85.94
296.217	79.94
296.448	84.94
296.679	85.94
296.909	67.94
297.14	78.94
297.37	89.94
297.601	83.94
297.831	83.94
298.062	80.94
298.292	84.94
298.523	89.94
298.753	88.94
298.984	83.94
299.214	80.94
299.445	80.94
299.675	87.94
299.905	78.94
300.136	85.94
300.366	79.94
300.597	57.94
300.827	70.94
301.057	73.94
301.288	86.94
301.518	79.94
301.748	96.94
301.979	90.94
302.209	83.94
302.439	74.94
302.669	71.94
302.9	85.94
303.13	84.94
303.36	81.94
303.59	84.94
303.82	92.94
304.051	85.94
304.281	66.94
304.511	83.94
304.741	84.94
304.971	82.94
305.201	78.94
305.431	86.94
305.661	75.94
305.891	90.94
306.121	84.94
306.352	82.94
306.582	94.94
306.812	81.94
307.042	80.94
307.272	79.94
307.502	68.94
307.731	82.94
307.961	82.94
308.191	81.94
308.421	66.94
308.651	83.94
308.881	80.94
309.111	73.94
309.341	75.94
309.571	74.94
309.8	76.94
310.03	78.94
310.26	79.94
310.49	80.94
310.72	69.94
310.949	77.94
311.179	92.94
311.409	80.94
311.639	72.94
311.868	92.94
312.098	91.94
312.328	78.94
312.557	94.94
312.787	91.94
313.017	83.94
313.246	84.94
313.476	94.94
313.706	89.94
313.935	78.94
314.165	73.94
314.394	85.94
314.624	86.94
314.853	84.94
315.083	82.94
315.312	86.94
315.542	83.94
315.771	84.94
316.001	86.94
316.23	85.94
316.46	84.94
316.689	75.94
316.919	80.94
317.148	92.94
317.377	83.94
317.607	72.94
317.836	92.94
318.065	90.94
318.295	93.94
318.524	81.94
318.753	81.94
318.983	78.94
319.212	91.94
319.441	65.94
319.67	83.94
319.9	73.94
320.129	99.94
320.358	77.94
320.587	85.94
320.816	80.94
321.046	80.94
321.275	79.94
321.504	72.94
321.733	89.94
321.962	87.94
322.191	89.94
322.42	79.94
322.649	86.94
322.878	88.94
323.108	86.94
323.337	68.94
323.566	83.94
323.795	74.94
324.024	84.94
324.253	76.94
324.482	77.94
324.71	87.94
324.939	69.94
325.168	85.94
325.397	82.94
325.626	84.94
325.855	84.94
326.084	84.94
326.313	83.94
326.542	84.94
326.77	69.94
326.999	74.94
327.228	73.94
327.457	87.94
327.686	89.94
327.914	86.94
328.143	89.94
328.372	90.94
328.6	75.94
328.829	94.94
329.058	81.94
329.287	96.94
329.515	86.94
329.744	77.94
329.972	81.94
330.201	83.94
330.43	77.94
330.658	66.94
330.887	78.94
331.115	82.94
331.344	73.94
331.572	85.94
331.801	90.94
332.03	94.94
332.258	82.94
332.486	85.94
332.715	75.94
332.943	78.94
333.172	82.94
333.4	79.94
333.629	88.94
333.857	82.94
334.085	86.94
334.314	72.94
334.542	72.94
334.771	74.94
334.999	77.94
335.227	90.94
335.455	89.94
335.684	80.94
335.912	80.94
336.14	87.94
336.369	75.94
336.597	81.94
336.825	83.94
337.053	73.94
337.281	85.94
337.51	88.94
337.738	78.94
337.966	78.94
338.194	83.94
338.422	76.94
338.65	91.94
338.878	78.94
339.106	81.94
339.334	89.94
339.562	74.94
339.79	73.94
340.018	73.94
340.246	86.94
340.474	82.94
340.702	89.94
340.93	74.94
341.158	84.94
341.386	75.94
341.614	82.94
341.842	67.94
342.07	78.94
342.298	91.94
342.526	77.94
342.754	94.94
342.981	86.94
343.209	85.94
343.437	93.94
343.665	87.94
343.893	101.94
344.12	92.94
344.348	85.94
344.576	81.94
344.804	96.94
345.031	92.94
345.259	95.94
345.487	76.94
345.714	84.94
345.942	71.94
346.17	83.94
346.397	88.94
346.625	79.94
346.853	80.94
347.08	83.94
347.308	82.94
347.535	86.94
347.763	85.94
347.99	80.94
348.218	89.94
348.445	72.94
348.673	77.94
348.9	80.94
349.128	92.94
349.355	73.94
349.583	77.94
349.81	87.94
350.037	90.94
350.265	86.94
350.492	70.94
350.72	88.94
350.947	78.94
351.174	84.94
351.402	81.94
351.629	90.94
351.856	73.94
352.083	67.94
352.311	82.94
352.538	86.94
352.765	77.94
352.992	80.94
353.22	78.94
353.447	84.94
353.674	84.94
353.901	97.94
354.128	76.94
354.355	81.94
354.583	83.94
354.81	92.94
355.037	93.94
355.264	85.94
355.491	77.94
355.718	62.94
355.945	77.94
356.172	75.94
356.399	80.94
356.626	83.94
356.853	73.94
357.08	82.94
357.307	73.94
357.534	95.94
357.761	77.94
357.988	79.94
358.215	81.94
358.441	95.94
358.668	86.94
358.895	84.94
359.122	78.94
359.349	90.94
359.576	81.94
359.802	92.94
360.029	81.94
360.256	85.94
360.483	78.94
360.709	88.94
360.936	87.94
361.163	94.94
361.39	71.94
361.616	79.94
361.843	83.94
362.07	90.94
362.296	85.94
362.523	87.94
362.749	81.94
362.976	78.94
363.203	91.94
363.429	74.94
363.656	74.94
363.882	72.94
364.109	71.94
364.335	85.94
364.562	88.94
364.788	82.94
365.015	80.94
365.241	65.94
365.468	84.94
365.694	67.94
365.92	89.94
366.147	74.94
366.373	72.94
366.599	80.94
366.826	89.94
367.052	77.94
367.278	81.94
367.505	93.94
367.731	90.94
367.957	82.94
368.184	85.94
368.41	92.94
368.636	92.94
368.862	83.94
369.089	91.94
369.315	96.94
369.541	105.94
369.767	99.94
369.993	74.94
370.219	89.94
370.445	96.94
370.672	85.94
370.898	84.94
371.124	83.94
371.35	92.94
371.576	94.94
371.802	99.94
372.028	93.94
372.254	92.94
372.48	80.94
372.706	88.94
372.932	100.94
373.158	92.94
373.384	91.94
373.61	88.94
373.835	93.94
374.061	112.94
374.287	78.94
374.513	84.94
374.739	101.94
374.965	91.94
375.191	101.94
375.416	89.94
375.642	84.94
375.868	85.94
376.094	101.94
376.319	95.94
376.545	94.94
376.771	89.94
376.997	78.94
377.222	98.94
377.448	96.94
377.674	86.94
377.899	84.94
378.125	88.94
378.35	83.94
378.576	83.94
378.802	89.94
379.027	88.94
379.253	101.94
379.478	85.94
379.704	81.94
379.929	93.94
380.155	73.94
380.38	99.94
380.606	104.94
380.831	88.94
381.057	102.94
381.282	84.94
381.507	95.94
381.733	89.94
381.958	89.94
382.184	90.94
382.409	104.94
382.634	89.94
382.86	92.94
383.085	98.94
383.31	100.94
383.535	97.94
383.761	76.94
383.986	94.94
384.211	96.94
384.436	100.94
384.662	94.94
384.887	93.94
385.112	95.94
385.337	86.94
385.562	94.94
385.787	81.94
386.013	92.94
386.238	95.94
386.463	111.94
386.688	103.94
386.913	88.94
387.138	100.94
387.363	102.94
387.588	104.94
387.813	97.94
388.038	99.94
388.263	109.94
388.488	88.94
388.713	90.94
388.938	97.94
389.163	90.94
389.387	94.94
389.612	92.94
389.837	96.94
390.062	104.94
390.287	100.94
390.512	103.94
390.736	104.94
390.961	101.94
391.186	102.94
391.411	98.94
391.636	106.94
391.86	112.94
392.085	115.94
392.31	112.94
392.534	97.94
392.759	108.94
392.984	91.94
393.208	106.94
393.433	102.94
393.658	100.94
393.882	94.94
394.107	114.94
394.331	113.94
394.556	99.94
394.78	108.94
395.005	106.94
395.229	110.94
395.454	103.94
395.678	112.94
395.903	110.94
396.127	103.94
396.352	90.94
396.576	88.94
396.801	98.94
397.025	86.94
397.249	98.94
397.474	107.94
397.698	111.94
397.922	99.94
398.147	99.94
398.371	105.94
398.595	103.94
398.82	111.94
399.044	111.94
399.268	104.94
399.492	110.94
399.717	124.94
399.941	109.94
400.165	101.94
400.389	114.94
400.613	119.94
400.837	105.94
401.062	103.94
401.286	108.94
401.51	112.94
401.734	109.94
401.958	100.94
402.182	124.94
402.406	122.94
402.63	118.94
402.854	121.94
403.078	126.94
403.302	125.94
403.526	108.94
403.75	106.94
403.974	128.94
404.198	117.94
404.422	113.94
404.645	116.94
404.869	124.94
405.093	110.94
405.317	116.94
405.541	129.94
405.765	128.94
405.988	125.94
406.212	112.94
406.436	126.94
406.66	121.94
406.883	120.94
407.107	116.94
407.331	133.94
407.555	125.94
407.778	127.94
408.002	124.94
408.226	125.94
408.449	117.94
408.673	136.94
408.896	139.94
409.12	125.94
409.344	118.94
409.567	129.94
409.791	112.94
410.014	110.94
410.238	113.94
410.461	122.94
410.685	120.94
410.908	136.94
411.132	120.94
411.355	126.94
411.578	124.94
411.802	115.94
412.025	121.94
412.249	102.94
412.472	130.94
412.695	122.94
412.919	139.94
413.142	128.94
413.365	121.94
413.589	126.94
413.812	120.94
414.035	144.94
414.258	135.94
414.482	123.94
414.705	126.94
414.928	124.94
415.151	118.94
415.374	145.94
415.597	124.94
415.821	128.94
416.044	116.94
416.267	130.94
416.49	124.94
416.713	137.94
416.936	112.94
417.159	121.94
417.382	117.94
417.605	123.94
417.828	124.94
418.051	122.94
418.274	151.94
418.497	153.94
418.72	130.94
418.943	128.94
419.166	152.94
419.389	134.94
419.611	138.94
419.834	133.94
420.057	137.94
420.28	141.94
420.503	125.94
420.726	122.94
420.948	131.94
421.171	135.94
421.394	130.94
421.617	134.94
421.839	168.94
422.062	140.94
422.285	139.94
422.507	124.94
422.73	122.94
422.953	135.94
423.175	131.94
423.398	125.94
423.621	125.94
423.843	133.94
424.066	138.94
424.288	141.94
424.511	154.94
424.733	155.94
424.956	146.94
425.178	129.94
425.401	153.94
425.623	148.94
425.846	136.94
426.068	133.94
426.291	139.94
426.513	132.94
426.735	131.94
426.958	138.94
427.18	128.94
427.402	131.94
427.625	120.94
427.847	126.94
428.069	118.94
428.292	131.94
428.514	115.94
428.736	139.94
428.958	117.94
429.181	130.94
429.403	135.94
429.625	135.94
429.847	133.94
430.069	124.94
430.292	134.94
430.514	124.94
430.736	119.94
430.958	120.94
431.18	118.94
431.402	121.94
431.624	119.94
431.846	116.94
432.068	93.94
432.29	94.94
432.512	120.94
432.734	110.94
432.956	123.94
433.178	137.94
433.4	150.94
433.622	146.94
433.844	130.94
434.066	130.94
434.287	114.94
434.509	103.94
434.731	103.94
434.953	109.94
435.175	125.94
435.397	130.94
435.618	111.94
435.84	121.94
436.062	113.94
436.284	135.94
436.505	135.94
436.727	130.94
436.949	135.94
437.17	139.94
437.392	128.94
437.614	124.94
437.835	119.94
438.057	105.94
438.278	116.94
438.5	132.94
438.721	144.94
438.943	127.94
439.165	135.94
439.386	150.94
439.608	140.94
439.829	150.94
440.05	150.94
440.272	151.94
440.493	150.94
440.715	141.94
440.936	144.94
441.158	139.94
441.379	145.94
441.6	150.94
441.822	135.94
442.043	140.94
442.264	135.94
442.486	141.94
442.707	146.94
442.928	126.94
443.149	138.94
443.371	138.94
443.592	133.94
443.813	162.94
444.034	153.94
444.255	160.94
444.476	140.94
444.698	137.94
444.919	155.94
445.14	284.94
445.361	213.94
445.582	132.94
445.803	150.94
446.024	151.94
446.245	159.94
446.466	160.94
446.687	144.94
446.908	148.94
447.129	163.94
447.35	145.94
447.571	156.94
447.792	145.94
448.013	150.94
448.234	124.94
448.455	145.94
448.675	152.94
448.896	150.94
449.117	122.94
449.338	132.94
449.559	154.94
449.779	155.94
450	141.94
450.221	155.94
450.442	138.94
450.662	144.94
450.883	144.94
451.104	152.94
451.324	135.94
451.545	137.94
451.766	122.94
451.986	121.94
452.207	138.94
452.428	125.94
452.648	121.94
452.869	118.94
453.089	105.94
453.31	108.94
453.53	98.94
453.751	114.94
453.971	106.94
454.192	102.94
454.412	114.94
454.633	143.94
454.853	119.94
455.073	131.94
455.294	126.94
455.514	134.94
455.734	134.94
455.955	120.94
456.175	116.94
456.395	120.94
456.616	113.94
456.836	111.94
457.056	101.94
457.276	114.94
457.497	111.94
457.717	94.94
457.937	120.94
458.157	113.94
458.377	105.94
458.598	113.94
458.818	88.94
459.038	101.94
459.258	95.94
459.478	90.94
459.698	83.94
459.918	114.94
460.138	114.94
460.358	120.94
460.578	129.94
460.798	106.94
461.018	116.94
461.238	127.94
461.458	130.94
461.678	118.94
461.898	110.94
462.118	112.94
462.338	103.94
462.558	112.94
462.777	120.94
462.997	114.94
463.217	94.94
463.437	108.94
463.657	100.94
463.876	117.94
464.096	128.94
464.316	112.94
464.536	121.94
464.755	122.94
464.975	134.94
465.195	118.94
465.414	121.94
465.634	115.94
465.854	121.94
466.073	135.94
466.293	121.94
466.512	124.94
466.732	118.94
466.951	126.94
467.171	142.94
467.391	130.94
467.61	123.94
467.829	133.94
468.049	134.94
468.268	121.94
468.488	139.94
468.707	144.94
468.927	138.94
469.146	136.94
469.365	147.94
469.585	147.94
469.804	142.94
470.023	145.94
470.243	151.94
470.462	134.94
470.681	135.94
470.901	137.94
471.12	136.94
471.339	130.94
471.558	152.94
471.777	133.94
471.997	142.94
472.216	140.94
472.435	118.94
472.654	108.94
472.873	135.94
473.092	133.94
473.311	129.94
473.53	134.94
473.749	135.94
473.968	122.94
474.187	117.94
474.406	117.94
474.625	129.94
474.844	121.94
475.063	126.94
475.282	128.94
475.501	123.94
475.72	125.94
475.939	136.94
476.158	126.94
476.377	124.94
476.596	133.94
476.814	124.94
477.033	114.94
477.252	96.94
477.471	116.94
477.69	126.94
477.908	139.94
478.127	132.94
478.346	150.94
478.564	130.94
478.783	135.94
479.002	137.94
479.22	133.94
479.439	127.94
479.658	136.94
479.876	118.94
480.095	103.94
480.313	106.94
480.532	114.94
480.751	110.94
480.969	85.94
481.188	88.94
481.406	89.94
481.624	77.94
481.843	92.94
482.061	84.94
482.28	88.94
482.498	121.94
482.717	113.94
482.935	127.94
483.153	149.94
483.372	158.94
483.59	156.94
483.808	149.94
484.027	141.94
484.245	136.94
484.463	151.94
484.681	160.94
484.9	155.94
485.118	148.94
485.336	122.94
485.554	120.94
485.772	105.94
485.99	100.94
486.209	111.94
486.427	109.94
486.645	124.94
486.863	145.94
487.081	154.94
487.299	125.94
487.517	146.94
487.735	184.94
487.953	201.94
488.171	194.94
488.389	187.94
488.607	166.94
488.825	154.94
489.043	127.94
489.261	126.94
489.479	133.94
489.696	141.94
489.914	142.94
490.132	153.94
490.35	151.94
490.568	170.94
490.786	174.94
491.003	161.94
491.221	198.94
491.439	174.94
491.657	193.94
491.874	215.94
492.092	230.94
492.31	256.94
492.527	232.94
492.745	206.94
492.963	212.94
493.18	191.94
493.398	194.94
493.615	186.94
493.833	188.94
494.05	186.94
494.268	172.94
494.485	178.94
494.703	184.94
494.92	177.94
495.138	186.94
495.355	174.94
495.573	189.94
495.79	192.94
496.008	177.94
496.225	182.94
496.442	169.94
496.66	160.94
496.877	164.94
497.094	162.94
497.312	174.94
497.529	165.94
497.746	153.94
497.963	143.94
498.181	129.94
498.398	136.94
498.615	128.94
498.832	127.94
499.049	120.94
499.267	132.94
499.484	139.94
499.701	110.94
499.918	136.94
500.135	127.94
500.352	135.94
500.569	149.94
500.786	140.94
501.003	141.94
501.22	143.94
501.437	128.94
501.654	126.94
501.871	132.94
502.088	135.94
502.305	120.94
502.522	120.94
502.739	125.94
502.956	131.94
503.172	134.94
503.389	125.94
503.606	141.94
503.823	119.94
504.04	125.94
504.256	130.94
504.473	126.94
504.69	118.94
504.907	122.94
505.123	108.94
505.34	114.94
505.557	138.94
505.773	120.94
505.99	128.94
506.207	116.94
506.423	138.94
506.64	133.94
506.856	121.94
507.073	120.94
507.289	124.94
507.506	119.94
507.722	125.94
507.939	101.94
508.155	113.94
508.372	108.94
508.588	109.94
508.805	115.94
509.021	118.94
509.238	98.94
509.454	88.94
509.67	95.94
509.887	111.94
510.103	86.94
510.319	76.94
510.536	84.94
510.752	86.94
510.968	83.94
511.184	69.94
511.401	73.94
511.617	88.94
511.833	92.94
