Data from Location6.07152019.Energy5.Lamp.07192019.3%Agarose_HRD10591_16-12-20-394.txt Node
Date: Fri Jul 19 16:12:20 EDT 2019
User: cochatt
Spectrometer: HR+D1059
Trigger mode: 1
Integration Time (sec): 1.000000E-1
Scans to average: 1
Electric dark correction enabled: true
Nonlinearity correction enabled: false
Boxcar width: 0
XAxis mode: Wavelengths
Number of Pixels in Spectrum: 2048
>>>>>Begin Spectral Data<<<<<
223.165	-19.88
223.4	-19.88
223.635	-19.88
223.869	-13.88
224.104	-15.88
224.338	-15.88
224.573	-10.88
224.808	-12.88
225.042	5.12
225.277	6.12
225.511	-4.88
225.746	5.12
225.98	-0.88
226.215	15.12
226.449	9.12
226.683	13.12
226.918	19.12
227.152	22.12
227.387	35.12
227.621	56.12
227.856	41.12
228.09	44.12
228.324	47.12
228.559	59.12
228.793	71.12
229.027	63.12
229.262	55.12
229.496	57.12
229.73	63.12
229.964	78.12
230.199	57.12
230.433	78.12
230.667	73.12
230.901	82.12
231.136	83.12
231.37	84.12
231.604	65.12
231.838	82.12
232.072	65.12
232.306	89.12
232.541	84.12
232.775	90.12
233.009	87.12
233.243	84.12
233.477	97.12
233.711	90.12
233.945	81.12
234.179	71.12
234.413	85.12
234.647	92.12
234.881	87.12
235.115	95.12
235.349	75.12
235.583	84.12
235.817	86.12
236.051	79.12
236.285	85.12
236.519	84.12
236.753	91.12
236.987	78.12
237.221	68.12
237.455	73.12
237.689	74.12
237.922	75.12
238.156	86.12
238.39	73.12
238.624	76.12
238.858	70.12
239.091	74.12
239.325	82.12
239.559	77.12
239.793	75.12
240.027	74.12
240.26	61.12
240.494	73.12
240.728	74.12
240.961	68.12
241.195	75.12
241.429	86.12
241.662	88.12
241.896	97.12
242.13	87.12
242.363	85.12
242.597	77.12
242.83	63.12
243.064	77.12
243.298	78.12
243.531	77.12
243.765	82.12
243.998	65.12
244.232	79.12
244.465	59.12
244.699	68.12
244.932	69.12
245.166	74.12
245.399	80.12
245.633	76.12
245.866	76.12
246.099	67.12
246.333	77.12
246.566	82.12
246.8	69.12
247.033	76.12
247.266	82.12
247.5	91.12
247.733	89.12
247.966	76.12
248.2	65.12
248.433	81.12
248.666	72.12
248.899	101.12
249.133	80.12
249.366	97.12
249.599	71.12
249.832	87.12
250.066	81.12
250.299	94.12
250.532	87.12
250.765	88.12
250.998	70.12
251.231	93.12
251.465	87.12
251.698	91.12
251.931	92.12
252.164	81.12
252.397	74.12
252.63	61.12
252.863	80.12
253.096	85.12
253.329	78.12
253.562	79.12
253.795	81.12
254.028	87.12
254.261	81.12
254.494	75.12
254.727	84.12
254.96	60.12
255.193	70.12
255.426	73.12
255.659	95.12
255.892	80.12
256.124	70.12
256.357	71.12
256.59	91.12
256.823	75.12
257.056	90.12
257.289	83.12
257.521	76.12
257.754	89.12
257.987	73.12
258.22	70.12
258.452	92.12
258.685	86.12
258.918	64.12
259.151	93.12
259.383	98.12
259.616	86.12
259.849	82.12
260.081	82.12
260.314	80.12
260.547	96.12
260.779	89.12
261.012	81.12
261.244	94.12
261.477	86.12
261.71	75.12
261.942	71.12
262.175	76.12
262.407	90.12
262.64	74.12
262.872	75.12
263.105	76.12
263.337	84.12
263.57	87.12
263.802	78.12
264.035	89.12
264.267	59.12
264.499	77.12
264.732	84.12
264.964	72.12
265.197	91.12
265.429	79.12
265.661	81.12
265.894	73.12
266.126	75.12
266.358	69.12
266.591	97.12
266.823	98.12
267.055	76.12
267.287	78.12
267.52	78.12
267.752	77.12
267.984	87.12
268.216	89.12
268.448	89.12
268.681	98.12
268.913	87.12
269.145	85.12
269.377	85.12
269.609	83.12
269.841	95.12
270.073	82.12
270.306	83.12
270.538	83.12
270.77	84.12
271.002	89.12
271.234	78.12
271.466	80.12
271.698	63.12
271.93	81.12
272.162	84.12
272.394	89.12
272.626	92.12
272.858	81.12
273.09	80.12
273.322	84.12
273.553	92.12
273.785	85.12
274.017	75.12
274.249	96.12
274.481	86.12
274.713	85.12
274.945	76.12
275.176	85.12
275.408	79.12
275.64	77.12
275.872	81.12
276.104	91.12
276.335	90.12
276.567	89.12
276.799	92.12
277.031	83.12
277.262	99.12
277.494	84.12
277.726	80.12
277.957	87.12
278.189	84.12
278.421	86.12
278.652	87.12
278.884	78.12
279.115	82.12
279.347	95.12
279.579	92.12
279.81	83.12
280.042	87.12
280.273	76.12
280.505	78.12
280.736	84.12
280.968	88.12
281.199	85.12
281.431	85.12
281.662	69.12
281.894	67.12
282.125	89.12
282.356	83.12
282.588	92.12
282.819	80.12
283.051	83.12
283.282	91.12
283.513	86.12
283.745	93.12
283.976	100.12
284.207	89.12
284.439	92.12
284.67	85.12
284.901	84.12
285.132	78.12
285.364	93.12
285.595	97.12
285.826	82.12
286.057	86.12
286.288	89.12
286.52	102.12
286.751	83.12
286.982	92.12
287.213	101.12
287.444	88.12
287.675	89.12
287.906	83.12
288.138	85.12
288.369	88.12
288.6	70.12
288.831	80.12
289.062	87.12
289.293	78.12
289.524	71.12
289.755	89.12
289.986	74.12
290.217	91.12
290.448	95.12
290.679	85.12
290.91	86.12
291.141	90.12
291.371	81.12
291.602	87.12
291.833	83.12
292.064	80.12
292.295	71.12
292.526	86.12
292.757	86.12
292.987	88.12
293.218	92.12
293.449	75.12
293.68	69.12
293.91	94.12
294.141	85.12
294.372	87.12
294.603	94.12
294.833	79.12
295.064	87.12
295.295	68.12
295.525	93.12
295.756	89.12
295.987	96.12
296.217	100.12
296.448	93.12
296.679	83.12
296.909	95.12
297.14	83.12
297.37	85.12
297.601	97.12
297.831	93.12
298.062	90.12
298.292	79.12
298.523	82.12
298.753	83.12
298.984	82.12
299.214	67.12
299.445	76.12
299.675	71.12
299.905	89.12
300.136	85.12
300.366	73.12
300.597	94.12
300.827	84.12
301.057	89.12
301.288	91.12
301.518	89.12
301.748	79.12
301.979	77.12
302.209	91.12
302.439	82.12
302.669	106.12
302.9	87.12
303.13	80.12
303.36	68.12
303.59	95.12
303.82	86.12
304.051	87.12
304.281	90.12
304.511	90.12
304.741	83.12
304.971	93.12
305.201	88.12
305.431	85.12
305.661	82.12
305.891	93.12
306.121	102.12
306.352	92.12
306.582	91.12
306.812	81.12
307.042	91.12
307.272	77.12
307.502	69.12
307.731	91.12
307.961	77.12
308.191	74.12
308.421	97.12
308.651	82.12
308.881	79.12
309.111	87.12
309.341	76.12
309.571	80.12
309.8	84.12
310.03	86.12
310.26	90.12
310.49	86.12
310.72	87.12
310.949	87.12
311.179	75.12
311.409	96.12
311.639	75.12
311.868	81.12
312.098	85.12
312.328	89.12
312.557	79.12
312.787	82.12
313.017	81.12
313.246	79.12
313.476	89.12
313.706	89.12
313.935	87.12
314.165	85.12
314.394	79.12
314.624	77.12
314.853	80.12
315.083	94.12
315.312	89.12
315.542	89.12
315.771	79.12
316.001	65.12
316.23	87.12
316.46	84.12
316.689	86.12
316.919	79.12
317.148	97.12
317.377	81.12
317.607	94.12
317.836	98.12
318.065	86.12
318.295	86.12
318.524	92.12
318.753	86.12
318.983	93.12
319.212	77.12
319.441	82.12
319.67	87.12
319.9	87.12
320.129	82.12
320.358	99.12
320.587	81.12
320.816	95.12
321.046	84.12
321.275	81.12
321.504	81.12
321.733	83.12
321.962	88.12
322.191	93.12
322.42	92.12
322.649	74.12
322.878	78.12
323.108	89.12
323.337	95.12
323.566	98.12
323.795	84.12
324.024	87.12
324.253	87.12
324.482	90.12
324.71	90.12
324.939	79.12
325.168	88.12
325.397	88.12
325.626	72.12
325.855	90.12
326.084	83.12
326.313	79.12
326.542	85.12
326.77	83.12
326.999	91.12
327.228	90.12
327.457	85.12
327.686	87.12
327.914	87.12
328.143	93.12
328.372	69.12
328.6	84.12
328.829	80.12
329.058	100.12
329.287	80.12
329.515	87.12
329.744	92.12
329.972	84.12
330.201	92.12
330.43	81.12
330.658	92.12
330.887	74.12
331.115	87.12
331.344	85.12
331.572	72.12
331.801	98.12
332.03	84.12
332.258	88.12
332.486	87.12
332.715	81.12
332.943	95.12
333.172	89.12
333.4	91.12
333.629	95.12
333.857	91.12
334.085	88.12
334.314	83.12
334.542	79.12
334.771	87.12
334.999	85.12
335.227	83.12
335.455	80.12
335.684	88.12
335.912	101.12
336.14	85.12
336.369	87.12
336.597	90.12
336.825	64.12
337.053	89.12
337.281	100.12
337.51	77.12
337.738	91.12
337.966	81.12
338.194	81.12
338.422	86.12
338.65	84.12
338.878	91.12
339.106	73.12
339.334	83.12
339.562	88.12
339.79	73.12
340.018	98.12
340.246	82.12
340.474	92.12
340.702	95.12
340.93	82.12
341.158	67.12
341.386	86.12
341.614	93.12
341.842	81.12
342.07	94.12
342.298	87.12
342.526	84.12
342.754	88.12
342.981	84.12
343.209	90.12
343.437	89.12
343.665	70.12
343.893	89.12
344.12	91.12
344.348	89.12
344.576	80.12
344.804	81.12
345.031	93.12
345.259	82.12
345.487	105.12
345.714	87.12
345.942	81.12
346.17	65.12
346.397	76.12
346.625	80.12
346.853	92.12
347.08	77.12
347.308	99.12
347.535	83.12
347.763	88.12
347.99	92.12
348.218	86.12
348.445	92.12
348.673	94.12
348.9	85.12
349.128	92.12
349.355	88.12
349.583	79.12
349.81	82.12
350.037	75.12
350.265	81.12
350.492	72.12
350.72	79.12
350.947	90.12
351.174	76.12
351.402	77.12
351.629	74.12
351.856	76.12
352.083	79.12
352.311	85.12
352.538	82.12
352.765	67.12
352.992	90.12
353.22	85.12
353.447	97.12
353.674	90.12
353.901	86.12
354.128	90.12
354.355	79.12
354.583	82.12
354.81	76.12
355.037	90.12
355.264	77.12
355.491	82.12
355.718	82.12
355.945	82.12
356.172	78.12
356.399	86.12
356.626	88.12
356.853	76.12
357.08	97.12
357.307	84.12
357.534	87.12
357.761	96.12
357.988	85.12
358.215	94.12
358.441	92.12
358.668	89.12
358.895	96.12
359.122	87.12
359.349	82.12
359.576	81.12
359.802	88.12
360.029	82.12
360.256	91.12
360.483	67.12
360.709	81.12
360.936	87.12
361.163	85.12
361.39	90.12
361.616	84.12
361.843	71.12
362.07	82.12
362.296	79.12
362.523	84.12
362.749	83.12
362.976	85.12
363.203	80.12
363.429	82.12
363.656	81.12
363.882	87.12
364.109	81.12
364.335	92.12
364.562	79.12
364.788	86.12
365.015	79.12
365.241	85.12
365.468	85.12
365.694	75.12
365.92	91.12
366.147	98.12
366.373	83.12
366.599	87.12
366.826	81.12
367.052	75.12
367.278	79.12
367.505	91.12
367.731	92.12
367.957	82.12
368.184	96.12
368.41	94.12
368.636	79.12
368.862	81.12
369.089	83.12
369.315	89.12
369.541	94.12
369.767	88.12
369.993	83.12
370.219	99.12
370.445	93.12
370.672	90.12
370.898	81.12
371.124	88.12
371.35	96.12
371.576	88.12
371.802	96.12
372.028	98.12
372.254	92.12
372.48	79.12
372.706	86.12
372.932	84.12
373.158	96.12
373.384	106.12
373.61	99.12
373.835	86.12
374.061	104.12
374.287	89.12
374.513	101.12
374.739	92.12
374.965	97.12
375.191	82.12
375.416	91.12
375.642	112.12
375.868	99.12
376.094	96.12
376.319	98.12
376.545	106.12
376.771	95.12
376.997	89.12
377.222	99.12
377.448	89.12
377.674	100.12
377.899	102.12
378.125	94.12
378.35	97.12
378.576	96.12
378.802	94.12
379.027	112.12
379.253	122.12
379.478	76.12
379.704	106.12
379.929	102.12
380.155	93.12
380.38	93.12
380.606	95.12
380.831	106.12
381.057	101.12
381.282	98.12
381.507	99.12
381.733	90.12
381.958	99.12
382.184	96.12
382.409	98.12
382.634	87.12
382.86	108.12
383.085	101.12
383.31	109.12
383.535	100.12
383.761	92.12
383.986	84.12
384.211	97.12
384.436	89.12
384.662	90.12
384.887	95.12
385.112	100.12
385.337	100.12
385.562	109.12
385.787	96.12
386.013	113.12
386.238	121.12
386.463	104.12
386.688	110.12
386.913	98.12
387.138	97.12
387.363	107.12
387.588	105.12
387.813	95.12
388.038	100.12
388.263	92.12
388.488	87.12
388.713	93.12
388.938	87.12
389.163	103.12
389.387	114.12
389.612	100.12
389.837	99.12
390.062	101.12
390.287	103.12
390.512	93.12
390.736	102.12
390.961	101.12
391.186	98.12
391.411	110.12
391.636	101.12
391.86	102.12
392.085	113.12
392.31	101.12
392.534	100.12
392.759	119.12
392.984	114.12
393.208	113.12
393.433	108.12
393.658	101.12
393.882	113.12
394.107	101.12
394.331	115.12
394.556	117.12
394.78	124.12
395.005	108.12
395.229	115.12
395.454	113.12
395.678	110.12
395.903	132.12
396.127	112.12
396.352	109.12
396.576	125.12
396.801	102.12
397.025	97.12
397.249	98.12
397.474	123.12
397.698	105.12
397.922	117.12
398.147	110.12
398.371	113.12
398.595	100.12
398.82	108.12
399.044	105.12
399.268	110.12
399.492	128.12
399.717	119.12
399.941	117.12
400.165	114.12
400.389	133.12
400.613	105.12
400.837	118.12
401.062	115.12
401.286	121.12
401.51	116.12
401.734	113.12
401.958	110.12
402.182	103.12
402.406	128.12
402.63	99.12
402.854	115.12
403.078	121.12
403.302	99.12
403.526	118.12
403.75	117.12
403.974	129.12
404.198	127.12
404.422	130.12
404.645	133.12
404.869	118.12
405.093	115.12
405.317	127.12
405.541	142.12
405.765	121.12
405.988	119.12
406.212	122.12
406.436	119.12
406.66	121.12
406.883	123.12
407.107	122.12
407.331	132.12
407.555	122.12
407.778	127.12
408.002	120.12
408.226	121.12
408.449	119.12
408.673	107.12
408.896	108.12
409.12	126.12
409.344	124.12
409.567	123.12
409.791	137.12
410.014	121.12
410.238	119.12
410.461	126.12
410.685	115.12
410.908	125.12
411.132	126.12
411.355	126.12
411.578	134.12
411.802	123.12
412.025	126.12
412.249	125.12
412.472	116.12
412.695	130.12
412.919	118.12
413.142	129.12
413.365	140.12
413.589	133.12
413.812	124.12
414.035	118.12
414.258	120.12
414.482	130.12
414.705	124.12
414.928	139.12
415.151	134.12
415.374	136.12
415.597	119.12
415.821	134.12
416.044	129.12
416.267	135.12
416.49	132.12
416.713	129.12
416.936	128.12
417.159	131.12
417.382	122.12
417.605	124.12
417.828	138.12
418.051	135.12
418.274	138.12
418.497	139.12
418.72	142.12
418.943	137.12
419.166	135.12
419.389	133.12
419.611	137.12
419.834	144.12
420.057	143.12
420.28	139.12
420.503	137.12
420.726	131.12
420.948	144.12
421.171	136.12
421.394	123.12
421.617	153.12
421.839	142.12
422.062	145.12
422.285	133.12
422.507	137.12
422.73	142.12
422.953	137.12
423.175	129.12
423.398	146.12
423.621	133.12
423.843	145.12
424.066	152.12
424.288	140.12
424.511	148.12
424.733	139.12
424.956	132.12
425.178	148.12
425.401	150.12
425.623	147.12
425.846	134.12
426.068	130.12
426.291	127.12
426.513	131.12
426.735	136.12
426.958	146.12
427.18	133.12
427.402	127.12
427.625	127.12
427.847	129.12
428.069	129.12
428.292	150.12
428.514	139.12
428.736	147.12
428.958	153.12
429.181	130.12
429.403	127.12
429.625	145.12
429.847	136.12
430.069	152.12
430.292	150.12
430.514	125.12
430.736	137.12
430.958	141.12
431.18	139.12
431.402	124.12
431.624	121.12
431.846	117.12
432.068	89.12
432.29	109.12
432.512	115.12
432.734	121.12
432.956	143.12
433.178	139.12
433.4	142.12
433.622	131.12
433.844	129.12
434.066	125.12
434.287	108.12
434.509	99.12
434.731	97.12
434.953	121.12
435.175	122.12
435.397	125.12
435.618	124.12
435.84	116.12
436.062	117.12
436.284	137.12
436.505	137.12
436.727	132.12
436.949	127.12
437.17	137.12
437.392	142.12
437.614	148.12
437.835	131.12
438.057	115.12
438.278	126.12
438.5	137.12
438.721	139.12
438.943	150.12
439.165	137.12
439.386	139.12
439.608	141.12
439.829	155.12
440.05	144.12
440.272	150.12
440.493	144.12
440.715	143.12
440.936	159.12
441.158	136.12
441.379	148.12
441.6	151.12
441.822	156.12
442.043	141.12
442.264	135.12
442.486	146.12
442.707	151.12
442.928	143.12
443.149	140.12
443.371	146.12
443.592	125.12
443.813	147.12
444.034	145.12
444.255	143.12
444.476	155.12
444.698	166.12
444.919	143.12
445.14	298.12
445.361	215.12
445.582	167.12
445.803	139.12
446.024	139.12
446.245	154.12
446.466	159.12
446.687	167.12
446.908	155.12
447.129	163.12
447.35	157.12
447.571	161.12
447.792	157.12
448.013	147.12
448.234	155.12
448.455	147.12
448.675	155.12
448.896	147.12
449.117	137.12
449.338	127.12
449.559	165.12
449.779	133.12
450	154.12
450.221	146.12
450.442	133.12
450.662	152.12
450.883	127.12
451.104	136.12
451.324	139.12
451.545	132.12
451.766	145.12
451.986	135.12
452.207	131.12
452.428	125.12
452.648	119.12
452.869	131.12
453.089	131.12
453.31	122.12
453.53	110.12
453.751	107.12
453.971	114.12
454.192	105.12
454.412	113.12
454.633	119.12
454.853	117.12
455.073	127.12
455.294	118.12
455.514	138.12
455.734	129.12
455.955	123.12
456.175	115.12
456.395	111.12
456.616	105.12
456.836	100.12
457.056	112.12
457.276	121.12
457.497	109.12
457.717	113.12
457.937	99.12
458.157	118.12
458.377	94.12
458.598	103.12
458.818	94.12
459.038	83.12
459.258	105.12
459.478	93.12
459.698	85.12
459.918	90.12
460.138	100.12
460.358	121.12
460.578	125.12
460.798	105.12
461.018	115.12
461.238	123.12
461.458	125.12
461.678	134.12
461.898	123.12
462.118	131.12
462.338	119.12
462.558	131.12
462.777	126.12
462.997	114.12
463.217	108.12
463.437	100.12
463.657	121.12
463.876	118.12
464.096	125.12
464.316	97.12
464.536	110.12
464.755	122.12
464.975	118.12
465.195	122.12
465.414	124.12
465.634	117.12
465.854	119.12
466.073	127.12
466.293	134.12
466.512	126.12
466.732	128.12
466.951	149.12
467.171	145.12
467.391	124.12
467.61	133.12
467.829	137.12
468.049	133.12
468.268	132.12
468.488	151.12
468.707	145.12
468.927	148.12
469.146	144.12
469.365	151.12
469.585	164.12
469.804	134.12
470.023	153.12
470.243	149.12
470.462	162.12
470.681	152.12
470.901	142.12
471.12	151.12
471.339	157.12
471.558	141.12
471.777	152.12
471.997	136.12
472.216	147.12
472.435	110.12
472.654	103.12
472.873	119.12
473.092	124.12
473.311	116.12
473.53	126.12
473.749	137.12
473.968	141.12
474.187	125.12
474.406	118.12
474.625	126.12
474.844	157.12
475.063	141.12
475.282	133.12
475.501	103.12
475.72	124.12
475.939	122.12
476.158	121.12
476.377	125.12
476.596	137.12
476.814	117.12
477.033	119.12
477.252	122.12
477.471	127.12
477.69	143.12
477.908	155.12
478.127	140.12
478.346	141.12
478.564	136.12
478.783	131.12
479.002	157.12
479.22	137.12
479.439	139.12
479.658	138.12
479.876	128.12
480.095	111.12
480.313	115.12
480.532	119.12
480.751	121.12
480.969	103.12
481.188	100.12
481.406	101.12
481.624	109.12
481.843	91.12
482.061	99.12
482.28	106.12
482.498	112.12
482.717	113.12
482.935	127.12
483.153	141.12
483.372	157.12
483.59	155.12
483.808	159.12
484.027	130.12
484.245	162.12
484.463	154.12
484.681	173.12
484.9	150.12
485.118	152.12
485.336	139.12
485.554	124.12
485.772	98.12
485.99	107.12
486.209	123.12
486.427	115.12
486.645	136.12
486.863	131.12
487.081	147.12
487.299	140.12
487.517	143.12
487.735	191.12
487.953	204.12
488.171	195.12
488.389	169.12
488.607	162.12
488.825	154.12
489.043	125.12
489.261	131.12
489.479	132.12
489.696	146.12
489.914	145.12
490.132	155.12
490.35	168.12
490.568	164.12
490.786	173.12
491.003	181.12
491.221	183.12
491.439	207.12
491.657	207.12
491.874	214.12
492.092	247.12
492.31	276.12
492.527	230.12
492.745	227.12
492.963	210.12
493.18	198.12
493.398	183.12
493.615	197.12
493.833	185.12
494.05	174.12
494.268	182.12
494.485	175.12
494.703	192.12
494.92	182.12
495.138	172.12
495.355	179.12
495.573	165.12
495.79	197.12
496.008	174.12
496.225	170.12
496.442	174.12
496.66	183.12
496.877	174.12
497.094	164.12
497.312	149.12
497.529	173.12
497.746	146.12
497.963	149.12
498.181	132.12
498.398	133.12
498.615	114.12
498.832	117.12
499.049	129.12
499.267	126.12
499.484	129.12
499.701	147.12
499.918	157.12
500.135	140.12
500.352	149.12
500.569	153.12
500.786	150.12
501.003	151.12
501.22	146.12
501.437	159.12
501.654	141.12
501.871	144.12
502.088	136.12
502.305	137.12
502.522	137.12
502.739	141.12
502.956	135.12
503.172	141.12
503.389	132.12
503.606	132.12
503.823	130.12
504.04	102.12
504.256	128.12
504.473	109.12
504.69	123.12
504.907	133.12
505.123	134.12
505.34	120.12
505.557	145.12
505.773	135.12
505.99	134.12
506.207	111.12
506.423	120.12
506.64	120.12
506.856	131.12
507.073	124.12
507.289	133.12
507.506	133.12
507.722	128.12
507.939	121.12
508.155	123.12
508.372	119.12
508.588	106.12
508.805	117.12
509.021	105.12
509.238	105.12
509.454	113.12
509.67	99.12
509.887	103.12
510.103	100.12
510.319	99.12
510.536	98.12
510.752	77.12
510.968	96.12
511.184	81.12
511.401	77.12
