Data from Location6.07152019.Energy5.Lamp.07192019.3%Agarose_HRD10591_16-13-31-395.txt Node
Date: Fri Jul 19 16:13:31 EDT 2019
User: cochatt
Spectrometer: HR+D1059
Trigger mode: 1
Integration Time (sec): 1.000000E-1
Scans to average: 1
Electric dark correction enabled: true
Nonlinearity correction enabled: false
Boxcar width: 0
XAxis mode: Wavelengths
Number of Pixels in Spectrum: 2048
>>>>>Begin Spectral Data<<<<<
223.165	-8.25
223.4	-8.25
223.635	-8.25
223.869	-17.25
224.104	-25.25
224.338	-23.25
224.573	-13.25
224.808	2.75
225.042	-10.25
225.277	-17.25
225.511	0.75
225.746	10.75
225.98	2.75
226.215	-1.25
226.449	18.75
226.683	26.75
226.918	22.75
227.152	30.75
227.387	44.75
227.621	39.75
227.856	53.75
228.09	36.75
228.324	44.75
228.559	59.75
228.793	73.75
229.027	61.75
229.262	70.75
229.496	75.75
229.73	78.75
229.964	78.75
230.199	72.75
230.433	70.75
230.667	75.75
230.901	88.75
231.136	73.75
231.37	88.75
231.604	74.75
231.838	101.75
232.072	83.75
232.306	82.75
232.541	84.75
232.775	83.75
233.009	86.75
233.243	82.75
233.477	94.75
233.711	75.75
233.945	84.75
234.179	96.75
234.413	90.75
234.647	84.75
234.881	74.75
235.115	63.75
235.349	90.75
235.583	80.75
235.817	84.75
236.051	86.75
236.285	83.75
236.519	86.75
236.753	73.75
236.987	73.75
237.221	61.75
237.455	66.75
237.689	68.75
237.922	77.75
238.156	69.75
238.39	73.75
238.624	77.75
238.858	83.75
239.091	72.75
239.325	75.75
239.559	82.75
239.793	77.75
240.027	72.75
240.26	79.75
240.494	82.75
240.728	78.75
240.961	77.75
241.195	75.75
241.429	79.75
241.662	74.75
241.896	66.75
242.13	71.75
242.363	76.75
242.597	68.75
242.83	88.75
243.064	86.75
243.298	84.75
243.531	81.75
243.765	77.75
243.998	58.75
244.232	77.75
244.465	77.75
244.699	80.75
244.932	91.75
245.166	68.75
245.399	75.75
245.633	84.75
245.866	83.75
246.099	76.75
246.333	75.75
246.566	82.75
246.8	74.75
247.033	90.75
247.266	86.75
247.5	83.75
247.733	70.75
247.966	79.75
248.2	85.75
248.433	75.75
248.666	83.75
248.899	87.75
249.133	92.75
249.366	71.75
249.599	85.75
249.832	67.75
250.066	91.75
250.299	85.75
250.532	72.75
250.765	71.75
250.998	92.75
251.231	81.75
251.465	90.75
251.698	81.75
251.931	74.75
252.164	87.75
252.397	76.75
252.63	84.75
252.863	74.75
253.096	72.75
253.329	92.75
253.562	72.75
253.795	69.75
254.028	90.75
254.261	89.75
254.494	73.75
254.727	80.75
254.96	77.75
255.193	72.75
255.426	90.75
255.659	66.75
255.892	70.75
256.124	85.75
256.357	78.75
256.59	79.75
256.823	76.75
257.056	95.75
257.289	73.75
257.521	82.75
257.754	89.75
257.987	76.75
258.22	83.75
258.452	85.75
258.685	85.75
258.918	82.75
259.151	92.75
259.383	85.75
259.616	80.75
259.849	94.75
260.081	84.75
260.314	96.75
260.547	79.75
260.779	83.75
261.012	80.75
261.244	88.75
261.477	88.75
261.71	84.75
261.942	81.75
262.175	67.75
262.407	78.75
262.64	78.75
262.872	84.75
263.105	81.75
263.337	92.75
263.57	97.75
263.802	70.75
264.035	67.75
264.267	78.75
264.499	83.75
264.732	96.75
264.964	100.75
265.197	82.75
265.429	88.75
265.661	83.75
265.894	81.75
266.126	101.75
266.358	78.75
266.591	79.75
266.823	75.75
267.055	92.75
267.287	82.75
267.52	88.75
267.752	75.75
267.984	77.75
268.216	69.75
268.448	87.75
268.681	78.75
268.913	84.75
269.145	75.75
269.377	83.75
269.609	82.75
269.841	80.75
270.073	80.75
270.306	81.75
270.538	80.75
270.77	87.75
271.002	81.75
271.234	82.75
271.466	76.75
271.698	87.75
271.93	75.75
272.162	71.75
272.394	76.75
272.626	71.75
272.858	85.75
273.09	77.75
273.322	96.75
273.553	76.75
273.785	69.75
274.017	86.75
274.249	98.75
274.481	96.75
274.713	88.75
274.945	97.75
275.176	79.75
275.408	86.75
275.64	90.75
275.872	85.75
276.104	84.75
276.335	90.75
276.567	82.75
276.799	88.75
277.031	78.75
277.262	83.75
277.494	75.75
277.726	87.75
277.957	72.75
278.189	86.75
278.421	92.75
278.652	83.75
278.884	69.75
279.115	86.75
279.347	79.75
279.579	75.75
279.81	70.75
280.042	80.75
280.273	78.75
280.505	81.75
280.736	86.75
280.968	85.75
281.199	78.75
281.431	101.75
281.662	81.75
281.894	84.75
282.125	90.75
282.356	86.75
282.588	85.75
282.819	85.75
283.051	86.75
283.282	88.75
283.513	74.75
283.745	70.75
283.976	94.75
284.207	99.75
284.439	89.75
284.67	87.75
284.901	89.75
285.132	77.75
285.364	87.75
285.595	88.75
285.826	81.75
286.057	100.75
286.288	85.75
286.52	77.75
286.751	85.75
286.982	94.75
287.213	87.75
287.444	86.75
287.675	76.75
287.906	82.75
288.138	80.75
288.369	85.75
288.6	78.75
288.831	78.75
289.062	91.75
289.293	81.75
289.524	74.75
289.755	69.75
289.986	69.75
290.217	78.75
290.448	89.75
290.679	93.75
290.91	92.75
291.141	101.75
291.371	85.75
291.602	69.75
291.833	84.75
292.064	82.75
292.295	90.75
292.526	84.75
292.757	103.75
292.987	87.75
293.218	84.75
293.449	81.75
293.68	92.75
293.91	89.75
294.141	74.75
294.372	86.75
294.603	82.75
294.833	98.75
295.064	98.75
295.295	80.75
295.525	77.75
295.756	88.75
295.987	84.75
296.217	83.75
296.448	96.75
296.679	83.75
296.909	89.75
297.14	82.75
297.37	89.75
297.601	85.75
297.831	85.75
298.062	76.75
298.292	107.75
298.523	92.75
298.753	86.75
298.984	73.75
299.214	94.75
299.445	91.75
299.675	87.75
299.905	84.75
300.136	87.75
300.366	74.75
300.597	86.75
300.827	98.75
301.057	79.75
301.288	94.75
301.518	85.75
301.748	84.75
301.979	93.75
302.209	86.75
302.439	76.75
302.669	77.75
302.9	69.75
303.13	78.75
303.36	93.75
303.59	92.75
303.82	80.75
304.051	79.75
304.281	81.75
304.511	88.75
304.741	89.75
304.971	78.75
305.201	90.75
305.431	82.75
305.661	88.75
305.891	83.75
306.121	76.75
306.352	85.75
306.582	87.75
306.812	98.75
307.042	89.75
307.272	91.75
307.502	84.75
307.731	87.75
307.961	88.75
308.191	83.75
308.421	75.75
308.651	94.75
308.881	93.75
309.111	79.75
309.341	82.75
309.571	86.75
309.8	91.75
310.03	88.75
310.26	88.75
310.49	98.75
310.72	80.75
310.949	95.75
311.179	86.75
311.409	105.75
311.639	91.75
311.868	86.75
312.098	89.75
312.328	89.75
312.557	85.75
312.787	84.75
313.017	82.75
313.246	76.75
313.476	79.75
313.706	78.75
313.935	86.75
314.165	94.75
314.394	72.75
314.624	85.75
314.853	83.75
315.083	97.75
315.312	88.75
315.542	91.75
315.771	81.75
316.001	90.75
316.23	90.75
316.46	89.75
316.689	89.75
316.919	84.75
317.148	92.75
317.377	94.75
317.607	81.75
317.836	92.75
318.065	91.75
318.295	75.75
318.524	77.75
318.753	82.75
318.983	95.75
319.212	77.75
319.441	91.75
319.67	83.75
319.9	86.75
320.129	92.75
320.358	83.75
320.587	86.75
320.816	89.75
321.046	76.75
321.275	90.75
321.504	78.75
321.733	79.75
321.962	104.75
322.191	92.75
322.42	84.75
322.649	92.75
322.878	83.75
323.108	90.75
323.337	77.75
323.566	72.75
323.795	86.75
324.024	96.75
324.253	91.75
324.482	73.75
324.71	85.75
324.939	88.75
325.168	76.75
325.397	100.75
325.626	88.75
325.855	90.75
326.084	77.75
326.313	72.75
326.542	77.75
326.77	98.75
326.999	84.75
327.228	85.75
327.457	82.75
327.686	80.75
327.914	85.75
328.143	100.75
328.372	81.75
328.6	82.75
328.829	77.75
329.058	86.75
329.287	83.75
329.515	76.75
329.744	80.75
329.972	74.75
330.201	89.75
330.43	79.75
330.658	93.75
330.887	89.75
331.115	84.75
331.344	75.75
331.572	93.75
331.801	94.75
332.03	72.75
332.258	78.75
332.486	83.75
332.715	92.75
332.943	92.75
333.172	73.75
333.4	76.75
333.629	94.75
333.857	96.75
334.085	91.75
334.314	83.75
334.542	100.75
334.771	81.75
334.999	89.75
335.227	86.75
335.455	88.75
335.684	94.75
335.912	84.75
336.14	76.75
336.369	93.75
336.597	88.75
336.825	80.75
337.053	82.75
337.281	83.75
337.51	82.75
337.738	82.75
337.966	90.75
338.194	87.75
338.422	84.75
338.65	86.75
338.878	92.75
339.106	98.75
339.334	78.75
339.562	90.75
339.79	78.75
340.018	68.75
340.246	84.75
340.474	93.75
340.702	89.75
340.93	84.75
341.158	72.75
341.386	91.75
341.614	77.75
341.842	75.75
342.07	77.75
342.298	85.75
342.526	87.75
342.754	79.75
342.981	94.75
343.209	81.75
343.437	83.75
343.665	93.75
343.893	85.75
344.12	88.75
344.348	93.75
344.576	73.75
344.804	79.75
345.031	81.75
345.259	88.75
345.487	76.75
345.714	96.75
345.942	83.75
346.17	83.75
346.397	95.75
346.625	85.75
346.853	84.75
347.08	85.75
347.308	80.75
347.535	89.75
347.763	89.75
347.99	90.75
348.218	90.75
348.445	82.75
348.673	82.75
348.9	98.75
349.128	84.75
349.355	90.75
349.583	91.75
349.81	94.75
350.037	82.75
350.265	89.75
350.492	92.75
350.72	93.75
350.947	75.75
351.174	82.75
351.402	80.75
351.629	77.75
351.856	75.75
352.083	90.75
352.311	88.75
352.538	88.75
352.765	82.75
352.992	91.75
353.22	101.75
353.447	94.75
353.674	93.75
353.901	74.75
354.128	87.75
354.355	69.75
354.583	65.75
354.81	70.75
355.037	81.75
355.264	68.75
355.491	80.75
355.718	87.75
355.945	84.75
356.172	88.75
356.399	77.75
356.626	83.75
356.853	77.75
357.08	95.75
357.307	83.75
357.534	80.75
357.761	105.75
357.988	98.75
358.215	94.75
358.441	102.75
358.668	86.75
358.895	89.75
359.122	88.75
359.349	84.75
359.576	84.75
359.802	88.75
360.029	81.75
360.256	90.75
360.483	88.75
360.709	81.75
360.936	98.75
361.163	89.75
361.39	98.75
361.616	79.75
361.843	85.75
362.07	101.75
362.296	82.75
362.523	87.75
362.749	96.75
362.976	80.75
363.203	93.75
363.429	77.75
363.656	90.75
363.882	97.75
364.109	76.75
364.335	93.75
364.562	77.75
364.788	81.75
365.015	74.75
365.241	96.75
365.468	83.75
365.694	77.75
365.92	83.75
366.147	80.75
366.373	89.75
366.599	84.75
366.826	83.75
367.052	90.75
367.278	91.75
367.505	86.75
367.731	106.75
367.957	85.75
368.184	88.75
368.41	81.75
368.636	96.75
368.862	94.75
369.089	92.75
369.315	93.75
369.541	76.75
369.767	85.75
369.993	99.75
370.219	92.75
370.445	92.75
370.672	88.75
370.898	94.75
371.124	93.75
371.35	87.75
371.576	80.75
371.802	92.75
372.028	96.75
372.254	108.75
372.48	94.75
372.706	98.75
372.932	94.75
373.158	101.75
373.384	88.75
373.61	83.75
373.835	105.75
374.061	87.75
374.287	99.75
374.513	100.75
374.739	96.75
374.965	101.75
375.191	95.75
375.416	95.75
375.642	99.75
375.868	94.75
376.094	102.75
376.319	97.75
376.545	102.75
376.771	86.75
376.997	97.75
377.222	91.75
377.448	94.75
377.674	92.75
377.899	100.75
378.125	99.75
378.35	99.75
378.576	93.75
378.802	99.75
379.027	90.75
379.253	112.75
379.478	99.75
379.704	77.75
379.929	87.75
380.155	102.75
380.38	100.75
380.606	94.75
380.831	102.75
381.057	107.75
381.282	92.75
381.507	88.75
381.733	103.75
381.958	104.75
382.184	76.75
382.409	112.75
382.634	102.75
382.86	89.75
383.085	95.75
383.31	97.75
383.535	92.75
383.761	97.75
383.986	112.75
384.211	90.75
384.436	99.75
384.662	94.75
384.887	88.75
385.112	107.75
385.337	106.75
385.562	81.75
385.787	102.75
386.013	105.75
386.238	94.75
386.463	95.75
386.688	97.75
386.913	100.75
387.138	98.75
387.363	93.75
387.588	95.75
387.813	107.75
388.038	107.75
388.263	98.75
388.488	103.75
388.713	98.75
388.938	108.75
389.163	104.75
389.387	106.75
389.612	102.75
389.837	99.75
390.062	113.75
390.287	102.75
390.512	110.75
390.736	96.75
390.961	103.75
391.186	101.75
391.411	112.75
391.636	105.75
391.86	120.75
392.085	106.75
392.31	105.75
392.534	104.75
392.759	114.75
392.984	104.75
393.208	110.75
393.433	119.75
393.658	101.75
393.882	94.75
394.107	106.75
394.331	104.75
394.556	101.75
394.78	107.75
395.005	121.75
395.229	118.75
395.454	134.75
395.678	107.75
395.903	111.75
396.127	106.75
396.352	101.75
396.576	109.75
396.801	122.75
397.025	120.75
397.249	105.75
397.474	115.75
397.698	101.75
397.922	117.75
398.147	112.75
398.371	98.75
398.595	117.75
398.82	93.75
399.044	104.75
399.268	107.75
399.492	114.75
399.717	112.75
399.941	109.75
400.165	120.75
400.389	109.75
400.613	120.75
400.837	91.75
401.062	107.75
401.286	123.75
401.51	108.75
401.734	117.75
401.958	124.75
402.182	120.75
402.406	111.75
402.63	124.75
402.854	112.75
403.078	121.75
403.302	115.75
403.526	122.75
403.75	106.75
403.974	117.75
404.198	128.75
404.422	116.75
404.645	131.75
404.869	116.75
405.093	124.75
405.317	128.75
405.541	113.75
405.765	138.75
405.988	132.75
406.212	134.75
406.436	123.75
406.66	134.75
406.883	122.75
407.107	126.75
407.331	125.75
407.555	121.75
407.778	117.75
408.002	123.75
408.226	122.75
408.449	126.75
408.673	133.75
408.896	121.75
409.12	132.75
409.344	121.75
409.567	133.75
409.791	128.75
410.014	130.75
410.238	116.75
410.461	132.75
410.685	108.75
410.908	127.75
411.132	127.75
411.355	125.75
411.578	128.75
411.802	111.75
412.025	118.75
412.249	136.75
412.472	127.75
412.695	126.75
412.919	143.75
413.142	125.75
413.365	135.75
413.589	136.75
413.812	133.75
414.035	124.75
414.258	127.75
414.482	139.75
414.705	126.75
414.928	115.75
415.151	126.75
415.374	132.75
415.597	116.75
415.821	120.75
416.044	121.75
416.267	127.75
416.49	126.75
416.713	137.75
416.936	130.75
417.159	136.75
417.382	124.75
417.605	125.75
417.828	123.75
418.051	124.75
418.274	138.75
418.497	130.75
418.72	152.75
418.943	131.75
419.166	132.75
419.389	141.75
419.611	131.75
419.834	146.75
420.057	138.75
420.28	141.75
420.503	147.75
420.726	139.75
420.948	148.75
421.171	134.75
421.394	150.75
421.617	132.75
421.839	145.75
422.062	134.75
422.285	140.75
422.507	126.75
422.73	144.75
422.953	128.75
423.175	118.75
423.398	134.75
423.621	116.75
423.843	129.75
424.066	137.75
424.288	142.75
424.511	148.75
424.733	152.75
424.956	140.75
425.178	154.75
425.401	145.75
425.623	154.75
425.846	140.75
426.068	136.75
426.291	131.75
426.513	137.75
426.735	141.75
426.958	132.75
427.18	156.75
427.402	151.75
427.625	138.75
427.847	137.75
428.069	133.75
428.292	138.75
428.514	135.75
428.736	132.75
428.958	125.75
429.181	129.75
429.403	143.75
429.625	133.75
429.847	125.75
430.069	144.75
430.292	136.75
430.514	139.75
430.736	134.75
430.958	143.75
431.18	115.75
431.402	137.75
431.624	125.75
431.846	108.75
432.068	99.75
432.29	118.75
432.512	138.75
432.734	136.75
432.956	129.75
433.178	137.75
433.4	163.75
433.622	152.75
433.844	146.75
434.066	148.75
434.287	110.75
434.509	103.75
434.731	106.75
434.953	102.75
435.175	142.75
435.397	130.75
435.618	124.75
435.84	109.75
436.062	114.75
436.284	119.75
436.505	136.75
436.727	125.75
436.949	145.75
437.17	147.75
437.392	129.75
437.614	125.75
437.835	116.75
438.057	127.75
438.278	115.75
438.5	124.75
438.721	136.75
438.943	160.75
439.165	150.75
439.386	151.75
439.608	137.75
439.829	152.75
440.05	150.75
440.272	152.75
440.493	153.75
440.715	157.75
440.936	153.75
441.158	146.75
441.379	151.75
441.6	153.75
441.822	156.75
442.043	144.75
442.264	155.75
442.486	139.75
442.707	140.75
442.928	150.75
443.149	141.75
443.371	135.75
443.592	148.75
443.813	145.75
444.034	150.75
444.255	152.75
444.476	144.75
444.698	149.75
444.919	136.75
445.14	274.75
445.361	221.75
445.582	166.75
445.803	161.75
446.024	154.75
446.245	162.75
446.466	152.75
446.687	162.75
446.908	157.75
447.129	160.75
447.35	152.75
447.571	150.75
447.792	160.75
448.013	161.75
448.234	143.75
448.455	132.75
448.675	138.75
448.896	142.75
449.117	125.75
449.338	148.75
449.559	152.75
449.779	148.75
450	138.75
450.221	136.75
450.442	139.75
450.662	145.75
450.883	141.75
451.104	132.75
451.324	136.75
451.545	122.75
451.766	131.75
451.986	147.75
452.207	131.75
452.428	144.75
452.648	131.75
452.869	132.75
453.089	115.75
453.31	125.75
453.53	130.75
453.751	115.75
453.971	116.75
454.192	110.75
454.412	116.75
454.633	114.75
454.853	118.75
455.073	128.75
455.294	116.75
455.514	143.75
455.734	125.75
455.955	125.75
456.175	124.75
456.395	120.75
456.616	109.75
456.836	112.75
457.056	113.75
457.276	107.75
457.497	124.75
457.717	120.75
457.937	96.75
458.157	125.75
458.377	116.75
458.598	104.75
458.818	104.75
459.038	88.75
459.258	83.75
459.478	94.75
459.698	99.75
459.918	105.75
460.138	112.75
460.358	99.75
460.578	126.75
460.798	109.75
461.018	120.75
461.238	122.75
461.458	124.75
461.678	120.75
461.898	113.75
462.118	110.75
462.338	120.75
462.558	122.75
462.777	129.75
462.997	117.75
463.217	117.75
463.437	110.75
463.657	105.75
463.876	107.75
464.096	108.75
464.316	113.75
464.536	120.75
464.755	113.75
464.975	116.75
465.195	119.75
465.414	126.75
465.634	124.75
465.854	132.75
466.073	116.75
466.293	135.75
466.512	130.75
466.732	124.75
466.951	124.75
467.171	147.75
467.391	146.75
467.61	140.75
467.829	130.75
468.049	141.75
468.268	136.75
468.488	137.75
468.707	140.75
468.927	135.75
469.146	132.75
469.365	148.75
469.585	153.75
469.804	151.75
470.023	133.75
470.243	145.75
470.462	131.75
470.681	140.75
470.901	147.75
471.12	153.75
471.339	145.75
471.558	153.75
471.777	138.75
471.997	133.75
472.216	144.75
472.435	123.75
472.654	107.75
472.873	126.75
473.092	115.75
473.311	119.75
473.53	124.75
473.749	117.75
473.968	134.75
474.187	117.75
474.406	115.75
474.625	130.75
474.844	148.75
475.063	138.75
475.282	134.75
475.501	134.75
475.72	128.75
475.939	135.75
476.158	132.75
476.377	136.75
476.596	143.75
476.814	113.75
477.033	115.75
477.252	116.75
477.471	114.75
477.69	134.75
477.908	141.75
478.127	142.75
478.346	155.75
478.564	144.75
478.783	141.75
479.002	134.75
479.22	138.75
479.439	136.75
479.658	120.75
479.876	131.75
480.095	98.75
480.313	112.75
480.532	122.75
480.751	119.75
480.969	97.75
481.188	91.75
481.406	86.75
481.624	88.75
481.843	106.75
482.061	121.75
482.28	121.75
482.498	107.75
482.717	109.75
482.935	120.75
483.153	138.75
483.372	160.75
483.59	142.75
483.808	149.75
484.027	130.75
484.245	130.75
484.463	152.75
484.681	168.75
484.9	155.75
485.118	153.75
485.336	120.75
485.554	117.75
485.772	108.75
485.99	105.75
486.209	103.75
486.427	110.75
486.645	124.75
486.863	147.75
487.081	143.75
487.299	139.75
487.517	156.75
487.735	186.75
487.953	214.75
488.171	198.75
488.389	181.75
488.607	176.75
488.825	146.75
489.043	134.75
489.261	146.75
489.479	140.75
489.696	151.75
489.914	158.75
490.132	144.75
490.35	156.75
490.568	155.75
490.786	183.75
491.003	172.75
491.221	188.75
491.439	196.75
491.657	202.75
491.874	217.75
492.092	231.75
492.31	272.75
492.527	246.75
492.745	219.75
492.963	195.75
493.18	197.75
493.398	186.75
493.615	202.75
493.833	194.75
494.05	192.75
494.268	182.75
494.485	172.75
494.703	166.75
494.92	176.75
495.138	182.75
495.355	176.75
495.573	170.75
495.79	187.75
496.008	180.75
496.225	190.75
496.442	181.75
496.66	170.75
496.877	178.75
497.094	182.75
497.312	186.75
497.529	174.75
497.746	164.75
497.963	149.75
498.181	122.75
498.398	132.75
498.615	128.75
498.832	130.75
499.049	130.75
499.267	119.75
499.484	125.75
499.701	148.75
499.918	147.75
500.135	144.75
500.352	156.75
500.569	150.75
500.786	165.75
501.003	153.75
501.22	131.75
501.437	141.75
501.654	141.75
501.871	126.75
502.088	118.75
502.305	142.75
502.522	133.75
502.739	154.75
502.956	123.75
503.172	124.75
503.389	129.75
503.606	126.75
503.823	126.75
504.04	129.75
504.256	128.75
504.473	132.75
504.69	103.75
504.907	130.75
505.123	131.75
505.34	128.75
505.557	121.75
505.773	125.75
505.99	121.75
506.207	129.75
506.423	140.75
506.64	119.75
506.856	127.75
507.073	118.75
507.289	119.75
507.506	121.75
507.722	124.75
507.939	123.75
508.155	119.75
508.372	115.75
508.588	116.75
508.805	117.75
509.021	103.75
509.238	106.75
509.454	113.75
509.67	106.75
509.887	105.75
510.103	100.75
510.319	120.75
510.536	98.75
510.752	92.75
510.968	92.75
511.184	86.75
