Data from Location6.07152019.Energy5.Lamp.07192019.3%Agarose_HRD10591_16-13-04-395.txt Node
Date: Fri Jul 19 16:13:04 EDT 2019
User: cochatt
Spectrometer: HR+D1059
Trigger mode: 1
Integration Time (sec): 1.000000E-1
Scans to average: 1
Electric dark correction enabled: true
Nonlinearity correction enabled: false
Boxcar width: 0
XAxis mode: Wavelengths
Number of Pixels in Spectrum: 2048
>>>>>Begin Spectral Data<<<<<
223.165	-20.06
223.4	-20.06
223.635	-20.06
223.869	-24.06
224.104	-21.06
224.338	-21.06
224.573	-8.06
224.808	-8.06
225.042	-14.06
225.277	-9.06
225.511	9.94
225.746	-5.06
225.98	14.94
226.215	18.94
226.449	24.94
226.683	12.94
226.918	20.94
227.152	27.94
227.387	28.94
227.621	31.94
227.856	54.94
228.09	51.94
228.324	45.94
228.559	58.94
228.793	42.94
229.027	42.94
229.262	55.94
229.496	58.94
229.73	64.94
229.964	77.94
230.199	81.94
230.433	90.94
230.667	84.94
230.901	78.94
231.136	72.94
231.37	81.94
231.604	85.94
231.838	75.94
232.072	66.94
232.306	82.94
232.541	66.94
232.775	72.94
233.009	77.94
233.243	82.94
233.477	84.94
233.711	86.94
233.945	77.94
234.179	84.94
234.413	78.94
234.647	81.94
234.881	76.94
235.115	81.94
235.349	86.94
235.583	79.94
235.817	91.94
236.051	84.94
236.285	76.94
236.519	69.94
236.753	76.94
236.987	73.94
237.221	77.94
237.455	73.94
237.689	80.94
237.922	74.94
238.156	77.94
238.39	68.94
238.624	66.94
238.858	85.94
239.091	74.94
239.325	65.94
239.559	72.94
239.793	66.94
240.027	93.94
240.26	79.94
240.494	83.94
240.728	81.94
240.961	74.94
241.195	84.94
241.429	80.94
241.662	70.94
241.896	74.94
242.13	76.94
242.363	70.94
242.597	62.94
242.83	81.94
243.064	81.94
243.298	85.94
243.531	71.94
243.765	71.94
243.998	77.94
244.232	83.94
244.465	72.94
244.699	67.94
244.932	88.94
245.166	68.94
245.399	78.94
245.633	81.94
245.866	77.94
246.099	74.94
246.333	74.94
246.566	68.94
246.8	76.94
247.033	70.94
247.266	76.94
247.5	68.94
247.733	69.94
247.966	78.94
248.2	76.94
248.433	84.94
248.666	73.94
248.899	76.94
249.133	84.94
249.366	83.94
249.599	76.94
249.832	76.94
250.066	67.94
250.299	76.94
250.532	79.94
250.765	82.94
250.998	90.94
251.231	96.94
251.465	83.94
251.698	78.94
251.931	86.94
252.164	77.94
252.397	70.94
252.63	88.94
252.863	79.94
253.096	75.94
253.329	78.94
253.562	88.94
253.795	80.94
254.028	75.94
254.261	68.94
254.494	79.94
254.727	87.94
254.96	79.94
255.193	75.94
255.426	67.94
255.659	66.94
255.892	83.94
256.124	82.94
256.357	83.94
256.59	82.94
256.823	78.94
257.056	90.94
257.289	76.94
257.521	77.94
257.754	81.94
257.987	65.94
258.22	89.94
258.452	73.94
258.685	71.94
258.918	75.94
259.151	70.94
259.383	86.94
259.616	77.94
259.849	72.94
260.081	89.94
260.314	80.94
260.547	81.94
260.779	75.94
261.012	76.94
261.244	91.94
261.477	76.94
261.71	68.94
261.942	66.94
262.175	85.94
262.407	67.94
262.64	80.94
262.872	89.94
263.105	77.94
263.337	76.94
263.57	76.94
263.802	78.94
264.035	80.94
264.267	68.94
264.499	67.94
264.732	85.94
264.964	73.94
265.197	87.94
265.429	86.94
265.661	87.94
265.894	72.94
266.126	79.94
266.358	89.94
266.591	94.94
266.823	83.94
267.055	71.94
267.287	79.94
267.52	78.94
267.752	80.94
267.984	84.94
268.216	83.94
268.448	87.94
268.681	66.94
268.913	76.94
269.145	73.94
269.377	91.94
269.609	74.94
269.841	80.94
270.073	76.94
270.306	77.94
270.538	84.94
270.77	69.94
271.002	80.94
271.234	77.94
271.466	68.94
271.698	69.94
271.93	88.94
272.162	82.94
272.394	88.94
272.626	75.94
272.858	75.94
273.09	76.94
273.322	79.94
273.553	75.94
273.785	79.94
274.017	85.94
274.249	85.94
274.481	73.94
274.713	84.94
274.945	90.94
275.176	69.94
275.408	90.94
275.64	76.94
275.872	99.94
276.104	89.94
276.335	78.94
276.567	86.94
276.799	90.94
277.031	85.94
277.262	92.94
277.494	94.94
277.726	78.94
277.957	91.94
278.189	97.94
278.421	76.94
278.652	78.94
278.884	70.94
279.115	70.94
279.347	76.94
279.579	74.94
279.81	84.94
280.042	76.94
280.273	83.94
280.505	86.94
280.736	83.94
280.968	88.94
281.199	84.94
281.431	87.94
281.662	91.94
281.894	83.94
282.125	88.94
282.356	78.94
282.588	83.94
282.819	87.94
283.051	80.94
283.282	85.94
283.513	84.94
283.745	83.94
283.976	84.94
284.207	71.94
284.439	77.94
284.67	90.94
284.901	95.94
285.132	88.94
285.364	82.94
285.595	72.94
285.826	85.94
286.057	88.94
286.288	90.94
286.52	97.94
286.751	84.94
286.982	76.94
287.213	83.94
287.444	89.94
287.675	84.94
287.906	87.94
288.138	74.94
288.369	87.94
288.6	83.94
288.831	84.94
289.062	88.94
289.293	86.94
289.524	94.94
289.755	84.94
289.986	86.94
290.217	78.94
290.448	83.94
290.679	90.94
290.91	77.94
291.141	79.94
291.371	81.94
291.602	80.94
291.833	89.94
292.064	87.94
292.295	86.94
292.526	80.94
292.757	74.94
292.987	86.94
293.218	78.94
293.449	93.94
293.68	89.94
293.91	76.94
294.141	75.94
294.372	69.94
294.603	88.94
294.833	97.94
295.064	86.94
295.295	89.94
295.525	80.94
295.756	73.94
295.987	70.94
296.217	75.94
296.448	93.94
296.679	99.94
296.909	88.94
297.14	79.94
297.37	86.94
297.601	75.94
297.831	88.94
298.062	70.94
298.292	72.94
298.523	83.94
298.753	78.94
298.984	77.94
299.214	76.94
299.445	81.94
299.675	88.94
299.905	88.94
300.136	78.94
300.366	76.94
300.597	74.94
300.827	86.94
301.057	84.94
301.288	81.94
301.518	74.94
301.748	77.94
301.979	71.94
302.209	82.94
302.439	74.94
302.669	93.94
302.9	96.94
303.13	82.94
303.36	85.94
303.59	85.94
303.82	87.94
304.051	86.94
304.281	85.94
304.511	83.94
304.741	78.94
304.971	70.94
305.201	97.94
305.431	68.94
305.661	87.94
305.891	76.94
306.121	80.94
306.352	96.94
306.582	84.94
306.812	92.94
307.042	83.94
307.272	73.94
307.502	86.94
307.731	90.94
307.961	83.94
308.191	91.94
308.421	78.94
308.651	80.94
308.881	95.94
309.111	67.94
309.341	84.94
309.571	90.94
309.8	89.94
310.03	83.94
310.26	75.94
310.49	83.94
310.72	80.94
310.949	78.94
311.179	78.94
311.409	84.94
311.639	72.94
311.868	88.94
312.098	90.94
312.328	82.94
312.557	93.94
312.787	94.94
313.017	86.94
313.246	81.94
313.476	83.94
313.706	85.94
313.935	79.94
314.165	76.94
314.394	69.94
314.624	81.94
314.853	94.94
315.083	85.94
315.312	80.94
315.542	83.94
315.771	92.94
316.001	72.94
316.23	77.94
316.46	81.94
316.689	88.94
316.919	96.94
317.148	98.94
317.377	77.94
317.607	84.94
317.836	88.94
318.065	72.94
318.295	80.94
318.524	80.94
318.753	77.94
318.983	67.94
319.212	83.94
319.441	82.94
319.67	77.94
319.9	89.94
320.129	93.94
320.358	82.94
320.587	92.94
320.816	78.94
321.046	99.94
321.275	99.94
321.504	80.94
321.733	89.94
321.962	81.94
322.191	82.94
322.42	96.94
322.649	93.94
322.878	88.94
323.108	82.94
323.337	86.94
323.566	85.94
323.795	97.94
324.024	85.94
324.253	77.94
324.482	79.94
324.71	75.94
324.939	88.94
325.168	91.94
325.397	81.94
325.626	89.94
325.855	89.94
326.084	92.94
326.313	77.94
326.542	79.94
326.77	78.94
326.999	81.94
327.228	86.94
327.457	83.94
327.686	85.94
327.914	81.94
328.143	85.94
328.372	91.94
328.6	85.94
328.829	89.94
329.058	78.94
329.287	84.94
329.515	88.94
329.744	88.94
329.972	73.94
330.201	67.94
330.43	92.94
330.658	83.94
330.887	74.94
331.115	78.94
331.344	76.94
331.572	92.94
331.801	97.94
332.03	72.94
332.258	96.94
332.486	82.94
332.715	92.94
332.943	69.94
333.172	82.94
333.4	78.94
333.629	86.94
333.857	82.94
334.085	78.94
334.314	92.94
334.542	78.94
334.771	72.94
334.999	79.94
335.227	89.94
335.455	89.94
335.684	86.94
335.912	85.94
336.14	88.94
336.369	84.94
336.597	68.94
336.825	93.94
337.053	84.94
337.281	88.94
337.51	84.94
337.738	88.94
337.966	88.94
338.194	84.94
338.422	88.94
338.65	99.94
338.878	95.94
339.106	85.94
339.334	89.94
339.562	72.94
339.79	67.94
340.018	85.94
340.246	76.94
340.474	75.94
340.702	85.94
340.93	82.94
341.158	77.94
341.386	81.94
341.614	83.94
341.842	89.94
342.07	94.94
342.298	89.94
342.526	71.94
342.754	79.94
342.981	82.94
343.209	79.94
343.437	89.94
343.665	80.94
343.893	74.94
344.12	80.94
344.348	83.94
344.576	78.94
344.804	86.94
345.031	85.94
345.259	67.94
345.487	88.94
345.714	80.94
345.942	65.94
346.17	87.94
346.397	93.94
346.625	82.94
346.853	85.94
347.08	79.94
347.308	100.94
347.535	81.94
347.763	74.94
347.99	92.94
348.218	79.94
348.445	92.94
348.673	88.94
348.9	77.94
349.128	79.94
349.355	79.94
349.583	93.94
349.81	76.94
350.037	84.94
350.265	77.94
350.492	78.94
350.72	83.94
350.947	89.94
351.174	88.94
351.402	88.94
351.629	81.94
351.856	82.94
352.083	73.94
352.311	73.94
352.538	71.94
352.765	94.94
352.992	83.94
353.22	85.94
353.447	99.94
353.674	84.94
353.901	70.94
354.128	73.94
354.355	96.94
354.583	77.94
354.81	91.94
355.037	91.94
355.264	89.94
355.491	85.94
355.718	81.94
355.945	78.94
356.172	78.94
356.399	78.94
356.626	76.94
356.853	52.94
357.08	80.94
357.307	78.94
357.534	77.94
357.761	98.94
357.988	89.94
358.215	74.94
358.441	78.94
358.668	67.94
358.895	77.94
359.122	102.94
359.349	101.94
359.576	86.94
359.802	93.94
360.029	93.94
360.256	91.94
360.483	88.94
360.709	93.94
360.936	88.94
361.163	90.94
361.39	80.94
361.616	86.94
361.843	79.94
362.07	95.94
362.296	96.94
362.523	76.94
362.749	92.94
362.976	95.94
363.203	88.94
363.429	76.94
363.656	81.94
363.882	68.94
364.109	87.94
364.335	98.94
364.562	81.94
364.788	77.94
365.015	75.94
365.241	75.94
365.468	88.94
365.694	76.94
365.92	81.94
366.147	75.94
366.373	89.94
366.599	88.94
366.826	84.94
367.052	97.94
367.278	90.94
367.505	106.94
367.731	88.94
367.957	105.94
368.184	99.94
368.41	94.94
368.636	71.94
368.862	88.94
369.089	93.94
369.315	90.94
369.541	104.94
369.767	83.94
369.993	91.94
370.219	85.94
370.445	89.94
370.672	77.94
370.898	96.94
371.124	82.94
371.35	91.94
371.576	105.94
371.802	84.94
372.028	100.94
372.254	105.94
372.48	73.94
372.706	86.94
372.932	102.94
373.158	106.94
373.384	103.94
373.61	103.94
373.835	99.94
374.061	94.94
374.287	96.94
374.513	101.94
374.739	89.94
374.965	101.94
375.191	88.94
375.416	99.94
375.642	100.94
375.868	89.94
376.094	82.94
376.319	87.94
376.545	83.94
376.771	100.94
376.997	98.94
377.222	82.94
377.448	84.94
377.674	92.94
377.899	87.94
378.125	95.94
378.35	105.94
378.576	99.94
378.802	96.94
379.027	88.94
379.253	96.94
379.478	94.94
379.704	76.94
379.929	91.94
380.155	99.94
380.38	102.94
380.606	101.94
380.831	83.94
381.057	100.94
381.282	86.94
381.507	84.94
381.733	93.94
381.958	117.94
382.184	105.94
382.409	100.94
382.634	103.94
382.86	103.94
383.085	108.94
383.31	86.94
383.535	86.94
383.761	112.94
383.986	98.94
384.211	103.94
384.436	84.94
384.662	108.94
384.887	112.94
385.112	101.94
385.337	102.94
385.562	100.94
385.787	115.94
386.013	118.94
386.238	101.94
386.463	101.94
386.688	100.94
386.913	105.94
387.138	98.94
387.363	106.94
387.588	119.94
387.813	115.94
388.038	102.94
388.263	91.94
388.488	97.94
388.713	100.94
388.938	98.94
389.163	111.94
389.387	117.94
389.612	109.94
389.837	106.94
390.062	117.94
390.287	98.94
390.512	93.94
390.736	102.94
390.961	107.94
391.186	117.94
391.411	103.94
391.636	104.94
391.86	103.94
392.085	110.94
392.31	120.94
392.534	108.94
392.759	120.94
392.984	103.94
393.208	99.94
393.433	116.94
393.658	104.94
393.882	109.94
394.107	110.94
394.331	122.94
394.556	114.94
394.78	113.94
395.005	100.94
395.229	122.94
395.454	104.94
395.678	97.94
395.903	105.94
396.127	115.94
396.352	107.94
396.576	113.94
396.801	120.94
397.025	101.94
397.249	105.94
397.474	129.94
397.698	120.94
397.922	105.94
398.147	124.94
398.371	120.94
398.595	130.94
398.82	105.94
399.044	112.94
399.268	114.94
399.492	107.94
399.717	103.94
399.941	117.94
400.165	111.94
400.389	124.94
400.613	99.94
400.837	98.94
401.062	108.94
401.286	100.94
401.51	128.94
401.734	108.94
401.958	129.94
402.182	124.94
402.406	109.94
402.63	118.94
402.854	107.94
403.078	124.94
403.302	114.94
403.526	104.94
403.75	116.94
403.974	108.94
404.198	108.94
404.422	115.94
404.645	123.94
404.869	109.94
405.093	134.94
405.317	118.94
405.541	121.94
405.765	118.94
405.988	118.94
406.212	120.94
406.436	123.94
406.66	122.94
406.883	128.94
407.107	137.94
407.331	124.94
407.555	136.94
407.778	128.94
408.002	125.94
408.226	135.94
408.449	124.94
408.673	121.94
408.896	120.94
409.12	121.94
409.344	135.94
409.567	132.94
409.791	125.94
410.014	120.94
410.238	132.94
410.461	147.94
410.685	136.94
410.908	129.94
411.132	130.94
411.355	132.94
411.578	130.94
411.802	126.94
412.025	126.94
412.249	116.94
412.472	116.94
412.695	132.94
412.919	126.94
413.142	120.94
413.365	128.94
413.589	128.94
413.812	129.94
414.035	123.94
414.258	124.94
414.482	121.94
414.705	126.94
414.928	112.94
415.151	123.94
415.374	127.94
415.597	132.94
415.821	135.94
416.044	136.94
416.267	135.94
416.49	139.94
416.713	133.94
416.936	131.94
417.159	133.94
417.382	146.94
417.605	135.94
417.828	135.94
418.051	127.94
418.274	140.94
418.497	128.94
418.72	124.94
418.943	126.94
419.166	141.94
419.389	148.94
419.611	151.94
419.834	141.94
420.057	136.94
420.28	138.94
420.503	140.94
420.726	157.94
420.948	132.94
421.171	140.94
421.394	137.94
421.617	159.94
421.839	148.94
422.062	139.94
422.285	136.94
422.507	124.94
422.73	140.94
422.953	141.94
423.175	129.94
423.398	137.94
423.621	133.94
423.843	143.94
424.066	126.94
424.288	161.94
424.511	158.94
424.733	162.94
424.956	137.94
425.178	142.94
425.401	157.94
425.623	148.94
425.846	155.94
426.068	148.94
426.291	124.94
426.513	128.94
426.735	128.94
426.958	125.94
427.18	141.94
427.402	140.94
427.625	121.94
427.847	131.94
428.069	140.94
428.292	133.94
428.514	142.94
428.736	137.94
428.958	137.94
429.181	122.94
429.403	130.94
429.625	129.94
429.847	138.94
430.069	156.94
430.292	138.94
430.514	122.94
430.736	139.94
430.958	128.94
431.18	137.94
431.402	132.94
431.624	132.94
431.846	116.94
432.068	106.94
432.29	96.94
432.512	129.94
432.734	123.94
432.956	127.94
433.178	150.94
433.4	154.94
433.622	142.94
433.844	136.94
434.066	138.94
434.287	107.94
434.509	104.94
434.731	117.94
434.953	110.94
435.175	134.94
435.397	136.94
435.618	130.94
435.84	134.94
436.062	138.94
436.284	138.94
436.505	131.94
436.727	125.94
436.949	144.94
437.17	128.94
437.392	137.94
437.614	124.94
437.835	106.94
438.057	108.94
438.278	135.94
438.5	132.94
438.721	137.94
438.943	130.94
439.165	148.94
439.386	154.94
439.608	154.94
439.829	153.94
440.05	168.94
440.272	155.94
440.493	146.94
440.715	149.94
440.936	166.94
441.158	138.94
441.379	140.94
441.6	153.94
441.822	158.94
442.043	150.94
442.264	155.94
442.486	166.94
442.707	170.94
442.928	147.94
443.149	138.94
443.371	142.94
443.592	145.94
443.813	155.94
444.034	164.94
444.255	146.94
444.476	137.94
444.698	133.94
444.919	149.94
445.14	277.94
445.361	220.94
445.582	160.94
445.803	147.94
446.024	148.94
446.245	173.94
446.466	163.94
446.687	162.94
446.908	158.94
447.129	164.94
447.35	156.94
447.571	146.94
447.792	165.94
448.013	154.94
448.234	148.94
448.455	149.94
448.675	153.94
448.896	147.94
449.117	164.94
449.338	134.94
449.559	148.94
449.779	148.94
450	139.94
450.221	150.94
450.442	141.94
450.662	145.94
450.883	145.94
451.104	127.94
451.324	148.94
451.545	138.94
451.766	125.94
451.986	129.94
452.207	123.94
452.428	132.94
452.648	143.94
452.869	137.94
453.089	128.94
453.31	126.94
453.53	128.94
453.751	124.94
453.971	112.94
454.192	101.94
454.412	116.94
454.633	129.94
454.853	132.94
455.073	136.94
455.294	123.94
455.514	132.94
455.734	114.94
455.955	118.94
456.175	125.94
456.395	122.94
456.616	121.94
456.836	108.94
457.056	112.94
457.276	116.94
457.497	116.94
457.717	114.94
457.937	124.94
458.157	109.94
458.377	109.94
458.598	100.94
458.818	102.94
459.038	92.94
459.258	92.94
459.478	90.94
459.698	87.94
459.918	100.94
460.138	108.94
460.358	125.94
460.578	124.94
460.798	113.94
461.018	114.94
461.238	127.94
461.458	130.94
461.678	126.94
461.898	115.94
462.118	113.94
462.338	115.94
462.558	121.94
462.777	118.94
462.997	130.94
463.217	113.94
463.437	127.94
463.657	106.94
463.876	113.94
464.096	116.94
464.316	105.94
464.536	102.94
464.755	126.94
464.975	127.94
465.195	121.94
465.414	126.94
465.634	115.94
465.854	114.94
466.073	142.94
466.293	128.94
466.512	121.94
466.732	128.94
466.951	128.94
467.171	151.94
467.391	141.94
467.61	144.94
467.829	146.94
468.049	151.94
468.268	141.94
468.488	146.94
468.707	153.94
468.927	136.94
469.146	142.94
469.365	148.94
469.585	142.94
469.804	156.94
470.023	138.94
470.243	152.94
470.462	146.94
470.681	146.94
470.901	152.94
471.12	154.94
471.339	144.94
471.558	153.94
471.777	159.94
471.997	146.94
472.216	131.94
472.435	128.94
472.654	115.94
472.873	118.94
473.092	124.94
473.311	107.94
473.53	129.94
473.749	135.94
473.968	132.94
474.187	126.94
474.406	120.94
474.625	129.94
474.844	132.94
475.063	132.94
475.282	132.94
475.501	108.94
475.72	117.94
475.939	115.94
476.158	129.94
476.377	140.94
476.596	136.94
476.814	128.94
477.033	112.94
477.252	113.94
477.471	130.94
477.69	142.94
477.908	154.94
478.127	161.94
478.346	130.94
478.564	133.94
478.783	147.94
479.002	128.94
479.22	134.94
479.439	144.94
479.658	134.94
479.876	134.94
480.095	101.94
480.313	128.94
480.532	134.94
480.751	121.94
480.969	93.94
481.188	77.94
481.406	98.94
481.624	90.94
481.843	100.94
482.061	114.94
482.28	111.94
482.498	113.94
482.717	92.94
482.935	134.94
483.153	144.94
483.372	164.94
483.59	151.94
483.808	141.94
484.027	151.94
484.245	141.94
484.463	169.94
484.681	161.94
484.9	141.94
485.118	140.94
485.336	144.94
485.554	112.94
485.772	114.94
485.99	128.94
486.209	131.94
486.427	100.94
486.645	125.94
486.863	140.94
487.081	156.94
487.299	147.94
487.517	153.94
487.735	185.94
487.953	208.94
488.171	198.94
488.389	185.94
488.607	162.94
488.825	154.94
489.043	154.94
489.261	140.94
489.479	146.94
489.696	140.94
489.914	141.94
490.132	162.94
490.35	155.94
490.568	166.94
490.786	160.94
491.003	180.94
491.221	173.94
491.439	207.94
491.657	196.94
491.874	216.94
492.092	241.94
492.31	266.94
492.527	252.94
492.745	211.94
492.963	212.94
493.18	189.94
493.398	178.94
493.615	175.94
493.833	192.94
494.05	180.94
494.268	173.94
494.485	183.94
494.703	189.94
494.92	177.94
495.138	173.94
495.355	180.94
495.573	178.94
495.79	178.94
496.008	174.94
496.225	186.94
496.442	165.94
496.66	182.94
496.877	173.94
497.094	177.94
497.312	167.94
497.529	170.94
497.746	159.94
497.963	158.94
498.181	141.94
498.398	127.94
498.615	120.94
498.832	128.94
499.049	131.94
499.267	143.94
499.484	125.94
499.701	141.94
499.918	130.94
500.135	153.94
500.352	158.94
500.569	144.94
500.786	137.94
501.003	136.94
501.22	148.94
501.437	135.94
501.654	139.94
501.871	140.94
502.088	132.94
502.305	117.94
502.522	137.94
502.739	152.94
502.956	136.94
503.172	135.94
503.389	131.94
503.606	138.94
503.823	119.94
504.04	134.94
504.256	122.94
504.473	130.94
504.69	123.94
504.907	139.94
505.123	131.94
505.34	125.94
505.557	137.94
505.773	126.94
505.99	116.94
506.207	116.94
506.423	124.94
506.64	128.94
506.856	115.94
507.073	127.94
507.289	110.94
507.506	121.94
507.722	123.94
507.939	128.94
508.155	126.94
508.372	120.94
508.588	104.94
508.805	105.94
509.021	106.94
509.238	119.94
509.454	109.94
509.67	103.94
509.887	111.94
510.103	99.94
510.319	95.94
510.536	103.94
510.752	82.94
510.968	89.94
511.184	97.94
