Data from Location6.07152019.Energy5.Lamp.07192019.3%Agarose_HRD10591_16-13-40-396.txt Node
Date: Fri Jul 19 16:13:40 EDT 2019
User: cochatt
Spectrometer: HR+D1059
Trigger mode: 1
Integration Time (sec): 1.000000E-1
Scans to average: 1
Electric dark correction enabled: true
Nonlinearity correction enabled: false
Boxcar width: 0
XAxis mode: Wavelengths
Number of Pixels in Spectrum: 2048
>>>>>Begin Spectral Data<<<<<
223.165	-9.88
223.4	-9.88
223.635	-9.88
223.869	-28.88
224.104	-9.88
224.338	-10.88
224.573	-14.88
224.808	-8.88
225.042	-8.88
225.277	8.12
225.511	3.12
225.746	0.12
225.98	-15.88
226.215	0.12
226.449	12.12
226.683	20.12
226.918	31.12
227.152	33.12
227.387	43.12
227.621	31.12
227.856	38.12
228.09	39.12
228.324	56.12
228.559	45.12
228.793	72.12
229.027	63.12
229.262	70.12
229.496	63.12
229.73	72.12
229.964	71.12
230.199	71.12
230.433	63.12
230.667	83.12
230.901	81.12
231.136	75.12
231.37	95.12
231.604	67.12
231.838	75.12
232.072	91.12
232.306	87.12
232.541	94.12
232.775	74.12
233.009	77.12
233.243	67.12
233.477	77.12
233.711	62.12
233.945	81.12
234.179	97.12
234.413	96.12
234.647	84.12
234.881	86.12
235.115	88.12
235.349	79.12
235.583	97.12
235.817	89.12
236.051	94.12
236.285	79.12
236.519	72.12
236.753	87.12
236.987	81.12
237.221	74.12
237.455	78.12
237.689	76.12
237.922	71.12
238.156	78.12
238.39	75.12
238.624	83.12
238.858	91.12
239.091	73.12
239.325	84.12
239.559	81.12
239.793	78.12
240.027	85.12
240.26	92.12
240.494	79.12
240.728	81.12
240.961	68.12
241.195	82.12
241.429	78.12
241.662	87.12
241.896	87.12
242.13	73.12
242.363	72.12
242.597	77.12
242.83	76.12
243.064	72.12
243.298	77.12
243.531	61.12
243.765	82.12
243.998	76.12
244.232	89.12
244.465	79.12
244.699	85.12
244.932	86.12
245.166	99.12
245.399	93.12
245.633	93.12
245.866	76.12
246.099	87.12
246.333	71.12
246.566	92.12
246.8	89.12
247.033	79.12
247.266	81.12
247.5	83.12
247.733	87.12
247.966	72.12
248.2	88.12
248.433	72.12
248.666	70.12
248.899	80.12
249.133	83.12
249.366	91.12
249.599	81.12
249.832	79.12
250.066	86.12
250.299	89.12
250.532	84.12
250.765	71.12
250.998	76.12
251.231	73.12
251.465	79.12
251.698	79.12
251.931	90.12
252.164	90.12
252.397	81.12
252.63	76.12
252.863	87.12
253.096	86.12
253.329	85.12
253.562	88.12
253.795	88.12
254.028	80.12
254.261	88.12
254.494	91.12
254.727	77.12
254.96	90.12
255.193	79.12
255.426	86.12
255.659	69.12
255.892	78.12
256.124	86.12
256.357	86.12
256.59	77.12
256.823	106.12
257.056	79.12
257.289	80.12
257.521	85.12
257.754	96.12
257.987	93.12
258.22	85.12
258.452	80.12
258.685	73.12
258.918	79.12
259.151	86.12
259.383	85.12
259.616	81.12
259.849	81.12
260.081	91.12
260.314	91.12
260.547	73.12
260.779	93.12
261.012	88.12
261.244	92.12
261.477	80.12
261.71	87.12
261.942	91.12
262.175	84.12
262.407	75.12
262.64	85.12
262.872	83.12
263.105	89.12
263.337	76.12
263.57	89.12
263.802	86.12
264.035	81.12
264.267	98.12
264.499	86.12
264.732	90.12
264.964	85.12
265.197	91.12
265.429	72.12
265.661	82.12
265.894	88.12
266.126	81.12
266.358	90.12
266.591	77.12
266.823	88.12
267.055	91.12
267.287	81.12
267.52	80.12
267.752	89.12
267.984	87.12
268.216	85.12
268.448	82.12
268.681	77.12
268.913	77.12
269.145	84.12
269.377	88.12
269.609	89.12
269.841	76.12
270.073	88.12
270.306	78.12
270.538	80.12
270.77	83.12
271.002	82.12
271.234	80.12
271.466	91.12
271.698	95.12
271.93	96.12
272.162	89.12
272.394	89.12
272.626	81.12
272.858	72.12
273.09	82.12
273.322	94.12
273.553	92.12
273.785	87.12
274.017	92.12
274.249	62.12
274.481	84.12
274.713	83.12
274.945	85.12
275.176	84.12
275.408	97.12
275.64	90.12
275.872	99.12
276.104	88.12
276.335	87.12
276.567	86.12
276.799	95.12
277.031	94.12
277.262	80.12
277.494	81.12
277.726	94.12
277.957	80.12
278.189	89.12
278.421	87.12
278.652	90.12
278.884	85.12
279.115	74.12
279.347	93.12
279.579	75.12
279.81	79.12
280.042	87.12
280.273	93.12
280.505	80.12
280.736	96.12
280.968	93.12
281.199	88.12
281.431	93.12
281.662	97.12
281.894	81.12
282.125	85.12
282.356	94.12
282.588	91.12
282.819	81.12
283.051	85.12
283.282	77.12
283.513	89.12
283.745	75.12
283.976	105.12
284.207	97.12
284.439	79.12
284.67	77.12
284.901	85.12
285.132	82.12
285.364	85.12
285.595	92.12
285.826	95.12
286.057	92.12
286.288	83.12
286.52	76.12
286.751	92.12
286.982	82.12
287.213	93.12
287.444	81.12
287.675	105.12
287.906	80.12
288.138	97.12
288.369	75.12
288.6	85.12
288.831	92.12
289.062	89.12
289.293	83.12
289.524	83.12
289.755	88.12
289.986	80.12
290.217	107.12
290.448	84.12
290.679	76.12
290.91	94.12
291.141	70.12
291.371	91.12
291.602	81.12
291.833	89.12
292.064	87.12
292.295	77.12
292.526	83.12
292.757	96.12
292.987	72.12
293.218	71.12
293.449	89.12
293.68	77.12
293.91	88.12
294.141	65.12
294.372	84.12
294.603	93.12
294.833	84.12
295.064	90.12
295.295	91.12
295.525	84.12
295.756	86.12
295.987	101.12
296.217	94.12
296.448	93.12
296.679	93.12
296.909	109.12
297.14	94.12
297.37	93.12
297.601	91.12
297.831	86.12
298.062	83.12
298.292	76.12
298.523	81.12
298.753	112.12
298.984	105.12
299.214	79.12
299.445	84.12
299.675	91.12
299.905	102.12
300.136	102.12
300.366	89.12
300.597	77.12
300.827	87.12
301.057	85.12
301.288	97.12
301.518	95.12
301.748	86.12
301.979	93.12
302.209	88.12
302.439	79.12
302.669	92.12
302.9	83.12
303.13	87.12
303.36	94.12
303.59	83.12
303.82	85.12
304.051	95.12
304.281	86.12
304.511	101.12
304.741	92.12
304.971	99.12
305.201	110.12
305.431	75.12
305.661	82.12
305.891	91.12
306.121	98.12
306.352	95.12
306.582	90.12
306.812	105.12
307.042	76.12
307.272	91.12
307.502	100.12
307.731	81.12
307.961	85.12
308.191	91.12
308.421	84.12
308.651	83.12
308.881	99.12
309.111	73.12
309.341	87.12
309.571	87.12
309.8	79.12
310.03	93.12
310.26	94.12
310.49	83.12
310.72	91.12
310.949	95.12
311.179	87.12
311.409	94.12
311.639	87.12
311.868	80.12
312.098	78.12
312.328	94.12
312.557	93.12
312.787	93.12
313.017	100.12
313.246	88.12
313.476	70.12
313.706	84.12
313.935	72.12
314.165	88.12
314.394	94.12
314.624	86.12
314.853	80.12
315.083	87.12
315.312	97.12
315.542	84.12
315.771	92.12
316.001	74.12
316.23	85.12
316.46	98.12
316.689	92.12
316.919	97.12
317.148	91.12
317.377	100.12
317.607	92.12
317.836	96.12
318.065	94.12
318.295	87.12
318.524	103.12
318.753	91.12
318.983	95.12
319.212	83.12
319.441	102.12
319.67	95.12
319.9	90.12
320.129	95.12
320.358	92.12
320.587	95.12
320.816	84.12
321.046	80.12
321.275	96.12
321.504	92.12
321.733	92.12
321.962	75.12
322.191	94.12
322.42	88.12
322.649	80.12
322.878	88.12
323.108	95.12
323.337	88.12
323.566	89.12
323.795	85.12
324.024	94.12
324.253	84.12
324.482	95.12
324.71	91.12
324.939	97.12
325.168	98.12
325.397	88.12
325.626	92.12
325.855	94.12
326.084	99.12
326.313	99.12
326.542	100.12
326.77	82.12
326.999	89.12
327.228	75.12
327.457	87.12
327.686	90.12
327.914	94.12
328.143	100.12
328.372	97.12
328.6	92.12
328.829	105.12
329.058	96.12
329.287	91.12
329.515	89.12
329.744	104.12
329.972	94.12
330.201	92.12
330.43	86.12
330.658	89.12
330.887	81.12
331.115	96.12
331.344	95.12
331.572	91.12
331.801	88.12
332.03	77.12
332.258	83.12
332.486	75.12
332.715	103.12
332.943	75.12
333.172	80.12
333.4	99.12
333.629	99.12
333.857	100.12
334.085	81.12
334.314	89.12
334.542	88.12
334.771	95.12
334.999	86.12
335.227	87.12
335.455	85.12
335.684	103.12
335.912	84.12
336.14	77.12
336.369	96.12
336.597	103.12
336.825	90.12
337.053	94.12
337.281	91.12
337.51	92.12
337.738	100.12
337.966	88.12
338.194	96.12
338.422	88.12
338.65	94.12
338.878	81.12
339.106	110.12
339.334	83.12
339.562	94.12
339.79	92.12
340.018	99.12
340.246	95.12
340.474	103.12
340.702	86.12
340.93	94.12
341.158	100.12
341.386	85.12
341.614	90.12
341.842	88.12
342.07	89.12
342.298	91.12
342.526	87.12
342.754	89.12
342.981	98.12
343.209	87.12
343.437	94.12
343.665	99.12
343.893	94.12
344.12	97.12
344.348	88.12
344.576	92.12
344.804	75.12
345.031	75.12
345.259	86.12
345.487	95.12
345.714	84.12
345.942	89.12
346.17	89.12
346.397	86.12
346.625	91.12
346.853	87.12
347.08	89.12
347.308	95.12
347.535	88.12
347.763	80.12
347.99	87.12
348.218	94.12
348.445	95.12
348.673	96.12
348.9	110.12
349.128	85.12
349.355	88.12
349.583	91.12
349.81	79.12
350.037	96.12
350.265	89.12
350.492	80.12
350.72	96.12
350.947	97.12
351.174	102.12
351.402	97.12
351.629	91.12
351.856	98.12
352.083	86.12
352.311	99.12
352.538	80.12
352.765	78.12
352.992	102.12
353.22	77.12
353.447	91.12
353.674	99.12
353.901	97.12
354.128	102.12
354.355	92.12
354.583	87.12
354.81	89.12
355.037	88.12
355.264	89.12
355.491	87.12
355.718	84.12
355.945	89.12
356.172	89.12
356.399	103.12
356.626	99.12
356.853	88.12
357.08	101.12
357.307	79.12
357.534	100.12
357.761	104.12
357.988	90.12
358.215	95.12
358.441	95.12
358.668	92.12
358.895	92.12
359.122	92.12
359.349	88.12
359.576	94.12
359.802	87.12
360.029	91.12
360.256	79.12
360.483	91.12
360.709	79.12
360.936	112.12
361.163	76.12
361.39	86.12
361.616	94.12
361.843	78.12
362.07	84.12
362.296	94.12
362.523	94.12
362.749	83.12
362.976	107.12
363.203	101.12
363.429	89.12
363.656	81.12
363.882	67.12
364.109	104.12
364.335	88.12
364.562	106.12
364.788	87.12
365.015	83.12
365.241	75.12
365.468	87.12
365.694	74.12
365.92	84.12
366.147	92.12
366.373	94.12
366.599	80.12
366.826	99.12
367.052	104.12
367.278	98.12
367.505	97.12
367.731	103.12
367.957	103.12
368.184	92.12
368.41	95.12
368.636	100.12
368.862	99.12
369.089	100.12
369.315	105.12
369.541	102.12
369.767	89.12
369.993	100.12
370.219	103.12
370.445	96.12
370.672	95.12
370.898	107.12
371.124	98.12
371.35	99.12
371.576	104.12
371.802	84.12
372.028	89.12
372.254	91.12
372.48	88.12
372.706	100.12
372.932	89.12
373.158	109.12
373.384	97.12
373.61	105.12
373.835	91.12
374.061	89.12
374.287	103.12
374.513	99.12
374.739	95.12
374.965	105.12
375.191	98.12
375.416	96.12
375.642	96.12
375.868	113.12
376.094	103.12
376.319	104.12
376.545	100.12
376.771	100.12
376.997	106.12
377.222	94.12
377.448	106.12
377.674	92.12
377.899	93.12
378.125	95.12
378.35	99.12
378.576	93.12
378.802	104.12
379.027	106.12
379.253	115.12
379.478	107.12
379.704	89.12
379.929	116.12
380.155	98.12
380.38	107.12
380.606	95.12
380.831	103.12
381.057	106.12
381.282	100.12
381.507	96.12
381.733	99.12
381.958	101.12
382.184	93.12
382.409	113.12
382.634	116.12
382.86	107.12
383.085	110.12
383.31	104.12
383.535	101.12
383.761	108.12
383.986	105.12
384.211	104.12
384.436	103.12
384.662	98.12
384.887	101.12
385.112	102.12
385.337	119.12
385.562	106.12
385.787	103.12
386.013	105.12
386.238	106.12
386.463	96.12
386.688	101.12
386.913	109.12
387.138	100.12
387.363	118.12
387.588	113.12
387.813	115.12
388.038	95.12
388.263	110.12
388.488	103.12
388.713	115.12
388.938	97.12
389.163	89.12
389.387	112.12
389.612	98.12
389.837	93.12
390.062	103.12
390.287	99.12
390.512	99.12
390.736	108.12
390.961	112.12
391.186	108.12
391.411	105.12
391.636	117.12
391.86	115.12
392.085	105.12
392.31	111.12
392.534	102.12
392.759	105.12
392.984	124.12
393.208	117.12
393.433	109.12
393.658	117.12
393.882	107.12
394.107	118.12
394.331	115.12
394.556	109.12
394.78	119.12
395.005	107.12
395.229	105.12
395.454	106.12
395.678	118.12
395.903	119.12
396.127	123.12
396.352	109.12
396.576	120.12
396.801	107.12
397.025	98.12
397.249	122.12
397.474	114.12
397.698	103.12
397.922	127.12
398.147	117.12
398.371	116.12
398.595	109.12
398.82	113.12
399.044	107.12
399.268	114.12
399.492	139.12
399.717	126.12
399.941	129.12
400.165	119.12
400.389	124.12
400.613	112.12
400.837	117.12
401.062	120.12
401.286	129.12
401.51	119.12
401.734	120.12
401.958	126.12
402.182	121.12
402.406	120.12
402.63	123.12
402.854	121.12
403.078	126.12
403.302	125.12
403.526	116.12
403.75	119.12
403.974	126.12
404.198	107.12
404.422	121.12
404.645	123.12
404.869	116.12
405.093	126.12
405.317	110.12
405.541	117.12
405.765	131.12
405.988	125.12
406.212	129.12
406.436	132.12
406.66	131.12
406.883	123.12
407.107	125.12
407.331	115.12
407.555	121.12
407.778	118.12
408.002	131.12
408.226	118.12
408.449	134.12
408.673	115.12
408.896	127.12
409.12	124.12
409.344	116.12
409.567	123.12
409.791	136.12
410.014	122.12
410.238	131.12
410.461	143.12
410.685	122.12
410.908	123.12
411.132	129.12
411.355	128.12
411.578	127.12
411.802	125.12
412.025	128.12
412.249	129.12
412.472	119.12
412.695	141.12
412.919	135.12
413.142	128.12
413.365	125.12
413.589	128.12
413.812	111.12
414.035	141.12
414.258	136.12
414.482	111.12
414.705	127.12
414.928	120.12
415.151	128.12
415.374	140.12
415.597	134.12
415.821	139.12
416.044	123.12
416.267	126.12
416.49	130.12
416.713	130.12
416.936	126.12
417.159	140.12
417.382	136.12
417.605	139.12
417.828	131.12
418.051	147.12
418.274	149.12
418.497	134.12
418.72	147.12
418.943	132.12
419.166	143.12
419.389	156.12
419.611	139.12
419.834	135.12
420.057	130.12
420.28	138.12
420.503	138.12
420.726	146.12
420.948	129.12
421.171	136.12
421.394	148.12
421.617	136.12
421.839	147.12
422.062	142.12
422.285	123.12
422.507	129.12
422.73	137.12
422.953	125.12
423.175	152.12
423.398	135.12
423.621	143.12
423.843	143.12
424.066	138.12
424.288	155.12
424.511	142.12
424.733	159.12
424.956	158.12
425.178	163.12
425.401	141.12
425.623	157.12
425.846	146.12
426.068	125.12
426.291	153.12
426.513	137.12
426.735	115.12
426.958	125.12
427.18	136.12
427.402	142.12
427.625	149.12
427.847	129.12
428.069	137.12
428.292	123.12
428.514	142.12
428.736	132.12
428.958	137.12
429.181	129.12
429.403	138.12
429.625	123.12
429.847	132.12
430.069	124.12
430.292	137.12
430.514	129.12
430.736	125.12
430.958	140.12
431.18	134.12
431.402	145.12
431.624	127.12
431.846	115.12
432.068	100.12
432.29	103.12
432.512	112.12
432.734	134.12
432.956	133.12
433.178	152.12
433.4	133.12
433.622	138.12
433.844	149.12
434.066	126.12
434.287	115.12
434.509	108.12
434.731	107.12
434.953	126.12
435.175	147.12
435.397	141.12
435.618	124.12
435.84	140.12
436.062	130.12
436.284	145.12
436.505	136.12
436.727	137.12
436.949	139.12
437.17	134.12
437.392	139.12
437.614	127.12
437.835	124.12
438.057	112.12
438.278	124.12
438.5	131.12
438.721	140.12
438.943	143.12
439.165	139.12
439.386	154.12
439.608	155.12
439.829	148.12
440.05	155.12
440.272	159.12
440.493	138.12
440.715	143.12
440.936	147.12
441.158	144.12
441.379	165.12
441.6	157.12
441.822	150.12
442.043	149.12
442.264	146.12
442.486	149.12
442.707	145.12
442.928	145.12
443.149	149.12
443.371	139.12
443.592	141.12
443.813	142.12
444.034	141.12
444.255	134.12
444.476	133.12
444.698	157.12
444.919	156.12
445.14	270.12
445.361	226.12
445.582	149.12
445.803	167.12
446.024	142.12
446.245	170.12
446.466	154.12
446.687	163.12
446.908	165.12
447.129	171.12
447.35	166.12
447.571	157.12
447.792	160.12
448.013	152.12
448.234	150.12
448.455	136.12
448.675	143.12
448.896	141.12
449.117	140.12
449.338	146.12
449.559	143.12
449.779	151.12
450	151.12
450.221	150.12
450.442	157.12
450.662	151.12
450.883	127.12
451.104	134.12
451.324	145.12
451.545	153.12
451.766	129.12
451.986	133.12
452.207	143.12
452.428	132.12
452.648	133.12
452.869	135.12
453.089	119.12
453.31	126.12
453.53	116.12
453.751	117.12
453.971	110.12
454.192	121.12
454.412	119.12
454.633	127.12
454.853	136.12
455.073	129.12
455.294	135.12
455.514	128.12
455.734	119.12
455.955	124.12
456.175	127.12
456.395	136.12
456.616	117.12
456.836	114.12
457.056	118.12
457.276	109.12
457.497	121.12
457.717	119.12
457.937	138.12
458.157	129.12
458.377	112.12
458.598	98.12
458.818	94.12
459.038	94.12
459.258	90.12
459.478	95.12
459.698	115.12
459.918	100.12
460.138	116.12
460.358	124.12
460.578	119.12
460.798	96.12
461.018	110.12
461.238	127.12
461.458	124.12
461.678	119.12
461.898	122.12
462.118	113.12
462.338	122.12
462.558	120.12
462.777	122.12
462.997	107.12
463.217	107.12
463.437	102.12
463.657	118.12
463.876	124.12
464.096	127.12
464.316	111.12
464.536	107.12
464.755	112.12
464.975	121.12
465.195	130.12
465.414	133.12
465.634	133.12
465.854	112.12
466.073	127.12
466.293	135.12
466.512	141.12
466.732	139.12
466.951	140.12
467.171	132.12
467.391	149.12
467.61	139.12
467.829	142.12
468.049	161.12
468.268	133.12
468.488	146.12
468.707	159.12
468.927	141.12
469.146	134.12
469.365	151.12
469.585	129.12
469.804	144.12
470.023	145.12
470.243	152.12
470.462	155.12
470.681	158.12
470.901	165.12
471.12	138.12
471.339	160.12
471.558	148.12
471.777	157.12
471.997	120.12
472.216	136.12
472.435	125.12
472.654	117.12
472.873	119.12
473.092	120.12
473.311	131.12
473.53	122.12
473.749	135.12
473.968	127.12
474.187	134.12
474.406	127.12
474.625	141.12
474.844	146.12
475.063	141.12
475.282	143.12
475.501	126.12
475.72	129.12
475.939	132.12
476.158	125.12
476.377	141.12
476.596	145.12
476.814	135.12
477.033	115.12
477.252	128.12
477.471	124.12
477.69	133.12
477.908	133.12
478.127	157.12
478.346	151.12
478.564	137.12
478.783	139.12
479.002	145.12
479.22	139.12
479.439	134.12
479.658	131.12
479.876	115.12
480.095	110.12
480.313	131.12
480.532	128.12
480.751	121.12
480.969	111.12
481.188	91.12
481.406	84.12
481.624	103.12
481.843	100.12
482.061	107.12
482.28	117.12
482.498	108.12
482.717	106.12
482.935	139.12
483.153	147.12
483.372	164.12
483.59	165.12
483.808	149.12
484.027	139.12
484.245	155.12
484.463	160.12
484.681	172.12
484.9	167.12
485.118	155.12
485.336	125.12
485.554	123.12
485.772	101.12
485.99	124.12
486.209	126.12
486.427	112.12
486.645	129.12
486.863	162.12
487.081	148.12
487.299	140.12
487.517	151.12
487.735	189.12
487.953	202.12
488.171	201.12
488.389	180.12
488.607	174.12
488.825	151.12
489.043	143.12
489.261	158.12
489.479	135.12
489.696	152.12
489.914	167.12
490.132	145.12
490.35	166.12
490.568	183.12
490.786	188.12
491.003	179.12
491.221	181.12
491.439	209.12
491.657	207.12
491.874	223.12
492.092	231.12
492.31	248.12
492.527	238.12
492.745	213.12
492.963	201.12
493.18	199.12
493.398	181.12
493.615	187.12
493.833	187.12
494.05	190.12
494.268	179.12
494.485	161.12
494.703	179.12
494.92	188.12
495.138	177.12
495.355	183.12
495.573	185.12
495.79	183.12
496.008	171.12
496.225	166.12
496.442	192.12
496.66	173.12
496.877	193.12
497.094	176.12
497.312	173.12
497.529	168.12
497.746	159.12
497.963	149.12
498.181	146.12
498.398	135.12
498.615	142.12
498.832	131.12
499.049	133.12
499.267	127.12
499.484	125.12
499.701	133.12
499.918	130.12
500.135	160.12
500.352	147.12
500.569	148.12
500.786	171.12
501.003	156.12
501.22	147.12
501.437	142.12
501.654	141.12
501.871	140.12
502.088	144.12
502.305	145.12
502.522	141.12
502.739	135.12
502.956	131.12
503.172	129.12
503.389	131.12
503.606	120.12
503.823	125.12
504.04	136.12
504.256	137.12
504.473	125.12
504.69	135.12
504.907	141.12
505.123	130.12
505.34	126.12
505.557	135.12
505.773	121.12
505.99	122.12
506.207	138.12
506.423	118.12
506.64	115.12
506.856	140.12
507.073	120.12
507.289	108.12
507.506	127.12
507.722	132.12
507.939	128.12
508.155	128.12
508.372	135.12
508.588	131.12
508.805	124.12
509.021	117.12
509.238	111.12
509.454	109.12
509.67	124.12
509.887	101.12
510.103	112.12
510.319	112.12
