Data from Location6.07152019.Energy5.Lamp.07192019.3%Agarose_HRD10591_16-13-28-396.txt Node
Date: Fri Jul 19 16:13:28 EDT 2019
User: cochatt
Spectrometer: HR+D1059
Trigger mode: 1
Integration Time (sec): 1.000000E-1
Scans to average: 1
Electric dark correction enabled: true
Nonlinearity correction enabled: false
Boxcar width: 0
XAxis mode: Wavelengths
Number of Pixels in Spectrum: 2048
>>>>>Begin Spectral Data<<<<<
223.165	-11.31
223.4	-11.31
223.635	-11.31
223.869	-5.31
224.104	-1.31
224.338	-20.31
224.573	-18.31
224.808	-5.31
225.042	-23.31
225.277	-13.31
225.511	5.69
225.746	-9.31
225.98	10.69
226.215	16.69
226.449	-2.31
226.683	11.69
226.918	29.69
227.152	35.69
227.387	41.69
227.621	38.69
227.856	33.69
228.09	31.69
228.324	39.69
228.559	51.69
228.793	54.69
229.027	62.69
229.262	67.69
229.496	66.69
229.73	67.69
229.964	67.69
230.199	70.69
230.433	57.69
230.667	75.69
230.901	78.69
231.136	57.69
231.37	65.69
231.604	81.69
231.838	65.69
232.072	82.69
232.306	73.69
232.541	93.69
232.775	83.69
233.009	80.69
233.243	77.69
233.477	67.69
233.711	81.69
233.945	70.69
234.179	72.69
234.413	81.69
234.647	85.69
234.881	93.69
235.115	76.69
235.349	74.69
235.583	93.69
235.817	58.69
236.051	77.69
236.285	79.69
236.519	67.69
236.753	57.69
236.987	75.69
237.221	63.69
237.455	53.69
237.689	81.69
237.922	66.69
238.156	64.69
238.39	64.69
238.624	74.69
238.858	86.69
239.091	77.69
239.325	74.69
239.559	65.69
239.793	94.69
240.027	59.69
240.26	83.69
240.494	73.69
240.728	88.69
240.961	91.69
241.195	77.69
241.429	70.69
241.662	72.69
241.896	79.69
242.13	70.69
242.363	73.69
242.597	69.69
242.83	90.69
243.064	78.69
243.298	61.69
243.531	63.69
243.765	64.69
243.998	69.69
244.232	69.69
244.465	82.69
244.699	59.69
244.932	69.69
245.166	69.69
245.399	73.69
245.633	83.69
245.866	76.69
246.099	75.69
246.333	75.69
246.566	69.69
246.8	86.69
247.033	69.69
247.266	78.69
247.5	74.69
247.733	82.69
247.966	73.69
248.2	62.69
248.433	77.69
248.666	77.69
248.899	85.69
249.133	82.69
249.366	76.69
249.599	86.69
249.832	87.69
250.066	81.69
250.299	73.69
250.532	78.69
250.765	78.69
250.998	75.69
251.231	75.69
251.465	72.69
251.698	71.69
251.931	90.69
252.164	87.69
252.397	75.69
252.63	78.69
252.863	71.69
253.096	91.69
253.329	69.69
253.562	58.69
253.795	69.69
254.028	77.69
254.261	79.69
254.494	75.69
254.727	76.69
254.96	84.69
255.193	77.69
255.426	68.69
255.659	89.69
255.892	77.69
256.124	81.69
256.357	81.69
256.59	86.69
256.823	75.69
257.056	65.69
257.289	76.69
257.521	79.69
257.754	85.69
257.987	74.69
258.22	80.69
258.452	65.69
258.685	77.69
258.918	79.69
259.151	84.69
259.383	83.69
259.616	87.69
259.849	68.69
260.081	75.69
260.314	80.69
260.547	66.69
260.779	79.69
261.012	79.69
261.244	82.69
261.477	67.69
261.71	62.69
261.942	78.69
262.175	79.69
262.407	72.69
262.64	68.69
262.872	80.69
263.105	67.69
263.337	93.69
263.57	91.69
263.802	85.69
264.035	72.69
264.267	73.69
264.499	83.69
264.732	89.69
264.964	73.69
265.197	62.69
265.429	70.69
265.661	90.69
265.894	67.69
266.126	74.69
266.358	71.69
266.591	75.69
266.823	69.69
267.055	83.69
267.287	74.69
267.52	75.69
267.752	97.69
267.984	78.69
268.216	98.69
268.448	81.69
268.681	86.69
268.913	74.69
269.145	71.69
269.377	93.69
269.609	97.69
269.841	94.69
270.073	88.69
270.306	83.69
270.538	82.69
270.77	83.69
271.002	80.69
271.234	77.69
271.466	87.69
271.698	70.69
271.93	70.69
272.162	85.69
272.394	77.69
272.626	84.69
272.858	87.69
273.09	79.69
273.322	78.69
273.553	82.69
273.785	85.69
274.017	85.69
274.249	85.69
274.481	83.69
274.713	84.69
274.945	79.69
275.176	95.69
275.408	81.69
275.64	90.69
275.872	74.69
276.104	76.69
276.335	74.69
276.567	85.69
276.799	80.69
277.031	73.69
277.262	75.69
277.494	65.69
277.726	80.69
277.957	85.69
278.189	75.69
278.421	73.69
278.652	73.69
278.884	83.69
279.115	69.69
279.347	65.69
279.579	94.69
279.81	74.69
280.042	86.69
280.273	96.69
280.505	79.69
280.736	93.69
280.968	79.69
281.199	71.69
281.431	64.69
281.662	65.69
281.894	78.69
282.125	77.69
282.356	80.69
282.588	81.69
282.819	80.69
283.051	73.69
283.282	75.69
283.513	91.69
283.745	72.69
283.976	77.69
284.207	89.69
284.439	71.69
284.67	83.69
284.901	86.69
285.132	90.69
285.364	85.69
285.595	83.69
285.826	71.69
286.057	85.69
286.288	82.69
286.52	91.69
286.751	75.69
286.982	84.69
287.213	77.69
287.444	88.69
287.675	82.69
287.906	92.69
288.138	96.69
288.369	98.69
288.6	78.69
288.831	80.69
289.062	77.69
289.293	100.69
289.524	84.69
289.755	70.69
289.986	73.69
290.217	76.69
290.448	96.69
290.679	85.69
290.91	68.69
291.141	82.69
291.371	93.69
291.602	96.69
291.833	90.69
292.064	78.69
292.295	80.69
292.526	88.69
292.757	81.69
292.987	89.69
293.218	82.69
293.449	80.69
293.68	88.69
293.91	88.69
294.141	90.69
294.372	86.69
294.603	64.69
294.833	76.69
295.064	85.69
295.295	71.69
295.525	85.69
295.756	89.69
295.987	79.69
296.217	82.69
296.448	85.69
296.679	87.69
296.909	74.69
297.14	77.69
297.37	79.69
297.601	78.69
297.831	90.69
298.062	71.69
298.292	90.69
298.523	78.69
298.753	75.69
298.984	83.69
299.214	74.69
299.445	93.69
299.675	85.69
299.905	88.69
300.136	82.69
300.366	89.69
300.597	82.69
300.827	68.69
301.057	61.69
301.288	67.69
301.518	84.69
301.748	82.69
301.979	77.69
302.209	79.69
302.439	85.69
302.669	89.69
302.9	86.69
303.13	75.69
303.36	79.69
303.59	80.69
303.82	81.69
304.051	88.69
304.281	90.69
304.511	98.69
304.741	79.69
304.971	80.69
305.201	89.69
305.431	77.69
305.661	71.69
305.891	87.69
306.121	75.69
306.352	78.69
306.582	81.69
306.812	88.69
307.042	79.69
307.272	79.69
307.502	78.69
307.731	88.69
307.961	86.69
308.191	72.69
308.421	81.69
308.651	91.69
308.881	78.69
309.111	66.69
309.341	98.69
309.571	86.69
309.8	84.69
310.03	79.69
310.26	84.69
310.49	75.69
310.72	88.69
310.949	70.69
311.179	81.69
311.409	82.69
311.639	79.69
311.868	86.69
312.098	96.69
312.328	76.69
312.557	83.69
312.787	81.69
313.017	85.69
313.246	83.69
313.476	94.69
313.706	88.69
313.935	82.69
314.165	101.69
314.394	80.69
314.624	88.69
314.853	79.69
315.083	87.69
315.312	82.69
315.542	85.69
315.771	87.69
316.001	82.69
316.23	87.69
316.46	90.69
316.689	88.69
316.919	87.69
317.148	78.69
317.377	81.69
317.607	74.69
317.836	81.69
318.065	88.69
318.295	65.69
318.524	80.69
318.753	72.69
318.983	69.69
319.212	85.69
319.441	91.69
319.67	80.69
319.9	82.69
320.129	74.69
320.358	82.69
320.587	83.69
320.816	90.69
321.046	82.69
321.275	72.69
321.504	82.69
321.733	84.69
321.962	92.69
322.191	79.69
322.42	95.69
322.649	94.69
322.878	84.69
323.108	71.69
323.337	91.69
323.566	89.69
323.795	82.69
324.024	85.69
324.253	72.69
324.482	77.69
324.71	96.69
324.939	100.69
325.168	83.69
325.397	80.69
325.626	95.69
325.855	85.69
326.084	89.69
326.313	86.69
326.542	68.69
326.77	85.69
326.999	86.69
327.228	83.69
327.457	79.69
327.686	84.69
327.914	83.69
328.143	97.69
328.372	89.69
328.6	78.69
328.829	84.69
329.058	91.69
329.287	82.69
329.515	85.69
329.744	89.69
329.972	78.69
330.201	72.69
330.43	82.69
330.658	75.69
330.887	63.69
331.115	79.69
331.344	83.69
331.572	78.69
331.801	89.69
332.03	96.69
332.258	95.69
332.486	87.69
332.715	75.69
332.943	82.69
333.172	86.69
333.4	81.69
333.629	82.69
333.857	79.69
334.085	74.69
334.314	101.69
334.542	83.69
334.771	85.69
334.999	103.69
335.227	85.69
335.455	82.69
335.684	98.69
335.912	72.69
336.14	106.69
336.369	90.69
336.597	88.69
336.825	77.69
337.053	87.69
337.281	89.69
337.51	79.69
337.738	90.69
337.966	87.69
338.194	82.69
338.422	81.69
338.65	77.69
338.878	79.69
339.106	71.69
339.334	87.69
339.562	87.69
339.79	69.69
340.018	81.69
340.246	74.69
340.474	74.69
340.702	73.69
340.93	87.69
341.158	86.69
341.386	82.69
341.614	80.69
341.842	93.69
342.07	63.69
342.298	71.69
342.526	79.69
342.754	87.69
342.981	79.69
343.209	82.69
343.437	82.69
343.665	91.69
343.893	69.69
344.12	77.69
344.348	85.69
344.576	88.69
344.804	78.69
345.031	80.69
345.259	73.69
345.487	88.69
345.714	93.69
345.942	80.69
346.17	66.69
346.397	89.69
346.625	96.69
346.853	88.69
347.08	94.69
347.308	73.69
347.535	89.69
347.763	91.69
347.99	72.69
348.218	86.69
348.445	87.69
348.673	85.69
348.9	97.69
349.128	90.69
349.355	74.69
349.583	79.69
349.81	76.69
350.037	75.69
350.265	85.69
350.492	82.69
350.72	89.69
350.947	81.69
351.174	83.69
351.402	70.69
351.629	89.69
351.856	87.69
352.083	86.69
352.311	77.69
352.538	80.69
352.765	99.69
352.992	79.69
353.22	78.69
353.447	77.69
353.674	68.69
353.901	92.69
354.128	83.69
354.355	76.69
354.583	89.69
354.81	88.69
355.037	83.69
355.264	84.69
355.491	90.69
355.718	73.69
355.945	91.69
356.172	96.69
356.399	81.69
356.626	93.69
356.853	75.69
357.08	85.69
357.307	95.69
357.534	82.69
357.761	64.69
357.988	72.69
358.215	86.69
358.441	77.69
358.668	83.69
358.895	88.69
359.122	76.69
359.349	86.69
359.576	82.69
359.802	69.69
360.029	77.69
360.256	83.69
360.483	90.69
360.709	71.69
360.936	102.69
361.163	88.69
361.39	80.69
361.616	69.69
361.843	73.69
362.07	95.69
362.296	84.69
362.523	82.69
362.749	80.69
362.976	90.69
363.203	91.69
363.429	93.69
363.656	97.69
363.882	74.69
364.109	75.69
364.335	93.69
364.562	77.69
364.788	75.69
365.015	95.69
365.241	83.69
365.468	94.69
365.694	81.69
365.92	85.69
366.147	80.69
366.373	78.69
366.599	70.69
366.826	73.69
367.052	80.69
367.278	85.69
367.505	86.69
367.731	98.69
367.957	81.69
368.184	91.69
368.41	78.69
368.636	93.69
368.862	90.69
369.089	88.69
369.315	87.69
369.541	77.69
369.767	83.69
369.993	95.69
370.219	94.69
370.445	99.69
370.672	105.69
370.898	93.69
371.124	86.69
371.35	86.69
371.576	85.69
371.802	94.69
372.028	105.69
372.254	100.69
372.48	91.69
372.706	98.69
372.932	85.69
373.158	93.69
373.384	86.69
373.61	92.69
373.835	84.69
374.061	97.69
374.287	103.69
374.513	95.69
374.739	101.69
374.965	81.69
375.191	81.69
375.416	87.69
375.642	91.69
375.868	67.69
376.094	98.69
376.319	87.69
376.545	89.69
376.771	80.69
376.997	85.69
377.222	92.69
377.448	96.69
377.674	94.69
377.899	84.69
378.125	89.69
378.35	102.69
378.576	85.69
378.802	103.69
379.027	100.69
379.253	91.69
379.478	100.69
379.704	92.69
379.929	94.69
380.155	93.69
380.38	98.69
380.606	93.69
380.831	81.69
381.057	96.69
381.282	96.69
381.507	97.69
381.733	101.69
381.958	97.69
382.184	98.69
382.409	92.69
382.634	115.69
382.86	91.69
383.085	112.69
383.31	93.69
383.535	96.69
383.761	113.69
383.986	110.69
384.211	106.69
384.436	105.69
384.662	112.69
384.887	98.69
385.112	93.69
385.337	96.69
385.562	88.69
385.787	97.69
386.013	103.69
386.238	99.69
386.463	97.69
386.688	106.69
386.913	93.69
387.138	94.69
387.363	89.69
387.588	108.69
387.813	122.69
388.038	101.69
388.263	105.69
388.488	103.69
388.713	93.69
388.938	99.69
389.163	104.69
389.387	101.69
389.612	101.69
389.837	94.69
390.062	99.69
390.287	101.69
390.512	107.69
390.736	105.69
390.961	110.69
391.186	98.69
391.411	100.69
391.636	94.69
391.86	103.69
392.085	91.69
392.31	114.69
392.534	97.69
392.759	110.69
392.984	104.69
393.208	115.69
393.433	104.69
393.658	96.69
393.882	111.69
394.107	100.69
394.331	107.69
394.556	125.69
394.78	102.69
395.005	113.69
395.229	107.69
395.454	101.69
395.678	110.69
395.903	121.69
396.127	111.69
396.352	102.69
396.576	112.69
396.801	102.69
397.025	109.69
397.249	110.69
397.474	115.69
397.698	118.69
397.922	95.69
398.147	110.69
398.371	107.69
398.595	114.69
398.82	103.69
399.044	97.69
399.268	104.69
399.492	120.69
399.717	111.69
399.941	101.69
400.165	106.69
400.389	109.69
400.613	113.69
400.837	111.69
401.062	123.69
401.286	118.69
401.51	106.69
401.734	107.69
401.958	110.69
402.182	122.69
402.406	121.69
402.63	110.69
402.854	112.69
403.078	115.69
403.302	117.69
403.526	121.69
403.75	109.69
403.974	119.69
404.198	118.69
404.422	109.69
404.645	121.69
404.869	125.69
405.093	123.69
405.317	119.69
405.541	122.69
405.765	117.69
405.988	121.69
406.212	112.69
406.436	125.69
406.66	130.69
406.883	117.69
407.107	113.69
407.331	118.69
407.555	118.69
407.778	119.69
408.002	123.69
408.226	129.69
408.449	124.69
408.673	124.69
408.896	103.69
409.12	105.69
409.344	112.69
409.567	113.69
409.791	122.69
410.014	125.69
410.238	127.69
410.461	131.69
410.685	121.69
410.908	136.69
411.132	126.69
411.355	119.69
411.578	130.69
411.802	122.69
412.025	110.69
412.249	130.69
412.472	125.69
412.695	112.69
412.919	117.69
413.142	137.69
413.365	120.69
413.589	125.69
413.812	132.69
414.035	131.69
414.258	121.69
414.482	122.69
414.705	139.69
414.928	126.69
415.151	116.69
415.374	119.69
415.597	117.69
415.821	116.69
416.044	126.69
416.267	111.69
416.49	129.69
416.713	133.69
416.936	121.69
417.159	125.69
417.382	132.69
417.605	123.69
417.828	125.69
418.051	138.69
418.274	138.69
418.497	130.69
418.72	130.69
418.943	132.69
419.166	136.69
419.389	134.69
419.611	124.69
419.834	146.69
420.057	159.69
420.28	141.69
420.503	140.69
420.726	140.69
420.948	125.69
421.171	128.69
421.394	140.69
421.617	143.69
421.839	173.69
422.062	137.69
422.285	125.69
422.507	138.69
422.73	121.69
422.953	123.69
423.175	122.69
423.398	123.69
423.621	131.69
423.843	134.69
424.066	152.69
424.288	133.69
424.511	163.69
424.733	155.69
424.956	147.69
425.178	141.69
425.401	141.69
425.623	145.69
425.846	139.69
426.068	127.69
426.291	131.69
426.513	126.69
426.735	123.69
426.958	137.69
427.18	136.69
427.402	134.69
427.625	137.69
427.847	148.69
428.069	141.69
428.292	138.69
428.514	129.69
428.736	135.69
428.958	123.69
429.181	136.69
429.403	127.69
429.625	123.69
429.847	129.69
430.069	131.69
430.292	136.69
430.514	134.69
430.736	133.69
430.958	122.69
431.18	119.69
431.402	134.69
431.624	129.69
431.846	112.69
432.068	101.69
432.29	103.69
432.512	110.69
432.734	137.69
432.956	152.69
433.178	145.69
433.4	138.69
433.622	139.69
433.844	124.69
434.066	124.69
434.287	118.69
434.509	110.69
434.731	99.69
434.953	122.69
435.175	118.69
435.397	122.69
435.618	107.69
435.84	106.69
436.062	121.69
436.284	122.69
436.505	127.69
436.727	133.69
436.949	129.69
437.17	131.69
437.392	126.69
437.614	131.69
437.835	116.69
438.057	121.69
438.278	121.69
438.5	122.69
438.721	144.69
438.943	123.69
439.165	131.69
439.386	138.69
439.608	145.69
439.829	145.69
440.05	141.69
440.272	140.69
440.493	155.69
440.715	142.69
440.936	145.69
441.158	146.69
441.379	153.69
441.6	145.69
441.822	153.69
442.043	151.69
442.264	160.69
442.486	135.69
442.707	126.69
442.928	153.69
443.149	149.69
443.371	151.69
443.592	138.69
443.813	146.69
444.034	142.69
444.255	151.69
444.476	151.69
444.698	136.69
444.919	138.69
445.14	280.69
445.361	203.69
445.582	161.69
445.803	155.69
446.024	154.69
446.245	160.69
446.466	166.69
446.687	170.69
446.908	175.69
447.129	153.69
447.35	165.69
447.571	158.69
447.792	133.69
448.013	154.69
448.234	133.69
448.455	139.69
448.675	126.69
448.896	160.69
449.117	135.69
449.338	136.69
449.559	142.69
449.779	133.69
450	129.69
450.221	138.69
450.442	143.69
450.662	151.69
450.883	130.69
451.104	141.69
451.324	131.69
451.545	139.69
451.766	132.69
451.986	133.69
452.207	152.69
452.428	121.69
452.648	130.69
452.869	123.69
453.089	110.69
453.31	115.69
453.53	128.69
453.751	110.69
453.971	103.69
454.192	121.69
454.412	135.69
454.633	120.69
454.853	125.69
455.073	113.69
455.294	116.69
455.514	129.69
455.734	120.69
455.955	113.69
456.175	102.69
456.395	113.69
456.616	97.69
456.836	103.69
457.056	103.69
457.276	102.69
457.497	113.69
457.717	117.69
457.937	104.69
458.157	114.69
458.377	121.69
458.598	105.69
458.818	99.69
459.038	78.69
459.258	78.69
459.478	75.69
459.698	91.69
459.918	111.69
460.138	114.69
460.358	106.69
460.578	103.69
460.798	124.69
461.018	118.69
461.238	124.69
461.458	113.69
461.678	116.69
461.898	113.69
462.118	117.69
462.338	110.69
462.558	100.69
462.777	103.69
462.997	94.69
463.217	99.69
463.437	118.69
463.657	110.69
463.876	101.69
464.096	127.69
464.316	105.69
464.536	115.69
464.755	125.69
464.975	110.69
465.195	125.69
465.414	109.69
465.634	111.69
465.854	113.69
466.073	128.69
466.293	122.69
466.512	139.69
466.732	142.69
466.951	143.69
467.171	138.69
467.391	121.69
467.61	129.69
467.829	134.69
468.049	134.69
468.268	133.69
468.488	134.69
468.707	129.69
468.927	128.69
469.146	143.69
469.365	147.69
469.585	150.69
469.804	139.69
470.023	142.69
470.243	152.69
470.462	148.69
470.681	143.69
470.901	133.69
471.12	156.69
471.339	143.69
471.558	140.69
471.777	146.69
471.997	148.69
472.216	138.69
472.435	120.69
472.654	109.69
472.873	104.69
473.092	113.69
473.311	131.69
473.53	127.69
473.749	137.69
473.968	131.69
474.187	129.69
474.406	114.69
474.625	125.69
474.844	118.69
475.063	137.69
475.282	146.69
475.501	125.69
475.72	125.69
475.939	137.69
476.158	125.69
476.377	136.69
476.596	123.69
476.814	115.69
477.033	120.69
477.252	113.69
477.471	114.69
477.69	138.69
477.908	130.69
478.127	139.69
478.346	139.69
478.564	143.69
478.783	131.69
479.002	145.69
479.22	138.69
479.439	139.69
479.658	119.69
479.876	114.69
480.095	115.69
480.313	113.69
480.532	106.69
480.751	121.69
480.969	109.69
481.188	81.69
481.406	81.69
481.624	78.69
481.843	86.69
482.061	112.69
482.28	121.69
482.498	121.69
482.717	116.69
482.935	131.69
483.153	150.69
483.372	149.69
483.59	165.69
483.808	157.69
484.027	137.69
484.245	141.69
484.463	147.69
484.681	198.69
484.9	153.69
485.118	135.69
485.336	122.69
485.554	112.69
485.772	103.69
485.99	106.69
486.209	116.69
486.427	106.69
486.645	123.69
486.863	128.69
487.081	151.69
487.299	137.69
487.517	139.69
487.735	172.69
487.953	198.69
488.171	199.69
488.389	178.69
488.607	158.69
488.825	146.69
489.043	151.69
489.261	137.69
489.479	163.69
489.696	153.69
489.914	141.69
490.132	136.69
490.35	157.69
490.568	164.69
490.786	177.69
491.003	182.69
491.221	196.69
491.439	184.69
491.657	195.69
491.874	212.69
492.092	246.69
492.31	258.69
492.527	259.69
492.745	216.69
492.963	207.69
493.18	195.69
493.398	203.69
493.615	201.69
493.833	187.69
494.05	185.69
494.268	159.69
494.485	177.69
494.703	172.69
494.92	174.69
495.138	187.69
495.355	173.69
495.573	168.69
495.79	171.69
496.008	188.69
496.225	165.69
496.442	168.69
496.66	177.69
496.877	157.69
497.094	181.69
497.312	166.69
497.529	168.69
497.746	149.69
497.963	145.69
498.181	147.69
498.398	128.69
498.615	116.69
498.832	109.69
499.049	115.69
499.267	126.69
499.484	117.69
499.701	146.69
499.918	141.69
500.135	144.69
500.352	142.69
500.569	154.69
500.786	137.69
501.003	152.69
501.22	135.69
501.437	133.69
501.654	140.69
501.871	133.69
502.088	135.69
502.305	131.69
502.522	147.69
502.739	121.69
502.956	113.69
503.172	123.69
503.389	122.69
503.606	119.69
503.823	117.69
504.04	117.69
504.256	116.69
504.473	130.69
504.69	116.69
504.907	125.69
505.123	117.69
505.34	115.69
505.557	137.69
505.773	131.69
505.99	130.69
506.207	120.69
506.423	125.69
506.64	119.69
506.856	124.69
507.073	115.69
507.289	118.69
507.506	119.69
507.722	134.69
507.939	121.69
508.155	117.69
508.372	120.69
508.588	125.69
508.805	133.69
509.021	111.69
509.238	111.69
509.454	119.69
509.67	101.69
509.887	111.69
510.103	116.69
510.319	101.69
510.536	84.69
510.752	90.69
510.968	85.69
511.184	96.69
511.401	93.69
