Data from Location6.07152019.Energy5.Lamp.07192019.3%Agarose_HRD10591_16-11-58-394.txt Node
Date: Fri Jul 19 16:11:58 EDT 2019
User: cochatt
Spectrometer: HR+D1059
Trigger mode: 1
Integration Time (sec): 1.000000E-1
Scans to average: 1
Electric dark correction enabled: true
Nonlinearity correction enabled: false
Boxcar width: 0
XAxis mode: Wavelengths
Number of Pixels in Spectrum: 2048
>>>>>Begin Spectral Data<<<<<
223.165	-22.38
223.4	-22.38
223.635	-22.38
223.869	-14.38
224.104	-14.38
224.338	-2.38
224.573	-10.38
224.808	-14.38
225.042	-16.38
225.277	-5.38
225.511	1.62
225.746	-6.38
225.98	21.62
226.215	22.62
226.449	9.62
226.683	7.62
226.918	15.62
227.152	27.62
227.387	39.62
227.621	40.62
227.856	38.62
228.09	39.62
228.324	58.62
228.559	51.62
228.793	52.62
229.027	46.62
229.262	45.62
229.496	57.62
229.73	50.62
229.964	61.62
230.199	68.62
230.433	57.62
230.667	82.62
230.901	82.62
231.136	83.62
231.37	69.62
231.604	75.62
231.838	72.62
232.072	75.62
232.306	85.62
232.541	81.62
232.775	85.62
233.009	78.62
233.243	77.62
233.477	75.62
233.711	83.62
233.945	71.62
234.179	82.62
234.413	64.62
234.647	85.62
234.881	91.62
235.115	70.62
235.349	84.62
235.583	68.62
235.817	77.62
236.051	75.62
236.285	56.62
236.519	77.62
236.753	82.62
236.987	63.62
237.221	69.62
237.455	61.62
237.689	76.62
237.922	75.62
238.156	62.62
238.39	58.62
238.624	71.62
238.858	65.62
239.091	65.62
239.325	74.62
239.559	77.62
239.793	70.62
240.027	61.62
240.26	68.62
240.494	69.62
240.728	71.62
240.961	64.62
241.195	71.62
241.429	72.62
241.662	61.62
241.896	59.62
242.13	70.62
242.363	75.62
242.597	68.62
242.83	62.62
243.064	77.62
243.298	79.62
243.531	69.62
243.765	75.62
243.998	71.62
244.232	80.62
244.465	77.62
244.699	72.62
244.932	72.62
245.166	75.62
245.399	79.62
245.633	86.62
245.866	67.62
246.099	71.62
246.333	67.62
246.566	67.62
246.8	72.62
247.033	69.62
247.266	80.62
247.5	83.62
247.733	74.62
247.966	76.62
248.2	83.62
248.433	63.62
248.666	69.62
248.899	71.62
249.133	86.62
249.366	69.62
249.599	77.62
249.832	83.62
250.066	73.62
250.299	71.62
250.532	86.62
250.765	73.62
250.998	69.62
251.231	81.62
251.465	83.62
251.698	74.62
251.931	72.62
252.164	85.62
252.397	76.62
252.63	65.62
252.863	68.62
253.096	75.62
253.329	71.62
253.562	82.62
253.795	88.62
254.028	77.62
254.261	76.62
254.494	65.62
254.727	83.62
254.96	76.62
255.193	77.62
255.426	84.62
255.659	62.62
255.892	74.62
256.124	70.62
256.357	70.62
256.59	83.62
256.823	64.62
257.056	75.62
257.289	57.62
257.521	75.62
257.754	80.62
257.987	71.62
258.22	79.62
258.452	83.62
258.685	73.62
258.918	79.62
259.151	79.62
259.383	70.62
259.616	72.62
259.849	72.62
260.081	82.62
260.314	87.62
260.547	86.62
260.779	81.62
261.012	72.62
261.244	67.62
261.477	59.62
261.71	75.62
261.942	80.62
262.175	79.62
262.407	78.62
262.64	73.62
262.872	78.62
263.105	88.62
263.337	95.62
263.57	79.62
263.802	78.62
264.035	73.62
264.267	78.62
264.499	75.62
264.732	77.62
264.964	71.62
265.197	86.62
265.429	90.62
265.661	89.62
265.894	82.62
266.126	90.62
266.358	83.62
266.591	86.62
266.823	58.62
267.055	58.62
267.287	76.62
267.52	49.62
267.752	70.62
267.984	77.62
268.216	70.62
268.448	75.62
268.681	75.62
268.913	69.62
269.145	81.62
269.377	85.62
269.609	57.62
269.841	85.62
270.073	80.62
270.306	100.62
270.538	90.62
270.77	73.62
271.002	74.62
271.234	73.62
271.466	81.62
271.698	93.62
271.93	78.62
272.162	85.62
272.394	88.62
272.626	66.62
272.858	77.62
273.09	88.62
273.322	78.62
273.553	75.62
273.785	80.62
274.017	77.62
274.249	75.62
274.481	67.62
274.713	78.62
274.945	72.62
275.176	81.62
275.408	73.62
275.64	82.62
275.872	73.62
276.104	72.62
276.335	80.62
276.567	77.62
276.799	87.62
277.031	85.62
277.262	85.62
277.494	83.62
277.726	79.62
277.957	82.62
278.189	73.62
278.421	88.62
278.652	94.62
278.884	84.62
279.115	79.62
279.347	76.62
279.579	79.62
279.81	97.62
280.042	66.62
280.273	96.62
280.505	68.62
280.736	81.62
280.968	80.62
281.199	76.62
281.431	72.62
281.662	70.62
281.894	78.62
282.125	97.62
282.356	87.62
282.588	73.62
282.819	67.62
283.051	66.62
283.282	84.62
283.513	110.62
283.745	79.62
283.976	75.62
284.207	74.62
284.439	68.62
284.67	69.62
284.901	82.62
285.132	79.62
285.364	77.62
285.595	87.62
285.826	81.62
286.057	101.62
286.288	75.62
286.52	78.62
286.751	82.62
286.982	73.62
287.213	83.62
287.444	76.62
287.675	89.62
287.906	70.62
288.138	84.62
288.369	83.62
288.6	81.62
288.831	78.62
289.062	94.62
289.293	68.62
289.524	80.62
289.755	69.62
289.986	73.62
290.217	86.62
290.448	87.62
290.679	71.62
290.91	85.62
291.141	94.62
291.371	80.62
291.602	85.62
291.833	94.62
292.064	80.62
292.295	70.62
292.526	92.62
292.757	91.62
292.987	88.62
293.218	80.62
293.449	86.62
293.68	80.62
293.91	77.62
294.141	86.62
294.372	79.62
294.603	62.62
294.833	80.62
295.064	83.62
295.295	79.62
295.525	70.62
295.756	86.62
295.987	72.62
296.217	81.62
296.448	73.62
296.679	78.62
296.909	80.62
297.14	76.62
297.37	83.62
297.601	86.62
297.831	66.62
298.062	78.62
298.292	91.62
298.523	78.62
298.753	79.62
298.984	89.62
299.214	80.62
299.445	79.62
299.675	77.62
299.905	78.62
300.136	88.62
300.366	72.62
300.597	84.62
300.827	94.62
301.057	79.62
301.288	79.62
301.518	86.62
301.748	90.62
301.979	71.62
302.209	96.62
302.439	79.62
302.669	85.62
302.9	87.62
303.13	76.62
303.36	79.62
303.59	76.62
303.82	76.62
304.051	80.62
304.281	93.62
304.511	100.62
304.741	84.62
304.971	88.62
305.201	89.62
305.431	67.62
305.661	78.62
305.891	75.62
306.121	79.62
306.352	84.62
306.582	75.62
306.812	76.62
307.042	73.62
307.272	64.62
307.502	76.62
307.731	74.62
307.961	92.62
308.191	85.62
308.421	80.62
308.651	91.62
308.881	78.62
309.111	78.62
309.341	81.62
309.571	86.62
309.8	67.62
310.03	76.62
310.26	83.62
310.49	86.62
310.72	86.62
310.949	84.62
311.179	78.62
311.409	90.62
311.639	96.62
311.868	84.62
312.098	65.62
312.328	86.62
312.557	75.62
312.787	93.62
313.017	80.62
313.246	82.62
313.476	81.62
313.706	76.62
313.935	89.62
314.165	70.62
314.394	73.62
314.624	87.62
314.853	82.62
315.083	77.62
315.312	77.62
315.542	80.62
315.771	91.62
316.001	82.62
316.23	86.62
316.46	71.62
316.689	83.62
316.919	80.62
317.148	96.62
317.377	78.62
317.607	86.62
317.836	93.62
318.065	96.62
318.295	72.62
318.524	92.62
318.753	88.62
318.983	79.62
319.212	80.62
319.441	76.62
319.67	68.62
319.9	83.62
320.129	61.62
320.358	82.62
320.587	79.62
320.816	80.62
321.046	89.62
321.275	96.62
321.504	75.62
321.733	78.62
321.962	80.62
322.191	93.62
322.42	88.62
322.649	82.62
322.878	71.62
323.108	89.62
323.337	78.62
323.566	73.62
323.795	84.62
324.024	76.62
324.253	75.62
324.482	94.62
324.71	80.62
324.939	80.62
325.168	92.62
325.397	79.62
325.626	79.62
325.855	76.62
326.084	66.62
326.313	87.62
326.542	81.62
326.77	69.62
326.999	98.62
327.228	80.62
327.457	81.62
327.686	71.62
327.914	82.62
328.143	81.62
328.372	76.62
328.6	81.62
328.829	76.62
329.058	81.62
329.287	76.62
329.515	83.62
329.744	86.62
329.972	79.62
330.201	64.62
330.43	88.62
330.658	78.62
330.887	78.62
331.115	91.62
331.344	78.62
331.572	87.62
331.801	87.62
332.03	64.62
332.258	69.62
332.486	80.62
332.715	94.62
332.943	79.62
333.172	83.62
333.4	87.62
333.629	73.62
333.857	83.62
334.085	74.62
334.314	85.62
334.542	92.62
334.771	72.62
334.999	83.62
335.227	82.62
335.455	72.62
335.684	61.62
335.912	84.62
336.14	76.62
336.369	65.62
336.597	80.62
336.825	81.62
337.053	57.62
337.281	77.62
337.51	73.62
337.738	82.62
337.966	85.62
338.194	89.62
338.422	97.62
338.65	70.62
338.878	68.62
339.106	85.62
339.334	71.62
339.562	76.62
339.79	86.62
340.018	82.62
340.246	85.62
340.474	79.62
340.702	83.62
340.93	78.62
341.158	94.62
341.386	86.62
341.614	83.62
341.842	95.62
342.07	71.62
342.298	68.62
342.526	79.62
342.754	69.62
342.981	88.62
343.209	93.62
343.437	79.62
343.665	64.62
343.893	77.62
344.12	86.62
344.348	77.62
344.576	81.62
344.804	76.62
345.031	90.62
345.259	74.62
345.487	71.62
345.714	84.62
345.942	76.62
346.17	89.62
346.397	78.62
346.625	73.62
346.853	80.62
347.08	97.62
347.308	88.62
347.535	64.62
347.763	87.62
347.99	68.62
348.218	83.62
348.445	73.62
348.673	72.62
348.9	83.62
349.128	82.62
349.355	81.62
349.583	73.62
349.81	76.62
350.037	81.62
350.265	87.62
350.492	74.62
350.72	67.62
350.947	87.62
351.174	80.62
351.402	85.62
351.629	71.62
351.856	83.62
352.083	72.62
352.311	92.62
352.538	82.62
352.765	71.62
352.992	82.62
353.22	85.62
353.447	70.62
353.674	80.62
353.901	81.62
354.128	82.62
354.355	60.62
354.583	65.62
354.81	89.62
355.037	77.62
355.264	77.62
355.491	89.62
355.718	68.62
355.945	82.62
356.172	72.62
356.399	85.62
356.626	83.62
356.853	79.62
357.08	62.62
357.307	85.62
357.534	79.62
357.761	76.62
357.988	93.62
358.215	77.62
358.441	75.62
358.668	98.62
358.895	91.62
359.122	83.62
359.349	82.62
359.576	84.62
359.802	89.62
360.029	77.62
360.256	87.62
360.483	83.62
360.709	76.62
360.936	88.62
361.163	82.62
361.39	78.62
361.616	66.62
361.843	79.62
362.07	77.62
362.296	86.62
362.523	82.62
362.749	83.62
362.976	77.62
363.203	93.62
363.429	94.62
363.656	84.62
363.882	96.62
364.109	87.62
364.335	69.62
364.562	72.62
364.788	63.62
365.015	72.62
365.241	81.62
365.468	89.62
365.694	94.62
365.92	89.62
366.147	68.62
366.373	87.62
366.599	70.62
366.826	86.62
367.052	85.62
367.278	85.62
367.505	84.62
367.731	81.62
367.957	84.62
368.184	80.62
368.41	84.62
368.636	75.62
368.862	91.62
369.089	87.62
369.315	91.62
369.541	81.62
369.767	72.62
369.993	84.62
370.219	79.62
370.445	87.62
370.672	73.62
370.898	87.62
371.124	88.62
371.35	83.62
371.576	100.62
371.802	82.62
372.028	93.62
372.254	80.62
372.48	79.62
372.706	92.62
372.932	78.62
373.158	82.62
373.384	86.62
373.61	90.62
373.835	88.62
374.061	80.62
374.287	88.62
374.513	93.62
374.739	96.62
374.965	87.62
375.191	90.62
375.416	90.62
375.642	92.62
375.868	97.62
376.094	94.62
376.319	102.62
376.545	92.62
376.771	84.62
376.997	97.62
377.222	84.62
377.448	94.62
377.674	92.62
377.899	92.62
378.125	99.62
378.35	89.62
378.576	95.62
378.802	91.62
379.027	94.62
379.253	97.62
379.478	92.62
379.704	92.62
379.929	112.62
380.155	87.62
380.38	90.62
380.606	90.62
380.831	92.62
381.057	93.62
381.282	87.62
381.507	91.62
381.733	84.62
381.958	102.62
382.184	85.62
382.409	108.62
382.634	97.62
382.86	99.62
383.085	108.62
383.31	92.62
383.535	84.62
383.761	84.62
383.986	87.62
384.211	104.62
384.436	100.62
384.662	112.62
384.887	94.62
385.112	101.62
385.337	89.62
385.562	98.62
385.787	91.62
386.013	97.62
386.238	99.62
386.463	101.62
386.688	99.62
386.913	97.62
387.138	103.62
387.363	115.62
387.588	108.62
387.813	112.62
388.038	103.62
388.263	98.62
388.488	96.62
388.713	87.62
388.938	103.62
389.163	98.62
389.387	93.62
389.612	98.62
389.837	95.62
390.062	112.62
390.287	107.62
390.512	119.62
390.736	98.62
390.961	106.62
391.186	91.62
391.411	86.62
391.636	123.62
391.86	109.62
392.085	107.62
392.31	95.62
392.534	105.62
392.759	98.62
392.984	98.62
393.208	104.62
393.433	103.62
393.658	106.62
393.882	94.62
394.107	107.62
394.331	100.62
394.556	104.62
394.78	109.62
395.005	102.62
395.229	119.62
395.454	105.62
395.678	110.62
395.903	119.62
396.127	98.62
396.352	111.62
396.576	103.62
396.801	111.62
397.025	110.62
397.249	99.62
397.474	115.62
397.698	99.62
397.922	119.62
398.147	113.62
398.371	105.62
398.595	109.62
398.82	109.62
399.044	94.62
399.268	117.62
399.492	104.62
399.717	109.62
399.941	111.62
400.165	107.62
400.389	107.62
400.613	115.62
400.837	118.62
401.062	107.62
401.286	105.62
401.51	115.62
401.734	114.62
401.958	129.62
402.182	109.62
402.406	105.62
402.63	109.62
402.854	122.62
403.078	114.62
403.302	121.62
403.526	111.62
403.75	123.62
403.974	122.62
404.198	117.62
404.422	123.62
404.645	127.62
404.869	115.62
405.093	109.62
405.317	113.62
405.541	116.62
405.765	119.62
405.988	127.62
406.212	115.62
406.436	116.62
406.66	121.62
406.883	120.62
407.107	111.62
407.331	119.62
407.555	132.62
407.778	99.62
408.002	118.62
408.226	115.62
408.449	103.62
408.673	120.62
408.896	135.62
409.12	113.62
409.344	121.62
409.567	104.62
409.791	133.62
410.014	117.62
410.238	118.62
410.461	129.62
410.685	120.62
410.908	124.62
411.132	114.62
411.355	126.62
411.578	121.62
411.802	115.62
412.025	115.62
412.249	116.62
412.472	121.62
412.695	113.62
412.919	112.62
413.142	118.62
413.365	117.62
413.589	120.62
413.812	126.62
414.035	128.62
414.258	138.62
414.482	111.62
414.705	123.62
414.928	116.62
415.151	122.62
415.374	118.62
415.597	131.62
415.821	120.62
416.044	134.62
416.267	127.62
416.49	131.62
416.713	130.62
416.936	133.62
417.159	122.62
417.382	113.62
417.605	121.62
417.828	122.62
418.051	130.62
418.274	118.62
418.497	120.62
418.72	123.62
418.943	135.62
419.166	141.62
419.389	137.62
419.611	129.62
419.834	127.62
420.057	129.62
420.28	132.62
420.503	125.62
420.726	132.62
420.948	126.62
421.171	150.62
421.394	138.62
421.617	149.62
421.839	132.62
422.062	125.62
422.285	131.62
422.507	139.62
422.73	140.62
422.953	141.62
423.175	142.62
423.398	127.62
423.621	147.62
423.843	120.62
424.066	147.62
424.288	148.62
424.511	147.62
424.733	131.62
424.956	147.62
425.178	141.62
425.401	149.62
425.623	142.62
425.846	137.62
426.068	125.62
426.291	123.62
426.513	142.62
426.735	145.62
426.958	135.62
427.18	129.62
427.402	133.62
427.625	134.62
427.847	125.62
428.069	139.62
428.292	127.62
428.514	118.62
428.736	129.62
428.958	126.62
429.181	140.62
429.403	131.62
429.625	121.62
429.847	131.62
430.069	143.62
430.292	144.62
430.514	132.62
430.736	133.62
430.958	132.62
431.18	107.62
431.402	119.62
431.624	109.62
431.846	111.62
432.068	93.62
432.29	105.62
432.512	112.62
432.734	125.62
432.956	127.62
433.178	136.62
433.4	144.62
433.622	142.62
433.844	144.62
434.066	124.62
434.287	104.62
434.509	94.62
434.731	99.62
434.953	109.62
435.175	115.62
435.397	127.62
435.618	110.62
435.84	111.62
436.062	116.62
436.284	123.62
436.505	119.62
436.727	136.62
436.949	119.62
437.17	140.62
437.392	127.62
437.614	119.62
437.835	102.62
438.057	109.62
438.278	111.62
438.5	132.62
438.721	117.62
438.943	135.62
439.165	140.62
439.386	147.62
439.608	147.62
439.829	142.62
440.05	155.62
440.272	156.62
440.493	151.62
440.715	150.62
440.936	160.62
441.158	144.62
441.379	140.62
441.6	142.62
441.822	162.62
442.043	162.62
442.264	126.62
442.486	148.62
442.707	124.62
442.928	145.62
443.149	134.62
443.371	138.62
443.592	131.62
443.813	154.62
444.034	130.62
444.255	136.62
444.476	127.62
444.698	133.62
444.919	157.62
445.14	245.62
445.361	206.62
445.582	163.62
445.803	144.62
446.024	158.62
446.245	161.62
446.466	153.62
446.687	162.62
446.908	149.62
447.129	141.62
447.35	156.62
447.571	154.62
447.792	134.62
448.013	137.62
448.234	134.62
448.455	141.62
448.675	129.62
448.896	136.62
449.117	145.62
449.338	132.62
449.559	150.62
449.779	147.62
450	136.62
450.221	153.62
450.442	137.62
450.662	147.62
450.883	147.62
451.104	137.62
451.324	133.62
451.545	117.62
451.766	115.62
451.986	127.62
452.207	132.62
452.428	136.62
452.648	132.62
452.869	141.62
453.089	111.62
453.31	110.62
453.53	108.62
453.751	107.62
453.971	94.62
454.192	99.62
454.412	110.62
454.633	111.62
454.853	113.62
455.073	121.62
455.294	122.62
455.514	124.62
455.734	121.62
455.955	117.62
456.175	123.62
456.395	107.62
456.616	107.62
456.836	102.62
457.056	113.62
457.276	104.62
457.497	117.62
457.717	93.62
457.937	118.62
458.157	121.62
458.377	100.62
458.598	100.62
458.818	85.62
459.038	74.62
459.258	87.62
459.478	78.62
459.698	84.62
459.918	108.62
460.138	111.62
460.358	111.62
460.578	116.62
460.798	113.62
461.018	111.62
461.238	127.62
461.458	113.62
461.678	123.62
461.898	111.62
462.118	116.62
462.338	128.62
462.558	112.62
462.777	115.62
462.997	110.62
463.217	107.62
463.437	108.62
463.657	117.62
463.876	119.62
464.096	113.62
464.316	110.62
464.536	117.62
464.755	136.62
464.975	113.62
465.195	123.62
465.414	115.62
465.634	111.62
465.854	125.62
466.073	129.62
466.293	116.62
466.512	133.62
466.732	139.62
466.951	137.62
467.171	123.62
467.391	131.62
467.61	132.62
467.829	135.62
468.049	149.62
468.268	130.62
468.488	140.62
468.707	141.62
468.927	138.62
469.146	140.62
469.365	149.62
469.585	160.62
469.804	150.62
470.023	155.62
470.243	151.62
470.462	134.62
470.681	152.62
470.901	140.62
471.12	146.62
471.339	163.62
471.558	151.62
471.777	151.62
471.997	148.62
472.216	128.62
472.435	132.62
472.654	101.62
472.873	111.62
473.092	117.62
473.311	109.62
473.53	122.62
473.749	139.62
473.968	134.62
474.187	101.62
474.406	113.62
474.625	116.62
474.844	133.62
475.063	128.62
475.282	113.62
475.501	117.62
475.72	119.62
475.939	131.62
476.158	119.62
476.377	116.62
476.596	130.62
476.814	112.62
477.033	104.62
477.252	126.62
477.471	143.62
477.69	138.62
477.908	134.62
478.127	136.62
478.346	132.62
478.564	144.62
478.783	132.62
479.002	143.62
479.22	131.62
479.439	138.62
479.658	120.62
479.876	121.62
480.095	99.62
480.313	112.62
480.532	131.62
480.751	135.62
480.969	111.62
481.188	88.62
481.406	89.62
481.624	74.62
481.843	100.62
482.061	96.62
482.28	121.62
482.498	101.62
482.717	113.62
482.935	118.62
483.153	139.62
483.372	150.62
483.59	159.62
483.808	163.62
484.027	139.62
484.245	149.62
484.463	158.62
484.681	169.62
484.9	145.62
485.118	158.62
485.336	129.62
485.554	119.62
485.772	112.62
485.99	107.62
486.209	111.62
486.427	102.62
486.645	114.62
486.863	146.62
487.081	127.62
487.299	128.62
487.517	144.62
487.735	175.62
487.953	198.62
488.171	180.62
488.389	173.62
488.607	180.62
488.825	143.62
489.043	130.62
489.261	125.62
489.479	145.62
489.696	147.62
489.914	145.62
490.132	146.62
490.35	151.62
490.568	175.62
490.786	182.62
491.003	180.62
491.221	169.62
491.439	187.62
491.657	201.62
491.874	203.62
492.092	236.62
492.31	260.62
492.527	252.62
492.745	220.62
492.963	202.62
493.18	180.62
493.398	190.62
493.615	195.62
493.833	191.62
494.05	181.62
494.268	161.62
494.485	188.62
494.703	172.62
494.92	185.62
495.138	177.62
495.355	192.62
495.573	168.62
495.79	183.62
496.008	169.62
496.225	176.62
496.442	160.62
496.66	168.62
496.877	187.62
497.094	180.62
497.312	179.62
497.529	159.62
497.746	165.62
497.963	123.62
498.181	126.62
498.398	119.62
498.615	124.62
498.832	124.62
499.049	116.62
499.267	127.62
499.484	141.62
499.701	129.62
499.918	144.62
500.135	136.62
500.352	153.62
500.569	143.62
500.786	136.62
501.003	137.62
501.22	136.62
501.437	135.62
501.654	133.62
501.871	144.62
502.088	136.62
502.305	119.62
502.522	128.62
502.739	127.62
502.956	114.62
503.172	137.62
503.389	138.62
503.606	120.62
503.823	127.62
504.04	123.62
504.256	112.62
504.473	118.62
504.69	120.62
504.907	128.62
505.123	117.62
505.34	125.62
505.557	117.62
505.773	136.62
505.99	132.62
506.207	128.62
506.423	128.62
506.64	126.62
506.856	123.62
507.073	126.62
507.289	132.62
507.506	125.62
507.722	124.62
507.939	124.62
508.155	112.62
508.372	109.62
508.588	95.62
508.805	107.62
509.021	107.62
509.238	91.62
509.454	94.62
509.67	94.62
509.887	99.62
510.103	104.62
510.319	87.62
510.536	83.62
510.752	100.62
510.968	73.62
511.184	73.62
511.401	73.62
511.617	83.62
511.833	78.62
