Data from Location6.07152019.Energy5.Lamp.07192019.3%Agarose_HRD10591_16-13-34-395.txt Node
Date: Fri Jul 19 16:13:34 EDT 2019
User: cochatt
Spectrometer: HR+D1059
Trigger mode: 1
Integration Time (sec): 1.000000E-1
Scans to average: 1
Electric dark correction enabled: true
Nonlinearity correction enabled: false
Boxcar width: 0
XAxis mode: Wavelengths
Number of Pixels in Spectrum: 2048
>>>>>Begin Spectral Data<<<<<
223.165	-17.75
223.4	-17.75
223.635	-17.75
223.869	-4.75
224.104	-14.75
224.338	-27.75
224.573	-16.75
224.808	-13.75
225.042	-1.75
225.277	-14.75
225.511	2.25
225.746	-5.75
225.98	16.25
226.215	16.25
226.449	28.25
226.683	16.25
226.918	18.25
227.152	20.25
227.387	29.25
227.621	44.25
227.856	48.25
228.09	40.25
228.324	64.25
228.559	58.25
228.793	59.25
229.027	59.25
229.262	59.25
229.496	71.25
229.73	66.25
229.964	61.25
230.199	65.25
230.433	69.25
230.667	72.25
230.901	86.25
231.136	87.25
231.37	87.25
231.604	86.25
231.838	78.25
232.072	81.25
232.306	85.25
232.541	77.25
232.775	88.25
233.009	88.25
233.243	68.25
233.477	87.25
233.711	74.25
233.945	82.25
234.179	89.25
234.413	79.25
234.647	73.25
234.881	93.25
235.115	83.25
235.349	84.25
235.583	68.25
235.817	74.25
236.051	73.25
236.285	71.25
236.519	74.25
236.753	80.25
236.987	85.25
237.221	74.25
237.455	78.25
237.689	84.25
237.922	77.25
238.156	62.25
238.39	70.25
238.624	82.25
238.858	76.25
239.091	83.25
239.325	83.25
239.559	81.25
239.793	79.25
240.027	75.25
240.26	70.25
240.494	86.25
240.728	73.25
240.961	86.25
241.195	73.25
241.429	77.25
241.662	70.25
241.896	72.25
242.13	90.25
242.363	75.25
242.597	81.25
242.83	72.25
243.064	86.25
243.298	76.25
243.531	88.25
243.765	75.25
243.998	78.25
244.232	98.25
244.465	84.25
244.699	74.25
244.932	61.25
245.166	73.25
245.399	71.25
245.633	73.25
245.866	68.25
246.099	70.25
246.333	88.25
246.566	73.25
246.8	73.25
247.033	87.25
247.266	89.25
247.5	73.25
247.733	79.25
247.966	79.25
248.2	72.25
248.433	76.25
248.666	74.25
248.899	78.25
249.133	91.25
249.366	80.25
249.599	89.25
249.832	82.25
250.066	93.25
250.299	85.25
250.532	74.25
250.765	80.25
250.998	72.25
251.231	62.25
251.465	67.25
251.698	69.25
251.931	75.25
252.164	66.25
252.397	78.25
252.63	85.25
252.863	70.25
253.096	83.25
253.329	97.25
253.562	80.25
253.795	89.25
254.028	83.25
254.261	76.25
254.494	81.25
254.727	80.25
254.96	75.25
255.193	81.25
255.426	78.25
255.659	82.25
255.892	86.25
256.124	79.25
256.357	85.25
256.59	88.25
256.823	81.25
257.056	80.25
257.289	97.25
257.521	82.25
257.754	72.25
257.987	79.25
258.22	78.25
258.452	68.25
258.685	74.25
258.918	85.25
259.151	90.25
259.383	87.25
259.616	73.25
259.849	84.25
260.081	80.25
260.314	89.25
260.547	78.25
260.779	71.25
261.012	75.25
261.244	86.25
261.477	80.25
261.71	67.25
261.942	83.25
262.175	83.25
262.407	81.25
262.64	68.25
262.872	80.25
263.105	81.25
263.337	85.25
263.57	87.25
263.802	76.25
264.035	74.25
264.267	72.25
264.499	64.25
264.732	69.25
264.964	93.25
265.197	89.25
265.429	78.25
265.661	91.25
265.894	92.25
266.126	75.25
266.358	86.25
266.591	72.25
266.823	70.25
267.055	80.25
267.287	82.25
267.52	83.25
267.752	73.25
267.984	72.25
268.216	76.25
268.448	79.25
268.681	81.25
268.913	79.25
269.145	98.25
269.377	80.25
269.609	83.25
269.841	86.25
270.073	91.25
270.306	71.25
270.538	91.25
270.77	71.25
271.002	70.25
271.234	73.25
271.466	86.25
271.698	78.25
271.93	83.25
272.162	82.25
272.394	87.25
272.626	78.25
272.858	87.25
273.09	76.25
273.322	80.25
273.553	57.25
273.785	83.25
274.017	84.25
274.249	95.25
274.481	88.25
274.713	76.25
274.945	66.25
275.176	77.25
275.408	81.25
275.64	76.25
275.872	96.25
276.104	81.25
276.335	72.25
276.567	72.25
276.799	94.25
277.031	76.25
277.262	71.25
277.494	80.25
277.726	85.25
277.957	79.25
278.189	83.25
278.421	85.25
278.652	62.25
278.884	73.25
279.115	90.25
279.347	79.25
279.579	76.25
279.81	94.25
280.042	75.25
280.273	87.25
280.505	91.25
280.736	90.25
280.968	92.25
281.199	85.25
281.431	74.25
281.662	84.25
281.894	88.25
282.125	78.25
282.356	80.25
282.588	74.25
282.819	93.25
283.051	76.25
283.282	77.25
283.513	75.25
283.745	85.25
283.976	82.25
284.207	85.25
284.439	87.25
284.67	91.25
284.901	75.25
285.132	80.25
285.364	82.25
285.595	78.25
285.826	88.25
286.057	96.25
286.288	91.25
286.52	92.25
286.751	96.25
286.982	66.25
287.213	64.25
287.444	82.25
287.675	96.25
287.906	72.25
288.138	90.25
288.369	87.25
288.6	77.25
288.831	85.25
289.062	82.25
289.293	84.25
289.524	84.25
289.755	80.25
289.986	83.25
290.217	84.25
290.448	81.25
290.679	80.25
290.91	86.25
291.141	105.25
291.371	76.25
291.602	86.25
291.833	85.25
292.064	75.25
292.295	88.25
292.526	84.25
292.757	76.25
292.987	88.25
293.218	87.25
293.449	67.25
293.68	81.25
293.91	84.25
294.141	83.25
294.372	94.25
294.603	70.25
294.833	77.25
295.064	76.25
295.295	85.25
295.525	76.25
295.756	86.25
295.987	82.25
296.217	93.25
296.448	83.25
296.679	83.25
296.909	80.25
297.14	96.25
297.37	90.25
297.601	86.25
297.831	71.25
298.062	91.25
298.292	88.25
298.523	99.25
298.753	71.25
298.984	89.25
299.214	89.25
299.445	92.25
299.675	84.25
299.905	87.25
300.136	69.25
300.366	78.25
300.597	89.25
300.827	76.25
301.057	95.25
301.288	91.25
301.518	66.25
301.748	91.25
301.979	89.25
302.209	82.25
302.439	85.25
302.669	80.25
302.9	86.25
303.13	94.25
303.36	74.25
303.59	70.25
303.82	79.25
304.051	75.25
304.281	96.25
304.511	77.25
304.741	93.25
304.971	91.25
305.201	69.25
305.431	82.25
305.661	77.25
305.891	80.25
306.121	88.25
306.352	95.25
306.582	83.25
306.812	95.25
307.042	82.25
307.272	78.25
307.502	89.25
307.731	91.25
307.961	63.25
308.191	81.25
308.421	90.25
308.651	72.25
308.881	73.25
309.111	71.25
309.341	94.25
309.571	84.25
309.8	81.25
310.03	84.25
310.26	91.25
310.49	76.25
310.72	94.25
310.949	86.25
311.179	80.25
311.409	83.25
311.639	97.25
311.868	80.25
312.098	63.25
312.328	84.25
312.557	75.25
312.787	80.25
313.017	72.25
313.246	91.25
313.476	88.25
313.706	87.25
313.935	86.25
314.165	77.25
314.394	76.25
314.624	78.25
314.853	85.25
315.083	83.25
315.312	103.25
315.542	79.25
315.771	85.25
316.001	86.25
316.23	74.25
316.46	98.25
316.689	80.25
316.919	93.25
317.148	87.25
317.377	99.25
317.607	97.25
317.836	92.25
318.065	73.25
318.295	82.25
318.524	84.25
318.753	90.25
318.983	83.25
319.212	75.25
319.441	86.25
319.67	81.25
319.9	81.25
320.129	73.25
320.358	97.25
320.587	87.25
320.816	83.25
321.046	73.25
321.275	79.25
321.504	74.25
321.733	91.25
321.962	78.25
322.191	84.25
322.42	79.25
322.649	81.25
322.878	86.25
323.108	94.25
323.337	82.25
323.566	67.25
323.795	92.25
324.024	94.25
324.253	82.25
324.482	86.25
324.71	86.25
324.939	87.25
325.168	92.25
325.397	98.25
325.626	75.25
325.855	66.25
326.084	75.25
326.313	82.25
326.542	86.25
326.77	87.25
326.999	90.25
327.228	77.25
327.457	87.25
327.686	86.25
327.914	82.25
328.143	86.25
328.372	75.25
328.6	71.25
328.829	81.25
329.058	71.25
329.287	82.25
329.515	90.25
329.744	87.25
329.972	96.25
330.201	87.25
330.43	81.25
330.658	97.25
330.887	78.25
331.115	91.25
331.344	82.25
331.572	76.25
331.801	80.25
332.03	80.25
332.258	80.25
332.486	84.25
332.715	83.25
332.943	82.25
333.172	82.25
333.4	72.25
333.629	75.25
333.857	74.25
334.085	83.25
334.314	89.25
334.542	87.25
334.771	92.25
334.999	88.25
335.227	92.25
335.455	73.25
335.684	93.25
335.912	89.25
336.14	81.25
336.369	84.25
336.597	78.25
336.825	74.25
337.053	80.25
337.281	88.25
337.51	84.25
337.738	66.25
337.966	78.25
338.194	76.25
338.422	78.25
338.65	88.25
338.878	90.25
339.106	90.25
339.334	76.25
339.562	76.25
339.79	84.25
340.018	69.25
340.246	89.25
340.474	88.25
340.702	74.25
340.93	72.25
341.158	84.25
341.386	91.25
341.614	75.25
341.842	76.25
342.07	84.25
342.298	79.25
342.526	80.25
342.754	84.25
342.981	85.25
343.209	97.25
343.437	88.25
343.665	82.25
343.893	87.25
344.12	90.25
344.348	91.25
344.576	84.25
344.804	73.25
345.031	84.25
345.259	90.25
345.487	81.25
345.714	85.25
345.942	84.25
346.17	81.25
346.397	88.25
346.625	75.25
346.853	99.25
347.08	75.25
347.308	97.25
347.535	73.25
347.763	87.25
347.99	88.25
348.218	80.25
348.445	83.25
348.673	86.25
348.9	82.25
349.128	93.25
349.355	74.25
349.583	80.25
349.81	84.25
350.037	97.25
350.265	94.25
350.492	70.25
350.72	80.25
350.947	93.25
351.174	98.25
351.402	72.25
351.629	75.25
351.856	69.25
352.083	80.25
352.311	91.25
352.538	79.25
352.765	86.25
352.992	88.25
353.22	89.25
353.447	75.25
353.674	94.25
353.901	83.25
354.128	80.25
354.355	78.25
354.583	88.25
354.81	89.25
355.037	91.25
355.264	80.25
355.491	76.25
355.718	75.25
355.945	80.25
356.172	73.25
356.399	82.25
356.626	73.25
356.853	84.25
357.08	67.25
357.307	79.25
357.534	82.25
357.761	81.25
357.988	83.25
358.215	91.25
358.441	76.25
358.668	80.25
358.895	76.25
359.122	94.25
359.349	90.25
359.576	74.25
359.802	91.25
360.029	81.25
360.256	65.25
360.483	78.25
360.709	82.25
360.936	99.25
361.163	78.25
361.39	79.25
361.616	75.25
361.843	80.25
362.07	82.25
362.296	90.25
362.523	76.25
362.749	85.25
362.976	91.25
363.203	74.25
363.429	87.25
363.656	87.25
363.882	70.25
364.109	76.25
364.335	85.25
364.562	99.25
364.788	80.25
365.015	79.25
365.241	75.25
365.468	93.25
365.694	85.25
365.92	98.25
366.147	82.25
366.373	90.25
366.599	77.25
366.826	90.25
367.052	86.25
367.278	78.25
367.505	91.25
367.731	98.25
367.957	82.25
368.184	77.25
368.41	94.25
368.636	81.25
368.862	92.25
369.089	92.25
369.315	77.25
369.541	104.25
369.767	103.25
369.993	93.25
370.219	88.25
370.445	82.25
370.672	94.25
370.898	85.25
371.124	78.25
371.35	85.25
371.576	89.25
371.802	90.25
372.028	90.25
372.254	95.25
372.48	102.25
372.706	95.25
372.932	90.25
373.158	96.25
373.384	88.25
373.61	103.25
373.835	86.25
374.061	93.25
374.287	93.25
374.513	99.25
374.739	86.25
374.965	98.25
375.191	99.25
375.416	85.25
375.642	90.25
375.868	100.25
376.094	88.25
376.319	99.25
376.545	96.25
376.771	95.25
376.997	76.25
377.222	100.25
377.448	98.25
377.674	99.25
377.899	107.25
378.125	90.25
378.35	95.25
378.576	86.25
378.802	102.25
379.027	89.25
379.253	88.25
379.478	95.25
379.704	86.25
379.929	87.25
380.155	91.25
380.38	96.25
380.606	89.25
380.831	98.25
381.057	111.25
381.282	84.25
381.507	93.25
381.733	100.25
381.958	91.25
382.184	106.25
382.409	98.25
382.634	100.25
382.86	94.25
383.085	89.25
383.31	100.25
383.535	95.25
383.761	100.25
383.986	101.25
384.211	82.25
384.436	105.25
384.662	97.25
384.887	100.25
385.112	91.25
385.337	82.25
385.562	108.25
385.787	90.25
386.013	122.25
386.238	102.25
386.463	98.25
386.688	95.25
386.913	90.25
387.138	84.25
387.363	95.25
387.588	98.25
387.813	89.25
388.038	101.25
388.263	107.25
388.488	95.25
388.713	106.25
388.938	90.25
389.163	110.25
389.387	102.25
389.612	114.25
389.837	106.25
390.062	97.25
390.287	114.25
390.512	96.25
390.736	114.25
390.961	109.25
391.186	92.25
391.411	99.25
391.636	111.25
391.86	112.25
392.085	120.25
392.31	111.25
392.534	103.25
392.759	96.25
392.984	107.25
393.208	111.25
393.433	97.25
393.658	115.25
393.882	105.25
394.107	109.25
394.331	122.25
394.556	110.25
394.78	114.25
395.005	101.25
395.229	108.25
395.454	120.25
395.678	106.25
395.903	100.25
396.127	99.25
396.352	109.25
396.576	116.25
396.801	112.25
397.025	102.25
397.249	126.25
397.474	121.25
397.698	124.25
397.922	113.25
398.147	103.25
398.371	116.25
398.595	118.25
398.82	110.25
399.044	114.25
399.268	103.25
399.492	110.25
399.717	110.25
399.941	115.25
400.165	114.25
400.389	108.25
400.613	121.25
400.837	123.25
401.062	120.25
401.286	102.25
401.51	115.25
401.734	110.25
401.958	118.25
402.182	115.25
402.406	98.25
402.63	105.25
402.854	107.25
403.078	104.25
403.302	114.25
403.526	130.25
403.75	116.25
403.974	120.25
404.198	120.25
404.422	121.25
404.645	115.25
404.869	112.25
405.093	121.25
405.317	122.25
405.541	128.25
405.765	118.25
405.988	125.25
406.212	122.25
406.436	122.25
406.66	125.25
406.883	114.25
407.107	114.25
407.331	113.25
407.555	131.25
407.778	122.25
408.002	115.25
408.226	130.25
408.449	123.25
408.673	131.25
408.896	120.25
409.12	115.25
409.344	118.25
409.567	114.25
409.791	138.25
410.014	135.25
410.238	124.25
410.461	130.25
410.685	130.25
410.908	113.25
411.132	142.25
411.355	141.25
411.578	113.25
411.802	134.25
412.025	116.25
412.249	121.25
412.472	125.25
412.695	113.25
412.919	135.25
413.142	130.25
413.365	120.25
413.589	120.25
413.812	127.25
414.035	122.25
414.258	123.25
414.482	122.25
414.705	144.25
414.928	126.25
415.151	135.25
415.374	120.25
415.597	143.25
415.821	123.25
416.044	119.25
416.267	122.25
416.49	126.25
416.713	128.25
416.936	132.25
417.159	142.25
417.382	137.25
417.605	119.25
417.828	118.25
418.051	135.25
418.274	138.25
418.497	141.25
418.72	139.25
418.943	126.25
419.166	151.25
419.389	146.25
419.611	147.25
419.834	122.25
420.057	124.25
420.28	147.25
420.503	148.25
420.726	136.25
420.948	132.25
421.171	123.25
421.394	126.25
421.617	160.25
421.839	141.25
422.062	148.25
422.285	126.25
422.507	131.25
422.73	145.25
422.953	134.25
423.175	137.25
423.398	129.25
423.621	144.25
423.843	121.25
424.066	132.25
424.288	140.25
424.511	155.25
424.733	144.25
424.956	144.25
425.178	125.25
425.401	136.25
425.623	147.25
425.846	139.25
426.068	145.25
426.291	142.25
426.513	143.25
426.735	123.25
426.958	138.25
427.18	127.25
427.402	121.25
427.625	115.25
427.847	140.25
428.069	138.25
428.292	135.25
428.514	129.25
428.736	140.25
428.958	139.25
429.181	136.25
429.403	139.25
429.625	123.25
429.847	127.25
430.069	134.25
430.292	141.25
430.514	125.25
430.736	122.25
430.958	131.25
431.18	119.25
431.402	115.25
431.624	121.25
431.846	108.25
432.068	104.25
432.29	103.25
432.512	111.25
432.734	120.25
432.956	134.25
433.178	148.25
433.4	149.25
433.622	138.25
433.844	130.25
434.066	131.25
434.287	97.25
434.509	99.25
434.731	91.25
434.953	105.25
435.175	125.25
435.397	120.25
435.618	112.25
435.84	128.25
436.062	126.25
436.284	130.25
436.505	129.25
436.727	152.25
436.949	140.25
437.17	129.25
437.392	128.25
437.614	121.25
437.835	94.25
438.057	106.25
438.278	112.25
438.5	134.25
438.721	145.25
438.943	134.25
439.165	141.25
439.386	151.25
439.608	148.25
439.829	146.25
440.05	147.25
440.272	157.25
440.493	146.25
440.715	148.25
440.936	146.25
441.158	153.25
441.379	144.25
441.6	162.25
441.822	153.25
442.043	142.25
442.264	132.25
442.486	134.25
442.707	143.25
442.928	158.25
443.149	141.25
443.371	139.25
443.592	150.25
443.813	147.25
444.034	141.25
444.255	142.25
444.476	124.25
444.698	140.25
444.919	155.25
445.14	278.25
445.361	198.25
445.582	155.25
445.803	141.25
446.024	162.25
446.245	175.25
446.466	144.25
446.687	155.25
446.908	174.25
447.129	170.25
447.35	158.25
447.571	154.25
447.792	154.25
448.013	138.25
448.234	142.25
448.455	149.25
448.675	148.25
448.896	145.25
449.117	143.25
449.338	138.25
449.559	138.25
449.779	150.25
450	144.25
450.221	132.25
450.442	147.25
450.662	150.25
450.883	128.25
451.104	133.25
451.324	126.25
451.545	122.25
451.766	136.25
451.986	133.25
452.207	125.25
452.428	125.25
452.648	122.25
452.869	118.25
453.089	118.25
453.31	111.25
453.53	114.25
453.751	107.25
453.971	106.25
454.192	110.25
454.412	100.25
454.633	126.25
454.853	138.25
455.073	113.25
455.294	126.25
455.514	127.25
455.734	135.25
455.955	116.25
456.175	106.25
456.395	114.25
456.616	100.25
456.836	110.25
457.056	118.25
457.276	107.25
457.497	117.25
457.717	110.25
457.937	126.25
458.157	105.25
458.377	114.25
458.598	100.25
458.818	95.25
459.038	88.25
459.258	97.25
459.478	76.25
459.698	76.25
459.918	112.25
460.138	115.25
460.358	123.25
460.578	128.25
460.798	116.25
461.018	100.25
461.238	122.25
461.458	125.25
461.678	87.25
461.898	110.25
462.118	123.25
462.338	126.25
462.558	135.25
462.777	119.25
462.997	97.25
463.217	103.25
463.437	112.25
463.657	106.25
463.876	112.25
464.096	100.25
464.316	114.25
464.536	102.25
464.755	110.25
464.975	141.25
465.195	129.25
465.414	116.25
465.634	136.25
465.854	134.25
466.073	113.25
466.293	134.25
466.512	132.25
466.732	124.25
466.951	134.25
467.171	140.25
467.391	140.25
467.61	144.25
467.829	138.25
468.049	144.25
468.268	139.25
468.488	134.25
468.707	154.25
468.927	157.25
469.146	140.25
469.365	135.25
469.585	140.25
469.804	138.25
470.023	164.25
470.243	144.25
470.462	132.25
470.681	160.25
470.901	148.25
471.12	150.25
471.339	143.25
471.558	139.25
471.777	128.25
471.997	145.25
472.216	135.25
472.435	113.25
472.654	118.25
472.873	122.25
473.092	106.25
473.311	126.25
473.53	132.25
473.749	135.25
473.968	138.25
474.187	130.25
474.406	124.25
474.625	136.25
474.844	131.25
475.063	129.25
475.282	125.25
475.501	119.25
475.72	132.25
475.939	132.25
476.158	130.25
476.377	123.25
476.596	126.25
476.814	107.25
477.033	114.25
477.252	116.25
477.471	134.25
477.69	145.25
477.908	144.25
478.127	146.25
478.346	144.25
478.564	153.25
478.783	132.25
479.002	155.25
479.22	142.25
479.439	134.25
479.658	128.25
479.876	134.25
480.095	116.25
480.313	121.25
480.532	132.25
480.751	102.25
480.969	102.25
481.188	95.25
481.406	76.25
481.624	79.25
481.843	91.25
482.061	99.25
482.28	104.25
482.498	118.25
482.717	97.25
482.935	120.25
483.153	144.25
483.372	163.25
483.59	165.25
483.808	139.25
484.027	134.25
484.245	132.25
484.463	160.25
484.681	171.25
484.9	153.25
485.118	150.25
485.336	145.25
485.554	112.25
485.772	98.25
485.99	110.25
486.209	102.25
486.427	126.25
486.645	130.25
486.863	130.25
487.081	148.25
487.299	138.25
487.517	139.25
487.735	182.25
487.953	202.25
488.171	186.25
488.389	180.25
488.607	171.25
488.825	147.25
489.043	140.25
489.261	133.25
489.479	131.25
489.696	159.25
489.914	140.25
490.132	137.25
490.35	156.25
490.568	166.25
490.786	167.25
491.003	184.25
491.221	178.25
491.439	185.25
491.657	191.25
491.874	220.25
492.092	254.25
492.31	266.25
492.527	245.25
492.745	209.25
492.963	210.25
493.18	193.25
493.398	188.25
493.615	194.25
493.833	182.25
494.05	172.25
494.268	171.25
494.485	166.25
494.703	197.25
494.92	187.25
495.138	182.25
495.355	178.25
495.573	181.25
495.79	184.25
496.008	167.25
496.225	170.25
496.442	180.25
496.66	169.25
496.877	155.25
497.094	188.25
497.312	171.25
497.529	170.25
497.746	152.25
497.963	134.25
498.181	121.25
498.398	121.25
498.615	127.25
498.832	114.25
499.049	124.25
499.267	118.25
499.484	135.25
499.701	140.25
499.918	120.25
500.135	139.25
500.352	141.25
500.569	147.25
500.786	152.25
501.003	139.25
501.22	146.25
501.437	127.25
501.654	136.25
501.871	129.25
502.088	125.25
502.305	146.25
502.522	146.25
502.739	138.25
502.956	135.25
503.172	131.25
503.389	119.25
503.606	123.25
503.823	134.25
504.04	125.25
504.256	116.25
504.473	106.25
504.69	116.25
504.907	122.25
505.123	130.25
505.34	123.25
505.557	110.25
505.773	124.25
505.99	124.25
506.207	145.25
506.423	134.25
506.64	124.25
506.856	116.25
507.073	104.25
507.289	132.25
507.506	117.25
507.722	118.25
507.939	119.25
508.155	114.25
508.372	123.25
508.588	110.25
508.805	106.25
509.021	114.25
509.238	97.25
509.454	101.25
509.67	86.25
509.887	95.25
510.103	106.25
510.319	81.25
510.536	98.25
510.752	88.25
510.968	81.25
511.184	66.25
511.401	81.25
511.617	89.25
