Data from Location6.07152019.Energy5.Lamp.07192019.3%Agarose_HRD10591_16-13-07-395.txt Node
Date: Fri Jul 19 16:13:07 EDT 2019
User: cochatt
Spectrometer: HR+D1059
Trigger mode: 1
Integration Time (sec): 1.000000E-1
Scans to average: 1
Electric dark correction enabled: true
Nonlinearity correction enabled: false
Boxcar width: 0
XAxis mode: Wavelengths
Number of Pixels in Spectrum: 2048
>>>>>Begin Spectral Data<<<<<
223.165	-19.88
223.4	-19.88
223.635	-19.88
223.869	-19.88
224.104	-20.88
224.338	2.12
224.573	-16.88
224.808	-19.88
225.042	-8.88
225.277	-10.88
225.511	-15.88
225.746	12.12
225.98	8.12
226.215	2.12
226.449	25.12
226.683	31.12
226.918	23.12
227.152	29.12
227.387	20.12
227.621	41.12
227.856	35.12
228.09	55.12
228.324	55.12
228.559	63.12
228.793	53.12
229.027	64.12
229.262	64.12
229.496	73.12
229.73	81.12
229.964	67.12
230.199	68.12
230.433	66.12
230.667	71.12
230.901	74.12
231.136	80.12
231.37	83.12
231.604	72.12
231.838	83.12
232.072	90.12
232.306	89.12
232.541	90.12
232.775	76.12
233.009	79.12
233.243	71.12
233.477	86.12
233.711	76.12
233.945	87.12
234.179	81.12
234.413	75.12
234.647	82.12
234.881	91.12
235.115	85.12
235.349	75.12
235.583	67.12
235.817	86.12
236.051	80.12
236.285	76.12
236.519	82.12
236.753	84.12
236.987	86.12
237.221	71.12
237.455	85.12
237.689	70.12
237.922	85.12
238.156	83.12
238.39	76.12
238.624	69.12
238.858	74.12
239.091	89.12
239.325	76.12
239.559	80.12
239.793	76.12
240.027	81.12
240.26	77.12
240.494	80.12
240.728	76.12
240.961	71.12
241.195	75.12
241.429	69.12
241.662	77.12
241.896	85.12
242.13	72.12
242.363	80.12
242.597	76.12
242.83	81.12
243.064	83.12
243.298	76.12
243.531	85.12
243.765	79.12
243.998	81.12
244.232	83.12
244.465	75.12
244.699	68.12
244.932	77.12
245.166	93.12
245.399	86.12
245.633	92.12
245.866	86.12
246.099	86.12
246.333	84.12
246.566	69.12
246.8	90.12
247.033	78.12
247.266	83.12
247.5	79.12
247.733	78.12
247.966	91.12
248.2	72.12
248.433	78.12
248.666	72.12
248.899	85.12
249.133	71.12
249.366	89.12
249.599	83.12
249.832	90.12
250.066	81.12
250.299	74.12
250.532	72.12
250.765	82.12
250.998	77.12
251.231	70.12
251.465	80.12
251.698	83.12
251.931	74.12
252.164	83.12
252.397	89.12
252.63	68.12
252.863	72.12
253.096	91.12
253.329	76.12
253.562	82.12
253.795	77.12
254.028	86.12
254.261	90.12
254.494	83.12
254.727	88.12
254.96	80.12
255.193	57.12
255.426	65.12
255.659	62.12
255.892	92.12
256.124	77.12
256.357	69.12
256.59	86.12
256.823	80.12
257.056	78.12
257.289	79.12
257.521	77.12
257.754	83.12
257.987	90.12
258.22	75.12
258.452	82.12
258.685	87.12
258.918	78.12
259.151	77.12
259.383	73.12
259.616	99.12
259.849	93.12
260.081	76.12
260.314	92.12
260.547	80.12
260.779	89.12
261.012	81.12
261.244	88.12
261.477	72.12
261.71	79.12
261.942	81.12
262.175	79.12
262.407	73.12
262.64	88.12
262.872	94.12
263.105	85.12
263.337	70.12
263.57	82.12
263.802	75.12
264.035	94.12
264.267	86.12
264.499	82.12
264.732	85.12
264.964	98.12
265.197	82.12
265.429	80.12
265.661	70.12
265.894	82.12
266.126	86.12
266.358	82.12
266.591	85.12
266.823	92.12
267.055	87.12
267.287	79.12
267.52	73.12
267.752	71.12
267.984	72.12
268.216	86.12
268.448	84.12
268.681	85.12
268.913	82.12
269.145	92.12
269.377	77.12
269.609	83.12
269.841	93.12
270.073	77.12
270.306	71.12
270.538	97.12
270.77	92.12
271.002	72.12
271.234	75.12
271.466	96.12
271.698	71.12
271.93	87.12
272.162	79.12
272.394	78.12
272.626	78.12
272.858	84.12
273.09	81.12
273.322	82.12
273.553	78.12
273.785	80.12
274.017	88.12
274.249	77.12
274.481	77.12
274.713	80.12
274.945	95.12
275.176	87.12
275.408	93.12
275.64	75.12
275.872	91.12
276.104	76.12
276.335	82.12
276.567	87.12
276.799	86.12
277.031	91.12
277.262	88.12
277.494	99.12
277.726	90.12
277.957	94.12
278.189	81.12
278.421	76.12
278.652	79.12
278.884	75.12
279.115	92.12
279.347	90.12
279.579	85.12
279.81	88.12
280.042	83.12
280.273	77.12
280.505	95.12
280.736	78.12
280.968	79.12
281.199	85.12
281.431	91.12
281.662	95.12
281.894	80.12
282.125	84.12
282.356	83.12
282.588	88.12
282.819	85.12
283.051	76.12
283.282	94.12
283.513	84.12
283.745	86.12
283.976	77.12
284.207	95.12
284.439	88.12
284.67	78.12
284.901	66.12
285.132	96.12
285.364	69.12
285.595	81.12
285.826	85.12
286.057	82.12
286.288	77.12
286.52	94.12
286.751	79.12
286.982	86.12
287.213	84.12
287.444	89.12
287.675	70.12
287.906	85.12
288.138	89.12
288.369	87.12
288.6	84.12
288.831	87.12
289.062	79.12
289.293	80.12
289.524	78.12
289.755	85.12
289.986	76.12
290.217	69.12
290.448	77.12
290.679	88.12
290.91	76.12
291.141	82.12
291.371	95.12
291.602	85.12
291.833	93.12
292.064	77.12
292.295	86.12
292.526	106.12
292.757	85.12
292.987	83.12
293.218	86.12
293.449	79.12
293.68	88.12
293.91	89.12
294.141	97.12
294.372	89.12
294.603	101.12
294.833	82.12
295.064	93.12
295.295	93.12
295.525	81.12
295.756	97.12
295.987	93.12
296.217	92.12
296.448	89.12
296.679	83.12
296.909	77.12
297.14	93.12
297.37	98.12
297.601	83.12
297.831	84.12
298.062	91.12
298.292	87.12
298.523	92.12
298.753	89.12
298.984	84.12
299.214	79.12
299.445	85.12
299.675	74.12
299.905	76.12
300.136	98.12
300.366	87.12
300.597	83.12
300.827	87.12
301.057	81.12
301.288	88.12
301.518	87.12
301.748	89.12
301.979	77.12
302.209	75.12
302.439	78.12
302.669	78.12
302.9	96.12
303.13	81.12
303.36	83.12
303.59	87.12
303.82	88.12
304.051	89.12
304.281	99.12
304.511	85.12
304.741	89.12
304.971	80.12
305.201	95.12
305.431	89.12
305.661	97.12
305.891	75.12
306.121	83.12
306.352	91.12
306.582	89.12
306.812	88.12
307.042	90.12
307.272	90.12
307.502	85.12
307.731	88.12
307.961	67.12
308.191	80.12
308.421	92.12
308.651	91.12
308.881	77.12
309.111	97.12
309.341	96.12
309.571	81.12
309.8	83.12
310.03	75.12
310.26	91.12
310.49	98.12
310.72	80.12
310.949	88.12
311.179	95.12
311.409	86.12
311.639	89.12
311.868	90.12
312.098	70.12
312.328	84.12
312.557	70.12
312.787	87.12
313.017	77.12
313.246	83.12
313.476	90.12
313.706	85.12
313.935	77.12
314.165	79.12
314.394	79.12
314.624	97.12
314.853	79.12
315.083	80.12
315.312	75.12
315.542	68.12
315.771	83.12
316.001	80.12
316.23	88.12
316.46	79.12
316.689	83.12
316.919	83.12
317.148	88.12
317.377	84.12
317.607	90.12
317.836	84.12
318.065	79.12
318.295	86.12
318.524	98.12
318.753	99.12
318.983	89.12
319.212	78.12
319.441	91.12
319.67	65.12
319.9	75.12
320.129	78.12
320.358	85.12
320.587	81.12
320.816	89.12
321.046	96.12
321.275	77.12
321.504	84.12
321.733	91.12
321.962	78.12
322.191	83.12
322.42	85.12
322.649	91.12
322.878	91.12
323.108	83.12
323.337	78.12
323.566	78.12
323.795	84.12
324.024	95.12
324.253	92.12
324.482	85.12
324.71	77.12
324.939	97.12
325.168	103.12
325.397	95.12
325.626	92.12
325.855	82.12
326.084	90.12
326.313	83.12
326.542	88.12
326.77	81.12
326.999	76.12
327.228	88.12
327.457	72.12
327.686	80.12
327.914	80.12
328.143	86.12
328.372	78.12
328.6	80.12
328.829	88.12
329.058	85.12
329.287	85.12
329.515	86.12
329.744	74.12
329.972	83.12
330.201	81.12
330.43	84.12
330.658	73.12
330.887	77.12
331.115	90.12
331.344	79.12
331.572	87.12
331.801	87.12
332.03	78.12
332.258	83.12
332.486	89.12
332.715	83.12
332.943	84.12
333.172	85.12
333.4	88.12
333.629	80.12
333.857	74.12
334.085	79.12
334.314	89.12
334.542	82.12
334.771	69.12
334.999	71.12
335.227	75.12
335.455	84.12
335.684	81.12
335.912	87.12
336.14	90.12
336.369	79.12
336.597	81.12
336.825	96.12
337.053	91.12
337.281	82.12
337.51	90.12
337.738	100.12
337.966	101.12
338.194	98.12
338.422	76.12
338.65	94.12
338.878	96.12
339.106	80.12
339.334	84.12
339.562	85.12
339.79	84.12
340.018	91.12
340.246	89.12
340.474	77.12
340.702	77.12
340.93	89.12
341.158	73.12
341.386	98.12
341.614	102.12
341.842	78.12
342.07	80.12
342.298	81.12
342.526	80.12
342.754	75.12
342.981	83.12
343.209	97.12
343.437	101.12
343.665	91.12
343.893	76.12
344.12	76.12
344.348	83.12
344.576	87.12
344.804	80.12
345.031	84.12
345.259	83.12
345.487	84.12
345.714	96.12
345.942	93.12
346.17	87.12
346.397	87.12
346.625	79.12
346.853	87.12
347.08	75.12
347.308	80.12
347.535	85.12
347.763	72.12
347.99	82.12
348.218	73.12
348.445	98.12
348.673	84.12
348.9	81.12
349.128	84.12
349.355	80.12
349.583	85.12
349.81	97.12
350.037	89.12
350.265	88.12
350.492	76.12
350.72	68.12
350.947	93.12
351.174	79.12
351.402	74.12
351.629	100.12
351.856	75.12
352.083	85.12
352.311	88.12
352.538	84.12
352.765	76.12
352.992	72.12
353.22	92.12
353.447	81.12
353.674	95.12
353.901	89.12
354.128	85.12
354.355	96.12
354.583	90.12
354.81	90.12
355.037	80.12
355.264	72.12
355.491	84.12
355.718	76.12
355.945	89.12
356.172	98.12
356.399	91.12
356.626	73.12
356.853	84.12
357.08	92.12
357.307	88.12
357.534	97.12
357.761	80.12
357.988	88.12
358.215	78.12
358.441	90.12
358.668	89.12
358.895	88.12
359.122	88.12
359.349	72.12
359.576	77.12
359.802	72.12
360.029	83.12
360.256	85.12
360.483	84.12
360.709	82.12
360.936	92.12
361.163	79.12
361.39	72.12
361.616	85.12
361.843	83.12
362.07	88.12
362.296	80.12
362.523	79.12
362.749	86.12
362.976	80.12
363.203	88.12
363.429	92.12
363.656	91.12
363.882	90.12
364.109	70.12
364.335	81.12
364.562	68.12
364.788	76.12
365.015	105.12
365.241	85.12
365.468	83.12
365.694	79.12
365.92	85.12
366.147	83.12
366.373	81.12
366.599	85.12
366.826	83.12
367.052	107.12
367.278	91.12
367.505	85.12
367.731	95.12
367.957	96.12
368.184	96.12
368.41	88.12
368.636	96.12
368.862	107.12
369.089	91.12
369.315	91.12
369.541	93.12
369.767	105.12
369.993	102.12
370.219	85.12
370.445	101.12
370.672	97.12
370.898	93.12
371.124	93.12
371.35	96.12
371.576	89.12
371.802	89.12
372.028	88.12
372.254	98.12
372.48	102.12
372.706	98.12
372.932	104.12
373.158	89.12
373.384	87.12
373.61	92.12
373.835	93.12
374.061	80.12
374.287	88.12
374.513	101.12
374.739	101.12
374.965	98.12
375.191	90.12
375.416	84.12
375.642	102.12
375.868	110.12
376.094	86.12
376.319	85.12
376.545	96.12
376.771	94.12
376.997	82.12
377.222	93.12
377.448	92.12
377.674	86.12
377.899	95.12
378.125	98.12
378.35	88.12
378.576	92.12
378.802	93.12
379.027	87.12
379.253	104.12
379.478	102.12
379.704	100.12
379.929	93.12
380.155	92.12
380.38	104.12
380.606	102.12
380.831	96.12
381.057	113.12
381.282	95.12
381.507	93.12
381.733	99.12
381.958	101.12
382.184	113.12
382.409	82.12
382.634	99.12
382.86	115.12
383.085	107.12
383.31	88.12
383.535	83.12
383.761	107.12
383.986	92.12
384.211	90.12
384.436	90.12
384.662	96.12
384.887	106.12
385.112	110.12
385.337	104.12
385.562	101.12
385.787	98.12
386.013	92.12
386.238	106.12
386.463	101.12
386.688	103.12
386.913	105.12
387.138	87.12
387.363	118.12
387.588	116.12
387.813	108.12
388.038	92.12
388.263	99.12
388.488	103.12
388.713	91.12
388.938	93.12
389.163	118.12
389.387	119.12
389.612	93.12
389.837	92.12
390.062	105.12
390.287	113.12
390.512	107.12
390.736	104.12
390.961	91.12
391.186	108.12
391.411	106.12
391.636	100.12
391.86	94.12
392.085	95.12
392.31	103.12
392.534	116.12
392.759	97.12
392.984	96.12
393.208	97.12
393.433	114.12
393.658	100.12
393.882	107.12
394.107	109.12
394.331	100.12
394.556	112.12
394.78	101.12
395.005	119.12
395.229	112.12
395.454	124.12
395.678	108.12
395.903	105.12
396.127	101.12
396.352	111.12
396.576	104.12
396.801	106.12
397.025	123.12
397.249	113.12
397.474	113.12
397.698	108.12
397.922	119.12
398.147	103.12
398.371	107.12
398.595	113.12
398.82	108.12
399.044	109.12
399.268	101.12
399.492	117.12
399.717	120.12
399.941	92.12
400.165	105.12
400.389	95.12
400.613	103.12
400.837	119.12
401.062	109.12
401.286	125.12
401.51	132.12
401.734	121.12
401.958	108.12
402.182	121.12
402.406	129.12
402.63	132.12
402.854	128.12
403.078	113.12
403.302	140.12
403.526	121.12
403.75	114.12
403.974	113.12
404.198	121.12
404.422	119.12
404.645	108.12
404.869	127.12
405.093	115.12
405.317	115.12
405.541	141.12
405.765	127.12
405.988	130.12
406.212	128.12
406.436	117.12
406.66	132.12
406.883	131.12
407.107	140.12
407.331	124.12
407.555	117.12
407.778	105.12
408.002	135.12
408.226	118.12
408.449	127.12
408.673	126.12
408.896	104.12
409.12	113.12
409.344	127.12
409.567	129.12
409.791	122.12
410.014	117.12
410.238	120.12
410.461	133.12
410.685	130.12
410.908	125.12
411.132	127.12
411.355	129.12
411.578	126.12
411.802	130.12
412.025	127.12
412.249	115.12
412.472	131.12
412.695	107.12
412.919	121.12
413.142	125.12
413.365	114.12
413.589	127.12
413.812	132.12
414.035	137.12
414.258	121.12
414.482	125.12
414.705	122.12
414.928	126.12
415.151	129.12
415.374	122.12
415.597	133.12
415.821	123.12
416.044	122.12
416.267	128.12
416.49	138.12
416.713	121.12
416.936	130.12
417.159	139.12
417.382	123.12
417.605	129.12
417.828	128.12
418.051	122.12
418.274	131.12
418.497	131.12
418.72	123.12
418.943	130.12
419.166	145.12
419.389	137.12
419.611	126.12
419.834	139.12
420.057	130.12
420.28	141.12
420.503	136.12
420.726	151.12
420.948	138.12
421.171	128.12
421.394	140.12
421.617	146.12
421.839	134.12
422.062	145.12
422.285	138.12
422.507	139.12
422.73	134.12
422.953	132.12
423.175	138.12
423.398	124.12
423.621	143.12
423.843	141.12
424.066	139.12
424.288	140.12
424.511	141.12
424.733	156.12
424.956	149.12
425.178	148.12
425.401	158.12
425.623	149.12
425.846	148.12
426.068	133.12
426.291	141.12
426.513	148.12
426.735	134.12
426.958	135.12
427.18	136.12
427.402	131.12
427.625	146.12
427.847	134.12
428.069	131.12
428.292	125.12
428.514	133.12
428.736	123.12
428.958	141.12
429.181	123.12
429.403	126.12
429.625	126.12
429.847	134.12
430.069	136.12
430.292	140.12
430.514	140.12
430.736	124.12
430.958	121.12
431.18	118.12
431.402	146.12
431.624	116.12
431.846	88.12
432.068	91.12
432.29	100.12
432.512	120.12
432.734	122.12
432.956	142.12
433.178	145.12
433.4	141.12
433.622	155.12
433.844	131.12
434.066	131.12
434.287	119.12
434.509	100.12
434.731	108.12
434.953	105.12
435.175	125.12
435.397	114.12
435.618	133.12
435.84	114.12
436.062	116.12
436.284	148.12
436.505	120.12
436.727	142.12
436.949	131.12
437.17	140.12
437.392	134.12
437.614	127.12
437.835	116.12
438.057	125.12
438.278	128.12
438.5	113.12
438.721	140.12
438.943	132.12
439.165	148.12
439.386	150.12
439.608	145.12
439.829	153.12
440.05	146.12
440.272	146.12
440.493	161.12
440.715	153.12
440.936	156.12
441.158	152.12
441.379	148.12
441.6	152.12
441.822	151.12
442.043	164.12
442.264	142.12
442.486	138.12
442.707	147.12
442.928	149.12
443.149	147.12
443.371	135.12
443.592	139.12
443.813	142.12
444.034	128.12
444.255	152.12
444.476	134.12
444.698	161.12
444.919	157.12
445.14	278.12
445.361	217.12
445.582	153.12
445.803	150.12
446.024	141.12
446.245	165.12
446.466	165.12
446.687	147.12
446.908	160.12
447.129	169.12
447.35	151.12
447.571	149.12
447.792	140.12
448.013	152.12
448.234	154.12
448.455	139.12
448.675	155.12
448.896	149.12
449.117	130.12
449.338	147.12
449.559	147.12
449.779	135.12
450	136.12
450.221	155.12
450.442	138.12
450.662	135.12
450.883	139.12
451.104	127.12
451.324	146.12
451.545	135.12
451.766	136.12
451.986	142.12
452.207	129.12
452.428	139.12
452.648	131.12
452.869	118.12
453.089	117.12
453.31	113.12
453.53	115.12
453.751	99.12
453.971	113.12
454.192	114.12
454.412	112.12
454.633	116.12
454.853	116.12
455.073	120.12
455.294	133.12
455.514	140.12
455.734	126.12
455.955	123.12
456.175	134.12
456.395	123.12
456.616	97.12
456.836	106.12
457.056	117.12
457.276	112.12
457.497	112.12
457.717	106.12
457.937	120.12
458.157	106.12
458.377	95.12
458.598	114.12
458.818	115.12
459.038	97.12
459.258	84.12
459.478	97.12
459.698	86.12
459.918	97.12
460.138	100.12
460.358	128.12
460.578	127.12
460.798	131.12
461.018	135.12
461.238	117.12
461.458	116.12
461.678	119.12
461.898	122.12
462.118	120.12
462.338	133.12
462.558	106.12
462.777	124.12
462.997	135.12
463.217	103.12
463.437	102.12
463.657	112.12
463.876	114.12
464.096	119.12
464.316	108.12
464.536	123.12
464.755	131.12
464.975	120.12
465.195	116.12
465.414	124.12
465.634	117.12
465.854	105.12
466.073	129.12
466.293	128.12
466.512	139.12
466.732	131.12
466.951	141.12
467.171	148.12
467.391	141.12
467.61	133.12
467.829	143.12
468.049	136.12
468.268	141.12
468.488	148.12
468.707	141.12
468.927	156.12
469.146	142.12
469.365	150.12
469.585	153.12
469.804	146.12
470.023	137.12
470.243	148.12
470.462	158.12
470.681	144.12
470.901	144.12
471.12	146.12
471.339	152.12
471.558	139.12
471.777	143.12
471.997	143.12
472.216	135.12
472.435	128.12
472.654	111.12
472.873	106.12
473.092	120.12
473.311	129.12
473.53	132.12
473.749	123.12
473.968	135.12
474.187	131.12
474.406	131.12
474.625	127.12
474.844	147.12
475.063	123.12
475.282	122.12
475.501	118.12
475.72	106.12
475.939	136.12
476.158	139.12
476.377	138.12
476.596	114.12
476.814	116.12
477.033	120.12
477.252	115.12
477.471	116.12
477.69	142.12
477.908	140.12
478.127	157.12
478.346	133.12
478.564	135.12
478.783	131.12
479.002	138.12
479.22	138.12
479.439	141.12
479.658	134.12
479.876	126.12
480.095	117.12
480.313	127.12
480.532	135.12
480.751	109.12
480.969	103.12
481.188	100.12
481.406	92.12
481.624	81.12
481.843	96.12
482.061	117.12
482.28	131.12
482.498	123.12
482.717	121.12
482.935	129.12
483.153	142.12
483.372	151.12
483.59	143.12
483.808	134.12
484.027	133.12
484.245	143.12
484.463	162.12
484.681	163.12
484.9	172.12
485.118	153.12
485.336	133.12
485.554	119.12
485.772	111.12
485.99	104.12
486.209	111.12
486.427	115.12
486.645	134.12
486.863	152.12
487.081	158.12
487.299	138.12
487.517	146.12
487.735	187.12
487.953	207.12
488.171	195.12
488.389	199.12
488.607	167.12
488.825	146.12
489.043	153.12
489.261	132.12
489.479	145.12
489.696	132.12
489.914	136.12
490.132	150.12
490.35	169.12
490.568	157.12
490.786	180.12
491.003	185.12
491.221	176.12
491.439	180.12
491.657	196.12
491.874	204.12
492.092	231.12
492.31	257.12
492.527	232.12
492.745	207.12
492.963	204.12
493.18	215.12
493.398	191.12
493.615	172.12
493.833	168.12
494.05	194.12
494.268	179.12
494.485	178.12
494.703	185.12
494.92	189.12
495.138	190.12
495.355	191.12
495.573	182.12
495.79	169.12
496.008	167.12
496.225	159.12
496.442	176.12
496.66	175.12
496.877	181.12
497.094	168.12
497.312	183.12
497.529	165.12
497.746	151.12
497.963	146.12
498.181	130.12
498.398	148.12
498.615	128.12
498.832	135.12
499.049	119.12
499.267	119.12
499.484	132.12
499.701	137.12
499.918	129.12
500.135	135.12
500.352	128.12
500.569	151.12
500.786	164.12
501.003	151.12
501.22	141.12
501.437	132.12
501.654	140.12
501.871	137.12
502.088	138.12
502.305	138.12
502.522	133.12
502.739	148.12
502.956	137.12
503.172	129.12
503.389	137.12
503.606	120.12
503.823	127.12
504.04	118.12
504.256	137.12
504.473	127.12
504.69	130.12
504.907	111.12
505.123	120.12
505.34	143.12
505.557	132.12
505.773	134.12
505.99	111.12
506.207	115.12
506.423	117.12
506.64	124.12
506.856	121.12
507.073	120.12
507.289	129.12
507.506	124.12
507.722	124.12
507.939	129.12
508.155	134.12
508.372	114.12
508.588	118.12
508.805	127.12
509.021	117.12
509.238	113.12
509.454	124.12
509.67	106.12
509.887	96.12
510.103	92.12
510.319	104.12
510.536	108.12
510.752	88.12
510.968	86.12
511.184	77.12
511.401	85.12
