Data from Location6.07152019.Energy5.Lamp.07192019.3%Agarose_HRD10591_16-11-02-394.txt Node
Date: Fri Jul 19 16:11:02 EDT 2019
User: cochatt
Spectrometer: HR+D1059
Trigger mode: 1
Integration Time (sec): 1.000000E-1
Scans to average: 1
Electric dark correction enabled: true
Nonlinearity correction enabled: false
Boxcar width: 0
XAxis mode: Wavelengths
Number of Pixels in Spectrum: 2048
>>>>>Begin Spectral Data<<<<<
223.165	-18.69
223.4	-18.69
223.635	-18.69
223.869	-16.69
224.104	-24.69
224.338	-17.69
224.573	-13.69
224.808	-0.69
225.042	-16.69
225.277	-2.69
225.511	-2.69
225.746	10.31
225.98	-7.69
226.215	17.31
226.449	3.31
226.683	15.31
226.918	35.31
227.152	40.31
227.387	39.31
227.621	31.31
227.856	25.31
228.09	55.31
228.324	55.31
228.559	64.31
228.793	52.31
229.027	63.31
229.262	66.31
229.496	76.31
229.73	71.31
229.964	58.31
230.199	76.31
230.433	86.31
230.667	78.31
230.901	86.31
231.136	93.31
231.37	67.31
231.604	90.31
231.838	76.31
232.072	78.31
232.306	94.31
232.541	64.31
232.775	77.31
233.009	88.31
233.243	94.31
233.477	80.31
233.711	88.31
233.945	82.31
234.179	68.31
234.413	79.31
234.647	79.31
234.881	71.31
235.115	67.31
235.349	81.31
235.583	78.31
235.817	76.31
236.051	75.31
236.285	80.31
236.519	78.31
236.753	73.31
236.987	72.31
237.221	71.31
237.455	84.31
237.689	85.31
237.922	84.31
238.156	75.31
238.39	83.31
238.624	69.31
238.858	79.31
239.091	76.31
239.325	77.31
239.559	77.31
239.793	81.31
240.027	73.31
240.26	78.31
240.494	83.31
240.728	73.31
240.961	70.31
241.195	84.31
241.429	78.31
241.662	83.31
241.896	76.31
242.13	85.31
242.363	82.31
242.597	70.31
242.83	76.31
243.064	83.31
243.298	69.31
243.531	78.31
243.765	81.31
243.998	73.31
244.232	81.31
244.465	87.31
244.699	74.31
244.932	81.31
245.166	70.31
245.399	68.31
245.633	84.31
245.866	80.31
246.099	78.31
246.333	79.31
246.566	72.31
246.8	81.31
247.033	84.31
247.266	84.31
247.5	101.31
247.733	90.31
247.966	77.31
248.2	87.31
248.433	81.31
248.666	86.31
248.899	76.31
249.133	90.31
249.366	83.31
249.599	79.31
249.832	67.31
250.066	70.31
250.299	88.31
250.532	66.31
250.765	83.31
250.998	101.31
251.231	78.31
251.465	84.31
251.698	98.31
251.931	86.31
252.164	87.31
252.397	85.31
252.63	87.31
252.863	81.31
253.096	80.31
253.329	83.31
253.562	71.31
253.795	93.31
254.028	77.31
254.261	88.31
254.494	83.31
254.727	70.31
254.96	77.31
255.193	76.31
255.426	72.31
255.659	86.31
255.892	73.31
256.124	77.31
256.357	91.31
256.59	86.31
256.823	82.31
257.056	78.31
257.289	80.31
257.521	76.31
257.754	92.31
257.987	84.31
258.22	74.31
258.452	74.31
258.685	71.31
258.918	84.31
259.151	92.31
259.383	87.31
259.616	88.31
259.849	88.31
260.081	79.31
260.314	75.31
260.547	70.31
260.779	92.31
261.012	84.31
261.244	89.31
261.477	95.31
261.71	90.31
261.942	71.31
262.175	95.31
262.407	79.31
262.64	84.31
262.872	83.31
263.105	78.31
263.337	82.31
263.57	90.31
263.802	82.31
264.035	81.31
264.267	86.31
264.499	86.31
264.732	89.31
264.964	67.31
265.197	84.31
265.429	84.31
265.661	98.31
265.894	93.31
266.126	84.31
266.358	90.31
266.591	86.31
266.823	87.31
267.055	94.31
267.287	74.31
267.52	69.31
267.752	74.31
267.984	81.31
268.216	68.31
268.448	92.31
268.681	67.31
268.913	93.31
269.145	93.31
269.377	79.31
269.609	89.31
269.841	91.31
270.073	104.31
270.306	97.31
270.538	86.31
270.77	87.31
271.002	99.31
271.234	79.31
271.466	86.31
271.698	92.31
271.93	97.31
272.162	96.31
272.394	96.31
272.626	84.31
272.858	79.31
273.09	85.31
273.322	102.31
273.553	89.31
273.785	82.31
274.017	75.31
274.249	94.31
274.481	87.31
274.713	88.31
274.945	79.31
275.176	79.31
275.408	91.31
275.64	90.31
275.872	74.31
276.104	87.31
276.335	79.31
276.567	83.31
276.799	83.31
277.031	86.31
277.262	74.31
277.494	75.31
277.726	93.31
277.957	88.31
278.189	78.31
278.421	93.31
278.652	79.31
278.884	93.31
279.115	80.31
279.347	97.31
279.579	98.31
279.81	85.31
280.042	87.31
280.273	85.31
280.505	86.31
280.736	82.31
280.968	84.31
281.199	86.31
281.431	85.31
281.662	86.31
281.894	87.31
282.125	94.31
282.356	62.31
282.588	89.31
282.819	74.31
283.051	80.31
283.282	77.31
283.513	91.31
283.745	99.31
283.976	76.31
284.207	78.31
284.439	94.31
284.67	86.31
284.901	101.31
285.132	87.31
285.364	85.31
285.595	89.31
285.826	85.31
286.057	85.31
286.288	78.31
286.52	82.31
286.751	82.31
286.982	91.31
287.213	84.31
287.444	79.31
287.675	92.31
287.906	85.31
288.138	79.31
288.369	96.31
288.6	83.31
288.831	98.31
289.062	75.31
289.293	83.31
289.524	99.31
289.755	87.31
289.986	91.31
290.217	87.31
290.448	77.31
290.679	84.31
290.91	88.31
291.141	78.31
291.371	75.31
291.602	94.31
291.833	93.31
292.064	69.31
292.295	87.31
292.526	97.31
292.757	90.31
292.987	87.31
293.218	90.31
293.449	85.31
293.68	87.31
293.91	84.31
294.141	78.31
294.372	88.31
294.603	79.31
294.833	55.31
295.064	77.31
295.295	95.31
295.525	95.31
295.756	86.31
295.987	82.31
296.217	93.31
296.448	94.31
296.679	81.31
296.909	70.31
297.14	98.31
297.37	93.31
297.601	87.31
297.831	82.31
298.062	94.31
298.292	89.31
298.523	74.31
298.753	78.31
298.984	69.31
299.214	87.31
299.445	93.31
299.675	93.31
299.905	99.31
300.136	95.31
300.366	98.31
300.597	90.31
300.827	85.31
301.057	97.31
301.288	74.31
301.518	89.31
301.748	91.31
301.979	82.31
302.209	85.31
302.439	81.31
302.669	91.31
302.9	80.31
303.13	85.31
303.36	90.31
303.59	87.31
303.82	102.31
304.051	103.31
304.281	92.31
304.511	86.31
304.741	85.31
304.971	83.31
305.201	94.31
305.431	84.31
305.661	85.31
305.891	82.31
306.121	76.31
306.352	71.31
306.582	89.31
306.812	83.31
307.042	90.31
307.272	94.31
307.502	89.31
307.731	87.31
307.961	92.31
308.191	88.31
308.421	86.31
308.651	92.31
308.881	81.31
309.111	86.31
309.341	91.31
309.571	88.31
309.8	96.31
310.03	83.31
310.26	69.31
310.49	83.31
310.72	94.31
310.949	92.31
311.179	86.31
311.409	91.31
311.639	82.31
311.868	90.31
312.098	102.31
312.328	82.31
312.557	96.31
312.787	92.31
313.017	82.31
313.246	76.31
313.476	94.31
313.706	83.31
313.935	94.31
314.165	91.31
314.394	78.31
314.624	84.31
314.853	100.31
315.083	88.31
315.312	89.31
315.542	89.31
315.771	78.31
316.001	66.31
316.23	83.31
316.46	91.31
316.689	92.31
316.919	90.31
317.148	97.31
317.377	94.31
317.607	90.31
317.836	81.31
318.065	90.31
318.295	87.31
318.524	84.31
318.753	85.31
318.983	90.31
319.212	80.31
319.441	75.31
319.67	84.31
319.9	79.31
320.129	78.31
320.358	82.31
320.587	94.31
320.816	87.31
321.046	78.31
321.275	97.31
321.504	87.31
321.733	86.31
321.962	85.31
322.191	79.31
322.42	80.31
322.649	92.31
322.878	103.31
323.108	89.31
323.337	89.31
323.566	81.31
323.795	86.31
324.024	84.31
324.253	75.31
324.482	85.31
324.71	84.31
324.939	95.31
325.168	78.31
325.397	95.31
325.626	81.31
325.855	89.31
326.084	88.31
326.313	88.31
326.542	92.31
326.77	81.31
326.999	90.31
327.228	80.31
327.457	84.31
327.686	83.31
327.914	78.31
328.143	98.31
328.372	79.31
328.6	89.31
328.829	92.31
329.058	76.31
329.287	85.31
329.515	69.31
329.744	89.31
329.972	92.31
330.201	84.31
330.43	95.31
330.658	81.31
330.887	91.31
331.115	77.31
331.344	78.31
331.572	86.31
331.801	90.31
332.03	79.31
332.258	86.31
332.486	85.31
332.715	85.31
332.943	86.31
333.172	79.31
333.4	83.31
333.629	88.31
333.857	82.31
334.085	90.31
334.314	94.31
334.542	93.31
334.771	98.31
334.999	74.31
335.227	87.31
335.455	92.31
335.684	81.31
335.912	76.31
336.14	73.31
336.369	91.31
336.597	90.31
336.825	87.31
337.053	89.31
337.281	93.31
337.51	79.31
337.738	98.31
337.966	77.31
338.194	94.31
338.422	97.31
338.65	88.31
338.878	94.31
339.106	77.31
339.334	87.31
339.562	93.31
339.79	90.31
340.018	92.31
340.246	93.31
340.474	71.31
340.702	83.31
340.93	86.31
341.158	83.31
341.386	77.31
341.614	100.31
341.842	84.31
342.07	80.31
342.298	79.31
342.526	92.31
342.754	93.31
342.981	79.31
343.209	90.31
343.437	97.31
343.665	85.31
343.893	78.31
344.12	74.31
344.348	83.31
344.576	82.31
344.804	81.31
345.031	86.31
345.259	102.31
345.487	95.31
345.714	92.31
345.942	82.31
346.17	87.31
346.397	85.31
346.625	85.31
346.853	97.31
347.08	89.31
347.308	90.31
347.535	84.31
347.763	88.31
347.99	98.31
348.218	99.31
348.445	89.31
348.673	69.31
348.9	85.31
349.128	81.31
349.355	86.31
349.583	92.31
349.81	101.31
350.037	85.31
350.265	95.31
350.492	79.31
350.72	76.31
350.947	88.31
351.174	82.31
351.402	89.31
351.629	77.31
351.856	94.31
352.083	96.31
352.311	89.31
352.538	91.31
352.765	85.31
352.992	78.31
353.22	96.31
353.447	86.31
353.674	99.31
353.901	88.31
354.128	86.31
354.355	64.31
354.583	92.31
354.81	95.31
355.037	80.31
355.264	71.31
355.491	99.31
355.718	88.31
355.945	95.31
356.172	79.31
356.399	93.31
356.626	88.31
356.853	89.31
357.08	83.31
357.307	83.31
357.534	83.31
357.761	82.31
357.988	89.31
358.215	80.31
358.441	89.31
358.668	93.31
358.895	84.31
359.122	93.31
359.349	87.31
359.576	97.31
359.802	88.31
360.029	85.31
360.256	91.31
360.483	97.31
360.709	87.31
360.936	104.31
361.163	80.31
361.39	92.31
361.616	76.31
361.843	88.31
362.07	100.31
362.296	95.31
362.523	89.31
362.749	86.31
362.976	94.31
363.203	78.31
363.429	83.31
363.656	77.31
363.882	80.31
364.109	82.31
364.335	89.31
364.562	95.31
364.788	81.31
365.015	82.31
365.241	99.31
365.468	93.31
365.694	93.31
365.92	91.31
366.147	96.31
366.373	81.31
366.599	92.31
366.826	70.31
367.052	82.31
367.278	93.31
367.505	78.31
367.731	90.31
367.957	91.31
368.184	90.31
368.41	86.31
368.636	90.31
368.862	97.31
369.089	92.31
369.315	97.31
369.541	88.31
369.767	104.31
369.993	91.31
370.219	89.31
370.445	117.31
370.672	92.31
370.898	96.31
371.124	92.31
371.35	93.31
371.576	102.31
371.802	108.31
372.028	92.31
372.254	89.31
372.48	95.31
372.706	93.31
372.932	92.31
373.158	94.31
373.384	89.31
373.61	98.31
373.835	92.31
374.061	97.31
374.287	113.31
374.513	103.31
374.739	94.31
374.965	88.31
375.191	106.31
375.416	103.31
375.642	108.31
375.868	92.31
376.094	99.31
376.319	91.31
376.545	118.31
376.771	104.31
376.997	91.31
377.222	100.31
377.448	104.31
377.674	101.31
377.899	80.31
378.125	102.31
378.35	105.31
378.576	92.31
378.802	81.31
379.027	104.31
379.253	105.31
379.478	90.31
379.704	93.31
379.929	92.31
380.155	106.31
380.38	90.31
380.606	98.31
380.831	105.31
381.057	105.31
381.282	95.31
381.507	99.31
381.733	105.31
381.958	94.31
382.184	99.31
382.409	87.31
382.634	104.31
382.86	110.31
383.085	103.31
383.31	113.31
383.535	110.31
383.761	107.31
383.986	111.31
384.211	103.31
384.436	99.31
384.662	90.31
384.887	106.31
385.112	92.31
385.337	100.31
385.562	87.31
385.787	95.31
386.013	115.31
386.238	113.31
386.463	109.31
386.688	108.31
386.913	89.31
387.138	104.31
387.363	102.31
387.588	99.31
387.813	99.31
388.038	98.31
388.263	117.31
388.488	100.31
388.713	105.31
388.938	93.31
389.163	106.31
389.387	121.31
389.612	96.31
389.837	113.31
390.062	105.31
390.287	105.31
390.512	100.31
390.736	111.31
390.961	125.31
391.186	111.31
391.411	106.31
391.636	109.31
391.86	106.31
392.085	95.31
392.31	103.31
392.534	101.31
392.759	104.31
392.984	116.31
393.208	104.31
393.433	101.31
393.658	106.31
393.882	106.31
394.107	102.31
394.331	117.31
394.556	104.31
394.78	115.31
395.005	85.31
395.229	93.31
395.454	116.31
395.678	117.31
395.903	103.31
396.127	108.31
396.352	110.31
396.576	111.31
396.801	121.31
397.025	111.31
397.249	119.31
397.474	117.31
397.698	116.31
397.922	114.31
398.147	112.31
398.371	105.31
398.595	109.31
398.82	102.31
399.044	102.31
399.268	109.31
399.492	111.31
399.717	130.31
399.941	114.31
400.165	109.31
400.389	111.31
400.613	119.31
400.837	115.31
401.062	116.31
401.286	109.31
401.51	113.31
401.734	111.31
401.958	107.31
402.182	125.31
402.406	107.31
402.63	123.31
402.854	119.31
403.078	130.31
403.302	125.31
403.526	140.31
403.75	117.31
403.974	126.31
404.198	127.31
404.422	133.31
404.645	119.31
404.869	130.31
405.093	121.31
405.317	109.31
405.541	120.31
405.765	128.31
405.988	139.31
406.212	118.31
406.436	117.31
406.66	117.31
406.883	109.31
407.107	126.31
407.331	118.31
407.555	131.31
407.778	129.31
408.002	133.31
408.226	118.31
408.449	137.31
408.673	120.31
408.896	126.31
409.12	121.31
409.344	121.31
409.567	116.31
409.791	137.31
410.014	126.31
410.238	123.31
410.461	115.31
410.685	118.31
410.908	147.31
411.132	123.31
411.355	137.31
411.578	125.31
411.802	125.31
412.025	126.31
412.249	136.31
412.472	129.31
412.695	127.31
412.919	117.31
413.142	110.31
413.365	133.31
413.589	143.31
413.812	119.31
414.035	139.31
414.258	130.31
414.482	123.31
414.705	132.31
414.928	128.31
415.151	132.31
415.374	127.31
415.597	117.31
415.821	115.31
416.044	137.31
416.267	138.31
416.49	133.31
416.713	135.31
416.936	127.31
417.159	138.31
417.382	135.31
417.605	129.31
417.828	130.31
418.051	127.31
418.274	133.31
418.497	140.31
418.72	135.31
418.943	131.31
419.166	150.31
419.389	152.31
419.611	141.31
419.834	136.31
420.057	132.31
420.28	154.31
420.503	141.31
420.726	142.31
420.948	138.31
421.171	136.31
421.394	146.31
421.617	137.31
421.839	147.31
422.062	147.31
422.285	133.31
422.507	146.31
422.73	129.31
422.953	135.31
423.175	136.31
423.398	125.31
423.621	141.31
423.843	153.31
424.066	157.31
424.288	134.31
424.511	139.31
424.733	151.31
424.956	131.31
425.178	139.31
425.401	149.31
425.623	148.31
425.846	146.31
426.068	149.31
426.291	128.31
426.513	128.31
426.735	146.31
426.958	140.31
427.18	143.31
427.402	131.31
427.625	144.31
427.847	141.31
428.069	135.31
428.292	127.31
428.514	132.31
428.736	129.31
428.958	129.31
429.181	141.31
429.403	137.31
429.625	141.31
429.847	131.31
430.069	144.31
430.292	141.31
430.514	139.31
430.736	117.31
430.958	118.31
431.18	126.31
431.402	137.31
431.624	104.31
431.846	109.31
432.068	89.31
432.29	113.31
432.512	104.31
432.734	131.31
432.956	147.31
433.178	140.31
433.4	141.31
433.622	140.31
433.844	131.31
434.066	115.31
434.287	133.31
434.509	107.31
434.731	101.31
434.953	117.31
435.175	129.31
435.397	128.31
435.618	130.31
435.84	113.31
436.062	114.31
436.284	131.31
436.505	133.31
436.727	133.31
436.949	148.31
437.17	133.31
437.392	141.31
437.614	118.31
437.835	137.31
438.057	110.31
438.278	122.31
438.5	125.31
438.721	137.31
438.943	145.31
439.165	143.31
439.386	146.31
439.608	141.31
439.829	161.31
440.05	153.31
440.272	153.31
440.493	154.31
440.715	137.31
440.936	137.31
441.158	150.31
441.379	145.31
441.6	148.31
441.822	155.31
442.043	164.31
442.264	132.31
442.486	142.31
442.707	149.31
442.928	127.31
443.149	137.31
443.371	143.31
443.592	135.31
443.813	140.31
444.034	143.31
444.255	141.31
444.476	142.31
444.698	156.31
444.919	153.31
445.14	261.31
445.361	206.31
445.582	145.31
445.803	151.31
446.024	151.31
446.245	160.31
446.466	168.31
446.687	156.31
446.908	151.31
447.129	167.31
447.35	153.31
447.571	150.31
447.792	138.31
448.013	155.31
448.234	133.31
448.455	138.31
448.675	149.31
448.896	135.31
449.117	123.31
449.338	143.31
449.559	143.31
449.779	141.31
450	140.31
450.221	135.31
450.442	138.31
450.662	141.31
450.883	131.31
451.104	147.31
451.324	128.31
451.545	129.31
451.766	153.31
451.986	131.31
452.207	129.31
452.428	144.31
452.648	141.31
452.869	122.31
453.089	118.31
453.31	114.31
453.53	98.31
453.751	111.31
453.971	114.31
454.192	105.31
454.412	117.31
454.633	116.31
454.853	121.31
455.073	119.31
455.294	111.31
455.514	136.31
455.734	129.31
455.955	116.31
456.175	132.31
456.395	116.31
456.616	100.31
456.836	104.31
457.056	122.31
457.276	111.31
457.497	108.31
457.717	103.31
457.937	110.31
458.157	115.31
458.377	117.31
458.598	110.31
458.818	106.31
459.038	83.31
459.258	74.31
459.478	86.31
459.698	97.31
459.918	92.31
460.138	112.31
460.358	120.31
460.578	120.31
460.798	117.31
461.018	131.31
461.238	123.31
461.458	127.31
461.678	131.31
461.898	115.31
462.118	116.31
462.338	121.31
462.558	133.31
462.777	115.31
462.997	99.31
463.217	123.31
463.437	104.31
463.657	95.31
463.876	123.31
464.096	98.31
464.316	121.31
464.536	109.31
464.755	115.31
464.975	120.31
465.195	133.31
465.414	129.31
465.634	117.31
465.854	115.31
466.073	131.31
466.293	125.31
466.512	124.31
466.732	133.31
466.951	137.31
467.171	140.31
467.391	151.31
467.61	149.31
467.829	151.31
468.049	133.31
468.268	133.31
468.488	138.31
468.707	153.31
468.927	161.31
469.146	147.31
469.365	148.31
469.585	146.31
469.804	149.31
470.023	141.31
470.243	167.31
470.462	144.31
470.681	143.31
470.901	136.31
471.12	145.31
471.339	149.31
471.558	166.31
471.777	139.31
471.997	129.31
472.216	130.31
472.435	127.31
472.654	120.31
472.873	105.31
473.092	126.31
473.311	145.31
473.53	135.31
473.749	142.31
473.968	142.31
474.187	133.31
474.406	115.31
474.625	126.31
474.844	136.31
475.063	129.31
475.282	134.31
475.501	113.31
475.72	133.31
475.939	124.31
476.158	134.31
476.377	120.31
476.596	130.31
476.814	120.31
477.033	123.31
477.252	119.31
477.471	132.31
477.69	139.31
477.908	140.31
478.127	154.31
478.346	133.31
478.564	138.31
478.783	138.31
479.002	150.31
479.22	126.31
479.439	144.31
479.658	120.31
479.876	129.31
480.095	121.31
480.313	133.31
480.532	124.31
480.751	110.31
480.969	104.31
481.188	89.31
481.406	99.31
481.624	85.31
481.843	103.31
482.061	106.31
482.28	118.31
482.498	113.31
482.717	126.31
482.935	127.31
483.153	140.31
483.372	164.31
483.59	153.31
483.808	151.31
484.027	141.31
484.245	147.31
484.463	165.31
484.681	173.31
484.9	179.31
485.118	145.31
485.336	126.31
485.554	125.31
485.772	107.31
485.99	103.31
486.209	127.31
486.427	135.31
486.645	115.31
486.863	124.31
487.081	154.31
487.299	132.31
487.517	148.31
487.735	182.31
487.953	198.31
488.171	185.31
488.389	174.31
488.607	179.31
488.825	133.31
489.043	146.31
489.261	141.31
489.479	139.31
489.696	144.31
489.914	127.31
490.132	159.31
490.35	164.31
490.568	156.31
490.786	179.31
491.003	174.31
491.221	187.31
491.439	174.31
491.657	199.31
491.874	204.31
492.092	243.31
492.31	250.31
492.527	245.31
492.745	229.31
492.963	210.31
493.18	194.31
493.398	179.31
493.615	180.31
493.833	182.31
494.05	180.31
494.268	178.31
494.485	177.31
494.703	197.31
494.92	180.31
495.138	192.31
495.355	184.31
495.573	185.31
495.79	189.31
496.008	173.31
496.225	172.31
496.442	165.31
496.66	191.31
496.877	184.31
497.094	167.31
497.312	184.31
497.529	165.31
497.746	155.31
497.963	138.31
498.181	133.31
498.398	122.31
498.615	134.31
498.832	113.31
499.049	132.31
499.267	122.31
499.484	136.31
499.701	142.31
499.918	151.31
500.135	136.31
500.352	142.31
500.569	149.31
500.786	155.31
501.003	133.31
501.22	153.31
501.437	147.31
501.654	140.31
501.871	147.31
502.088	129.31
502.305	137.31
502.522	137.31
502.739	149.31
502.956	129.31
503.172	127.31
503.389	125.31
503.606	126.31
503.823	123.31
504.04	119.31
504.256	132.31
504.473	116.31
504.69	115.31
504.907	117.31
505.123	119.31
505.34	121.31
505.557	137.31
505.773	140.31
505.99	125.31
506.207	121.31
506.423	115.31
506.64	135.31
506.856	125.31
507.073	126.31
507.289	122.31
507.506	126.31
507.722	111.31
507.939	117.31
508.155	112.31
508.372	103.31
508.588	110.31
508.805	113.31
509.021	97.31
509.238	100.31
509.454	111.31
509.67	101.31
509.887	106.31
510.103	83.31
510.319	85.31
510.536	93.31
510.752	70.31
510.968	81.31
