Data from Location6.07152019.Energy5.Lamp.07192019.3%Agarose_HRD10591_16-13-26-395.txt Node
Date: Fri Jul 19 16:13:26 EDT 2019
User: cochatt
Spectrometer: HR+D1059
Trigger mode: 1
Integration Time (sec): 1.000000E-1
Scans to average: 1
Electric dark correction enabled: true
Nonlinearity correction enabled: false
Boxcar width: 0
XAxis mode: Wavelengths
Number of Pixels in Spectrum: 2048
>>>>>Begin Spectral Data<<<<<
223.165	-18.56
223.4	-18.56
223.635	-18.56
223.869	-8.56
224.104	-22.56
224.338	-12.56
224.573	-25.56
224.808	-15.56
225.042	-13.56
225.277	1.44
225.511	6.44
225.746	7.44
225.98	3.44
226.215	-2.56
226.449	16.44
226.683	21.44
226.918	32.44
227.152	30.44
227.387	27.44
227.621	34.44
227.856	42.44
228.09	42.44
228.324	46.44
228.559	56.44
228.793	54.44
229.027	63.44
229.262	54.44
229.496	66.44
229.73	63.44
229.964	70.44
230.199	72.44
230.433	65.44
230.667	70.44
230.901	65.44
231.136	84.44
231.37	76.44
231.604	70.44
231.838	82.44
232.072	80.44
232.306	66.44
232.541	74.44
232.775	86.44
233.009	85.44
233.243	71.44
233.477	86.44
233.711	81.44
233.945	85.44
234.179	95.44
234.413	69.44
234.647	84.44
234.881	70.44
235.115	80.44
235.349	90.44
235.583	74.44
235.817	72.44
236.051	85.44
236.285	82.44
236.519	80.44
236.753	81.44
236.987	64.44
237.221	88.44
237.455	74.44
237.689	71.44
237.922	80.44
238.156	67.44
238.39	60.44
238.624	69.44
238.858	82.44
239.091	78.44
239.325	67.44
239.559	76.44
239.793	68.44
240.027	91.44
240.26	75.44
240.494	71.44
240.728	78.44
240.961	88.44
241.195	72.44
241.429	88.44
241.662	81.44
241.896	71.44
242.13	75.44
242.363	79.44
242.597	72.44
242.83	78.44
243.064	69.44
243.298	67.44
243.531	86.44
243.765	80.44
243.998	83.44
244.232	73.44
244.465	80.44
244.699	74.44
244.932	73.44
245.166	74.44
245.399	71.44
245.633	64.44
245.866	72.44
246.099	69.44
246.333	70.44
246.566	63.44
246.8	88.44
247.033	74.44
247.266	80.44
247.5	82.44
247.733	80.44
247.966	76.44
248.2	85.44
248.433	78.44
248.666	83.44
248.899	78.44
249.133	81.44
249.366	79.44
249.599	67.44
249.832	82.44
250.066	75.44
250.299	87.44
250.532	74.44
250.765	76.44
250.998	79.44
251.231	81.44
251.465	83.44
251.698	90.44
251.931	72.44
252.164	76.44
252.397	72.44
252.63	80.44
252.863	81.44
253.096	83.44
253.329	66.44
253.562	76.44
253.795	81.44
254.028	75.44
254.261	75.44
254.494	90.44
254.727	73.44
254.96	85.44
255.193	78.44
255.426	68.44
255.659	74.44
255.892	74.44
256.124	62.44
256.357	72.44
256.59	76.44
256.823	67.44
257.056	76.44
257.289	76.44
257.521	81.44
257.754	68.44
257.987	65.44
258.22	72.44
258.452	70.44
258.685	81.44
258.918	88.44
259.151	69.44
259.383	75.44
259.616	67.44
259.849	75.44
260.081	81.44
260.314	82.44
260.547	74.44
260.779	77.44
261.012	71.44
261.244	65.44
261.477	77.44
261.71	80.44
261.942	69.44
262.175	74.44
262.407	82.44
262.64	60.44
262.872	74.44
263.105	81.44
263.337	84.44
263.57	75.44
263.802	78.44
264.035	75.44
264.267	86.44
264.499	90.44
264.732	91.44
264.964	78.44
265.197	73.44
265.429	86.44
265.661	73.44
265.894	83.44
266.126	81.44
266.358	87.44
266.591	68.44
266.823	82.44
267.055	71.44
267.287	78.44
267.52	83.44
267.752	75.44
267.984	79.44
268.216	75.44
268.448	79.44
268.681	77.44
268.913	75.44
269.145	82.44
269.377	66.44
269.609	69.44
269.841	82.44
270.073	76.44
270.306	76.44
270.538	65.44
270.77	68.44
271.002	71.44
271.234	82.44
271.466	74.44
271.698	74.44
271.93	79.44
272.162	68.44
272.394	72.44
272.626	82.44
272.858	79.44
273.09	83.44
273.322	79.44
273.553	76.44
273.785	89.44
274.017	72.44
274.249	82.44
274.481	83.44
274.713	94.44
274.945	88.44
275.176	85.44
275.408	93.44
275.64	73.44
275.872	87.44
276.104	82.44
276.335	79.44
276.567	84.44
276.799	89.44
277.031	83.44
277.262	75.44
277.494	72.44
277.726	73.44
277.957	82.44
278.189	91.44
278.421	76.44
278.652	71.44
278.884	87.44
279.115	94.44
279.347	82.44
279.579	82.44
279.81	67.44
280.042	75.44
280.273	95.44
280.505	84.44
280.736	88.44
280.968	99.44
281.199	78.44
281.431	74.44
281.662	67.44
281.894	89.44
282.125	78.44
282.356	93.44
282.588	75.44
282.819	82.44
283.051	84.44
283.282	92.44
283.513	90.44
283.745	96.44
283.976	76.44
284.207	67.44
284.439	74.44
284.67	83.44
284.901	83.44
285.132	75.44
285.364	81.44
285.595	81.44
285.826	79.44
286.057	88.44
286.288	79.44
286.52	72.44
286.751	78.44
286.982	84.44
287.213	95.44
287.444	91.44
287.675	85.44
287.906	68.44
288.138	96.44
288.369	72.44
288.6	81.44
288.831	86.44
289.062	91.44
289.293	86.44
289.524	79.44
289.755	67.44
289.986	87.44
290.217	87.44
290.448	84.44
290.679	90.44
290.91	86.44
291.141	81.44
291.371	84.44
291.602	90.44
291.833	79.44
292.064	82.44
292.295	87.44
292.526	88.44
292.757	81.44
292.987	87.44
293.218	74.44
293.449	67.44
293.68	81.44
293.91	85.44
294.141	77.44
294.372	89.44
294.603	84.44
294.833	80.44
295.064	94.44
295.295	71.44
295.525	78.44
295.756	92.44
295.987	67.44
296.217	74.44
296.448	72.44
296.679	79.44
296.909	64.44
297.14	77.44
297.37	84.44
297.601	90.44
297.831	86.44
298.062	86.44
298.292	90.44
298.523	91.44
298.753	79.44
298.984	75.44
299.214	86.44
299.445	84.44
299.675	85.44
299.905	66.44
300.136	87.44
300.366	79.44
300.597	84.44
300.827	90.44
301.057	83.44
301.288	77.44
301.518	80.44
301.748	77.44
301.979	79.44
302.209	95.44
302.439	90.44
302.669	82.44
302.9	86.44
303.13	80.44
303.36	81.44
303.59	79.44
303.82	83.44
304.051	87.44
304.281	94.44
304.511	80.44
304.741	82.44
304.971	75.44
305.201	75.44
305.431	74.44
305.661	74.44
305.891	80.44
306.121	87.44
306.352	68.44
306.582	86.44
306.812	85.44
307.042	76.44
307.272	88.44
307.502	76.44
307.731	87.44
307.961	88.44
308.191	79.44
308.421	92.44
308.651	78.44
308.881	88.44
309.111	84.44
309.341	80.44
309.571	84.44
309.8	73.44
310.03	97.44
310.26	82.44
310.49	66.44
310.72	76.44
310.949	78.44
311.179	95.44
311.409	83.44
311.639	94.44
311.868	90.44
312.098	84.44
312.328	83.44
312.557	90.44
312.787	84.44
313.017	86.44
313.246	78.44
313.476	84.44
313.706	79.44
313.935	93.44
314.165	66.44
314.394	78.44
314.624	81.44
314.853	81.44
315.083	91.44
315.312	100.44
315.542	74.44
315.771	84.44
316.001	77.44
316.23	89.44
316.46	80.44
316.689	84.44
316.919	86.44
317.148	80.44
317.377	82.44
317.607	91.44
317.836	83.44
318.065	89.44
318.295	76.44
318.524	89.44
318.753	77.44
318.983	88.44
319.212	87.44
319.441	81.44
319.67	78.44
319.9	74.44
320.129	80.44
320.358	90.44
320.587	97.44
320.816	80.44
321.046	80.44
321.275	95.44
321.504	83.44
321.733	79.44
321.962	73.44
322.191	82.44
322.42	68.44
322.649	87.44
322.878	91.44
323.108	91.44
323.337	85.44
323.566	81.44
323.795	74.44
324.024	81.44
324.253	72.44
324.482	89.44
324.71	67.44
324.939	83.44
325.168	72.44
325.397	102.44
325.626	85.44
325.855	89.44
326.084	83.44
326.313	80.44
326.542	85.44
326.77	80.44
326.999	87.44
327.228	73.44
327.457	75.44
327.686	90.44
327.914	95.44
328.143	87.44
328.372	99.44
328.6	90.44
328.829	89.44
329.058	84.44
329.287	94.44
329.515	81.44
329.744	81.44
329.972	80.44
330.201	86.44
330.43	81.44
330.658	84.44
330.887	77.44
331.115	101.44
331.344	83.44
331.572	91.44
331.801	91.44
332.03	71.44
332.258	92.44
332.486	85.44
332.715	73.44
332.943	78.44
333.172	90.44
333.4	85.44
333.629	85.44
333.857	92.44
334.085	72.44
334.314	87.44
334.542	84.44
334.771	90.44
334.999	80.44
335.227	74.44
335.455	70.44
335.684	85.44
335.912	77.44
336.14	84.44
336.369	87.44
336.597	80.44
336.825	99.44
337.053	82.44
337.281	93.44
337.51	91.44
337.738	87.44
337.966	87.44
338.194	77.44
338.422	88.44
338.65	75.44
338.878	96.44
339.106	96.44
339.334	81.44
339.562	85.44
339.79	87.44
340.018	63.44
340.246	74.44
340.474	90.44
340.702	90.44
340.93	82.44
341.158	82.44
341.386	88.44
341.614	80.44
341.842	82.44
342.07	86.44
342.298	78.44
342.526	78.44
342.754	82.44
342.981	79.44
343.209	88.44
343.437	96.44
343.665	81.44
343.893	75.44
344.12	81.44
344.348	89.44
344.576	81.44
344.804	99.44
345.031	75.44
345.259	76.44
345.487	95.44
345.714	87.44
345.942	84.44
346.17	99.44
346.397	80.44
346.625	76.44
346.853	91.44
347.08	85.44
347.308	66.44
347.535	84.44
347.763	86.44
347.99	82.44
348.218	86.44
348.445	87.44
348.673	77.44
348.9	97.44
349.128	91.44
349.355	82.44
349.583	77.44
349.81	84.44
350.037	90.44
350.265	89.44
350.492	70.44
350.72	84.44
350.947	84.44
351.174	74.44
351.402	82.44
351.629	89.44
351.856	83.44
352.083	96.44
352.311	84.44
352.538	94.44
352.765	82.44
352.992	87.44
353.22	79.44
353.447	93.44
353.674	76.44
353.901	72.44
354.128	70.44
354.355	76.44
354.583	83.44
354.81	93.44
355.037	79.44
355.264	79.44
355.491	77.44
355.718	80.44
355.945	84.44
356.172	80.44
356.399	91.44
356.626	78.44
356.853	82.44
357.08	93.44
357.307	68.44
357.534	81.44
357.761	83.44
357.988	89.44
358.215	82.44
358.441	78.44
358.668	80.44
358.895	87.44
359.122	66.44
359.349	88.44
359.576	79.44
359.802	86.44
360.029	88.44
360.256	81.44
360.483	83.44
360.709	96.44
360.936	87.44
361.163	81.44
361.39	90.44
361.616	78.44
361.843	74.44
362.07	74.44
362.296	87.44
362.523	83.44
362.749	91.44
362.976	80.44
363.203	94.44
363.429	84.44
363.656	95.44
363.882	88.44
364.109	77.44
364.335	85.44
364.562	74.44
364.788	79.44
365.015	76.44
365.241	84.44
365.468	91.44
365.694	88.44
365.92	83.44
366.147	86.44
366.373	84.44
366.599	85.44
366.826	89.44
367.052	89.44
367.278	81.44
367.505	87.44
367.731	98.44
367.957	90.44
368.184	87.44
368.41	99.44
368.636	92.44
368.862	100.44
369.089	83.44
369.315	90.44
369.541	91.44
369.767	77.44
369.993	92.44
370.219	90.44
370.445	90.44
370.672	86.44
370.898	91.44
371.124	97.44
371.35	76.44
371.576	88.44
371.802	99.44
372.028	85.44
372.254	79.44
372.48	101.44
372.706	93.44
372.932	79.44
373.158	97.44
373.384	106.44
373.61	86.44
373.835	94.44
374.061	104.44
374.287	96.44
374.513	101.44
374.739	93.44
374.965	99.44
375.191	100.44
375.416	89.44
375.642	97.44
375.868	103.44
376.094	83.44
376.319	92.44
376.545	96.44
376.771	86.44
376.997	90.44
377.222	98.44
377.448	92.44
377.674	95.44
377.899	90.44
378.125	85.44
378.35	96.44
378.576	92.44
378.802	97.44
379.027	105.44
379.253	106.44
379.478	91.44
379.704	89.44
379.929	87.44
380.155	104.44
380.38	95.44
380.606	102.44
380.831	96.44
381.057	87.44
381.282	100.44
381.507	103.44
381.733	105.44
381.958	97.44
382.184	95.44
382.409	96.44
382.634	110.44
382.86	97.44
383.085	95.44
383.31	114.44
383.535	106.44
383.761	105.44
383.986	92.44
384.211	88.44
384.436	91.44
384.662	83.44
384.887	102.44
385.112	89.44
385.337	105.44
385.562	107.44
385.787	106.44
386.013	108.44
386.238	87.44
386.463	96.44
386.688	99.44
386.913	90.44
387.138	96.44
387.363	99.44
387.588	102.44
387.813	100.44
388.038	119.44
388.263	101.44
388.488	107.44
388.713	92.44
388.938	81.44
389.163	95.44
389.387	105.44
389.612	97.44
389.837	94.44
390.062	91.44
390.287	87.44
390.512	103.44
390.736	110.44
390.961	94.44
391.186	110.44
391.411	96.44
391.636	100.44
391.86	115.44
392.085	103.44
392.31	102.44
392.534	98.44
392.759	108.44
392.984	95.44
393.208	110.44
393.433	96.44
393.658	93.44
393.882	99.44
394.107	107.44
394.331	107.44
394.556	99.44
394.78	96.44
395.005	106.44
395.229	102.44
395.454	113.44
395.678	109.44
395.903	111.44
396.127	103.44
396.352	126.44
396.576	116.44
396.801	93.44
397.025	108.44
397.249	112.44
397.474	110.44
397.698	107.44
397.922	107.44
398.147	103.44
398.371	89.44
398.595	114.44
398.82	99.44
399.044	115.44
399.268	109.44
399.492	116.44
399.717	125.44
399.941	112.44
400.165	124.44
400.389	108.44
400.613	104.44
400.837	116.44
401.062	110.44
401.286	122.44
401.51	115.44
401.734	117.44
401.958	133.44
402.182	118.44
402.406	108.44
402.63	126.44
402.854	102.44
403.078	113.44
403.302	122.44
403.526	106.44
403.75	116.44
403.974	118.44
404.198	105.44
404.422	119.44
404.645	124.44
404.869	108.44
405.093	116.44
405.317	112.44
405.541	126.44
405.765	108.44
405.988	115.44
406.212	121.44
406.436	115.44
406.66	126.44
406.883	109.44
407.107	114.44
407.331	110.44
407.555	118.44
407.778	129.44
408.002	128.44
408.226	122.44
408.449	127.44
408.673	122.44
408.896	122.44
409.12	134.44
409.344	116.44
409.567	121.44
409.791	132.44
410.014	124.44
410.238	123.44
410.461	123.44
410.685	110.44
410.908	116.44
411.132	130.44
411.355	128.44
411.578	122.44
411.802	117.44
412.025	129.44
412.249	130.44
412.472	121.44
412.695	118.44
412.919	131.44
413.142	128.44
413.365	124.44
413.589	111.44
413.812	128.44
414.035	129.44
414.258	118.44
414.482	116.44
414.705	128.44
414.928	126.44
415.151	135.44
415.374	127.44
415.597	135.44
415.821	123.44
416.044	116.44
416.267	123.44
416.49	123.44
416.713	123.44
416.936	119.44
417.159	121.44
417.382	121.44
417.605	139.44
417.828	125.44
418.051	128.44
418.274	138.44
418.497	129.44
418.72	141.44
418.943	117.44
419.166	138.44
419.389	131.44
419.611	127.44
419.834	131.44
420.057	132.44
420.28	129.44
420.503	131.44
420.726	141.44
420.948	134.44
421.171	146.44
421.394	146.44
421.617	128.44
421.839	142.44
422.062	149.44
422.285	125.44
422.507	135.44
422.73	140.44
422.953	137.44
423.175	148.44
423.398	150.44
423.621	141.44
423.843	134.44
424.066	144.44
424.288	136.44
424.511	145.44
424.733	154.44
424.956	134.44
425.178	127.44
425.401	137.44
425.623	150.44
425.846	125.44
426.068	126.44
426.291	139.44
426.513	138.44
426.735	131.44
426.958	130.44
427.18	140.44
427.402	128.44
427.625	124.44
427.847	123.44
428.069	144.44
428.292	128.44
428.514	117.44
428.736	138.44
428.958	131.44
429.181	141.44
429.403	129.44
429.625	129.44
429.847	132.44
430.069	129.44
430.292	127.44
430.514	124.44
430.736	132.44
430.958	138.44
431.18	131.44
431.402	130.44
431.624	128.44
431.846	101.44
432.068	91.44
432.29	107.44
432.512	127.44
432.734	120.44
432.956	127.44
433.178	132.44
433.4	124.44
433.622	139.44
433.844	120.44
434.066	132.44
434.287	101.44
434.509	105.44
434.731	101.44
434.953	111.44
435.175	122.44
435.397	128.44
435.618	115.44
435.84	110.44
436.062	122.44
436.284	117.44
436.505	119.44
436.727	139.44
436.949	138.44
437.17	120.44
437.392	122.44
437.614	118.44
437.835	115.44
438.057	112.44
438.278	133.44
438.5	139.44
438.721	129.44
438.943	120.44
439.165	141.44
439.386	134.44
439.608	148.44
439.829	149.44
440.05	145.44
440.272	155.44
440.493	150.44
440.715	134.44
440.936	132.44
441.158	151.44
441.379	144.44
441.6	172.44
441.822	165.44
442.043	136.44
442.264	138.44
442.486	149.44
442.707	127.44
442.928	144.44
443.149	131.44
443.371	148.44
443.592	139.44
443.813	156.44
444.034	149.44
444.255	146.44
444.476	126.44
444.698	145.44
444.919	148.44
445.14	259.44
445.361	216.44
445.582	152.44
445.803	155.44
446.024	145.44
446.245	159.44
446.466	155.44
446.687	156.44
446.908	167.44
447.129	152.44
447.35	146.44
447.571	169.44
447.792	151.44
448.013	144.44
448.234	141.44
448.455	130.44
448.675	135.44
448.896	143.44
449.117	140.44
449.338	135.44
449.559	146.44
449.779	140.44
450	158.44
450.221	150.44
450.442	151.44
450.662	132.44
450.883	142.44
451.104	132.44
451.324	136.44
451.545	136.44
451.766	123.44
451.986	133.44
452.207	140.44
452.428	129.44
452.648	129.44
452.869	100.44
453.089	130.44
453.31	103.44
453.53	105.44
453.751	113.44
453.971	100.44
454.192	100.44
454.412	105.44
454.633	115.44
454.853	118.44
455.073	123.44
455.294	122.44
455.514	116.44
455.734	123.44
455.955	124.44
456.175	121.44
456.395	100.44
456.616	118.44
456.836	119.44
457.056	113.44
457.276	110.44
457.497	104.44
457.717	98.44
457.937	100.44
458.157	117.44
458.377	112.44
458.598	113.44
458.818	102.44
459.038	91.44
459.258	92.44
459.478	97.44
459.698	96.44
459.918	82.44
460.138	107.44
460.358	116.44
460.578	116.44
460.798	120.44
461.018	107.44
461.238	113.44
461.458	118.44
461.678	90.44
461.898	104.44
462.118	112.44
462.338	122.44
462.558	120.44
462.777	119.44
462.997	113.44
463.217	110.44
463.437	112.44
463.657	121.44
463.876	126.44
464.096	112.44
464.316	114.44
464.536	107.44
464.755	114.44
464.975	120.44
465.195	114.44
465.414	103.44
465.634	107.44
465.854	123.44
466.073	128.44
466.293	120.44
466.512	124.44
466.732	132.44
466.951	142.44
467.171	148.44
467.391	125.44
467.61	136.44
467.829	136.44
468.049	134.44
468.268	136.44
468.488	142.44
468.707	150.44
468.927	147.44
469.146	143.44
469.365	141.44
469.585	139.44
469.804	136.44
470.023	143.44
470.243	154.44
470.462	131.44
470.681	155.44
470.901	150.44
471.12	139.44
471.339	151.44
471.558	140.44
471.777	136.44
471.997	130.44
472.216	113.44
472.435	125.44
472.654	95.44
472.873	114.44
473.092	126.44
473.311	131.44
473.53	142.44
473.749	125.44
473.968	148.44
474.187	129.44
474.406	106.44
474.625	126.44
474.844	146.44
475.063	132.44
475.282	126.44
475.501	127.44
475.72	123.44
475.939	133.44
476.158	123.44
476.377	128.44
476.596	140.44
476.814	112.44
477.033	94.44
477.252	114.44
477.471	130.44
477.69	137.44
477.908	134.44
478.127	129.44
478.346	147.44
478.564	153.44
478.783	138.44
479.002	146.44
479.22	135.44
479.439	131.44
479.658	121.44
479.876	110.44
480.095	95.44
480.313	124.44
480.532	130.44
480.751	115.44
480.969	99.44
481.188	96.44
481.406	80.44
481.624	100.44
481.843	89.44
482.061	96.44
482.28	119.44
482.498	119.44
482.717	103.44
482.935	122.44
483.153	132.44
483.372	153.44
483.59	162.44
483.808	158.44
484.027	136.44
484.245	144.44
484.463	148.44
484.681	168.44
484.9	149.44
485.118	137.44
485.336	139.44
485.554	117.44
485.772	111.44
485.99	105.44
486.209	121.44
486.427	120.44
486.645	131.44
486.863	140.44
487.081	143.44
487.299	147.44
487.517	155.44
487.735	180.44
487.953	190.44
488.171	197.44
488.389	181.44
488.607	168.44
488.825	160.44
489.043	132.44
489.261	142.44
489.479	121.44
489.696	155.44
489.914	136.44
490.132	152.44
490.35	168.44
490.568	168.44
490.786	188.44
491.003	176.44
491.221	178.44
491.439	182.44
491.657	199.44
491.874	197.44
492.092	227.44
492.31	255.44
492.527	231.44
492.745	235.44
492.963	198.44
493.18	179.44
493.398	184.44
493.615	187.44
493.833	200.44
494.05	168.44
494.268	179.44
494.485	177.44
494.703	177.44
494.92	192.44
495.138	187.44
495.355	182.44
495.573	177.44
495.79	165.44
496.008	152.44
496.225	189.44
496.442	187.44
496.66	187.44
496.877	162.44
497.094	166.44
497.312	162.44
497.529	169.44
497.746	170.44
497.963	124.44
498.181	148.44
498.398	146.44
498.615	127.44
498.832	116.44
499.049	119.44
499.267	124.44
499.484	124.44
499.701	129.44
499.918	140.44
500.135	131.44
500.352	139.44
500.569	136.44
500.786	142.44
501.003	133.44
501.22	146.44
501.437	144.44
501.654	141.44
501.871	132.44
502.088	156.44
502.305	133.44
502.522	141.44
502.739	132.44
502.956	139.44
503.172	129.44
503.389	130.44
503.606	116.44
503.823	125.44
504.04	126.44
504.256	127.44
504.473	133.44
504.69	117.44
504.907	114.44
505.123	126.44
505.34	120.44
505.557	120.44
505.773	137.44
505.99	124.44
506.207	114.44
506.423	125.44
506.64	120.44
506.856	125.44
507.073	120.44
507.289	127.44
507.506	133.44
507.722	125.44
507.939	118.44
508.155	126.44
508.372	121.44
508.588	112.44
508.805	106.44
509.021	117.44
509.238	119.44
509.454	95.44
509.67	97.44
509.887	97.44
510.103	100.44
510.319	111.44
510.536	108.44
510.752	91.44
510.968	82.44
511.184	78.44
511.401	73.44
511.617	88.44
