Data from Location6.07152019.Energy5.Lamp.07192019.3%Agarose_HRD10591_16-12-22-395.txt Node
Date: Fri Jul 19 16:12:22 EDT 2019
User: cochatt
Spectrometer: HR+D1059
Trigger mode: 1
Integration Time (sec): 1.000000E-1
Scans to average: 1
Electric dark correction enabled: true
Nonlinearity correction enabled: false
Boxcar width: 0
XAxis mode: Wavelengths
Number of Pixels in Spectrum: 2048
>>>>>Begin Spectral Data<<<<<
223.165	-24.44
223.4	-24.44
223.635	-24.44
223.869	-13.44
224.104	-22.44
224.338	-3.44
224.573	-9.44
224.808	-13.44
225.042	-11.44
225.277	-15.44
225.511	-2.44
225.746	17.56
225.98	6.56
226.215	12.56
226.449	7.56
226.683	7.56
226.918	34.56
227.152	29.56
227.387	24.56
227.621	39.56
227.856	39.56
228.09	51.56
228.324	63.56
228.559	53.56
228.793	57.56
229.027	64.56
229.262	73.56
229.496	58.56
229.73	65.56
229.964	50.56
230.199	70.56
230.433	98.56
230.667	94.56
230.901	84.56
231.136	81.56
231.37	87.56
231.604	81.56
231.838	85.56
232.072	93.56
232.306	93.56
232.541	78.56
232.775	93.56
233.009	85.56
233.243	86.56
233.477	78.56
233.711	90.56
233.945	72.56
234.179	83.56
234.413	73.56
234.647	90.56
234.881	84.56
235.115	82.56
235.349	85.56
235.583	80.56
235.817	80.56
236.051	82.56
236.285	86.56
236.519	79.56
236.753	76.56
236.987	77.56
237.221	77.56
237.455	75.56
237.689	78.56
237.922	74.56
238.156	93.56
238.39	73.56
238.624	76.56
238.858	70.56
239.091	105.56
239.325	85.56
239.559	73.56
239.793	78.56
240.027	77.56
240.26	79.56
240.494	86.56
240.728	69.56
240.961	81.56
241.195	88.56
241.429	76.56
241.662	82.56
241.896	65.56
242.13	74.56
242.363	84.56
242.597	77.56
242.83	76.56
243.064	76.56
243.298	81.56
243.531	80.56
243.765	76.56
243.998	78.56
244.232	79.56
244.465	87.56
244.699	79.56
244.932	80.56
245.166	91.56
245.399	85.56
245.633	79.56
245.866	86.56
246.099	69.56
246.333	77.56
246.566	88.56
246.8	84.56
247.033	82.56
247.266	93.56
247.5	69.56
247.733	73.56
247.966	72.56
248.2	82.56
248.433	78.56
248.666	87.56
248.899	79.56
249.133	78.56
249.366	85.56
249.599	80.56
249.832	95.56
250.066	75.56
250.299	76.56
250.532	75.56
250.765	80.56
250.998	75.56
251.231	72.56
251.465	72.56
251.698	94.56
251.931	75.56
252.164	63.56
252.397	74.56
252.63	86.56
252.863	81.56
253.096	90.56
253.329	81.56
253.562	80.56
253.795	77.56
254.028	77.56
254.261	74.56
254.494	85.56
254.727	81.56
254.96	77.56
255.193	99.56
255.426	89.56
255.659	95.56
255.892	83.56
256.124	76.56
256.357	84.56
256.59	82.56
256.823	77.56
257.056	76.56
257.289	67.56
257.521	84.56
257.754	83.56
257.987	87.56
258.22	84.56
258.452	102.56
258.685	77.56
258.918	82.56
259.151	90.56
259.383	79.56
259.616	89.56
259.849	92.56
260.081	82.56
260.314	79.56
260.547	72.56
260.779	77.56
261.012	74.56
261.244	81.56
261.477	95.56
261.71	77.56
261.942	91.56
262.175	61.56
262.407	81.56
262.64	76.56
262.872	76.56
263.105	79.56
263.337	83.56
263.57	79.56
263.802	86.56
264.035	84.56
264.267	90.56
264.499	76.56
264.732	90.56
264.964	78.56
265.197	78.56
265.429	83.56
265.661	98.56
265.894	76.56
266.126	77.56
266.358	85.56
266.591	90.56
266.823	75.56
267.055	91.56
267.287	82.56
267.52	81.56
267.752	90.56
267.984	76.56
268.216	85.56
268.448	90.56
268.681	74.56
268.913	82.56
269.145	85.56
269.377	76.56
269.609	84.56
269.841	78.56
270.073	87.56
270.306	93.56
270.538	91.56
270.77	79.56
271.002	87.56
271.234	90.56
271.466	93.56
271.698	83.56
271.93	87.56
272.162	79.56
272.394	85.56
272.626	86.56
272.858	79.56
273.09	96.56
273.322	90.56
273.553	76.56
273.785	81.56
274.017	79.56
274.249	92.56
274.481	99.56
274.713	87.56
274.945	82.56
275.176	77.56
275.408	87.56
275.64	78.56
275.872	87.56
276.104	84.56
276.335	89.56
276.567	101.56
276.799	75.56
277.031	85.56
277.262	91.56
277.494	92.56
277.726	93.56
277.957	94.56
278.189	73.56
278.421	93.56
278.652	75.56
278.884	102.56
279.115	75.56
279.347	82.56
279.579	84.56
279.81	86.56
280.042	90.56
280.273	85.56
280.505	77.56
280.736	75.56
280.968	86.56
281.199	87.56
281.431	91.56
281.662	98.56
281.894	84.56
282.125	75.56
282.356	78.56
282.588	94.56
282.819	96.56
283.051	87.56
283.282	82.56
283.513	91.56
283.745	103.56
283.976	83.56
284.207	79.56
284.439	84.56
284.67	78.56
284.901	83.56
285.132	93.56
285.364	82.56
285.595	81.56
285.826	90.56
286.057	87.56
286.288	76.56
286.52	88.56
286.751	82.56
286.982	78.56
287.213	90.56
287.444	83.56
287.675	83.56
287.906	93.56
288.138	84.56
288.369	81.56
288.6	93.56
288.831	89.56
289.062	94.56
289.293	81.56
289.524	81.56
289.755	87.56
289.986	94.56
290.217	83.56
290.448	83.56
290.679	91.56
290.91	79.56
291.141	79.56
291.371	78.56
291.602	75.56
291.833	83.56
292.064	97.56
292.295	78.56
292.526	97.56
292.757	92.56
292.987	82.56
293.218	81.56
293.449	85.56
293.68	88.56
293.91	93.56
294.141	89.56
294.372	89.56
294.603	89.56
294.833	85.56
295.064	93.56
295.295	79.56
295.525	80.56
295.756	93.56
295.987	70.56
296.217	83.56
296.448	97.56
296.679	83.56
296.909	87.56
297.14	91.56
297.37	86.56
297.601	88.56
297.831	76.56
298.062	83.56
298.292	83.56
298.523	82.56
298.753	84.56
298.984	93.56
299.214	82.56
299.445	92.56
299.675	88.56
299.905	71.56
300.136	88.56
300.366	87.56
300.597	90.56
300.827	86.56
301.057	97.56
301.288	78.56
301.518	90.56
301.748	89.56
301.979	92.56
302.209	93.56
302.439	77.56
302.669	109.56
302.9	104.56
303.13	87.56
303.36	67.56
303.59	74.56
303.82	83.56
304.051	82.56
304.281	85.56
304.511	89.56
304.741	85.56
304.971	84.56
305.201	89.56
305.431	83.56
305.661	85.56
305.891	79.56
306.121	78.56
306.352	94.56
306.582	85.56
306.812	81.56
307.042	84.56
307.272	80.56
307.502	88.56
307.731	77.56
307.961	82.56
308.191	86.56
308.421	83.56
308.651	93.56
308.881	86.56
309.111	83.56
309.341	94.56
309.571	85.56
309.8	80.56
310.03	87.56
310.26	89.56
310.49	99.56
310.72	90.56
310.949	88.56
311.179	83.56
311.409	84.56
311.639	102.56
311.868	90.56
312.098	87.56
312.328	83.56
312.557	79.56
312.787	79.56
313.017	98.56
313.246	88.56
313.476	82.56
313.706	87.56
313.935	91.56
314.165	76.56
314.394	97.56
314.624	97.56
314.853	92.56
315.083	84.56
315.312	92.56
315.542	85.56
315.771	91.56
316.001	91.56
316.23	107.56
316.46	80.56
316.689	79.56
316.919	93.56
317.148	89.56
317.377	89.56
317.607	95.56
317.836	69.56
318.065	77.56
318.295	103.56
318.524	81.56
318.753	72.56
318.983	92.56
319.212	88.56
319.441	78.56
319.67	79.56
319.9	92.56
320.129	92.56
320.358	87.56
320.587	84.56
320.816	86.56
321.046	79.56
321.275	72.56
321.504	77.56
321.733	88.56
321.962	94.56
322.191	98.56
322.42	79.56
322.649	99.56
322.878	92.56
323.108	76.56
323.337	92.56
323.566	84.56
323.795	85.56
324.024	86.56
324.253	85.56
324.482	108.56
324.71	97.56
324.939	97.56
325.168	86.56
325.397	86.56
325.626	86.56
325.855	89.56
326.084	93.56
326.313	78.56
326.542	79.56
326.77	85.56
326.999	96.56
327.228	84.56
327.457	90.56
327.686	97.56
327.914	90.56
328.143	105.56
328.372	79.56
328.6	99.56
328.829	91.56
329.058	91.56
329.287	87.56
329.515	89.56
329.744	98.56
329.972	79.56
330.201	82.56
330.43	91.56
330.658	91.56
330.887	88.56
331.115	106.56
331.344	91.56
331.572	86.56
331.801	84.56
332.03	75.56
332.258	89.56
332.486	79.56
332.715	93.56
332.943	79.56
333.172	78.56
333.4	79.56
333.629	84.56
333.857	95.56
334.085	93.56
334.314	98.56
334.542	93.56
334.771	103.56
334.999	96.56
335.227	78.56
335.455	88.56
335.684	92.56
335.912	83.56
336.14	80.56
336.369	71.56
336.597	93.56
336.825	91.56
337.053	78.56
337.281	95.56
337.51	76.56
337.738	88.56
337.966	87.56
338.194	79.56
338.422	85.56
338.65	82.56
338.878	78.56
339.106	83.56
339.334	86.56
339.562	100.56
339.79	87.56
340.018	84.56
340.246	87.56
340.474	90.56
340.702	87.56
340.93	95.56
341.158	82.56
341.386	82.56
341.614	83.56
341.842	78.56
342.07	74.56
342.298	85.56
342.526	100.56
342.754	89.56
342.981	79.56
343.209	71.56
343.437	76.56
343.665	76.56
343.893	79.56
344.12	74.56
344.348	100.56
344.576	86.56
344.804	93.56
345.031	91.56
345.259	109.56
345.487	81.56
345.714	86.56
345.942	76.56
346.17	91.56
346.397	102.56
346.625	61.56
346.853	86.56
347.08	90.56
347.308	96.56
347.535	80.56
347.763	77.56
347.99	93.56
348.218	90.56
348.445	86.56
348.673	91.56
348.9	81.56
349.128	103.56
349.355	86.56
349.583	84.56
349.81	83.56
350.037	80.56
350.265	91.56
350.492	79.56
350.72	71.56
350.947	74.56
351.174	78.56
351.402	86.56
351.629	102.56
351.856	79.56
352.083	91.56
352.311	95.56
352.538	89.56
352.765	84.56
352.992	90.56
353.22	69.56
353.447	86.56
353.674	89.56
353.901	77.56
354.128	86.56
354.355	96.56
354.583	80.56
354.81	75.56
355.037	78.56
355.264	79.56
355.491	85.56
355.718	82.56
355.945	84.56
356.172	93.56
356.399	84.56
356.626	81.56
356.853	89.56
357.08	90.56
357.307	102.56
357.534	94.56
357.761	84.56
357.988	79.56
358.215	87.56
358.441	88.56
358.668	83.56
358.895	97.56
359.122	89.56
359.349	85.56
359.576	89.56
359.802	79.56
360.029	79.56
360.256	94.56
360.483	90.56
360.709	83.56
360.936	78.56
361.163	89.56
361.39	95.56
361.616	79.56
361.843	85.56
362.07	72.56
362.296	90.56
362.523	77.56
362.749	78.56
362.976	73.56
363.203	95.56
363.429	79.56
363.656	77.56
363.882	96.56
364.109	83.56
364.335	82.56
364.562	89.56
364.788	84.56
365.015	89.56
365.241	96.56
365.468	83.56
365.694	93.56
365.92	97.56
366.147	101.56
366.373	91.56
366.599	79.56
366.826	85.56
367.052	85.56
367.278	92.56
367.505	87.56
367.731	97.56
367.957	94.56
368.184	83.56
368.41	103.56
368.636	91.56
368.862	96.56
369.089	104.56
369.315	91.56
369.541	95.56
369.767	103.56
369.993	93.56
370.219	87.56
370.445	95.56
370.672	91.56
370.898	82.56
371.124	84.56
371.35	78.56
371.576	87.56
371.802	106.56
372.028	101.56
372.254	106.56
372.48	87.56
372.706	93.56
372.932	88.56
373.158	95.56
373.384	99.56
373.61	94.56
373.835	92.56
374.061	93.56
374.287	97.56
374.513	95.56
374.739	112.56
374.965	94.56
375.191	98.56
375.416	96.56
375.642	99.56
375.868	98.56
376.094	105.56
376.319	90.56
376.545	113.56
376.771	96.56
376.997	99.56
377.222	102.56
377.448	100.56
377.674	93.56
377.899	79.56
378.125	86.56
378.35	94.56
378.576	90.56
378.802	100.56
379.027	97.56
379.253	94.56
379.478	91.56
379.704	88.56
379.929	101.56
380.155	106.56
380.38	98.56
380.606	99.56
380.831	106.56
381.057	113.56
381.282	105.56
381.507	103.56
381.733	106.56
381.958	100.56
382.184	97.56
382.409	97.56
382.634	113.56
382.86	98.56
383.085	106.56
383.31	107.56
383.535	99.56
383.761	104.56
383.986	107.56
384.211	116.56
384.436	104.56
384.662	99.56
384.887	94.56
385.112	97.56
385.337	100.56
385.562	92.56
385.787	87.56
386.013	99.56
386.238	98.56
386.463	115.56
386.688	118.56
386.913	95.56
387.138	100.56
387.363	120.56
387.588	97.56
387.813	109.56
388.038	96.56
388.263	118.56
388.488	101.56
388.713	109.56
388.938	98.56
389.163	93.56
389.387	109.56
389.612	117.56
389.837	113.56
390.062	100.56
390.287	104.56
390.512	103.56
390.736	89.56
390.961	97.56
391.186	100.56
391.411	99.56
391.636	100.56
391.86	107.56
392.085	115.56
392.31	106.56
392.534	110.56
392.759	100.56
392.984	118.56
393.208	115.56
393.433	113.56
393.658	119.56
393.882	105.56
394.107	110.56
394.331	109.56
394.556	101.56
394.78	113.56
395.005	125.56
395.229	93.56
395.454	118.56
395.678	101.56
395.903	115.56
396.127	108.56
396.352	116.56
396.576	117.56
396.801	103.56
397.025	111.56
397.249	101.56
397.474	121.56
397.698	112.56
397.922	102.56
398.147	105.56
398.371	96.56
398.595	108.56
398.82	117.56
399.044	107.56
399.268	118.56
399.492	104.56
399.717	105.56
399.941	114.56
400.165	105.56
400.389	116.56
400.613	127.56
400.837	122.56
401.062	126.56
401.286	108.56
401.51	111.56
401.734	102.56
401.958	116.56
402.182	113.56
402.406	109.56
402.63	118.56
402.854	117.56
403.078	136.56
403.302	109.56
403.526	127.56
403.75	114.56
403.974	133.56
404.198	118.56
404.422	124.56
404.645	122.56
404.869	125.56
405.093	123.56
405.317	132.56
405.541	134.56
405.765	120.56
405.988	115.56
406.212	114.56
406.436	117.56
406.66	120.56
406.883	110.56
407.107	142.56
407.331	139.56
407.555	110.56
407.778	121.56
408.002	124.56
408.226	118.56
408.449	121.56
408.673	126.56
408.896	112.56
409.12	125.56
409.344	124.56
409.567	117.56
409.791	119.56
410.014	131.56
410.238	127.56
410.461	125.56
410.685	119.56
410.908	121.56
411.132	119.56
411.355	121.56
411.578	137.56
411.802	123.56
412.025	120.56
412.249	133.56
412.472	127.56
412.695	119.56
412.919	121.56
413.142	137.56
413.365	127.56
413.589	125.56
413.812	123.56
414.035	111.56
414.258	127.56
414.482	115.56
414.705	126.56
414.928	133.56
415.151	139.56
415.374	121.56
415.597	115.56
415.821	119.56
416.044	151.56
416.267	133.56
416.49	111.56
416.713	125.56
416.936	133.56
417.159	155.56
417.382	133.56
417.605	129.56
417.828	122.56
418.051	130.56
418.274	128.56
418.497	133.56
418.72	142.56
418.943	118.56
419.166	134.56
419.389	133.56
419.611	130.56
419.834	149.56
420.057	129.56
420.28	130.56
420.503	135.56
420.726	135.56
420.948	145.56
421.171	133.56
421.394	145.56
421.617	146.56
421.839	134.56
422.062	146.56
422.285	137.56
422.507	136.56
422.73	140.56
422.953	131.56
423.175	137.56
423.398	133.56
423.621	130.56
423.843	138.56
424.066	124.56
424.288	135.56
424.511	155.56
424.733	159.56
424.956	152.56
425.178	142.56
425.401	129.56
425.623	129.56
425.846	125.56
426.068	125.56
426.291	129.56
426.513	136.56
426.735	130.56
426.958	122.56
427.18	126.56
427.402	146.56
427.625	134.56
427.847	139.56
428.069	132.56
428.292	135.56
428.514	134.56
428.736	134.56
428.958	149.56
429.181	143.56
429.403	144.56
429.625	148.56
429.847	125.56
430.069	124.56
430.292	137.56
430.514	154.56
430.736	133.56
430.958	154.56
431.18	129.56
431.402	133.56
431.624	117.56
431.846	106.56
432.068	89.56
432.29	99.56
432.512	113.56
432.734	133.56
432.956	141.56
433.178	136.56
433.4	130.56
433.622	134.56
433.844	145.56
434.066	121.56
434.287	117.56
434.509	105.56
434.731	106.56
434.953	115.56
435.175	133.56
435.397	122.56
435.618	110.56
435.84	110.56
436.062	125.56
436.284	124.56
436.505	129.56
436.727	133.56
436.949	137.56
437.17	145.56
437.392	141.56
437.614	115.56
437.835	114.56
438.057	119.56
438.278	125.56
438.5	141.56
438.721	139.56
438.943	149.56
439.165	152.56
439.386	157.56
439.608	153.56
439.829	157.56
440.05	152.56
440.272	155.56
440.493	153.56
440.715	149.56
440.936	157.56
441.158	161.56
441.379	142.56
441.6	155.56
441.822	155.56
442.043	123.56
442.264	149.56
442.486	149.56
442.707	135.56
442.928	144.56
443.149	148.56
443.371	159.56
443.592	154.56
443.813	129.56
444.034	139.56
444.255	155.56
444.476	142.56
444.698	156.56
444.919	137.56
445.14	286.56
445.361	218.56
445.582	166.56
445.803	163.56
446.024	143.56
446.245	148.56
446.466	158.56
446.687	164.56
446.908	160.56
447.129	152.56
447.35	158.56
447.571	155.56
447.792	155.56
448.013	157.56
448.234	144.56
448.455	151.56
448.675	145.56
448.896	145.56
449.117	147.56
449.338	150.56
449.559	133.56
449.779	137.56
450	149.56
450.221	137.56
450.442	135.56
450.662	136.56
450.883	149.56
451.104	144.56
451.324	143.56
451.545	136.56
451.766	124.56
451.986	128.56
452.207	134.56
452.428	135.56
452.648	143.56
452.869	119.56
453.089	115.56
453.31	110.56
453.53	109.56
453.751	133.56
453.971	111.56
454.192	118.56
454.412	116.56
454.633	117.56
454.853	138.56
455.073	129.56
455.294	124.56
455.514	122.56
455.734	121.56
455.955	119.56
456.175	133.56
456.395	130.56
456.616	121.56
456.836	117.56
457.056	114.56
457.276	100.56
457.497	99.56
457.717	90.56
457.937	99.56
458.157	115.56
458.377	110.56
458.598	106.56
458.818	100.56
459.038	108.56
459.258	88.56
459.478	88.56
459.698	106.56
459.918	106.56
460.138	112.56
460.358	111.56
460.578	133.56
460.798	120.56
461.018	114.56
461.238	99.56
461.458	125.56
461.678	115.56
461.898	119.56
462.118	119.56
462.338	124.56
462.558	115.56
462.777	116.56
462.997	117.56
463.217	115.56
463.437	112.56
463.657	113.56
463.876	118.56
464.096	107.56
464.316	113.56
464.536	118.56
464.755	128.56
464.975	122.56
465.195	123.56
465.414	136.56
465.634	122.56
465.854	119.56
466.073	126.56
466.293	114.56
466.512	133.56
466.732	119.56
466.951	148.56
467.171	142.56
467.391	144.56
467.61	133.56
467.829	136.56
468.049	146.56
468.268	145.56
468.488	121.56
468.707	133.56
468.927	147.56
469.146	143.56
469.365	144.56
469.585	130.56
469.804	142.56
470.023	134.56
470.243	152.56
470.462	158.56
470.681	159.56
470.901	153.56
471.12	155.56
471.339	137.56
471.558	129.56
471.777	146.56
471.997	148.56
472.216	126.56
472.435	117.56
472.654	108.56
472.873	113.56
473.092	120.56
473.311	127.56
473.53	141.56
473.749	139.56
473.968	153.56
474.187	141.56
474.406	114.56
474.625	137.56
474.844	127.56
475.063	121.56
475.282	133.56
475.501	141.56
475.72	144.56
475.939	128.56
476.158	130.56
476.377	125.56
476.596	137.56
476.814	97.56
477.033	114.56
477.252	107.56
477.471	125.56
477.69	142.56
477.908	154.56
478.127	146.56
478.346	134.56
478.564	133.56
478.783	133.56
479.002	148.56
479.22	141.56
479.439	159.56
479.658	123.56
479.876	107.56
480.095	128.56
480.313	125.56
480.532	121.56
480.751	110.56
480.969	98.56
481.188	94.56
481.406	94.56
481.624	81.56
481.843	80.56
482.061	114.56
482.28	110.56
482.498	114.56
482.717	117.56
482.935	129.56
483.153	156.56
483.372	159.56
483.59	163.56
483.808	165.56
484.027	135.56
484.245	138.56
484.463	151.56
484.681	179.56
484.9	146.56
485.118	139.56
485.336	132.56
485.554	126.56
485.772	100.56
485.99	111.56
486.209	108.56
486.427	118.56
486.645	126.56
486.863	153.56
487.081	155.56
487.299	138.56
487.517	140.56
487.735	174.56
487.953	193.56
488.171	205.56
488.389	190.56
488.607	168.56
488.825	158.56
489.043	154.56
489.261	131.56
489.479	137.56
489.696	149.56
489.914	133.56
490.132	153.56
490.35	155.56
490.568	174.56
490.786	175.56
491.003	174.56
491.221	182.56
491.439	189.56
491.657	205.56
491.874	202.56
492.092	257.56
492.31	261.56
492.527	255.56
492.745	216.56
492.963	215.56
493.18	209.56
493.398	195.56
493.615	199.56
493.833	185.56
494.05	163.56
494.268	185.56
494.485	191.56
494.703	196.56
494.92	188.56
495.138	197.56
495.355	203.56
495.573	190.56
495.79	168.56
496.008	183.56
496.225	176.56
496.442	173.56
496.66	197.56
496.877	169.56
497.094	172.56
497.312	173.56
497.529	182.56
497.746	163.56
497.963	145.56
498.181	137.56
498.398	127.56
498.615	124.56
498.832	120.56
499.049	118.56
499.267	126.56
499.484	139.56
499.701	135.56
499.918	131.56
500.135	156.56
500.352	142.56
500.569	138.56
500.786	141.56
501.003	138.56
501.22	162.56
501.437	164.56
501.654	154.56
501.871	126.56
502.088	138.56
502.305	135.56
502.522	143.56
502.739	148.56
502.956	142.56
503.172	132.56
503.389	131.56
503.606	120.56
503.823	129.56
504.04	129.56
504.256	143.56
504.473	121.56
504.69	118.56
504.907	127.56
505.123	138.56
505.34	136.56
505.557	133.56
505.773	128.56
505.99	118.56
506.207	109.56
506.423	133.56
506.64	118.56
506.856	128.56
507.073	127.56
507.289	129.56
507.506	117.56
507.722	123.56
507.939	137.56
508.155	110.56
508.372	120.56
508.588	115.56
508.805	106.56
509.021	120.56
509.238	116.56
509.454	114.56
509.67	96.56
509.887	93.56
510.103	85.56
510.319	99.56
510.536	102.56
510.752	77.56
510.968	87.56
