Data from Location6.07152019.Energy5.Lamp.07192019.3%Agarose_HRD10591_16-11-12-394.txt Node
Date: Fri Jul 19 16:11:12 EDT 2019
User: cochatt
Spectrometer: HR+D1059
Trigger mode: 1
Integration Time (sec): 1.000000E-1
Scans to average: 1
Electric dark correction enabled: true
Nonlinearity correction enabled: false
Boxcar width: 0
XAxis mode: Wavelengths
Number of Pixels in Spectrum: 2048
>>>>>Begin Spectral Data<<<<<
223.165	-28.5
223.4	-28.5
223.635	-28.5
223.869	-19.5
224.104	-5.5
224.338	-1.5
224.573	2.5
224.808	0.5
225.042	-17.5
225.277	-23.5
225.511	3.5
225.746	-13.5
225.98	11.5
226.215	8.5
226.449	10.5
226.683	22.5
226.918	22.5
227.152	27.5
227.387	19.5
227.621	21.5
227.856	41.5
228.09	24.5
228.324	37.5
228.559	71.5
228.793	66.5
229.027	62.5
229.262	59.5
229.496	57.5
229.73	47.5
229.964	72.5
230.199	65.5
230.433	61.5
230.667	70.5
230.901	72.5
231.136	72.5
231.37	61.5
231.604	74.5
231.838	87.5
232.072	88.5
232.306	74.5
232.541	88.5
232.775	80.5
233.009	81.5
233.243	89.5
233.477	90.5
233.711	70.5
233.945	61.5
234.179	69.5
234.413	69.5
234.647	82.5
234.881	76.5
235.115	89.5
235.349	74.5
235.583	72.5
235.817	70.5
236.051	87.5
236.285	69.5
236.519	67.5
236.753	84.5
236.987	68.5
237.221	84.5
237.455	78.5
237.689	72.5
237.922	73.5
238.156	74.5
238.39	78.5
238.624	66.5
238.858	74.5
239.091	79.5
239.325	57.5
239.559	77.5
239.793	71.5
240.027	83.5
240.26	78.5
240.494	74.5
240.728	70.5
240.961	74.5
241.195	77.5
241.429	78.5
241.662	75.5
241.896	67.5
242.13	75.5
242.363	66.5
242.597	64.5
242.83	80.5
243.064	71.5
243.298	74.5
243.531	78.5
243.765	78.5
243.998	73.5
244.232	84.5
244.465	78.5
244.699	84.5
244.932	64.5
245.166	82.5
245.399	88.5
245.633	81.5
245.866	73.5
246.099	76.5
246.333	76.5
246.566	81.5
246.8	74.5
247.033	83.5
247.266	80.5
247.5	86.5
247.733	86.5
247.966	87.5
248.2	71.5
248.433	82.5
248.666	70.5
248.899	64.5
249.133	103.5
249.366	74.5
249.599	67.5
249.832	68.5
250.066	78.5
250.299	83.5
250.532	88.5
250.765	73.5
250.998	81.5
251.231	64.5
251.465	79.5
251.698	77.5
251.931	71.5
252.164	72.5
252.397	80.5
252.63	78.5
252.863	75.5
253.096	82.5
253.329	76.5
253.562	82.5
253.795	77.5
254.028	76.5
254.261	77.5
254.494	76.5
254.727	72.5
254.96	83.5
255.193	75.5
255.426	78.5
255.659	61.5
255.892	79.5
256.124	68.5
256.357	83.5
256.59	77.5
256.823	77.5
257.056	77.5
257.289	69.5
257.521	91.5
257.754	84.5
257.987	74.5
258.22	87.5
258.452	85.5
258.685	78.5
258.918	102.5
259.151	75.5
259.383	71.5
259.616	89.5
259.849	69.5
260.081	80.5
260.314	97.5
260.547	85.5
260.779	81.5
261.012	82.5
261.244	69.5
261.477	67.5
261.71	86.5
261.942	76.5
262.175	78.5
262.407	72.5
262.64	75.5
262.872	84.5
263.105	90.5
263.337	83.5
263.57	83.5
263.802	70.5
264.035	80.5
264.267	72.5
264.499	78.5
264.732	77.5
264.964	80.5
265.197	73.5
265.429	79.5
265.661	86.5
265.894	78.5
266.126	80.5
266.358	89.5
266.591	80.5
266.823	88.5
267.055	87.5
267.287	82.5
267.52	85.5
267.752	74.5
267.984	81.5
268.216	78.5
268.448	81.5
268.681	71.5
268.913	81.5
269.145	71.5
269.377	82.5
269.609	87.5
269.841	77.5
270.073	72.5
270.306	90.5
270.538	86.5
270.77	85.5
271.002	82.5
271.234	74.5
271.466	75.5
271.698	93.5
271.93	95.5
272.162	84.5
272.394	80.5
272.626	93.5
272.858	84.5
273.09	73.5
273.322	85.5
273.553	71.5
273.785	67.5
274.017	81.5
274.249	78.5
274.481	84.5
274.713	78.5
274.945	79.5
275.176	65.5
275.408	63.5
275.64	77.5
275.872	78.5
276.104	92.5
276.335	68.5
276.567	74.5
276.799	64.5
277.031	89.5
277.262	86.5
277.494	88.5
277.726	78.5
277.957	79.5
278.189	79.5
278.421	73.5
278.652	92.5
278.884	87.5
279.115	85.5
279.347	94.5
279.579	78.5
279.81	97.5
280.042	86.5
280.273	83.5
280.505	81.5
280.736	84.5
280.968	90.5
281.199	88.5
281.431	69.5
281.662	81.5
281.894	92.5
282.125	79.5
282.356	105.5
282.588	80.5
282.819	93.5
283.051	87.5
283.282	65.5
283.513	75.5
283.745	84.5
283.976	81.5
284.207	88.5
284.439	79.5
284.67	82.5
284.901	84.5
285.132	86.5
285.364	75.5
285.595	88.5
285.826	80.5
286.057	66.5
286.288	85.5
286.52	83.5
286.751	77.5
286.982	72.5
287.213	65.5
287.444	83.5
287.675	88.5
287.906	80.5
288.138	86.5
288.369	78.5
288.6	87.5
288.831	85.5
289.062	84.5
289.293	87.5
289.524	81.5
289.755	73.5
289.986	84.5
290.217	72.5
290.448	87.5
290.679	85.5
290.91	91.5
291.141	78.5
291.371	75.5
291.602	67.5
291.833	79.5
292.064	81.5
292.295	82.5
292.526	72.5
292.757	82.5
292.987	86.5
293.218	77.5
293.449	85.5
293.68	86.5
293.91	81.5
294.141	90.5
294.372	76.5
294.603	85.5
294.833	82.5
295.064	93.5
295.295	78.5
295.525	87.5
295.756	90.5
295.987	88.5
296.217	79.5
296.448	82.5
296.679	84.5
296.909	66.5
297.14	72.5
297.37	82.5
297.601	76.5
297.831	78.5
298.062	72.5
298.292	84.5
298.523	71.5
298.753	77.5
298.984	79.5
299.214	82.5
299.445	83.5
299.675	74.5
299.905	79.5
300.136	76.5
300.366	88.5
300.597	81.5
300.827	73.5
301.057	88.5
301.288	96.5
301.518	102.5
301.748	66.5
301.979	73.5
302.209	89.5
302.439	78.5
302.669	69.5
302.9	91.5
303.13	66.5
303.36	81.5
303.59	84.5
303.82	93.5
304.051	82.5
304.281	90.5
304.511	82.5
304.741	95.5
304.971	77.5
305.201	95.5
305.431	83.5
305.661	97.5
305.891	74.5
306.121	83.5
306.352	78.5
306.582	83.5
306.812	90.5
307.042	84.5
307.272	78.5
307.502	79.5
307.731	84.5
307.961	78.5
308.191	87.5
308.421	82.5
308.651	71.5
308.881	87.5
309.111	65.5
309.341	87.5
309.571	73.5
309.8	80.5
310.03	82.5
310.26	92.5
310.49	79.5
310.72	89.5
310.949	86.5
311.179	66.5
311.409	65.5
311.639	89.5
311.868	91.5
312.098	95.5
312.328	100.5
312.557	84.5
312.787	76.5
313.017	80.5
313.246	95.5
313.476	87.5
313.706	73.5
313.935	84.5
314.165	87.5
314.394	95.5
314.624	81.5
314.853	80.5
315.083	80.5
315.312	95.5
315.542	85.5
315.771	81.5
316.001	85.5
316.23	90.5
316.46	88.5
316.689	91.5
316.919	82.5
317.148	96.5
317.377	98.5
317.607	81.5
317.836	86.5
318.065	82.5
318.295	82.5
318.524	75.5
318.753	82.5
318.983	72.5
319.212	88.5
319.441	71.5
319.67	79.5
319.9	87.5
320.129	67.5
320.358	75.5
320.587	92.5
320.816	72.5
321.046	69.5
321.275	82.5
321.504	92.5
321.733	73.5
321.962	86.5
322.191	69.5
322.42	79.5
322.649	84.5
322.878	81.5
323.108	86.5
323.337	86.5
323.566	77.5
323.795	73.5
324.024	78.5
324.253	70.5
324.482	78.5
324.71	84.5
324.939	78.5
325.168	97.5
325.397	78.5
325.626	85.5
325.855	75.5
326.084	86.5
326.313	68.5
326.542	69.5
326.77	82.5
326.999	78.5
327.228	91.5
327.457	93.5
327.686	89.5
327.914	87.5
328.143	85.5
328.372	80.5
328.6	82.5
328.829	81.5
329.058	66.5
329.287	85.5
329.515	69.5
329.744	97.5
329.972	80.5
330.201	81.5
330.43	81.5
330.658	93.5
330.887	75.5
331.115	82.5
331.344	77.5
331.572	98.5
331.801	79.5
332.03	80.5
332.258	86.5
332.486	74.5
332.715	88.5
332.943	74.5
333.172	98.5
333.4	88.5
333.629	73.5
333.857	84.5
334.085	83.5
334.314	71.5
334.542	81.5
334.771	79.5
334.999	80.5
335.227	74.5
335.455	79.5
335.684	86.5
335.912	82.5
336.14	79.5
336.369	83.5
336.597	82.5
336.825	93.5
337.053	83.5
337.281	74.5
337.51	68.5
337.738	98.5
337.966	80.5
338.194	84.5
338.422	79.5
338.65	70.5
338.878	88.5
339.106	76.5
339.334	72.5
339.562	81.5
339.79	83.5
340.018	83.5
340.246	82.5
340.474	92.5
340.702	78.5
340.93	77.5
341.158	90.5
341.386	73.5
341.614	90.5
341.842	90.5
342.07	82.5
342.298	85.5
342.526	85.5
342.754	86.5
342.981	88.5
343.209	86.5
343.437	88.5
343.665	79.5
343.893	72.5
344.12	76.5
344.348	82.5
344.576	86.5
344.804	86.5
345.031	87.5
345.259	81.5
345.487	83.5
345.714	73.5
345.942	88.5
346.17	93.5
346.397	100.5
346.625	73.5
346.853	81.5
347.08	98.5
347.308	101.5
347.535	86.5
347.763	82.5
347.99	95.5
348.218	90.5
348.445	76.5
348.673	79.5
348.9	89.5
349.128	79.5
349.355	96.5
349.583	85.5
349.81	83.5
350.037	80.5
350.265	96.5
350.492	85.5
350.72	70.5
350.947	81.5
351.174	81.5
351.402	74.5
351.629	73.5
351.856	82.5
352.083	80.5
352.311	72.5
352.538	73.5
352.765	84.5
352.992	64.5
353.22	72.5
353.447	89.5
353.674	83.5
353.901	94.5
354.128	71.5
354.355	78.5
354.583	98.5
354.81	71.5
355.037	75.5
355.264	90.5
355.491	89.5
355.718	77.5
355.945	83.5
356.172	73.5
356.399	89.5
356.626	92.5
356.853	78.5
357.08	85.5
357.307	84.5
357.534	86.5
357.761	74.5
357.988	70.5
358.215	75.5
358.441	81.5
358.668	74.5
358.895	70.5
359.122	83.5
359.349	76.5
359.576	86.5
359.802	77.5
360.029	84.5
360.256	82.5
360.483	75.5
360.709	76.5
360.936	88.5
361.163	84.5
361.39	92.5
361.616	68.5
361.843	81.5
362.07	82.5
362.296	73.5
362.523	66.5
362.749	85.5
362.976	74.5
363.203	89.5
363.429	71.5
363.656	72.5
363.882	97.5
364.109	88.5
364.335	70.5
364.562	85.5
364.788	88.5
365.015	85.5
365.241	86.5
365.468	81.5
365.694	68.5
365.92	78.5
366.147	65.5
366.373	76.5
366.599	79.5
366.826	77.5
367.052	99.5
367.278	91.5
367.505	83.5
367.731	79.5
367.957	81.5
368.184	84.5
368.41	91.5
368.636	78.5
368.862	89.5
369.089	98.5
369.315	95.5
369.541	84.5
369.767	77.5
369.993	69.5
370.219	81.5
370.445	83.5
370.672	97.5
370.898	85.5
371.124	89.5
371.35	82.5
371.576	77.5
371.802	84.5
372.028	86.5
372.254	100.5
372.48	93.5
372.706	80.5
372.932	94.5
373.158	88.5
373.384	103.5
373.61	98.5
373.835	98.5
374.061	85.5
374.287	100.5
374.513	85.5
374.739	97.5
374.965	101.5
375.191	96.5
375.416	100.5
375.642	88.5
375.868	106.5
376.094	99.5
376.319	84.5
376.545	92.5
376.771	72.5
376.997	85.5
377.222	88.5
377.448	91.5
377.674	88.5
377.899	109.5
378.125	92.5
378.35	86.5
378.576	93.5
378.802	98.5
379.027	88.5
379.253	105.5
379.478	108.5
379.704	86.5
379.929	93.5
380.155	89.5
380.38	97.5
380.606	90.5
380.831	106.5
381.057	100.5
381.282	88.5
381.507	101.5
381.733	95.5
381.958	79.5
382.184	86.5
382.409	97.5
382.634	98.5
382.86	92.5
383.085	90.5
383.31	90.5
383.535	97.5
383.761	85.5
383.986	117.5
384.211	94.5
384.436	92.5
384.662	85.5
384.887	98.5
385.112	92.5
385.337	104.5
385.562	100.5
385.787	97.5
386.013	97.5
386.238	102.5
386.463	86.5
386.688	98.5
386.913	111.5
387.138	103.5
387.363	103.5
387.588	105.5
387.813	117.5
388.038	107.5
388.263	97.5
388.488	108.5
388.713	76.5
388.938	101.5
389.163	85.5
389.387	92.5
389.612	109.5
389.837	101.5
390.062	96.5
390.287	109.5
390.512	100.5
390.736	81.5
390.961	98.5
391.186	105.5
391.411	100.5
391.636	106.5
391.86	112.5
392.085	114.5
392.31	100.5
392.534	114.5
392.759	106.5
392.984	110.5
393.208	110.5
393.433	107.5
393.658	109.5
393.882	109.5
394.107	124.5
394.331	105.5
394.556	97.5
394.78	96.5
395.005	106.5
395.229	105.5
395.454	103.5
395.678	113.5
395.903	122.5
396.127	104.5
396.352	116.5
396.576	103.5
396.801	104.5
397.025	105.5
397.249	111.5
397.474	120.5
397.698	117.5
397.922	84.5
398.147	84.5
398.371	116.5
398.595	110.5
398.82	105.5
399.044	102.5
399.268	120.5
399.492	104.5
399.717	103.5
399.941	114.5
400.165	119.5
400.389	99.5
400.613	124.5
400.837	100.5
401.062	107.5
401.286	117.5
401.51	116.5
401.734	111.5
401.958	114.5
402.182	112.5
402.406	120.5
402.63	124.5
402.854	119.5
403.078	105.5
403.302	114.5
403.526	114.5
403.75	123.5
403.974	118.5
404.198	112.5
404.422	104.5
404.645	132.5
404.869	103.5
405.093	112.5
405.317	116.5
405.541	131.5
405.765	130.5
405.988	114.5
406.212	119.5
406.436	112.5
406.66	122.5
406.883	110.5
407.107	119.5
407.331	127.5
407.555	117.5
407.778	134.5
408.002	112.5
408.226	102.5
408.449	118.5
408.673	116.5
408.896	109.5
409.12	124.5
409.344	120.5
409.567	112.5
409.791	121.5
410.014	127.5
410.238	121.5
410.461	128.5
410.685	110.5
410.908	113.5
411.132	121.5
411.355	129.5
411.578	127.5
411.802	131.5
412.025	121.5
412.249	122.5
412.472	116.5
412.695	113.5
412.919	118.5
413.142	117.5
413.365	118.5
413.589	125.5
413.812	120.5
414.035	117.5
414.258	123.5
414.482	111.5
414.705	123.5
414.928	120.5
415.151	104.5
415.374	107.5
415.597	120.5
415.821	119.5
416.044	129.5
416.267	129.5
416.49	126.5
416.713	130.5
416.936	129.5
417.159	127.5
417.382	119.5
417.605	113.5
417.828	124.5
418.051	124.5
418.274	129.5
418.497	139.5
418.72	121.5
418.943	132.5
419.166	119.5
419.389	132.5
419.611	148.5
419.834	139.5
420.057	127.5
420.28	132.5
420.503	128.5
420.726	128.5
420.948	144.5
421.171	132.5
421.394	144.5
421.617	129.5
421.839	152.5
422.062	128.5
422.285	139.5
422.507	143.5
422.73	128.5
422.953	126.5
423.175	135.5
423.398	137.5
423.621	131.5
423.843	138.5
424.066	123.5
424.288	148.5
424.511	162.5
424.733	146.5
424.956	144.5
425.178	149.5
425.401	148.5
425.623	144.5
425.846	137.5
426.068	144.5
426.291	145.5
426.513	120.5
426.735	144.5
426.958	117.5
427.18	131.5
427.402	122.5
427.625	113.5
427.847	147.5
428.069	123.5
428.292	129.5
428.514	131.5
428.736	133.5
428.958	136.5
429.181	139.5
429.403	145.5
429.625	132.5
429.847	132.5
430.069	141.5
430.292	127.5
430.514	122.5
430.736	143.5
430.958	134.5
431.18	132.5
431.402	137.5
431.624	125.5
431.846	116.5
432.068	103.5
432.29	99.5
432.512	105.5
432.734	119.5
432.956	125.5
433.178	141.5
433.4	125.5
433.622	155.5
433.844	139.5
434.066	118.5
434.287	99.5
434.509	102.5
434.731	95.5
434.953	101.5
435.175	112.5
435.397	130.5
435.618	118.5
435.84	122.5
436.062	117.5
436.284	127.5
436.505	120.5
436.727	151.5
436.949	128.5
437.17	138.5
437.392	132.5
437.614	146.5
437.835	124.5
438.057	119.5
438.278	108.5
438.5	137.5
438.721	132.5
438.943	140.5
439.165	134.5
439.386	135.5
439.608	149.5
439.829	143.5
440.05	148.5
440.272	144.5
440.493	152.5
440.715	139.5
440.936	150.5
441.158	146.5
441.379	144.5
441.6	152.5
441.822	169.5
442.043	141.5
442.264	153.5
442.486	146.5
442.707	142.5
442.928	148.5
443.149	134.5
443.371	148.5
443.592	134.5
443.813	139.5
444.034	139.5
444.255	138.5
444.476	138.5
444.698	150.5
444.919	137.5
445.14	254.5
445.361	187.5
445.582	144.5
445.803	146.5
446.024	162.5
446.245	153.5
446.466	160.5
446.687	151.5
446.908	167.5
447.129	166.5
447.35	168.5
447.571	150.5
447.792	137.5
448.013	142.5
448.234	128.5
448.455	125.5
448.675	144.5
448.896	146.5
449.117	146.5
449.338	137.5
449.559	146.5
449.779	127.5
450	138.5
450.221	131.5
450.442	138.5
450.662	136.5
450.883	142.5
451.104	146.5
451.324	139.5
451.545	129.5
451.766	147.5
451.986	147.5
452.207	109.5
452.428	138.5
452.648	131.5
452.869	119.5
453.089	114.5
453.31	117.5
453.53	113.5
453.751	104.5
453.971	106.5
454.192	115.5
454.412	108.5
454.633	118.5
454.853	124.5
455.073	124.5
455.294	105.5
455.514	131.5
455.734	124.5
455.955	110.5
456.175	106.5
456.395	116.5
456.616	106.5
456.836	108.5
457.056	109.5
457.276	114.5
457.497	118.5
457.717	99.5
457.937	108.5
458.157	109.5
458.377	100.5
458.598	102.5
458.818	93.5
459.038	89.5
459.258	77.5
459.478	83.5
459.698	93.5
459.918	99.5
460.138	118.5
460.358	101.5
460.578	126.5
460.798	115.5
461.018	109.5
461.238	130.5
461.458	133.5
461.678	114.5
461.898	104.5
462.118	111.5
462.338	106.5
462.558	116.5
462.777	114.5
462.997	113.5
463.217	114.5
463.437	107.5
463.657	96.5
463.876	110.5
464.096	113.5
464.316	116.5
464.536	106.5
464.755	91.5
464.975	116.5
465.195	111.5
465.414	114.5
465.634	118.5
465.854	118.5
466.073	119.5
466.293	129.5
466.512	121.5
466.732	119.5
466.951	132.5
467.171	131.5
467.391	135.5
467.61	152.5
467.829	126.5
468.049	134.5
468.268	154.5
468.488	132.5
468.707	128.5
468.927	148.5
469.146	140.5
469.365	146.5
469.585	144.5
469.804	129.5
470.023	140.5
470.243	135.5
470.462	155.5
470.681	143.5
470.901	138.5
471.12	148.5
471.339	128.5
471.558	145.5
471.777	132.5
471.997	146.5
472.216	129.5
472.435	119.5
472.654	114.5
472.873	117.5
473.092	118.5
473.311	121.5
473.53	119.5
473.749	150.5
473.968	122.5
474.187	125.5
474.406	116.5
474.625	128.5
474.844	132.5
475.063	116.5
475.282	120.5
475.501	122.5
475.72	121.5
475.939	117.5
476.158	129.5
476.377	127.5
476.596	128.5
476.814	119.5
477.033	108.5
477.252	129.5
477.471	126.5
477.69	125.5
477.908	136.5
478.127	126.5
478.346	141.5
478.564	121.5
478.783	130.5
479.002	134.5
479.22	131.5
479.439	140.5
479.658	117.5
479.876	113.5
480.095	112.5
480.313	120.5
480.532	124.5
480.751	110.5
480.969	99.5
481.188	94.5
481.406	83.5
481.624	87.5
481.843	88.5
482.061	92.5
482.28	110.5
482.498	122.5
482.717	128.5
482.935	110.5
483.153	148.5
483.372	158.5
483.59	158.5
483.808	141.5
484.027	142.5
484.245	141.5
484.463	153.5
484.681	164.5
484.9	145.5
485.118	148.5
485.336	142.5
485.554	123.5
485.772	113.5
485.99	94.5
486.209	114.5
486.427	120.5
486.645	117.5
486.863	141.5
487.081	137.5
487.299	136.5
487.517	145.5
487.735	172.5
487.953	191.5
488.171	196.5
488.389	174.5
488.607	170.5
488.825	146.5
489.043	148.5
489.261	133.5
489.479	158.5
489.696	154.5
489.914	136.5
490.132	141.5
490.35	178.5
490.568	166.5
490.786	161.5
491.003	180.5
491.221	188.5
491.439	193.5
491.657	194.5
491.874	231.5
492.092	240.5
492.31	252.5
492.527	253.5
492.745	222.5
492.963	205.5
493.18	192.5
493.398	208.5
493.615	190.5
493.833	195.5
494.05	173.5
494.268	184.5
494.485	185.5
494.703	173.5
494.92	166.5
495.138	172.5
495.355	170.5
495.573	185.5
495.79	197.5
496.008	173.5
496.225	161.5
496.442	166.5
496.66	176.5
496.877	167.5
497.094	165.5
497.312	177.5
497.529	181.5
497.746	138.5
497.963	153.5
498.181	142.5
498.398	126.5
498.615	103.5
498.832	114.5
499.049	137.5
499.267	124.5
499.484	119.5
499.701	124.5
499.918	128.5
500.135	138.5
500.352	158.5
500.569	150.5
500.786	155.5
501.003	133.5
501.22	144.5
501.437	146.5
501.654	128.5
501.871	137.5
502.088	121.5
502.305	129.5
502.522	117.5
502.739	132.5
502.956	133.5
503.172	128.5
503.389	137.5
503.606	130.5
503.823	110.5
504.04	120.5
504.256	124.5
504.473	112.5
504.69	131.5
504.907	122.5
505.123	125.5
505.34	126.5
505.557	135.5
505.773	125.5
505.99	111.5
506.207	128.5
506.423	138.5
506.64	119.5
506.856	121.5
507.073	121.5
507.289	140.5
507.506	105.5
507.722	120.5
507.939	126.5
508.155	115.5
508.372	113.5
508.588	116.5
508.805	113.5
509.021	115.5
509.238	98.5
509.454	120.5
509.67	113.5
509.887	80.5
510.103	109.5
510.319	90.5
510.536	101.5
510.752	98.5
510.968	93.5
511.184	93.5
511.401	95.5
511.617	95.5
511.833	77.5
512.049	88.5
512.265	97.5
512.481	102.5
512.698	97.5
512.914	92.5
513.13	100.5
513.346	94.5
513.562	88.5
513.778	90.5
513.994	103.5
514.21	110.5
514.426	98.5
514.642	87.5
514.858	99.5
515.074	97.5
515.29	92.5
515.506	83.5
515.721	91.5
515.937	85.5
516.153	90.5
516.369	84.5
516.585	95.5
516.801	89.5
517.016	94.5
517.232	94.5
517.448	94.5
517.664	94.5
517.879	95.5
518.095	90.5
518.311	105.5
518.527	100.5
518.742	96.5
518.958	100.5
519.173	106.5
519.389	99.5
519.605	116.5
519.82	102.5
520.036	109.5
520.251	108.5
520.467	102.5
520.682	99.5
520.898	102.5
521.113	89.5
521.329	97.5
521.544	80.5
521.76	90.5
521.975	89.5
522.19	94.5
522.406	100.5
522.621	102.5
522.836	118.5
523.052	93.5
523.267	89.5
523.482	97.5
523.698	115.5
523.913	112.5
524.128	129.5
524.343	122.5
524.559	121.5
524.774	126.5
524.989	124.5
525.204	121.5
525.419	118.5
525.634	129.5
525.849	123.5
526.064	110.5
526.28	102.5
526.495	104.5
526.71	92.5
526.925	84.5
527.14	90.5
527.355	80.5
527.57	85.5
527.785	91.5
527.999	78.5
528.214	113.5
528.429	111.5
528.644	124.5
528.859	146.5
529.074	166.5
529.289	173.5
529.503	174.5
529.718	152.5
529.933	131.5
530.148	96.5
530.363	95.5
530.577	92.5
530.792	78.5
