Data from Location6.07152019.Energy5.Lamp.07192019.3%Agarose_HRD10591_16-11-53-395.txt Node
Date: Fri Jul 19 16:11:53 EDT 2019
User: cochatt
Spectrometer: HR+D1059
Trigger mode: 1
Integration Time (sec): 1.000000E-1
Scans to average: 1
Electric dark correction enabled: true
Nonlinearity correction enabled: false
Boxcar width: 0
XAxis mode: Wavelengths
Number of Pixels in Spectrum: 2048
>>>>>Begin Spectral Data<<<<<
223.165	-19.75
223.4	-19.75
223.635	-19.75
223.869	-19.75
224.104	-11.75
224.338	-13.75
224.573	-15.75
224.808	-15.75
225.042	-0.75
225.277	-3.75
225.511	-3.75
225.746	3.25
225.98	5.25
226.215	6.25
226.449	20.25
226.683	16.25
226.918	33.25
227.152	20.25
227.387	41.25
227.621	30.25
227.856	61.25
228.09	42.25
228.324	51.25
228.559	69.25
228.793	72.25
229.027	67.25
229.262	72.25
229.496	60.25
229.73	75.25
229.964	72.25
230.199	63.25
230.433	64.25
230.667	82.25
230.901	84.25
231.136	74.25
231.37	80.25
231.604	87.25
231.838	83.25
232.072	88.25
232.306	81.25
232.541	88.25
232.775	96.25
233.009	83.25
233.243	74.25
233.477	90.25
233.711	84.25
233.945	89.25
234.179	80.25
234.413	78.25
234.647	90.25
234.881	88.25
235.115	75.25
235.349	85.25
235.583	83.25
235.817	73.25
236.051	60.25
236.285	66.25
236.519	91.25
236.753	79.25
236.987	84.25
237.221	88.25
237.455	82.25
237.689	71.25
237.922	77.25
238.156	76.25
238.39	85.25
238.624	81.25
238.858	92.25
239.091	77.25
239.325	75.25
239.559	74.25
239.793	71.25
240.027	88.25
240.26	86.25
240.494	73.25
240.728	80.25
240.961	96.25
241.195	81.25
241.429	87.25
241.662	75.25
241.896	88.25
242.13	77.25
242.363	77.25
242.597	57.25
242.83	78.25
243.064	87.25
243.298	77.25
243.531	85.25
243.765	63.25
243.998	91.25
244.232	67.25
244.465	85.25
244.699	85.25
244.932	72.25
245.166	82.25
245.399	77.25
245.633	84.25
245.866	77.25
246.099	74.25
246.333	75.25
246.566	83.25
246.8	85.25
247.033	78.25
247.266	74.25
247.5	86.25
247.733	78.25
247.966	81.25
248.2	80.25
248.433	82.25
248.666	79.25
248.899	72.25
249.133	86.25
249.366	79.25
249.599	80.25
249.832	85.25
250.066	79.25
250.299	80.25
250.532	84.25
250.765	82.25
250.998	83.25
251.231	75.25
251.465	74.25
251.698	84.25
251.931	62.25
252.164	77.25
252.397	84.25
252.63	92.25
252.863	81.25
253.096	87.25
253.329	78.25
253.562	89.25
253.795	98.25
254.028	82.25
254.261	97.25
254.494	84.25
254.727	79.25
254.96	70.25
255.193	74.25
255.426	59.25
255.659	88.25
255.892	85.25
256.124	85.25
256.357	89.25
256.59	78.25
256.823	104.25
257.056	76.25
257.289	80.25
257.521	93.25
257.754	70.25
257.987	94.25
258.22	84.25
258.452	89.25
258.685	78.25
258.918	101.25
259.151	92.25
259.383	84.25
259.616	83.25
259.849	82.25
260.081	77.25
260.314	78.25
260.547	76.25
260.779	87.25
261.012	72.25
261.244	87.25
261.477	94.25
261.71	83.25
261.942	91.25
262.175	84.25
262.407	93.25
262.64	84.25
262.872	88.25
263.105	71.25
263.337	91.25
263.57	84.25
263.802	70.25
264.035	84.25
264.267	79.25
264.499	81.25
264.732	78.25
264.964	83.25
265.197	76.25
265.429	84.25
265.661	94.25
265.894	89.25
266.126	89.25
266.358	89.25
266.591	82.25
266.823	77.25
267.055	87.25
267.287	94.25
267.52	88.25
267.752	90.25
267.984	89.25
268.216	86.25
268.448	85.25
268.681	95.25
268.913	82.25
269.145	91.25
269.377	92.25
269.609	91.25
269.841	93.25
270.073	102.25
270.306	87.25
270.538	89.25
270.77	86.25
271.002	82.25
271.234	85.25
271.466	92.25
271.698	78.25
271.93	86.25
272.162	82.25
272.394	81.25
272.626	84.25
272.858	95.25
273.09	90.25
273.322	84.25
273.553	100.25
273.785	83.25
274.017	89.25
274.249	71.25
274.481	72.25
274.713	81.25
274.945	100.25
275.176	95.25
275.408	93.25
275.64	82.25
275.872	80.25
276.104	79.25
276.335	103.25
276.567	81.25
276.799	84.25
277.031	80.25
277.262	79.25
277.494	91.25
277.726	78.25
277.957	70.25
278.189	93.25
278.421	79.25
278.652	87.25
278.884	93.25
279.115	85.25
279.347	96.25
279.579	85.25
279.81	85.25
280.042	93.25
280.273	86.25
280.505	80.25
280.736	80.25
280.968	91.25
281.199	97.25
281.431	92.25
281.662	84.25
281.894	88.25
282.125	92.25
282.356	93.25
282.588	92.25
282.819	92.25
283.051	101.25
283.282	84.25
283.513	86.25
283.745	95.25
283.976	88.25
284.207	83.25
284.439	84.25
284.67	78.25
284.901	103.25
285.132	99.25
285.364	91.25
285.595	94.25
285.826	84.25
286.057	107.25
286.288	91.25
286.52	91.25
286.751	80.25
286.982	91.25
287.213	90.25
287.444	68.25
287.675	93.25
287.906	84.25
288.138	89.25
288.369	82.25
288.6	84.25
288.831	86.25
289.062	94.25
289.293	94.25
289.524	82.25
289.755	84.25
289.986	74.25
290.217	82.25
290.448	74.25
290.679	96.25
290.91	88.25
291.141	89.25
291.371	90.25
291.602	73.25
291.833	88.25
292.064	97.25
292.295	100.25
292.526	84.25
292.757	96.25
292.987	90.25
293.218	84.25
293.449	100.25
293.68	88.25
293.91	98.25
294.141	82.25
294.372	79.25
294.603	88.25
294.833	99.25
295.064	75.25
295.295	98.25
295.525	92.25
295.756	104.25
295.987	93.25
296.217	83.25
296.448	83.25
296.679	87.25
296.909	95.25
297.14	89.25
297.37	95.25
297.601	76.25
297.831	95.25
298.062	85.25
298.292	78.25
298.523	87.25
298.753	72.25
298.984	98.25
299.214	87.25
299.445	90.25
299.675	81.25
299.905	96.25
300.136	107.25
300.366	95.25
300.597	81.25
300.827	98.25
301.057	74.25
301.288	74.25
301.518	93.25
301.748	75.25
301.979	84.25
302.209	94.25
302.439	82.25
302.669	90.25
302.9	89.25
303.13	91.25
303.36	88.25
303.59	89.25
303.82	85.25
304.051	89.25
304.281	81.25
304.511	103.25
304.741	84.25
304.971	81.25
305.201	81.25
305.431	106.25
305.661	86.25
305.891	83.25
306.121	98.25
306.352	87.25
306.582	92.25
306.812	91.25
307.042	90.25
307.272	93.25
307.502	86.25
307.731	86.25
307.961	98.25
308.191	78.25
308.421	91.25
308.651	87.25
308.881	94.25
309.111	72.25
309.341	83.25
309.571	91.25
309.8	89.25
310.03	83.25
310.26	84.25
310.49	96.25
310.72	80.25
310.949	107.25
311.179	90.25
311.409	98.25
311.639	106.25
311.868	89.25
312.098	86.25
312.328	89.25
312.557	87.25
312.787	86.25
313.017	86.25
313.246	87.25
313.476	80.25
313.706	84.25
313.935	96.25
314.165	81.25
314.394	101.25
314.624	84.25
314.853	77.25
315.083	86.25
315.312	96.25
315.542	101.25
315.771	83.25
316.001	93.25
316.23	103.25
316.46	86.25
316.689	88.25
316.919	88.25
317.148	93.25
317.377	85.25
317.607	90.25
317.836	103.25
318.065	95.25
318.295	85.25
318.524	90.25
318.753	92.25
318.983	76.25
319.212	75.25
319.441	78.25
319.67	86.25
319.9	80.25
320.129	80.25
320.358	81.25
320.587	86.25
320.816	74.25
321.046	83.25
321.275	83.25
321.504	88.25
321.733	87.25
321.962	104.25
322.191	86.25
322.42	91.25
322.649	95.25
322.878	87.25
323.108	94.25
323.337	92.25
323.566	88.25
323.795	89.25
324.024	101.25
324.253	85.25
324.482	69.25
324.71	87.25
324.939	71.25
325.168	104.25
325.397	84.25
325.626	86.25
325.855	85.25
326.084	79.25
326.313	82.25
326.542	81.25
326.77	83.25
326.999	99.25
327.228	91.25
327.457	88.25
327.686	86.25
327.914	100.25
328.143	90.25
328.372	96.25
328.6	93.25
328.829	84.25
329.058	86.25
329.287	95.25
329.515	86.25
329.744	96.25
329.972	90.25
330.201	85.25
330.43	80.25
330.658	93.25
330.887	94.25
331.115	92.25
331.344	92.25
331.572	99.25
331.801	84.25
332.03	86.25
332.258	95.25
332.486	93.25
332.715	88.25
332.943	93.25
333.172	91.25
333.4	78.25
333.629	76.25
333.857	90.25
334.085	90.25
334.314	89.25
334.542	86.25
334.771	91.25
334.999	89.25
335.227	86.25
335.455	76.25
335.684	94.25
335.912	79.25
336.14	84.25
336.369	76.25
336.597	84.25
336.825	76.25
337.053	90.25
337.281	83.25
337.51	89.25
337.738	97.25
337.966	95.25
338.194	98.25
338.422	87.25
338.65	86.25
338.878	90.25
339.106	78.25
339.334	81.25
339.562	98.25
339.79	83.25
340.018	84.25
340.246	94.25
340.474	80.25
340.702	88.25
340.93	85.25
341.158	100.25
341.386	98.25
341.614	93.25
341.842	80.25
342.07	86.25
342.298	72.25
342.526	72.25
342.754	90.25
342.981	104.25
343.209	77.25
343.437	86.25
343.665	83.25
343.893	85.25
344.12	96.25
344.348	91.25
344.576	82.25
344.804	76.25
345.031	88.25
345.259	76.25
345.487	99.25
345.714	88.25
345.942	75.25
346.17	80.25
346.397	91.25
346.625	90.25
346.853	93.25
347.08	77.25
347.308	79.25
347.535	80.25
347.763	85.25
347.99	94.25
348.218	81.25
348.445	86.25
348.673	86.25
348.9	82.25
349.128	93.25
349.355	95.25
349.583	80.25
349.81	97.25
350.037	88.25
350.265	83.25
350.492	95.25
350.72	89.25
350.947	85.25
351.174	78.25
351.402	105.25
351.629	98.25
351.856	84.25
352.083	76.25
352.311	98.25
352.538	93.25
352.765	83.25
352.992	79.25
353.22	92.25
353.447	89.25
353.674	82.25
353.901	94.25
354.128	93.25
354.355	89.25
354.583	92.25
354.81	103.25
355.037	88.25
355.264	95.25
355.491	79.25
355.718	81.25
355.945	86.25
356.172	85.25
356.399	83.25
356.626	84.25
356.853	98.25
357.08	92.25
357.307	90.25
357.534	84.25
357.761	72.25
357.988	82.25
358.215	74.25
358.441	79.25
358.668	90.25
358.895	74.25
359.122	72.25
359.349	82.25
359.576	91.25
359.802	87.25
360.029	95.25
360.256	91.25
360.483	74.25
360.709	98.25
360.936	100.25
361.163	99.25
361.39	77.25
361.616	84.25
361.843	98.25
362.07	88.25
362.296	90.25
362.523	92.25
362.749	93.25
362.976	96.25
363.203	96.25
363.429	87.25
363.656	76.25
363.882	84.25
364.109	82.25
364.335	83.25
364.562	86.25
364.788	84.25
365.015	84.25
365.241	93.25
365.468	85.25
365.694	97.25
365.92	83.25
366.147	89.25
366.373	84.25
366.599	68.25
366.826	92.25
367.052	86.25
367.278	82.25
367.505	86.25
367.731	91.25
367.957	99.25
368.184	84.25
368.41	95.25
368.636	87.25
368.862	88.25
369.089	99.25
369.315	94.25
369.541	96.25
369.767	94.25
369.993	93.25
370.219	91.25
370.445	111.25
370.672	103.25
370.898	104.25
371.124	98.25
371.35	100.25
371.576	94.25
371.802	86.25
372.028	98.25
372.254	87.25
372.48	92.25
372.706	92.25
372.932	86.25
373.158	91.25
373.384	98.25
373.61	101.25
373.835	92.25
374.061	104.25
374.287	87.25
374.513	83.25
374.739	103.25
374.965	105.25
375.191	80.25
375.416	110.25
375.642	99.25
375.868	102.25
376.094	102.25
376.319	88.25
376.545	106.25
376.771	87.25
376.997	104.25
377.222	102.25
377.448	103.25
377.674	89.25
377.899	105.25
378.125	84.25
378.35	92.25
378.576	101.25
378.802	100.25
379.027	84.25
379.253	102.25
379.478	108.25
379.704	97.25
379.929	110.25
380.155	95.25
380.38	117.25
380.606	93.25
380.831	103.25
381.057	106.25
381.282	96.25
381.507	94.25
381.733	94.25
381.958	99.25
382.184	86.25
382.409	98.25
382.634	95.25
382.86	92.25
383.085	101.25
383.31	111.25
383.535	112.25
383.761	97.25
383.986	100.25
384.211	99.25
384.436	101.25
384.662	110.25
384.887	86.25
385.112	86.25
385.337	104.25
385.562	118.25
385.787	116.25
386.013	112.25
386.238	97.25
386.463	108.25
386.688	111.25
386.913	101.25
387.138	107.25
387.363	104.25
387.588	107.25
387.813	110.25
388.038	117.25
388.263	104.25
388.488	106.25
388.713	97.25
388.938	89.25
389.163	102.25
389.387	109.25
389.612	108.25
389.837	121.25
390.062	100.25
390.287	101.25
390.512	108.25
390.736	112.25
390.961	105.25
391.186	94.25
391.411	120.25
391.636	115.25
391.86	109.25
392.085	106.25
392.31	116.25
392.534	114.25
392.759	119.25
392.984	116.25
393.208	103.25
393.433	105.25
393.658	110.25
393.882	109.25
394.107	106.25
394.331	100.25
394.556	111.25
394.78	103.25
395.005	111.25
395.229	110.25
395.454	112.25
395.678	98.25
395.903	102.25
396.127	115.25
396.352	106.25
396.576	104.25
396.801	111.25
397.025	128.25
397.249	109.25
397.474	109.25
397.698	120.25
397.922	103.25
398.147	117.25
398.371	119.25
398.595	108.25
398.82	105.25
399.044	102.25
399.268	98.25
399.492	115.25
399.717	110.25
399.941	104.25
400.165	105.25
400.389	99.25
400.613	119.25
400.837	110.25
401.062	116.25
401.286	105.25
401.51	111.25
401.734	115.25
401.958	101.25
402.182	108.25
402.406	120.25
402.63	117.25
402.854	121.25
403.078	118.25
403.302	105.25
403.526	122.25
403.75	124.25
403.974	126.25
404.198	103.25
404.422	119.25
404.645	115.25
404.869	120.25
405.093	120.25
405.317	116.25
405.541	107.25
405.765	142.25
405.988	120.25
406.212	129.25
406.436	122.25
406.66	128.25
406.883	126.25
407.107	111.25
407.331	120.25
407.555	111.25
407.778	117.25
408.002	116.25
408.226	126.25
408.449	131.25
408.673	122.25
408.896	108.25
409.12	130.25
409.344	119.25
409.567	135.25
409.791	126.25
410.014	128.25
410.238	134.25
410.461	130.25
410.685	119.25
410.908	128.25
411.132	128.25
411.355	131.25
411.578	125.25
411.802	130.25
412.025	125.25
412.249	136.25
412.472	135.25
412.695	136.25
412.919	125.25
413.142	115.25
413.365	127.25
413.589	125.25
413.812	119.25
414.035	132.25
414.258	106.25
414.482	99.25
414.705	120.25
414.928	132.25
415.151	132.25
415.374	122.25
415.597	103.25
415.821	123.25
416.044	132.25
416.267	141.25
416.49	134.25
416.713	120.25
416.936	133.25
417.159	114.25
417.382	134.25
417.605	120.25
417.828	133.25
418.051	140.25
418.274	125.25
418.497	144.25
418.72	153.25
418.943	132.25
419.166	142.25
419.389	137.25
419.611	137.25
419.834	132.25
420.057	131.25
420.28	139.25
420.503	141.25
420.726	121.25
420.948	136.25
421.171	155.25
421.394	138.25
421.617	157.25
421.839	170.25
422.062	133.25
422.285	138.25
422.507	121.25
422.73	121.25
422.953	140.25
423.175	128.25
423.398	143.25
423.621	158.25
423.843	133.25
424.066	126.25
424.288	142.25
424.511	141.25
424.733	137.25
424.956	145.25
425.178	149.25
425.401	136.25
425.623	144.25
425.846	150.25
426.068	135.25
426.291	127.25
426.513	125.25
426.735	130.25
426.958	144.25
427.18	122.25
427.402	147.25
427.625	138.25
427.847	137.25
428.069	131.25
428.292	125.25
428.514	141.25
428.736	138.25
428.958	136.25
429.181	127.25
429.403	136.25
429.625	137.25
429.847	130.25
430.069	136.25
430.292	124.25
430.514	124.25
430.736	138.25
430.958	123.25
431.18	134.25
431.402	134.25
431.624	126.25
431.846	123.25
432.068	109.25
432.29	100.25
432.512	123.25
432.734	130.25
432.956	129.25
433.178	152.25
433.4	150.25
433.622	161.25
433.844	118.25
434.066	126.25
434.287	114.25
434.509	88.25
434.731	102.25
434.953	119.25
435.175	126.25
435.397	133.25
435.618	110.25
435.84	129.25
436.062	123.25
436.284	115.25
436.505	148.25
436.727	139.25
436.949	130.25
437.17	125.25
437.392	130.25
437.614	128.25
437.835	114.25
438.057	120.25
438.278	125.25
438.5	132.25
438.721	126.25
438.943	160.25
439.165	150.25
439.386	157.25
439.608	158.25
439.829	132.25
440.05	142.25
440.272	155.25
440.493	158.25
440.715	158.25
440.936	132.25
441.158	163.25
441.379	140.25
441.6	139.25
441.822	164.25
442.043	150.25
442.264	146.25
442.486	142.25
442.707	144.25
442.928	145.25
443.149	136.25
443.371	140.25
443.592	154.25
443.813	137.25
444.034	127.25
444.255	155.25
444.476	152.25
444.698	157.25
444.919	144.25
445.14	286.25
445.361	232.25
445.582	150.25
445.803	158.25
446.024	142.25
446.245	156.25
446.466	158.25
446.687	161.25
446.908	178.25
447.129	173.25
447.35	164.25
447.571	160.25
447.792	149.25
448.013	126.25
448.234	145.25
448.455	154.25
448.675	145.25
448.896	148.25
449.117	155.25
449.338	145.25
449.559	140.25
449.779	155.25
450	144.25
450.221	132.25
450.442	141.25
450.662	154.25
450.883	127.25
451.104	134.25
451.324	125.25
451.545	130.25
451.766	148.25
451.986	132.25
452.207	138.25
452.428	140.25
452.648	127.25
452.869	125.25
453.089	116.25
453.31	118.25
453.53	116.25
453.751	107.25
453.971	117.25
454.192	109.25
454.412	103.25
454.633	128.25
454.853	108.25
455.073	136.25
455.294	134.25
455.514	139.25
455.734	119.25
455.955	121.25
456.175	120.25
456.395	128.25
456.616	123.25
456.836	103.25
457.056	115.25
457.276	103.25
457.497	117.25
457.717	106.25
457.937	114.25
458.157	120.25
458.377	116.25
458.598	105.25
458.818	104.25
459.038	89.25
459.258	94.25
459.478	87.25
459.698	99.25
459.918	94.25
460.138	98.25
460.358	117.25
460.578	119.25
460.798	106.25
461.018	123.25
461.238	106.25
461.458	116.25
461.678	122.25
461.898	127.25
462.118	127.25
462.338	127.25
462.558	117.25
462.777	120.25
462.997	129.25
463.217	122.25
463.437	118.25
463.657	120.25
463.876	110.25
464.096	112.25
464.316	113.25
464.536	110.25
464.755	123.25
464.975	114.25
465.195	123.25
465.414	118.25
465.634	125.25
465.854	110.25
466.073	114.25
466.293	120.25
466.512	123.25
466.732	126.25
466.951	156.25
467.171	135.25
467.391	136.25
467.61	151.25
467.829	148.25
468.049	150.25
468.268	143.25
468.488	134.25
468.707	141.25
468.927	137.25
469.146	144.25
469.365	155.25
469.585	148.25
469.804	132.25
470.023	155.25
470.243	136.25
470.462	151.25
470.681	143.25
470.901	148.25
471.12	158.25
471.339	149.25
471.558	138.25
471.777	121.25
471.997	148.25
472.216	135.25
472.435	124.25
472.654	109.25
472.873	122.25
473.092	137.25
473.311	147.25
473.53	124.25
473.749	124.25
473.968	131.25
474.187	131.25
474.406	125.25
474.625	127.25
474.844	140.25
475.063	129.25
475.282	136.25
475.501	117.25
475.72	128.25
475.939	129.25
476.158	141.25
476.377	148.25
476.596	136.25
476.814	114.25
477.033	105.25
477.252	117.25
477.471	120.25
477.69	150.25
477.908	164.25
478.127	150.25
478.346	143.25
478.564	148.25
478.783	125.25
479.002	143.25
479.22	138.25
479.439	134.25
479.658	134.25
479.876	130.25
480.095	114.25
480.313	114.25
480.532	141.25
480.751	116.25
480.969	97.25
481.188	94.25
481.406	103.25
481.624	98.25
481.843	100.25
482.061	108.25
482.28	117.25
482.498	126.25
482.717	114.25
482.935	133.25
483.153	139.25
483.372	150.25
483.59	161.25
483.808	150.25
484.027	141.25
484.245	144.25
484.463	161.25
484.681	172.25
484.9	168.25
485.118	154.25
485.336	134.25
485.554	116.25
485.772	111.25
485.99	102.25
486.209	101.25
486.427	135.25
486.645	128.25
486.863	134.25
487.081	159.25
487.299	137.25
487.517	147.25
487.735	170.25
487.953	193.25
488.171	183.25
488.389	193.25
488.607	182.25
488.825	145.25
489.043	133.25
489.261	146.25
489.479	145.25
489.696	153.25
489.914	171.25
490.132	160.25
490.35	167.25
490.568	167.25
490.786	164.25
491.003	208.25
491.221	199.25
491.439	198.25
491.657	186.25
491.874	220.25
492.092	239.25
492.31	263.25
492.527	262.25
492.745	222.25
492.963	216.25
493.18	192.25
493.398	175.25
493.615	183.25
493.833	200.25
494.05	175.25
494.268	192.25
494.485	177.25
494.703	169.25
494.92	189.25
495.138	172.25
495.355	191.25
495.573	186.25
495.79	195.25
496.008	174.25
496.225	162.25
496.442	159.25
496.66	182.25
496.877	188.25
497.094	172.25
497.312	165.25
497.529	159.25
497.746	164.25
497.963	152.25
498.181	148.25
498.398	134.25
498.615	125.25
498.832	131.25
499.049	116.25
499.267	125.25
499.484	139.25
499.701	139.25
499.918	141.25
500.135	146.25
500.352	158.25
500.569	146.25
500.786	135.25
501.003	148.25
501.22	157.25
501.437	135.25
501.654	150.25
501.871	160.25
502.088	143.25
502.305	129.25
502.522	144.25
502.739	121.25
502.956	114.25
503.172	142.25
503.389	130.25
503.606	131.25
503.823	131.25
504.04	124.25
504.256	148.25
504.473	120.25
504.69	116.25
504.907	136.25
505.123	119.25
505.34	120.25
505.557	126.25
505.773	151.25
505.99	139.25
506.207	135.25
506.423	121.25
506.64	127.25
506.856	118.25
507.073	113.25
507.289	109.25
507.506	143.25
507.722	126.25
507.939	129.25
508.155	129.25
508.372	130.25
508.588	108.25
508.805	122.25
509.021	91.25
509.238	114.25
509.454	105.25
509.67	116.25
509.887	102.25
510.103	95.25
510.319	96.25
510.536	100.25
510.752	79.25
