Data from Location6.07152019.Energy5.Lamp.07192019.3%Agarose_HRD10591_16-12-07-396.txt Node
Date: Fri Jul 19 16:12:07 EDT 2019
User: cochatt
Spectrometer: HR+D1059
Trigger mode: 1
Integration Time (sec): 1.000000E-1
Scans to average: 1
Electric dark correction enabled: true
Nonlinearity correction enabled: false
Boxcar width: 0
XAxis mode: Wavelengths
Number of Pixels in Spectrum: 2048
>>>>>Begin Spectral Data<<<<<
223.165	-27.19
223.4	-27.19
223.635	-27.19
223.869	-10.19
224.104	-9.19
224.338	-1.19
224.573	-30.19
224.808	-13.19
225.042	1.81
225.277	-11.19
225.511	0.81
225.746	-1.19
225.98	-2.19
226.215	7.81
226.449	19.81
226.683	25.81
226.918	25.81
227.152	23.81
227.387	46.81
227.621	27.81
227.856	44.81
228.09	46.81
228.324	62.81
228.559	56.81
228.793	44.81
229.027	72.81
229.262	73.81
229.496	60.81
229.73	74.81
229.964	70.81
230.199	74.81
230.433	72.81
230.667	73.81
230.901	81.81
231.136	74.81
231.37	89.81
231.604	86.81
231.838	85.81
232.072	82.81
232.306	69.81
232.541	82.81
232.775	85.81
233.009	83.81
233.243	79.81
233.477	95.81
233.711	90.81
233.945	75.81
234.179	86.81
234.413	80.81
234.647	75.81
234.881	63.81
235.115	84.81
235.349	77.81
235.583	73.81
235.817	77.81
236.051	70.81
236.285	73.81
236.519	68.81
236.753	86.81
236.987	86.81
237.221	66.81
237.455	73.81
237.689	73.81
237.922	71.81
238.156	80.81
238.39	77.81
238.624	84.81
238.858	80.81
239.091	79.81
239.325	79.81
239.559	78.81
239.793	82.81
240.027	83.81
240.26	80.81
240.494	81.81
240.728	66.81
240.961	79.81
241.195	72.81
241.429	72.81
241.662	86.81
241.896	70.81
242.13	66.81
242.363	57.81
242.597	68.81
242.83	64.81
243.064	78.81
243.298	69.81
243.531	80.81
243.765	81.81
243.998	83.81
244.232	79.81
244.465	71.81
244.699	58.81
244.932	80.81
245.166	66.81
245.399	92.81
245.633	87.81
245.866	71.81
246.099	81.81
246.333	76.81
246.566	70.81
246.8	65.81
247.033	80.81
247.266	65.81
247.5	77.81
247.733	80.81
247.966	73.81
248.2	71.81
248.433	68.81
248.666	66.81
248.899	66.81
249.133	73.81
249.366	82.81
249.599	63.81
249.832	71.81
250.066	87.81
250.299	76.81
250.532	72.81
250.765	75.81
250.998	67.81
251.231	78.81
251.465	88.81
251.698	72.81
251.931	78.81
252.164	82.81
252.397	83.81
252.63	79.81
252.863	77.81
253.096	76.81
253.329	74.81
253.562	87.81
253.795	80.81
254.028	85.81
254.261	87.81
254.494	80.81
254.727	77.81
254.96	81.81
255.193	77.81
255.426	80.81
255.659	96.81
255.892	77.81
256.124	82.81
256.357	81.81
256.59	89.81
256.823	79.81
257.056	82.81
257.289	92.81
257.521	86.81
257.754	86.81
257.987	76.81
258.22	86.81
258.452	76.81
258.685	72.81
258.918	76.81
259.151	73.81
259.383	88.81
259.616	76.81
259.849	72.81
260.081	79.81
260.314	75.81
260.547	70.81
260.779	70.81
261.012	84.81
261.244	69.81
261.477	73.81
261.71	89.81
261.942	84.81
262.175	78.81
262.407	75.81
262.64	61.81
262.872	87.81
263.105	72.81
263.337	88.81
263.57	83.81
263.802	77.81
264.035	96.81
264.267	85.81
264.499	88.81
264.732	83.81
264.964	64.81
265.197	71.81
265.429	82.81
265.661	72.81
265.894	78.81
266.126	73.81
266.358	84.81
266.591	78.81
266.823	74.81
267.055	93.81
267.287	73.81
267.52	75.81
267.752	80.81
267.984	76.81
268.216	77.81
268.448	80.81
268.681	73.81
268.913	76.81
269.145	72.81
269.377	76.81
269.609	72.81
269.841	85.81
270.073	96.81
270.306	91.81
270.538	70.81
270.77	71.81
271.002	78.81
271.234	82.81
271.466	82.81
271.698	68.81
271.93	76.81
272.162	90.81
272.394	87.81
272.626	92.81
272.858	76.81
273.09	95.81
273.322	80.81
273.553	86.81
273.785	77.81
274.017	71.81
274.249	85.81
274.481	81.81
274.713	84.81
274.945	84.81
275.176	78.81
275.408	73.81
275.64	81.81
275.872	75.81
276.104	84.81
276.335	76.81
276.567	78.81
276.799	82.81
277.031	77.81
277.262	80.81
277.494	80.81
277.726	90.81
277.957	72.81
278.189	92.81
278.421	94.81
278.652	85.81
278.884	86.81
279.115	87.81
279.347	77.81
279.579	84.81
279.81	81.81
280.042	96.81
280.273	91.81
280.505	84.81
280.736	89.81
280.968	83.81
281.199	82.81
281.431	79.81
281.662	86.81
281.894	82.81
282.125	80.81
282.356	74.81
282.588	86.81
282.819	87.81
283.051	88.81
283.282	88.81
283.513	83.81
283.745	85.81
283.976	83.81
284.207	90.81
284.439	95.81
284.67	88.81
284.901	72.81
285.132	90.81
285.364	86.81
285.595	87.81
285.826	82.81
286.057	82.81
286.288	85.81
286.52	75.81
286.751	89.81
286.982	100.81
287.213	90.81
287.444	89.81
287.675	90.81
287.906	81.81
288.138	86.81
288.369	72.81
288.6	78.81
288.831	74.81
289.062	86.81
289.293	90.81
289.524	85.81
289.755	88.81
289.986	87.81
290.217	89.81
290.448	67.81
290.679	78.81
290.91	96.81
291.141	75.81
291.371	91.81
291.602	91.81
291.833	78.81
292.064	98.81
292.295	87.81
292.526	92.81
292.757	87.81
292.987	81.81
293.218	89.81
293.449	89.81
293.68	83.81
293.91	83.81
294.141	74.81
294.372	82.81
294.603	91.81
294.833	76.81
295.064	95.81
295.295	81.81
295.525	82.81
295.756	84.81
295.987	89.81
296.217	93.81
296.448	81.81
296.679	68.81
296.909	76.81
297.14	77.81
297.37	85.81
297.601	90.81
297.831	96.81
298.062	88.81
298.292	87.81
298.523	74.81
298.753	92.81
298.984	87.81
299.214	95.81
299.445	91.81
299.675	77.81
299.905	76.81
300.136	92.81
300.366	81.81
300.597	78.81
300.827	85.81
301.057	92.81
301.288	80.81
301.518	87.81
301.748	86.81
301.979	86.81
302.209	82.81
302.439	68.81
302.669	84.81
302.9	78.81
303.13	90.81
303.36	82.81
303.59	83.81
303.82	86.81
304.051	80.81
304.281	84.81
304.511	82.81
304.741	90.81
304.971	67.81
305.201	82.81
305.431	88.81
305.661	80.81
305.891	81.81
306.121	82.81
306.352	70.81
306.582	62.81
306.812	78.81
307.042	81.81
307.272	85.81
307.502	82.81
307.731	94.81
307.961	92.81
308.191	85.81
308.421	65.81
308.651	76.81
308.881	79.81
309.111	75.81
309.341	73.81
309.571	85.81
309.8	82.81
310.03	84.81
310.26	74.81
310.49	93.81
310.72	82.81
310.949	80.81
311.179	81.81
311.409	76.81
311.639	79.81
311.868	76.81
312.098	90.81
312.328	85.81
312.557	94.81
312.787	85.81
313.017	83.81
313.246	87.81
313.476	97.81
313.706	81.81
313.935	80.81
314.165	78.81
314.394	73.81
314.624	76.81
314.853	89.81
315.083	76.81
315.312	89.81
315.542	85.81
315.771	68.81
316.001	76.81
316.23	88.81
316.46	98.81
316.689	90.81
316.919	88.81
317.148	89.81
317.377	80.81
317.607	79.81
317.836	77.81
318.065	81.81
318.295	91.81
318.524	80.81
318.753	93.81
318.983	92.81
319.212	84.81
319.441	83.81
319.67	84.81
319.9	73.81
320.129	92.81
320.358	72.81
320.587	71.81
320.816	85.81
321.046	70.81
321.275	76.81
321.504	81.81
321.733	89.81
321.962	83.81
322.191	70.81
322.42	86.81
322.649	89.81
322.878	83.81
323.108	86.81
323.337	76.81
323.566	83.81
323.795	87.81
324.024	81.81
324.253	76.81
324.482	76.81
324.71	95.81
324.939	92.81
325.168	90.81
325.397	92.81
325.626	86.81
325.855	83.81
326.084	95.81
326.313	92.81
326.542	86.81
326.77	90.81
326.999	73.81
327.228	76.81
327.457	81.81
327.686	86.81
327.914	76.81
328.143	80.81
328.372	87.81
328.6	85.81
328.829	83.81
329.058	82.81
329.287	97.81
329.515	78.81
329.744	87.81
329.972	83.81
330.201	84.81
330.43	73.81
330.658	76.81
330.887	95.81
331.115	72.81
331.344	76.81
331.572	85.81
331.801	89.81
332.03	87.81
332.258	79.81
332.486	80.81
332.715	93.81
332.943	82.81
333.172	73.81
333.4	78.81
333.629	62.81
333.857	75.81
334.085	81.81
334.314	86.81
334.542	105.81
334.771	78.81
334.999	94.81
335.227	91.81
335.455	80.81
335.684	85.81
335.912	79.81
336.14	89.81
336.369	90.81
336.597	87.81
336.825	87.81
337.053	95.81
337.281	89.81
337.51	84.81
337.738	84.81
337.966	76.81
338.194	91.81
338.422	84.81
338.65	70.81
338.878	84.81
339.106	78.81
339.334	84.81
339.562	76.81
339.79	82.81
340.018	82.81
340.246	84.81
340.474	83.81
340.702	83.81
340.93	95.81
341.158	70.81
341.386	76.81
341.614	83.81
341.842	86.81
342.07	87.81
342.298	97.81
342.526	87.81
342.754	81.81
342.981	85.81
343.209	78.81
343.437	78.81
343.665	74.81
343.893	98.81
344.12	83.81
344.348	75.81
344.576	82.81
344.804	78.81
345.031	86.81
345.259	87.81
345.487	83.81
345.714	88.81
345.942	93.81
346.17	81.81
346.397	79.81
346.625	99.81
346.853	85.81
347.08	81.81
347.308	89.81
347.535	89.81
347.763	83.81
347.99	88.81
348.218	82.81
348.445	79.81
348.673	81.81
348.9	85.81
349.128	74.81
349.355	82.81
349.583	83.81
349.81	97.81
350.037	99.81
350.265	91.81
350.492	85.81
350.72	82.81
350.947	87.81
351.174	74.81
351.402	84.81
351.629	86.81
351.856	86.81
352.083	83.81
352.311	84.81
352.538	84.81
352.765	84.81
352.992	91.81
353.22	73.81
353.447	71.81
353.674	94.81
353.901	92.81
354.128	79.81
354.355	72.81
354.583	96.81
354.81	85.81
355.037	73.81
355.264	81.81
355.491	98.81
355.718	81.81
355.945	82.81
356.172	86.81
356.399	67.81
356.626	77.81
356.853	75.81
357.08	75.81
357.307	99.81
357.534	81.81
357.761	71.81
357.988	80.81
358.215	75.81
358.441	88.81
358.668	81.81
358.895	76.81
359.122	76.81
359.349	80.81
359.576	83.81
359.802	83.81
360.029	70.81
360.256	81.81
360.483	97.81
360.709	93.81
360.936	92.81
361.163	82.81
361.39	95.81
361.616	74.81
361.843	72.81
362.07	78.81
362.296	71.81
362.523	82.81
362.749	71.81
362.976	86.81
363.203	88.81
363.429	78.81
363.656	87.81
363.882	85.81
364.109	86.81
364.335	95.81
364.562	83.81
364.788	91.81
365.015	86.81
365.241	82.81
365.468	89.81
365.694	91.81
365.92	92.81
366.147	70.81
366.373	75.81
366.599	76.81
366.826	94.81
367.052	83.81
367.278	92.81
367.505	76.81
367.731	97.81
367.957	68.81
368.184	80.81
368.41	95.81
368.636	80.81
368.862	94.81
369.089	94.81
369.315	90.81
369.541	90.81
369.767	90.81
369.993	88.81
370.219	96.81
370.445	91.81
370.672	99.81
370.898	100.81
371.124	103.81
371.35	95.81
371.576	73.81
371.802	84.81
372.028	85.81
372.254	89.81
372.48	82.81
372.706	87.81
372.932	104.81
373.158	100.81
373.384	101.81
373.61	101.81
373.835	86.81
374.061	93.81
374.287	94.81
374.513	104.81
374.739	89.81
374.965	82.81
375.191	75.81
375.416	104.81
375.642	94.81
375.868	94.81
376.094	93.81
376.319	89.81
376.545	96.81
376.771	106.81
376.997	91.81
377.222	94.81
377.448	106.81
377.674	86.81
377.899	88.81
378.125	96.81
378.35	111.81
378.576	88.81
378.802	90.81
379.027	91.81
379.253	97.81
379.478	83.81
379.704	88.81
379.929	101.81
380.155	91.81
380.38	97.81
380.606	101.81
380.831	96.81
381.057	103.81
381.282	97.81
381.507	95.81
381.733	114.81
381.958	101.81
382.184	91.81
382.409	96.81
382.634	96.81
382.86	91.81
383.085	95.81
383.31	90.81
383.535	86.81
383.761	103.81
383.986	101.81
384.211	92.81
384.436	100.81
384.662	104.81
384.887	92.81
385.112	105.81
385.337	115.81
385.562	90.81
385.787	90.81
386.013	98.81
386.238	114.81
386.463	107.81
386.688	103.81
386.913	108.81
387.138	110.81
387.363	99.81
387.588	96.81
387.813	93.81
388.038	94.81
388.263	106.81
388.488	104.81
388.713	101.81
388.938	101.81
389.163	103.81
389.387	89.81
389.612	110.81
389.837	95.81
390.062	96.81
390.287	116.81
390.512	99.81
390.736	95.81
390.961	97.81
391.186	103.81
391.411	94.81
391.636	94.81
391.86	101.81
392.085	99.81
392.31	111.81
392.534	106.81
392.759	95.81
392.984	111.81
393.208	96.81
393.433	105.81
393.658	119.81
393.882	104.81
394.107	121.81
394.331	114.81
394.556	127.81
394.78	129.81
395.005	117.81
395.229	107.81
395.454	110.81
395.678	96.81
395.903	96.81
396.127	106.81
396.352	97.81
396.576	100.81
396.801	112.81
397.025	98.81
397.249	112.81
397.474	110.81
397.698	112.81
397.922	103.81
398.147	105.81
398.371	93.81
398.595	129.81
398.82	90.81
399.044	112.81
399.268	103.81
399.492	110.81
399.717	94.81
399.941	115.81
400.165	117.81
400.389	110.81
400.613	117.81
400.837	101.81
401.062	107.81
401.286	116.81
401.51	114.81
401.734	114.81
401.958	129.81
402.182	120.81
402.406	101.81
402.63	110.81
402.854	113.81
403.078	119.81
403.302	118.81
403.526	125.81
403.75	119.81
403.974	116.81
404.198	122.81
404.422	119.81
404.645	121.81
404.869	116.81
405.093	110.81
405.317	115.81
405.541	123.81
405.765	112.81
405.988	114.81
406.212	130.81
406.436	121.81
406.66	130.81
406.883	126.81
407.107	128.81
407.331	123.81
407.555	110.81
407.778	122.81
408.002	130.81
408.226	120.81
408.449	118.81
408.673	112.81
408.896	113.81
409.12	126.81
409.344	130.81
409.567	123.81
409.791	123.81
410.014	122.81
410.238	120.81
410.461	116.81
410.685	127.81
410.908	119.81
411.132	119.81
411.355	114.81
411.578	108.81
411.802	136.81
412.025	138.81
412.249	121.81
412.472	129.81
412.695	127.81
412.919	123.81
413.142	117.81
413.365	122.81
413.589	130.81
413.812	128.81
414.035	130.81
414.258	111.81
414.482	125.81
414.705	132.81
414.928	120.81
415.151	132.81
415.374	129.81
415.597	125.81
415.821	122.81
416.044	123.81
416.267	118.81
416.49	128.81
416.713	121.81
416.936	132.81
417.159	134.81
417.382	138.81
417.605	125.81
417.828	128.81
418.051	130.81
418.274	129.81
418.497	129.81
418.72	138.81
418.943	128.81
419.166	140.81
419.389	133.81
419.611	140.81
419.834	139.81
420.057	139.81
420.28	137.81
420.503	126.81
420.726	140.81
420.948	139.81
421.171	133.81
421.394	126.81
421.617	157.81
421.839	148.81
422.062	140.81
422.285	135.81
422.507	118.81
422.73	124.81
422.953	121.81
423.175	114.81
423.398	140.81
423.621	138.81
423.843	146.81
424.066	136.81
424.288	138.81
424.511	130.81
424.733	145.81
424.956	148.81
425.178	142.81
425.401	132.81
425.623	132.81
425.846	123.81
426.068	152.81
426.291	145.81
426.513	138.81
426.735	132.81
426.958	127.81
427.18	130.81
427.402	154.81
427.625	130.81
427.847	132.81
428.069	133.81
428.292	135.81
428.514	125.81
428.736	132.81
428.958	130.81
429.181	125.81
429.403	136.81
429.625	129.81
429.847	129.81
430.069	133.81
430.292	135.81
430.514	128.81
430.736	128.81
430.958	120.81
431.18	123.81
431.402	132.81
431.624	141.81
431.846	110.81
432.068	103.81
432.29	106.81
432.512	114.81
432.734	130.81
432.956	136.81
433.178	132.81
433.4	132.81
433.622	135.81
433.844	127.81
434.066	135.81
434.287	111.81
434.509	97.81
434.731	113.81
434.953	122.81
435.175	127.81
435.397	131.81
435.618	128.81
435.84	120.81
436.062	116.81
436.284	134.81
436.505	138.81
436.727	152.81
436.949	124.81
437.17	136.81
437.392	126.81
437.614	122.81
437.835	105.81
438.057	118.81
438.278	107.81
438.5	126.81
438.721	145.81
438.943	135.81
439.165	146.81
439.386	151.81
439.608	140.81
439.829	144.81
440.05	152.81
440.272	154.81
440.493	141.81
440.715	154.81
440.936	156.81
441.158	161.81
441.379	158.81
441.6	167.81
441.822	157.81
442.043	148.81
442.264	140.81
442.486	136.81
442.707	141.81
442.928	134.81
443.149	148.81
443.371	145.81
443.592	134.81
443.813	139.81
444.034	139.81
444.255	155.81
444.476	138.81
444.698	147.81
444.919	134.81
445.14	282.81
445.361	204.81
445.582	165.81
445.803	154.81
446.024	150.81
446.245	156.81
446.466	159.81
446.687	159.81
446.908	155.81
447.129	175.81
447.35	159.81
447.571	147.81
447.792	158.81
448.013	140.81
448.234	133.81
448.455	147.81
448.675	135.81
448.896	147.81
449.117	147.81
449.338	139.81
449.559	134.81
449.779	133.81
450	136.81
450.221	142.81
450.442	144.81
450.662	132.81
450.883	139.81
451.104	149.81
451.324	136.81
451.545	134.81
451.766	127.81
451.986	126.81
452.207	149.81
452.428	129.81
452.648	134.81
452.869	141.81
453.089	109.81
453.31	115.81
453.53	105.81
453.751	93.81
453.971	115.81
454.192	103.81
454.412	105.81
454.633	119.81
454.853	130.81
455.073	124.81
455.294	127.81
455.514	130.81
455.734	121.81
455.955	127.81
456.175	116.81
456.395	127.81
456.616	101.81
456.836	107.81
457.056	120.81
457.276	113.81
457.497	114.81
457.717	103.81
457.937	104.81
458.157	98.81
458.377	93.81
458.598	107.81
458.818	84.81
459.038	79.81
459.258	81.81
459.478	89.81
459.698	86.81
459.918	94.81
460.138	106.81
460.358	114.81
460.578	125.81
460.798	113.81
461.018	122.81
461.238	106.81
461.458	112.81
461.678	105.81
461.898	109.81
462.118	102.81
462.338	122.81
462.558	110.81
462.777	120.81
462.997	118.81
463.217	122.81
463.437	99.81
463.657	110.81
463.876	102.81
464.096	111.81
464.316	102.81
464.536	114.81
464.755	114.81
464.975	119.81
465.195	118.81
465.414	115.81
465.634	107.81
465.854	124.81
466.073	115.81
466.293	122.81
466.512	116.81
466.732	131.81
466.951	127.81
467.171	131.81
467.391	123.81
467.61	132.81
467.829	144.81
468.049	133.81
468.268	148.81
468.488	135.81
468.707	126.81
468.927	133.81
469.146	139.81
469.365	133.81
469.585	146.81
469.804	154.81
470.023	158.81
470.243	150.81
470.462	147.81
470.681	146.81
470.901	140.81
471.12	156.81
471.339	136.81
471.558	141.81
471.777	151.81
471.997	147.81
472.216	136.81
472.435	113.81
472.654	110.81
472.873	112.81
473.092	123.81
473.311	123.81
473.53	124.81
473.749	137.81
473.968	126.81
474.187	119.81
474.406	134.81
474.625	121.81
474.844	122.81
475.063	133.81
475.282	118.81
475.501	107.81
475.72	122.81
475.939	122.81
476.158	132.81
476.377	141.81
476.596	140.81
476.814	123.81
477.033	89.81
477.252	106.81
477.471	111.81
477.69	139.81
477.908	144.81
478.127	156.81
478.346	137.81
478.564	124.81
478.783	133.81
479.002	142.81
479.22	156.81
479.439	128.81
479.658	138.81
479.876	110.81
480.095	114.81
480.313	120.81
480.532	124.81
480.751	97.81
480.969	102.81
481.188	91.81
481.406	92.81
481.624	82.81
481.843	77.81
482.061	105.81
482.28	112.81
482.498	110.81
482.717	125.81
482.935	138.81
483.153	152.81
483.372	161.81
483.59	154.81
483.808	136.81
484.027	157.81
484.245	159.81
484.463	161.81
484.681	179.81
484.9	152.81
485.118	150.81
485.336	137.81
485.554	106.81
485.772	99.81
485.99	96.81
486.209	107.81
486.427	97.81
486.645	106.81
486.863	141.81
487.081	146.81
487.299	134.81
487.517	143.81
487.735	171.81
487.953	207.81
488.171	196.81
488.389	198.81
488.607	158.81
488.825	136.81
489.043	151.81
489.261	136.81
489.479	147.81
489.696	146.81
489.914	140.81
490.132	140.81
490.35	159.81
490.568	168.81
490.786	177.81
491.003	176.81
491.221	185.81
491.439	196.81
491.657	209.81
491.874	202.81
492.092	256.81
492.31	254.81
492.527	239.81
492.745	204.81
492.963	203.81
493.18	190.81
493.398	190.81
493.615	191.81
493.833	182.81
494.05	171.81
494.268	174.81
494.485	176.81
494.703	175.81
494.92	174.81
495.138	184.81
495.355	183.81
495.573	193.81
495.79	171.81
496.008	171.81
496.225	180.81
496.442	177.81
496.66	165.81
496.877	168.81
497.094	151.81
497.312	162.81
497.529	166.81
497.746	156.81
497.963	127.81
498.181	136.81
498.398	122.81
498.615	126.81
498.832	126.81
499.049	117.81
499.267	130.81
499.484	138.81
499.701	127.81
499.918	135.81
500.135	132.81
500.352	142.81
500.569	142.81
500.786	135.81
501.003	122.81
501.22	152.81
501.437	146.81
501.654	141.81
501.871	143.81
502.088	128.81
502.305	117.81
502.522	133.81
502.739	129.81
502.956	128.81
503.172	122.81
503.389	126.81
503.606	120.81
503.823	131.81
504.04	125.81
504.256	125.81
504.473	123.81
504.69	127.81
504.907	117.81
505.123	127.81
505.34	116.81
505.557	120.81
505.773	123.81
505.99	130.81
506.207	122.81
506.423	127.81
506.64	133.81
506.856	126.81
507.073	128.81
507.289	135.81
507.506	123.81
507.722	129.81
507.939	122.81
508.155	104.81
508.372	119.81
508.588	121.81
508.805	123.81
509.021	107.81
509.238	108.81
509.454	102.81
509.67	98.81
509.887	85.81
510.103	102.81
510.319	96.81
510.536	98.81
510.752	98.81
510.968	77.81
511.184	81.81
511.401	86.81
511.617	87.81
