Data from Location6.07152019.Energy5.Lamp.07192019.3%Agarose_HRD10591_16-11-57-394.txt Node
Date: Fri Jul 19 16:11:57 EDT 2019
User: cochatt
Spectrometer: HR+D1059
Trigger mode: 1
Integration Time (sec): 1.000000E-1
Scans to average: 1
Electric dark correction enabled: true
Nonlinearity correction enabled: false
Boxcar width: 0
XAxis mode: Wavelengths
Number of Pixels in Spectrum: 2048
>>>>>Begin Spectral Data<<<<<
223.165	-10.88
223.4	-10.88
223.635	-10.88
223.869	-22.88
224.104	-20.88
224.338	-16.88
224.573	-7.88
224.808	-4.88
225.042	-7.88
225.277	-8.88
225.511	-15.88
225.746	8.12
225.98	10.12
226.215	19.12
226.449	17.12
226.683	19.12
226.918	23.12
227.152	20.12
227.387	40.12
227.621	31.12
227.856	54.12
228.09	46.12
228.324	45.12
228.559	67.12
228.793	54.12
229.027	65.12
229.262	81.12
229.496	57.12
229.73	71.12
229.964	70.12
230.199	65.12
230.433	78.12
230.667	71.12
230.901	81.12
231.136	80.12
231.37	78.12
231.604	71.12
231.838	71.12
232.072	91.12
232.306	86.12
232.541	77.12
232.775	76.12
233.009	74.12
233.243	68.12
233.477	59.12
233.711	62.12
233.945	78.12
234.179	76.12
234.413	74.12
234.647	78.12
234.881	90.12
235.115	87.12
235.349	82.12
235.583	79.12
235.817	67.12
236.051	84.12
236.285	89.12
236.519	88.12
236.753	72.12
236.987	73.12
237.221	78.12
237.455	82.12
237.689	72.12
237.922	70.12
238.156	85.12
238.39	71.12
238.624	75.12
238.858	81.12
239.091	78.12
239.325	57.12
239.559	73.12
239.793	84.12
240.027	93.12
240.26	70.12
240.494	71.12
240.728	89.12
240.961	70.12
241.195	77.12
241.429	77.12
241.662	79.12
241.896	73.12
242.13	87.12
242.363	70.12
242.597	64.12
242.83	65.12
243.064	86.12
243.298	88.12
243.531	81.12
243.765	72.12
243.998	83.12
244.232	84.12
244.465	71.12
244.699	76.12
244.932	69.12
245.166	89.12
245.399	87.12
245.633	71.12
245.866	80.12
246.099	74.12
246.333	80.12
246.566	84.12
246.8	67.12
247.033	85.12
247.266	70.12
247.5	77.12
247.733	79.12
247.966	63.12
248.2	86.12
248.433	70.12
248.666	80.12
248.899	66.12
249.133	72.12
249.366	91.12
249.599	63.12
249.832	80.12
250.066	78.12
250.299	77.12
250.532	71.12
250.765	75.12
250.998	79.12
251.231	68.12
251.465	73.12
251.698	80.12
251.931	87.12
252.164	73.12
252.397	85.12
252.63	84.12
252.863	77.12
253.096	73.12
253.329	73.12
253.562	94.12
253.795	78.12
254.028	74.12
254.261	70.12
254.494	86.12
254.727	77.12
254.96	71.12
255.193	72.12
255.426	68.12
255.659	65.12
255.892	93.12
256.124	85.12
256.357	73.12
256.59	69.12
256.823	72.12
257.056	81.12
257.289	86.12
257.521	71.12
257.754	86.12
257.987	85.12
258.22	97.12
258.452	84.12
258.685	75.12
258.918	65.12
259.151	75.12
259.383	92.12
259.616	83.12
259.849	86.12
260.081	81.12
260.314	80.12
260.547	76.12
260.779	76.12
261.012	85.12
261.244	84.12
261.477	80.12
261.71	87.12
261.942	96.12
262.175	76.12
262.407	86.12
262.64	90.12
262.872	65.12
263.105	87.12
263.337	88.12
263.57	76.12
263.802	76.12
264.035	75.12
264.267	81.12
264.499	79.12
264.732	87.12
264.964	80.12
265.197	86.12
265.429	76.12
265.661	74.12
265.894	78.12
266.126	80.12
266.358	72.12
266.591	101.12
266.823	89.12
267.055	87.12
267.287	93.12
267.52	74.12
267.752	95.12
267.984	86.12
268.216	74.12
268.448	76.12
268.681	85.12
268.913	90.12
269.145	83.12
269.377	79.12
269.609	81.12
269.841	81.12
270.073	86.12
270.306	85.12
270.538	83.12
270.77	79.12
271.002	91.12
271.234	85.12
271.466	87.12
271.698	81.12
271.93	87.12
272.162	78.12
272.394	83.12
272.626	79.12
272.858	82.12
273.09	75.12
273.322	74.12
273.553	79.12
273.785	63.12
274.017	85.12
274.249	92.12
274.481	94.12
274.713	97.12
274.945	64.12
275.176	75.12
275.408	94.12
275.64	96.12
275.872	95.12
276.104	62.12
276.335	74.12
276.567	82.12
276.799	80.12
277.031	70.12
277.262	98.12
277.494	92.12
277.726	89.12
277.957	74.12
278.189	85.12
278.421	80.12
278.652	99.12
278.884	89.12
279.115	95.12
279.347	92.12
279.579	103.12
279.81	80.12
280.042	83.12
280.273	88.12
280.505	86.12
280.736	85.12
280.968	74.12
281.199	80.12
281.431	76.12
281.662	80.12
281.894	91.12
282.125	70.12
282.356	87.12
282.588	82.12
282.819	62.12
283.051	77.12
283.282	82.12
283.513	82.12
283.745	75.12
283.976	87.12
284.207	82.12
284.439	88.12
284.67	91.12
284.901	80.12
285.132	82.12
285.364	96.12
285.595	106.12
285.826	82.12
286.057	89.12
286.288	94.12
286.52	92.12
286.751	79.12
286.982	89.12
287.213	76.12
287.444	90.12
287.675	72.12
287.906	87.12
288.138	70.12
288.369	94.12
288.6	81.12
288.831	86.12
289.062	72.12
289.293	86.12
289.524	79.12
289.755	83.12
289.986	88.12
290.217	74.12
290.448	72.12
290.679	96.12
290.91	95.12
291.141	85.12
291.371	80.12
291.602	75.12
291.833	75.12
292.064	81.12
292.295	78.12
292.526	73.12
292.757	88.12
292.987	83.12
293.218	93.12
293.449	88.12
293.68	82.12
293.91	72.12
294.141	92.12
294.372	72.12
294.603	82.12
294.833	88.12
295.064	92.12
295.295	88.12
295.525	90.12
295.756	91.12
295.987	79.12
296.217	91.12
296.448	94.12
296.679	77.12
296.909	91.12
297.14	105.12
297.37	96.12
297.601	96.12
297.831	79.12
298.062	86.12
298.292	84.12
298.523	95.12
298.753	96.12
298.984	68.12
299.214	74.12
299.445	95.12
299.675	96.12
299.905	83.12
300.136	92.12
300.366	87.12
300.597	81.12
300.827	84.12
301.057	85.12
301.288	83.12
301.518	82.12
301.748	90.12
301.979	92.12
302.209	90.12
302.439	95.12
302.669	71.12
302.9	92.12
303.13	75.12
303.36	90.12
303.59	92.12
303.82	79.12
304.051	88.12
304.281	84.12
304.511	94.12
304.741	90.12
304.971	86.12
305.201	95.12
305.431	83.12
305.661	67.12
305.891	81.12
306.121	97.12
306.352	83.12
306.582	77.12
306.812	74.12
307.042	82.12
307.272	75.12
307.502	94.12
307.731	82.12
307.961	82.12
308.191	80.12
308.421	95.12
308.651	76.12
308.881	92.12
309.111	86.12
309.341	82.12
309.571	79.12
309.8	88.12
310.03	94.12
310.26	75.12
310.49	97.12
310.72	92.12
310.949	88.12
311.179	83.12
311.409	86.12
311.639	101.12
311.868	86.12
312.098	82.12
312.328	76.12
312.557	83.12
312.787	82.12
313.017	85.12
313.246	78.12
313.476	91.12
313.706	89.12
313.935	83.12
314.165	88.12
314.394	97.12
314.624	89.12
314.853	70.12
315.083	90.12
315.312	100.12
315.542	90.12
315.771	94.12
316.001	68.12
316.23	79.12
316.46	79.12
316.689	79.12
316.919	92.12
317.148	92.12
317.377	83.12
317.607	75.12
317.836	82.12
318.065	92.12
318.295	88.12
318.524	82.12
318.753	76.12
318.983	80.12
319.212	78.12
319.441	70.12
319.67	95.12
319.9	85.12
320.129	81.12
320.358	90.12
320.587	84.12
320.816	84.12
321.046	90.12
321.275	96.12
321.504	84.12
321.733	87.12
321.962	87.12
322.191	88.12
322.42	81.12
322.649	82.12
322.878	82.12
323.108	76.12
323.337	86.12
323.566	75.12
323.795	96.12
324.024	90.12
324.253	89.12
324.482	75.12
324.71	98.12
324.939	80.12
325.168	72.12
325.397	83.12
325.626	92.12
325.855	81.12
326.084	86.12
326.313	73.12
326.542	79.12
326.77	90.12
326.999	86.12
327.228	79.12
327.457	80.12
327.686	82.12
327.914	78.12
328.143	94.12
328.372	87.12
328.6	88.12
328.829	89.12
329.058	89.12
329.287	82.12
329.515	100.12
329.744	87.12
329.972	95.12
330.201	90.12
330.43	101.12
330.658	71.12
330.887	89.12
331.115	88.12
331.344	82.12
331.572	75.12
331.801	69.12
332.03	76.12
332.258	88.12
332.486	95.12
332.715	78.12
332.943	93.12
333.172	80.12
333.4	80.12
333.629	102.12
333.857	84.12
334.085	83.12
334.314	90.12
334.542	91.12
334.771	77.12
334.999	88.12
335.227	85.12
335.455	83.12
335.684	78.12
335.912	74.12
336.14	83.12
336.369	75.12
336.597	93.12
336.825	73.12
337.053	78.12
337.281	84.12
337.51	88.12
337.738	82.12
337.966	89.12
338.194	83.12
338.422	78.12
338.65	86.12
338.878	69.12
339.106	73.12
339.334	94.12
339.562	80.12
339.79	86.12
340.018	88.12
340.246	87.12
340.474	91.12
340.702	95.12
340.93	97.12
341.158	87.12
341.386	94.12
341.614	75.12
341.842	95.12
342.07	86.12
342.298	91.12
342.526	95.12
342.754	86.12
342.981	92.12
343.209	92.12
343.437	90.12
343.665	88.12
343.893	74.12
344.12	73.12
344.348	95.12
344.576	83.12
344.804	92.12
345.031	87.12
345.259	86.12
345.487	90.12
345.714	86.12
345.942	87.12
346.17	84.12
346.397	85.12
346.625	77.12
346.853	101.12
347.08	83.12
347.308	91.12
347.535	72.12
347.763	103.12
347.99	101.12
348.218	76.12
348.445	71.12
348.673	91.12
348.9	83.12
349.128	92.12
349.355	84.12
349.583	82.12
349.81	86.12
350.037	94.12
350.265	87.12
350.492	82.12
350.72	71.12
350.947	88.12
351.174	91.12
351.402	76.12
351.629	87.12
351.856	81.12
352.083	82.12
352.311	83.12
352.538	95.12
352.765	91.12
352.992	81.12
353.22	83.12
353.447	73.12
353.674	92.12
353.901	88.12
354.128	74.12
354.355	88.12
354.583	82.12
354.81	85.12
355.037	73.12
355.264	93.12
355.491	75.12
355.718	79.12
355.945	81.12
356.172	81.12
356.399	84.12
356.626	80.12
356.853	80.12
357.08	85.12
357.307	99.12
357.534	83.12
357.761	79.12
357.988	70.12
358.215	77.12
358.441	78.12
358.668	84.12
358.895	93.12
359.122	94.12
359.349	76.12
359.576	81.12
359.802	70.12
360.029	85.12
360.256	94.12
360.483	85.12
360.709	74.12
360.936	95.12
361.163	96.12
361.39	84.12
361.616	86.12
361.843	74.12
362.07	68.12
362.296	95.12
362.523	79.12
362.749	83.12
362.976	82.12
363.203	77.12
363.429	74.12
363.656	76.12
363.882	72.12
364.109	74.12
364.335	80.12
364.562	83.12
364.788	84.12
365.015	79.12
365.241	88.12
365.468	84.12
365.694	77.12
365.92	93.12
366.147	92.12
366.373	86.12
366.599	88.12
366.826	95.12
367.052	84.12
367.278	86.12
367.505	95.12
367.731	83.12
367.957	94.12
368.184	79.12
368.41	77.12
368.636	111.12
368.862	99.12
369.089	80.12
369.315	83.12
369.541	99.12
369.767	90.12
369.993	96.12
370.219	92.12
370.445	96.12
370.672	104.12
370.898	95.12
371.124	93.12
371.35	86.12
371.576	85.12
371.802	88.12
372.028	95.12
372.254	86.12
372.48	85.12
372.706	94.12
372.932	94.12
373.158	83.12
373.384	92.12
373.61	85.12
373.835	88.12
374.061	91.12
374.287	89.12
374.513	90.12
374.739	106.12
374.965	91.12
375.191	95.12
375.416	84.12
375.642	94.12
375.868	104.12
376.094	94.12
376.319	98.12
376.545	90.12
376.771	88.12
376.997	93.12
377.222	103.12
377.448	87.12
377.674	89.12
377.899	95.12
378.125	93.12
378.35	97.12
378.576	91.12
378.802	111.12
379.027	86.12
379.253	93.12
379.478	94.12
379.704	106.12
379.929	95.12
380.155	92.12
380.38	101.12
380.606	102.12
380.831	96.12
381.057	100.12
381.282	88.12
381.507	93.12
381.733	96.12
381.958	91.12
382.184	113.12
382.409	95.12
382.634	86.12
382.86	91.12
383.085	103.12
383.31	91.12
383.535	90.12
383.761	120.12
383.986	94.12
384.211	110.12
384.436	97.12
384.662	97.12
384.887	93.12
385.112	85.12
385.337	91.12
385.562	85.12
385.787	94.12
386.013	102.12
386.238	87.12
386.463	100.12
386.688	113.12
386.913	107.12
387.138	101.12
387.363	118.12
387.588	112.12
387.813	108.12
388.038	105.12
388.263	101.12
388.488	92.12
388.713	106.12
388.938	108.12
389.163	96.12
389.387	89.12
389.612	113.12
389.837	110.12
390.062	90.12
390.287	114.12
390.512	111.12
390.736	98.12
390.961	112.12
391.186	125.12
391.411	105.12
391.636	107.12
391.86	113.12
392.085	108.12
392.31	114.12
392.534	100.12
392.759	107.12
392.984	108.12
393.208	105.12
393.433	114.12
393.658	102.12
393.882	109.12
394.107	116.12
394.331	99.12
394.556	103.12
394.78	111.12
395.005	102.12
395.229	99.12
395.454	101.12
395.678	110.12
395.903	106.12
396.127	113.12
396.352	106.12
396.576	110.12
396.801	104.12
397.025	121.12
397.249	115.12
397.474	104.12
397.698	114.12
397.922	111.12
398.147	100.12
398.371	114.12
398.595	108.12
398.82	117.12
399.044	107.12
399.268	109.12
399.492	114.12
399.717	115.12
399.941	123.12
400.165	113.12
400.389	114.12
400.613	106.12
400.837	114.12
401.062	119.12
401.286	103.12
401.51	97.12
401.734	112.12
401.958	116.12
402.182	112.12
402.406	111.12
402.63	108.12
402.854	106.12
403.078	114.12
403.302	129.12
403.526	114.12
403.75	116.12
403.974	127.12
404.198	138.12
404.422	114.12
404.645	115.12
404.869	128.12
405.093	114.12
405.317	112.12
405.541	120.12
405.765	103.12
405.988	114.12
406.212	136.12
406.436	125.12
406.66	122.12
406.883	114.12
407.107	120.12
407.331	101.12
407.555	118.12
407.778	138.12
408.002	133.12
408.226	122.12
408.449	119.12
408.673	119.12
408.896	134.12
409.12	119.12
409.344	136.12
409.567	125.12
409.791	124.12
410.014	140.12
410.238	136.12
410.461	129.12
410.685	124.12
410.908	116.12
411.132	132.12
411.355	117.12
411.578	137.12
411.802	107.12
412.025	124.12
412.249	120.12
412.472	131.12
412.695	126.12
412.919	125.12
413.142	127.12
413.365	117.12
413.589	115.12
413.812	129.12
414.035	131.12
414.258	126.12
414.482	119.12
414.705	129.12
414.928	122.12
415.151	122.12
415.374	122.12
415.597	129.12
415.821	121.12
416.044	122.12
416.267	125.12
416.49	132.12
416.713	120.12
416.936	123.12
417.159	124.12
417.382	109.12
417.605	134.12
417.828	128.12
418.051	130.12
418.274	131.12
418.497	126.12
418.72	131.12
418.943	147.12
419.166	133.12
419.389	137.12
419.611	146.12
419.834	122.12
420.057	144.12
420.28	127.12
420.503	145.12
420.726	122.12
420.948	127.12
421.171	130.12
421.394	126.12
421.617	138.12
421.839	136.12
422.062	147.12
422.285	147.12
422.507	136.12
422.73	145.12
422.953	125.12
423.175	136.12
423.398	138.12
423.621	148.12
423.843	144.12
424.066	144.12
424.288	152.12
424.511	143.12
424.733	154.12
424.956	139.12
425.178	151.12
425.401	136.12
425.623	126.12
425.846	129.12
426.068	126.12
426.291	130.12
426.513	135.12
426.735	140.12
426.958	145.12
427.18	138.12
427.402	122.12
427.625	116.12
427.847	135.12
428.069	136.12
428.292	132.12
428.514	141.12
428.736	129.12
428.958	130.12
429.181	148.12
429.403	124.12
429.625	130.12
429.847	131.12
430.069	128.12
430.292	120.12
430.514	144.12
430.736	135.12
430.958	124.12
431.18	125.12
431.402	124.12
431.624	128.12
431.846	111.12
432.068	103.12
432.29	101.12
432.512	114.12
432.734	128.12
432.956	140.12
433.178	140.12
433.4	154.12
433.622	144.12
433.844	133.12
434.066	124.12
434.287	127.12
434.509	100.12
434.731	94.12
434.953	114.12
435.175	110.12
435.397	135.12
435.618	115.12
435.84	128.12
436.062	107.12
436.284	123.12
436.505	133.12
436.727	138.12
436.949	134.12
437.17	127.12
437.392	125.12
437.614	135.12
437.835	124.12
438.057	98.12
438.278	108.12
438.5	126.12
438.721	144.12
438.943	146.12
439.165	151.12
439.386	120.12
439.608	144.12
439.829	141.12
440.05	156.12
440.272	162.12
440.493	160.12
440.715	140.12
440.936	147.12
441.158	168.12
441.379	129.12
441.6	148.12
441.822	168.12
442.043	148.12
442.264	153.12
442.486	132.12
442.707	154.12
442.928	157.12
443.149	144.12
443.371	151.12
443.592	153.12
443.813	148.12
444.034	144.12
444.255	148.12
444.476	143.12
444.698	146.12
444.919	141.12
445.14	278.12
445.361	199.12
445.582	134.12
445.803	156.12
446.024	174.12
446.245	175.12
446.466	154.12
446.687	190.12
446.908	168.12
447.129	178.12
447.35	155.12
447.571	148.12
447.792	137.12
448.013	142.12
448.234	140.12
448.455	144.12
448.675	148.12
448.896	154.12
449.117	153.12
449.338	147.12
449.559	143.12
449.779	147.12
450	154.12
450.221	147.12
450.442	134.12
450.662	152.12
450.883	140.12
451.104	132.12
451.324	134.12
451.545	131.12
451.766	139.12
451.986	121.12
452.207	140.12
452.428	126.12
452.648	111.12
452.869	129.12
453.089	116.12
453.31	116.12
453.53	113.12
453.751	100.12
453.971	116.12
454.192	106.12
454.412	112.12
454.633	110.12
454.853	126.12
455.073	128.12
455.294	126.12
455.514	133.12
455.734	130.12
455.955	114.12
456.175	115.12
456.395	105.12
456.616	117.12
456.836	106.12
457.056	103.12
457.276	100.12
457.497	119.12
457.717	112.12
457.937	101.12
458.157	112.12
458.377	116.12
458.598	88.12
458.818	102.12
459.038	106.12
459.258	98.12
459.478	97.12
459.698	81.12
459.918	90.12
460.138	107.12
460.358	104.12
460.578	114.12
460.798	108.12
461.018	120.12
461.238	130.12
461.458	124.12
461.678	118.12
461.898	122.12
462.118	111.12
462.338	116.12
462.558	123.12
462.777	117.12
462.997	119.12
463.217	99.12
463.437	112.12
463.657	102.12
463.876	121.12
464.096	118.12
464.316	96.12
464.536	120.12
464.755	101.12
464.975	119.12
465.195	126.12
465.414	113.12
465.634	105.12
465.854	122.12
466.073	128.12
466.293	132.12
466.512	110.12
466.732	130.12
466.951	128.12
467.171	140.12
467.391	139.12
467.61	144.12
467.829	146.12
468.049	143.12
468.268	150.12
468.488	148.12
468.707	143.12
468.927	139.12
469.146	132.12
469.365	146.12
469.585	131.12
469.804	132.12
470.023	146.12
470.243	142.12
470.462	148.12
470.681	137.12
470.901	147.12
471.12	150.12
471.339	136.12
471.558	172.12
471.777	158.12
471.997	147.12
472.216	136.12
472.435	147.12
472.654	110.12
472.873	121.12
473.092	109.12
473.311	122.12
473.53	122.12
473.749	119.12
473.968	134.12
474.187	127.12
474.406	124.12
474.625	120.12
474.844	132.12
475.063	139.12
475.282	122.12
475.501	102.12
475.72	130.12
475.939	122.12
476.158	128.12
476.377	146.12
476.596	140.12
476.814	116.12
477.033	115.12
477.252	120.12
477.471	130.12
477.69	138.12
477.908	136.12
478.127	152.12
478.346	146.12
478.564	138.12
478.783	150.12
479.002	151.12
479.22	138.12
479.439	135.12
479.658	131.12
479.876	111.12
480.095	111.12
480.313	127.12
480.532	111.12
480.751	108.12
480.969	80.12
481.188	99.12
481.406	95.12
481.624	96.12
481.843	104.12
482.061	100.12
482.28	117.12
482.498	124.12
482.717	112.12
482.935	134.12
483.153	151.12
483.372	140.12
483.59	160.12
483.808	160.12
484.027	149.12
484.245	154.12
484.463	167.12
484.681	176.12
484.9	143.12
485.118	143.12
485.336	131.12
485.554	107.12
485.772	100.12
485.99	99.12
486.209	121.12
486.427	122.12
486.645	142.12
486.863	148.12
487.081	137.12
487.299	151.12
487.517	144.12
487.735	171.12
487.953	202.12
488.171	190.12
488.389	178.12
488.607	183.12
488.825	161.12
489.043	130.12
489.261	133.12
489.479	148.12
489.696	137.12
489.914	150.12
490.132	126.12
490.35	165.12
490.568	157.12
490.786	172.12
491.003	175.12
491.221	189.12
491.439	187.12
491.657	183.12
491.874	216.12
492.092	247.12
492.31	240.12
492.527	246.12
492.745	228.12
492.963	206.12
493.18	195.12
493.398	186.12
493.615	181.12
493.833	168.12
494.05	186.12
494.268	176.12
494.485	183.12
494.703	177.12
494.92	193.12
495.138	179.12
495.355	181.12
495.573	173.12
495.79	181.12
496.008	170.12
496.225	185.12
496.442	162.12
496.66	167.12
496.877	155.12
497.094	168.12
497.312	188.12
497.529	158.12
497.746	139.12
497.963	150.12
498.181	140.12
498.398	140.12
498.615	123.12
498.832	117.12
499.049	128.12
499.267	118.12
499.484	131.12
499.701	146.12
499.918	132.12
500.135	146.12
500.352	144.12
500.569	146.12
500.786	133.12
501.003	143.12
501.22	133.12
501.437	139.12
501.654	152.12
501.871	140.12
502.088	132.12
502.305	155.12
502.522	134.12
502.739	146.12
502.956	141.12
503.172	123.12
503.389	124.12
503.606	134.12
503.823	129.12
504.04	129.12
504.256	130.12
504.473	132.12
504.69	122.12
504.907	149.12
505.123	126.12
505.34	118.12
505.557	127.12
505.773	115.12
505.99	130.12
506.207	130.12
506.423	128.12
506.64	121.12
506.856	122.12
507.073	120.12
507.289	130.12
507.506	112.12
507.722	118.12
507.939	138.12
508.155	115.12
508.372	115.12
508.588	116.12
508.805	112.12
509.021	114.12
509.238	126.12
509.454	105.12
509.67	82.12
509.887	105.12
510.103	100.12
510.319	90.12
510.536	102.12
510.752	88.12
510.968	104.12
511.184	85.12
511.401	75.12
