Data from Location6.07152019.Energy5.Lamp.07192019.3%Agarose_HRD10591_16-12-09-396.txt Node
Date: Fri Jul 19 16:12:09 EDT 2019
User: cochatt
Spectrometer: HR+D1059
Trigger mode: 1
Integration Time (sec): 1.000000E-1
Scans to average: 1
Electric dark correction enabled: true
Nonlinearity correction enabled: false
Boxcar width: 0
XAxis mode: Wavelengths
Number of Pixels in Spectrum: 2048
>>>>>Begin Spectral Data<<<<<
223.165	-25.56
223.4	-25.56
223.635	-25.56
223.869	-15.56
224.104	-10.56
224.338	-23.56
224.573	-10.56
224.808	-8.56
225.042	-23.56
225.277	-4.56
225.511	-12.56
225.746	7.44
225.98	3.44
226.215	7.44
226.449	26.44
226.683	27.44
226.918	25.44
227.152	37.44
227.387	34.44
227.621	25.44
227.856	42.44
228.09	47.44
228.324	45.44
228.559	53.44
228.793	59.44
229.027	65.44
229.262	66.44
229.496	65.44
229.73	71.44
229.964	57.44
230.199	79.44
230.433	69.44
230.667	81.44
230.901	80.44
231.136	82.44
231.37	84.44
231.604	87.44
231.838	81.44
232.072	62.44
232.306	81.44
232.541	73.44
232.775	74.44
233.009	76.44
233.243	90.44
233.477	76.44
233.711	97.44
233.945	73.44
234.179	86.44
234.413	77.44
234.647	90.44
234.881	87.44
235.115	73.44
235.349	79.44
235.583	79.44
235.817	81.44
236.051	80.44
236.285	94.44
236.519	72.44
236.753	78.44
236.987	74.44
237.221	87.44
237.455	74.44
237.689	93.44
237.922	90.44
238.156	75.44
238.39	87.44
238.624	78.44
238.858	74.44
239.091	73.44
239.325	76.44
239.559	68.44
239.793	79.44
240.027	76.44
240.26	78.44
240.494	71.44
240.728	74.44
240.961	73.44
241.195	74.44
241.429	78.44
241.662	77.44
241.896	64.44
242.13	60.44
242.363	65.44
242.597	80.44
242.83	75.44
243.064	86.44
243.298	90.44
243.531	73.44
243.765	87.44
243.998	83.44
244.232	80.44
244.465	77.44
244.699	75.44
244.932	80.44
245.166	86.44
245.399	77.44
245.633	94.44
245.866	87.44
246.099	83.44
246.333	88.44
246.566	83.44
246.8	70.44
247.033	83.44
247.266	83.44
247.5	76.44
247.733	76.44
247.966	84.44
248.2	82.44
248.433	78.44
248.666	88.44
248.899	77.44
249.133	83.44
249.366	76.44
249.599	76.44
249.832	88.44
250.066	71.44
250.299	76.44
250.532	88.44
250.765	81.44
250.998	80.44
251.231	78.44
251.465	75.44
251.698	75.44
251.931	79.44
252.164	76.44
252.397	82.44
252.63	71.44
252.863	67.44
253.096	82.44
253.329	74.44
253.562	79.44
253.795	79.44
254.028	84.44
254.261	81.44
254.494	79.44
254.727	93.44
254.96	90.44
255.193	81.44
255.426	76.44
255.659	83.44
255.892	79.44
256.124	85.44
256.357	94.44
256.59	88.44
256.823	73.44
257.056	76.44
257.289	82.44
257.521	92.44
257.754	86.44
257.987	82.44
258.22	92.44
258.452	86.44
258.685	92.44
258.918	79.44
259.151	79.44
259.383	80.44
259.616	82.44
259.849	68.44
260.081	76.44
260.314	89.44
260.547	77.44
260.779	80.44
261.012	75.44
261.244	89.44
261.477	82.44
261.71	68.44
261.942	69.44
262.175	64.44
262.407	80.44
262.64	80.44
262.872	88.44
263.105	85.44
263.337	78.44
263.57	89.44
263.802	76.44
264.035	91.44
264.267	90.44
264.499	79.44
264.732	71.44
264.964	87.44
265.197	70.44
265.429	81.44
265.661	82.44
265.894	77.44
266.126	77.44
266.358	88.44
266.591	87.44
266.823	82.44
267.055	95.44
267.287	80.44
267.52	88.44
267.752	90.44
267.984	79.44
268.216	83.44
268.448	81.44
268.681	67.44
268.913	81.44
269.145	78.44
269.377	89.44
269.609	70.44
269.841	101.44
270.073	88.44
270.306	79.44
270.538	95.44
270.77	88.44
271.002	78.44
271.234	83.44
271.466	86.44
271.698	81.44
271.93	95.44
272.162	71.44
272.394	91.44
272.626	82.44
272.858	80.44
273.09	88.44
273.322	80.44
273.553	91.44
273.785	85.44
274.017	61.44
274.249	76.44
274.481	64.44
274.713	95.44
274.945	85.44
275.176	92.44
275.408	96.44
275.64	81.44
275.872	85.44
276.104	79.44
276.335	88.44
276.567	80.44
276.799	80.44
277.031	80.44
277.262	75.44
277.494	88.44
277.726	85.44
277.957	80.44
278.189	74.44
278.421	79.44
278.652	75.44
278.884	88.44
279.115	85.44
279.347	73.44
279.579	83.44
279.81	88.44
280.042	91.44
280.273	88.44
280.505	65.44
280.736	87.44
280.968	92.44
281.199	86.44
281.431	86.44
281.662	77.44
281.894	83.44
282.125	86.44
282.356	85.44
282.588	91.44
282.819	90.44
283.051	81.44
283.282	67.44
283.513	73.44
283.745	82.44
283.976	91.44
284.207	77.44
284.439	76.44
284.67	91.44
284.901	85.44
285.132	85.44
285.364	86.44
285.595	81.44
285.826	76.44
286.057	87.44
286.288	89.44
286.52	76.44
286.751	86.44
286.982	95.44
287.213	80.44
287.444	85.44
287.675	87.44
287.906	73.44
288.138	73.44
288.369	80.44
288.6	77.44
288.831	88.44
289.062	95.44
289.293	76.44
289.524	89.44
289.755	85.44
289.986	68.44
290.217	82.44
290.448	92.44
290.679	85.44
290.91	86.44
291.141	97.44
291.371	87.44
291.602	99.44
291.833	81.44
292.064	88.44
292.295	84.44
292.526	75.44
292.757	73.44
292.987	82.44
293.218	77.44
293.449	76.44
293.68	70.44
293.91	77.44
294.141	82.44
294.372	85.44
294.603	81.44
294.833	83.44
295.064	83.44
295.295	87.44
295.525	76.44
295.756	83.44
295.987	79.44
296.217	80.44
296.448	81.44
296.679	77.44
296.909	86.44
297.14	80.44
297.37	87.44
297.601	87.44
297.831	88.44
298.062	81.44
298.292	96.44
298.523	86.44
298.753	92.44
298.984	93.44
299.214	88.44
299.445	83.44
299.675	78.44
299.905	84.44
300.136	84.44
300.366	95.44
300.597	77.44
300.827	82.44
301.057	74.44
301.288	84.44
301.518	78.44
301.748	70.44
301.979	77.44
302.209	88.44
302.439	87.44
302.669	90.44
302.9	100.44
303.13	96.44
303.36	81.44
303.59	81.44
303.82	83.44
304.051	87.44
304.281	80.44
304.511	87.44
304.741	96.44
304.971	88.44
305.201	92.44
305.431	78.44
305.661	70.44
305.891	90.44
306.121	84.44
306.352	90.44
306.582	83.44
306.812	88.44
307.042	68.44
307.272	79.44
307.502	83.44
307.731	68.44
307.961	82.44
308.191	88.44
308.421	82.44
308.651	87.44
308.881	86.44
309.111	94.44
309.341	74.44
309.571	93.44
309.8	78.44
310.03	80.44
310.26	76.44
310.49	72.44
310.72	79.44
310.949	74.44
311.179	93.44
311.409	99.44
311.639	83.44
311.868	90.44
312.098	91.44
312.328	81.44
312.557	101.44
312.787	97.44
313.017	81.44
313.246	82.44
313.476	96.44
313.706	85.44
313.935	79.44
314.165	99.44
314.394	91.44
314.624	97.44
314.853	85.44
315.083	90.44
315.312	87.44
315.542	87.44
315.771	103.44
316.001	81.44
316.23	95.44
316.46	77.44
316.689	89.44
316.919	89.44
317.148	92.44
317.377	92.44
317.607	85.44
317.836	92.44
318.065	81.44
318.295	96.44
318.524	72.44
318.753	86.44
318.983	75.44
319.212	83.44
319.441	74.44
319.67	96.44
319.9	88.44
320.129	87.44
320.358	92.44
320.587	72.44
320.816	81.44
321.046	86.44
321.275	86.44
321.504	72.44
321.733	78.44
321.962	83.44
322.191	91.44
322.42	88.44
322.649	88.44
322.878	88.44
323.108	77.44
323.337	79.44
323.566	88.44
323.795	101.44
324.024	96.44
324.253	80.44
324.482	83.44
324.71	77.44
324.939	89.44
325.168	96.44
325.397	85.44
325.626	92.44
325.855	104.44
326.084	96.44
326.313	72.44
326.542	78.44
326.77	90.44
326.999	85.44
327.228	100.44
327.457	95.44
327.686	81.44
327.914	91.44
328.143	91.44
328.372	74.44
328.6	80.44
328.829	77.44
329.058	95.44
329.287	79.44
329.515	88.44
329.744	72.44
329.972	99.44
330.201	81.44
330.43	88.44
330.658	84.44
330.887	91.44
331.115	76.44
331.344	85.44
331.572	79.44
331.801	91.44
332.03	81.44
332.258	93.44
332.486	90.44
332.715	92.44
332.943	97.44
333.172	85.44
333.4	91.44
333.629	92.44
333.857	81.44
334.085	84.44
334.314	73.44
334.542	74.44
334.771	87.44
334.999	73.44
335.227	84.44
335.455	77.44
335.684	93.44
335.912	99.44
336.14	96.44
336.369	85.44
336.597	76.44
336.825	85.44
337.053	97.44
337.281	93.44
337.51	83.44
337.738	99.44
337.966	85.44
338.194	76.44
338.422	97.44
338.65	78.44
338.878	69.44
339.106	92.44
339.334	100.44
339.562	87.44
339.79	79.44
340.018	86.44
340.246	76.44
340.474	82.44
340.702	86.44
340.93	90.44
341.158	85.44
341.386	65.44
341.614	75.44
341.842	87.44
342.07	85.44
342.298	84.44
342.526	85.44
342.754	81.44
342.981	79.44
343.209	75.44
343.437	89.44
343.665	84.44
343.893	91.44
344.12	76.44
344.348	99.44
344.576	93.44
344.804	96.44
345.031	75.44
345.259	80.44
345.487	87.44
345.714	91.44
345.942	76.44
346.17	70.44
346.397	69.44
346.625	92.44
346.853	82.44
347.08	79.44
347.308	82.44
347.535	92.44
347.763	83.44
347.99	82.44
348.218	83.44
348.445	103.44
348.673	80.44
348.9	88.44
349.128	79.44
349.355	81.44
349.583	84.44
349.81	80.44
350.037	91.44
350.265	78.44
350.492	84.44
350.72	81.44
350.947	100.44
351.174	84.44
351.402	88.44
351.629	94.44
351.856	90.44
352.083	71.44
352.311	81.44
352.538	81.44
352.765	76.44
352.992	85.44
353.22	97.44
353.447	83.44
353.674	84.44
353.901	91.44
354.128	89.44
354.355	104.44
354.583	68.44
354.81	87.44
355.037	79.44
355.264	99.44
355.491	90.44
355.718	67.44
355.945	81.44
356.172	71.44
356.399	90.44
356.626	70.44
356.853	93.44
357.08	89.44
357.307	89.44
357.534	70.44
357.761	90.44
357.988	90.44
358.215	65.44
358.441	81.44
358.668	80.44
358.895	75.44
359.122	80.44
359.349	100.44
359.576	83.44
359.802	90.44
360.029	99.44
360.256	88.44
360.483	81.44
360.709	81.44
360.936	85.44
361.163	96.44
361.39	96.44
361.616	97.44
361.843	92.44
362.07	70.44
362.296	75.44
362.523	89.44
362.749	81.44
362.976	80.44
363.203	98.44
363.429	88.44
363.656	87.44
363.882	85.44
364.109	87.44
364.335	85.44
364.562	81.44
364.788	88.44
365.015	84.44
365.241	77.44
365.468	93.44
365.694	82.44
365.92	76.44
366.147	75.44
366.373	95.44
366.599	83.44
366.826	100.44
367.052	92.44
367.278	88.44
367.505	92.44
367.731	93.44
367.957	76.44
368.184	82.44
368.41	83.44
368.636	84.44
368.862	95.44
369.089	86.44
369.315	84.44
369.541	92.44
369.767	98.44
369.993	91.44
370.219	103.44
370.445	80.44
370.672	96.44
370.898	99.44
371.124	90.44
371.35	90.44
371.576	89.44
371.802	92.44
372.028	90.44
372.254	91.44
372.48	98.44
372.706	105.44
372.932	111.44
373.158	104.44
373.384	95.44
373.61	101.44
373.835	94.44
374.061	99.44
374.287	95.44
374.513	95.44
374.739	88.44
374.965	76.44
375.191	92.44
375.416	105.44
375.642	108.44
375.868	89.44
376.094	93.44
376.319	104.44
376.545	87.44
376.771	87.44
376.997	86.44
377.222	98.44
377.448	106.44
377.674	92.44
377.899	95.44
378.125	94.44
378.35	97.44
378.576	90.44
378.802	89.44
379.027	83.44
379.253	88.44
379.478	101.44
379.704	99.44
379.929	87.44
380.155	94.44
380.38	86.44
380.606	107.44
380.831	102.44
381.057	100.44
381.282	99.44
381.507	99.44
381.733	103.44
381.958	75.44
382.184	101.44
382.409	85.44
382.634	92.44
382.86	117.44
383.085	92.44
383.31	95.44
383.535	119.44
383.761	106.44
383.986	101.44
384.211	101.44
384.436	119.44
384.662	100.44
384.887	98.44
385.112	104.44
385.337	95.44
385.562	83.44
385.787	102.44
386.013	106.44
386.238	100.44
386.463	75.44
386.688	110.44
386.913	103.44
387.138	112.44
387.363	87.44
387.588	115.44
387.813	82.44
388.038	87.44
388.263	106.44
388.488	105.44
388.713	87.44
388.938	108.44
389.163	103.44
389.387	103.44
389.612	109.44
389.837	107.44
390.062	116.44
390.287	113.44
390.512	97.44
390.736	103.44
390.961	107.44
391.186	98.44
391.411	115.44
391.636	101.44
391.86	103.44
392.085	94.44
392.31	81.44
392.534	96.44
392.759	98.44
392.984	115.44
393.208	105.44
393.433	111.44
393.658	103.44
393.882	111.44
394.107	105.44
394.331	115.44
394.556	101.44
394.78	112.44
395.005	109.44
395.229	112.44
395.454	121.44
395.678	104.44
395.903	115.44
396.127	95.44
396.352	100.44
396.576	104.44
396.801	117.44
397.025	99.44
397.249	116.44
397.474	120.44
397.698	109.44
397.922	103.44
398.147	96.44
398.371	112.44
398.595	113.44
398.82	124.44
399.044	122.44
399.268	115.44
399.492	112.44
399.717	99.44
399.941	121.44
400.165	114.44
400.389	103.44
400.613	108.44
400.837	114.44
401.062	107.44
401.286	116.44
401.51	119.44
401.734	92.44
401.958	117.44
402.182	114.44
402.406	106.44
402.63	119.44
402.854	109.44
403.078	117.44
403.302	125.44
403.526	112.44
403.75	118.44
403.974	115.44
404.198	119.44
404.422	123.44
404.645	113.44
404.869	124.44
405.093	124.44
405.317	109.44
405.541	118.44
405.765	121.44
405.988	124.44
406.212	134.44
406.436	112.44
406.66	123.44
406.883	123.44
407.107	115.44
407.331	119.44
407.555	120.44
407.778	121.44
408.002	121.44
408.226	135.44
408.449	116.44
408.673	120.44
408.896	115.44
409.12	118.44
409.344	108.44
409.567	118.44
409.791	126.44
410.014	124.44
410.238	111.44
410.461	133.44
410.685	118.44
410.908	127.44
411.132	128.44
411.355	118.44
411.578	129.44
411.802	123.44
412.025	112.44
412.249	117.44
412.472	126.44
412.695	120.44
412.919	126.44
413.142	126.44
413.365	121.44
413.589	111.44
413.812	114.44
414.035	115.44
414.258	124.44
414.482	117.44
414.705	131.44
414.928	108.44
415.151	131.44
415.374	122.44
415.597	124.44
415.821	116.44
416.044	129.44
416.267	124.44
416.49	124.44
416.713	138.44
416.936	127.44
417.159	130.44
417.382	129.44
417.605	131.44
417.828	135.44
418.051	150.44
418.274	137.44
418.497	123.44
418.72	136.44
418.943	141.44
419.166	137.44
419.389	142.44
419.611	131.44
419.834	121.44
420.057	136.44
420.28	121.44
420.503	131.44
420.726	146.44
420.948	139.44
421.171	133.44
421.394	145.44
421.617	135.44
421.839	141.44
422.062	118.44
422.285	119.44
422.507	128.44
422.73	132.44
422.953	135.44
423.175	131.44
423.398	132.44
423.621	133.44
423.843	135.44
424.066	131.44
424.288	140.44
424.511	155.44
424.733	154.44
424.956	157.44
425.178	137.44
425.401	140.44
425.623	135.44
425.846	142.44
426.068	127.44
426.291	133.44
426.513	137.44
426.735	131.44
426.958	130.44
427.18	128.44
427.402	136.44
427.625	125.44
427.847	129.44
428.069	131.44
428.292	118.44
428.514	137.44
428.736	116.44
428.958	137.44
429.181	129.44
429.403	123.44
429.625	134.44
429.847	134.44
430.069	150.44
430.292	127.44
430.514	137.44
430.736	145.44
430.958	128.44
431.18	134.44
431.402	117.44
431.624	137.44
431.846	108.44
432.068	111.44
432.29	111.44
432.512	112.44
432.734	113.44
432.956	133.44
433.178	125.44
433.4	135.44
433.622	137.44
433.844	139.44
434.066	137.44
434.287	114.44
434.509	86.44
434.731	104.44
434.953	101.44
435.175	116.44
435.397	129.44
435.618	127.44
435.84	124.44
436.062	122.44
436.284	123.44
436.505	137.44
436.727	128.44
436.949	146.44
437.17	145.44
437.392	145.44
437.614	127.44
437.835	130.44
438.057	122.44
438.278	127.44
438.5	123.44
438.721	140.44
438.943	130.44
439.165	143.44
439.386	136.44
439.608	145.44
439.829	149.44
440.05	155.44
440.272	154.44
440.493	159.44
440.715	142.44
440.936	152.44
441.158	164.44
441.379	143.44
441.6	151.44
441.822	157.44
442.043	139.44
442.264	136.44
442.486	131.44
442.707	147.44
442.928	139.44
443.149	127.44
443.371	124.44
443.592	132.44
443.813	149.44
444.034	143.44
444.255	136.44
444.476	139.44
444.698	153.44
444.919	148.44
445.14	293.44
445.361	224.44
445.582	161.44
445.803	144.44
446.024	153.44
446.245	160.44
446.466	150.44
446.687	156.44
446.908	151.44
447.129	163.44
447.35	162.44
447.571	149.44
447.792	160.44
448.013	147.44
448.234	156.44
448.455	145.44
448.675	149.44
448.896	143.44
449.117	123.44
449.338	151.44
449.559	141.44
449.779	126.44
450	146.44
450.221	138.44
450.442	150.44
450.662	140.44
450.883	139.44
451.104	142.44
451.324	127.44
451.545	123.44
451.766	152.44
451.986	157.44
452.207	136.44
452.428	122.44
452.648	134.44
452.869	125.44
453.089	115.44
453.31	118.44
453.53	123.44
453.751	111.44
453.971	120.44
454.192	101.44
454.412	115.44
454.633	123.44
454.853	122.44
455.073	123.44
455.294	126.44
455.514	127.44
455.734	138.44
455.955	125.44
456.175	121.44
456.395	121.44
456.616	122.44
456.836	115.44
457.056	115.44
457.276	120.44
457.497	106.44
457.717	127.44
457.937	121.44
458.157	117.44
458.377	92.44
458.598	103.44
458.818	116.44
459.038	100.44
459.258	90.44
459.478	94.44
459.698	99.44
459.918	99.44
460.138	89.44
460.358	96.44
460.578	125.44
460.798	108.44
461.018	111.44
461.238	134.44
461.458	104.44
461.678	111.44
461.898	102.44
462.118	117.44
462.338	123.44
462.558	114.44
462.777	119.44
462.997	121.44
463.217	121.44
463.437	105.44
463.657	115.44
463.876	111.44
464.096	112.44
464.316	120.44
464.536	112.44
464.755	113.44
464.975	126.44
465.195	120.44
465.414	123.44
465.634	120.44
465.854	108.44
466.073	112.44
466.293	129.44
466.512	120.44
466.732	128.44
466.951	134.44
467.171	131.44
467.391	146.44
467.61	123.44
467.829	142.44
468.049	132.44
468.268	140.44
468.488	124.44
468.707	144.44
468.927	148.44
469.146	141.44
469.365	137.44
469.585	136.44
469.804	152.44
470.023	151.44
470.243	160.44
470.462	148.44
470.681	162.44
470.901	133.44
471.12	144.44
471.339	157.44
471.558	146.44
471.777	134.44
471.997	147.44
472.216	132.44
472.435	125.44
472.654	111.44
472.873	100.44
473.092	131.44
473.311	117.44
473.53	133.44
473.749	125.44
473.968	146.44
474.187	130.44
474.406	134.44
474.625	133.44
474.844	149.44
475.063	129.44
475.282	151.44
475.501	123.44
475.72	105.44
475.939	120.44
476.158	123.44
476.377	146.44
476.596	133.44
476.814	127.44
477.033	120.44
477.252	114.44
477.471	133.44
477.69	136.44
477.908	141.44
478.127	146.44
478.346	153.44
478.564	131.44
478.783	129.44
479.002	133.44
479.22	152.44
479.439	136.44
479.658	137.44
479.876	120.44
480.095	103.44
480.313	127.44
480.532	114.44
480.751	111.44
480.969	97.44
481.188	107.44
481.406	95.44
481.624	91.44
481.843	88.44
482.061	104.44
482.28	109.44
482.498	117.44
482.717	120.44
482.935	114.44
483.153	165.44
483.372	153.44
483.59	156.44
483.808	146.44
484.027	144.44
484.245	152.44
484.463	160.44
484.681	157.44
484.9	142.44
485.118	162.44
485.336	141.44
485.554	102.44
485.772	108.44
485.99	97.44
486.209	102.44
486.427	133.44
486.645	129.44
486.863	129.44
487.081	151.44
487.299	149.44
487.517	141.44
487.735	187.44
487.953	204.44
488.171	202.44
488.389	195.44
488.607	149.44
488.825	158.44
489.043	131.44
489.261	137.44
489.479	147.44
489.696	148.44
489.914	124.44
490.132	148.44
490.35	163.44
490.568	168.44
490.786	183.44
491.003	186.44
491.221	188.44
491.439	189.44
491.657	205.44
491.874	212.44
492.092	234.44
492.31	264.44
492.527	237.44
492.745	213.44
492.963	208.44
493.18	201.44
493.398	193.44
493.615	181.44
493.833	173.44
494.05	179.44
494.268	167.44
494.485	188.44
494.703	185.44
494.92	176.44
495.138	172.44
495.355	181.44
495.573	188.44
495.79	175.44
496.008	187.44
496.225	166.44
496.442	166.44
496.66	172.44
496.877	177.44
497.094	157.44
497.312	175.44
497.529	175.44
497.746	172.44
497.963	157.44
498.181	148.44
498.398	121.44
498.615	136.44
498.832	108.44
499.049	116.44
499.267	135.44
499.484	131.44
499.701	149.44
499.918	147.44
500.135	151.44
500.352	158.44
500.569	146.44
500.786	156.44
501.003	131.44
501.22	151.44
501.437	145.44
501.654	137.44
501.871	149.44
502.088	140.44
502.305	125.44
502.522	140.44
502.739	136.44
502.956	133.44
503.172	132.44
503.389	124.44
503.606	115.44
503.823	117.44
504.04	127.44
504.256	147.44
504.473	125.44
504.69	124.44
504.907	132.44
505.123	120.44
505.34	131.44
505.557	118.44
505.773	138.44
505.99	123.44
506.207	125.44
506.423	133.44
506.64	118.44
506.856	149.44
507.073	139.44
507.289	131.44
507.506	128.44
507.722	115.44
507.939	125.44
508.155	118.44
508.372	112.44
508.588	113.44
508.805	122.44
509.021	104.44
509.238	106.44
509.454	85.44
509.67	94.44
509.887	99.44
510.103	98.44
510.319	92.44
510.536	94.44
510.752	105.44
510.968	92.44
511.184	73.44
511.401	79.44
