Data from Location6.07152019.Energy5.Lamp.07192019.3%Agarose_HRD10591_16-13-08-395.txt Node
Date: Fri Jul 19 16:13:08 EDT 2019
User: cochatt
Spectrometer: HR+D1059
Trigger mode: 1
Integration Time (sec): 1.000000E-1
Scans to average: 1
Electric dark correction enabled: true
Nonlinearity correction enabled: false
Boxcar width: 0
XAxis mode: Wavelengths
Number of Pixels in Spectrum: 2048
>>>>>Begin Spectral Data<<<<<
223.165	-17.44
223.4	-17.44
223.635	-17.44
223.869	-8.44
224.104	-13.44
224.338	-14.44
224.573	-27.44
224.808	-15.44
225.042	2.56
225.277	-13.44
225.511	-6.44
225.746	4.56
225.98	11.56
226.215	17.56
226.449	11.56
226.683	17.56
226.918	25.56
227.152	25.56
227.387	26.56
227.621	31.56
227.856	37.56
228.09	52.56
228.324	50.56
228.559	47.56
228.793	54.56
229.027	58.56
229.262	56.56
229.496	61.56
229.73	60.56
229.964	73.56
230.199	67.56
230.433	63.56
230.667	69.56
230.901	69.56
231.136	78.56
231.37	76.56
231.604	70.56
231.838	73.56
232.072	69.56
232.306	77.56
232.541	95.56
232.775	72.56
233.009	74.56
233.243	76.56
233.477	85.56
233.711	68.56
233.945	86.56
234.179	97.56
234.413	89.56
234.647	73.56
234.881	75.56
235.115	68.56
235.349	77.56
235.583	78.56
235.817	80.56
236.051	79.56
236.285	72.56
236.519	67.56
236.753	61.56
236.987	74.56
237.221	76.56
237.455	73.56
237.689	91.56
237.922	64.56
238.156	65.56
238.39	71.56
238.624	73.56
238.858	75.56
239.091	74.56
239.325	72.56
239.559	86.56
239.793	66.56
240.027	93.56
240.26	80.56
240.494	87.56
240.728	76.56
240.961	75.56
241.195	71.56
241.429	80.56
241.662	86.56
241.896	73.56
242.13	70.56
242.363	63.56
242.597	62.56
242.83	85.56
243.064	74.56
243.298	71.56
243.531	57.56
243.765	74.56
243.998	83.56
244.232	74.56
244.465	69.56
244.699	78.56
244.932	76.56
245.166	73.56
245.399	82.56
245.633	86.56
245.866	91.56
246.099	67.56
246.333	85.56
246.566	84.56
246.8	85.56
247.033	75.56
247.266	71.56
247.5	78.56
247.733	87.56
247.966	76.56
248.2	70.56
248.433	77.56
248.666	77.56
248.899	81.56
249.133	80.56
249.366	72.56
249.599	69.56
249.832	81.56
250.066	89.56
250.299	88.56
250.532	79.56
250.765	81.56
250.998	72.56
251.231	86.56
251.465	94.56
251.698	83.56
251.931	67.56
252.164	88.56
252.397	85.56
252.63	69.56
252.863	91.56
253.096	78.56
253.329	75.56
253.562	73.56
253.795	83.56
254.028	86.56
254.261	75.56
254.494	79.56
254.727	81.56
254.96	79.56
255.193	74.56
255.426	84.56
255.659	91.56
255.892	66.56
256.124	74.56
256.357	73.56
256.59	69.56
256.823	79.56
257.056	87.56
257.289	79.56
257.521	88.56
257.754	71.56
257.987	78.56
258.22	73.56
258.452	82.56
258.685	61.56
258.918	78.56
259.151	65.56
259.383	75.56
259.616	71.56
259.849	59.56
260.081	72.56
260.314	83.56
260.547	79.56
260.779	81.56
261.012	62.56
261.244	73.56
261.477	93.56
261.71	94.56
261.942	79.56
262.175	77.56
262.407	72.56
262.64	88.56
262.872	73.56
263.105	74.56
263.337	70.56
263.57	79.56
263.802	90.56
264.035	88.56
264.267	91.56
264.499	84.56
264.732	69.56
264.964	82.56
265.197	85.56
265.429	82.56
265.661	79.56
265.894	81.56
266.126	92.56
266.358	62.56
266.591	86.56
266.823	79.56
267.055	81.56
267.287	67.56
267.52	74.56
267.752	98.56
267.984	82.56
268.216	85.56
268.448	94.56
268.681	90.56
268.913	82.56
269.145	79.56
269.377	97.56
269.609	81.56
269.841	77.56
270.073	75.56
270.306	82.56
270.538	97.56
270.77	83.56
271.002	87.56
271.234	68.56
271.466	74.56
271.698	88.56
271.93	84.56
272.162	78.56
272.394	80.56
272.626	103.56
272.858	72.56
273.09	78.56
273.322	88.56
273.553	85.56
273.785	87.56
274.017	80.56
274.249	85.56
274.481	77.56
274.713	70.56
274.945	69.56
275.176	83.56
275.408	96.56
275.64	87.56
275.872	77.56
276.104	78.56
276.335	97.56
276.567	80.56
276.799	72.56
277.031	74.56
277.262	75.56
277.494	90.56
277.726	93.56
277.957	89.56
278.189	82.56
278.421	78.56
278.652	80.56
278.884	89.56
279.115	76.56
279.347	61.56
279.579	89.56
279.81	78.56
280.042	86.56
280.273	84.56
280.505	82.56
280.736	85.56
280.968	87.56
281.199	82.56
281.431	82.56
281.662	72.56
281.894	84.56
282.125	82.56
282.356	99.56
282.588	70.56
282.819	80.56
283.051	88.56
283.282	91.56
283.513	77.56
283.745	84.56
283.976	79.56
284.207	91.56
284.439	100.56
284.67	77.56
284.901	87.56
285.132	68.56
285.364	97.56
285.595	80.56
285.826	88.56
286.057	75.56
286.288	69.56
286.52	70.56
286.751	78.56
286.982	78.56
287.213	91.56
287.444	93.56
287.675	97.56
287.906	74.56
288.138	84.56
288.369	85.56
288.6	82.56
288.831	87.56
289.062	80.56
289.293	87.56
289.524	73.56
289.755	79.56
289.986	88.56
290.217	83.56
290.448	89.56
290.679	82.56
290.91	83.56
291.141	95.56
291.371	78.56
291.602	99.56
291.833	75.56
292.064	85.56
292.295	82.56
292.526	77.56
292.757	89.56
292.987	79.56
293.218	76.56
293.449	88.56
293.68	81.56
293.91	72.56
294.141	78.56
294.372	74.56
294.603	83.56
294.833	81.56
295.064	88.56
295.295	80.56
295.525	71.56
295.756	90.56
295.987	88.56
296.217	91.56
296.448	79.56
296.679	83.56
296.909	79.56
297.14	81.56
297.37	81.56
297.601	79.56
297.831	102.56
298.062	79.56
298.292	82.56
298.523	72.56
298.753	87.56
298.984	98.56
299.214	93.56
299.445	88.56
299.675	77.56
299.905	67.56
300.136	89.56
300.366	82.56
300.597	74.56
300.827	85.56
301.057	96.56
301.288	81.56
301.518	92.56
301.748	80.56
301.979	81.56
302.209	90.56
302.439	83.56
302.669	70.56
302.9	96.56
303.13	93.56
303.36	80.56
303.59	91.56
303.82	86.56
304.051	87.56
304.281	71.56
304.511	87.56
304.741	94.56
304.971	90.56
305.201	80.56
305.431	85.56
305.661	89.56
305.891	74.56
306.121	84.56
306.352	83.56
306.582	85.56
306.812	73.56
307.042	88.56
307.272	74.56
307.502	90.56
307.731	75.56
307.961	92.56
308.191	85.56
308.421	75.56
308.651	82.56
308.881	88.56
309.111	69.56
309.341	80.56
309.571	89.56
309.8	101.56
310.03	87.56
310.26	75.56
310.49	95.56
310.72	88.56
310.949	84.56
311.179	82.56
311.409	80.56
311.639	78.56
311.868	88.56
312.098	93.56
312.328	89.56
312.557	77.56
312.787	90.56
313.017	87.56
313.246	77.56
313.476	91.56
313.706	79.56
313.935	78.56
314.165	81.56
314.394	73.56
314.624	79.56
314.853	95.56
315.083	80.56
315.312	79.56
315.542	79.56
315.771	83.56
316.001	76.56
316.23	83.56
316.46	78.56
316.689	86.56
316.919	83.56
317.148	80.56
317.377	73.56
317.607	76.56
317.836	69.56
318.065	79.56
318.295	83.56
318.524	88.56
318.753	85.56
318.983	79.56
319.212	85.56
319.441	75.56
319.67	80.56
319.9	63.56
320.129	81.56
320.358	69.56
320.587	82.56
320.816	69.56
321.046	79.56
321.275	95.56
321.504	78.56
321.733	75.56
321.962	85.56
322.191	80.56
322.42	75.56
322.649	82.56
322.878	89.56
323.108	83.56
323.337	97.56
323.566	90.56
323.795	81.56
324.024	84.56
324.253	87.56
324.482	84.56
324.71	86.56
324.939	79.56
325.168	82.56
325.397	77.56
325.626	91.56
325.855	95.56
326.084	93.56
326.313	78.56
326.542	81.56
326.77	89.56
326.999	79.56
327.228	79.56
327.457	87.56
327.686	85.56
327.914	94.56
328.143	79.56
328.372	96.56
328.6	82.56
328.829	92.56
329.058	70.56
329.287	84.56
329.515	86.56
329.744	94.56
329.972	71.56
330.201	96.56
330.43	70.56
330.658	79.56
330.887	74.56
331.115	86.56
331.344	80.56
331.572	80.56
331.801	88.56
332.03	88.56
332.258	82.56
332.486	91.56
332.715	86.56
332.943	91.56
333.172	90.56
333.4	83.56
333.629	92.56
333.857	91.56
334.085	78.56
334.314	84.56
334.542	92.56
334.771	70.56
334.999	78.56
335.227	81.56
335.455	74.56
335.684	87.56
335.912	88.56
336.14	78.56
336.369	74.56
336.597	83.56
336.825	77.56
337.053	76.56
337.281	88.56
337.51	62.56
337.738	79.56
337.966	78.56
338.194	84.56
338.422	91.56
338.65	81.56
338.878	93.56
339.106	93.56
339.334	86.56
339.562	90.56
339.79	79.56
340.018	79.56
340.246	82.56
340.474	81.56
340.702	77.56
340.93	73.56
341.158	77.56
341.386	78.56
341.614	80.56
341.842	79.56
342.07	84.56
342.298	82.56
342.526	78.56
342.754	84.56
342.981	92.56
343.209	89.56
343.437	89.56
343.665	87.56
343.893	87.56
344.12	81.56
344.348	88.56
344.576	82.56
344.804	75.56
345.031	87.56
345.259	87.56
345.487	88.56
345.714	91.56
345.942	84.56
346.17	88.56
346.397	85.56
346.625	71.56
346.853	88.56
347.08	91.56
347.308	77.56
347.535	86.56
347.763	68.56
347.99	73.56
348.218	89.56
348.445	79.56
348.673	94.56
348.9	80.56
349.128	79.56
349.355	80.56
349.583	89.56
349.81	91.56
350.037	95.56
350.265	81.56
350.492	83.56
350.72	81.56
350.947	81.56
351.174	91.56
351.402	89.56
351.629	88.56
351.856	83.56
352.083	82.56
352.311	79.56
352.538	76.56
352.765	73.56
352.992	87.56
353.22	88.56
353.447	80.56
353.674	73.56
353.901	80.56
354.128	79.56
354.355	74.56
354.583	77.56
354.81	100.56
355.037	83.56
355.264	82.56
355.491	74.56
355.718	75.56
355.945	77.56
356.172	86.56
356.399	78.56
356.626	79.56
356.853	88.56
357.08	82.56
357.307	81.56
357.534	75.56
357.761	77.56
357.988	87.56
358.215	75.56
358.441	90.56
358.668	85.56
358.895	75.56
359.122	70.56
359.349	88.56
359.576	88.56
359.802	72.56
360.029	74.56
360.256	81.56
360.483	72.56
360.709	76.56
360.936	81.56
361.163	82.56
361.39	81.56
361.616	70.56
361.843	87.56
362.07	87.56
362.296	80.56
362.523	68.56
362.749	77.56
362.976	74.56
363.203	93.56
363.429	79.56
363.656	81.56
363.882	73.56
364.109	90.56
364.335	74.56
364.562	73.56
364.788	70.56
365.015	81.56
365.241	83.56
365.468	76.56
365.694	77.56
365.92	84.56
366.147	67.56
366.373	93.56
366.599	92.56
366.826	93.56
367.052	86.56
367.278	81.56
367.505	98.56
367.731	93.56
367.957	85.56
368.184	89.56
368.41	82.56
368.636	85.56
368.862	107.56
369.089	93.56
369.315	98.56
369.541	88.56
369.767	88.56
369.993	86.56
370.219	91.56
370.445	95.56
370.672	85.56
370.898	82.56
371.124	72.56
371.35	89.56
371.576	96.56
371.802	85.56
372.028	86.56
372.254	96.56
372.48	101.56
372.706	92.56
372.932	112.56
373.158	99.56
373.384	98.56
373.61	94.56
373.835	94.56
374.061	90.56
374.287	85.56
374.513	87.56
374.739	91.56
374.965	83.56
375.191	85.56
375.416	86.56
375.642	88.56
375.868	94.56
376.094	90.56
376.319	97.56
376.545	92.56
376.771	86.56
376.997	91.56
377.222	95.56
377.448	86.56
377.674	88.56
377.899	81.56
378.125	99.56
378.35	90.56
378.576	89.56
378.802	98.56
379.027	89.56
379.253	93.56
379.478	95.56
379.704	96.56
379.929	99.56
380.155	84.56
380.38	92.56
380.606	90.56
380.831	106.56
381.057	114.56
381.282	85.56
381.507	92.56
381.733	102.56
381.958	105.56
382.184	101.56
382.409	81.56
382.634	98.56
382.86	111.56
383.085	86.56
383.31	86.56
383.535	95.56
383.761	103.56
383.986	91.56
384.211	102.56
384.436	99.56
384.662	97.56
384.887	105.56
385.112	93.56
385.337	93.56
385.562	92.56
385.787	100.56
386.013	96.56
386.238	93.56
386.463	107.56
386.688	90.56
386.913	98.56
387.138	97.56
387.363	102.56
387.588	99.56
387.813	113.56
388.038	99.56
388.263	113.56
388.488	109.56
388.713	91.56
388.938	102.56
389.163	117.56
389.387	99.56
389.612	96.56
389.837	100.56
390.062	100.56
390.287	96.56
390.512	104.56
390.736	114.56
390.961	102.56
391.186	117.56
391.411	100.56
391.636	95.56
391.86	97.56
392.085	110.56
392.31	111.56
392.534	112.56
392.759	107.56
392.984	96.56
393.208	97.56
393.433	109.56
393.658	101.56
393.882	99.56
394.107	100.56
394.331	99.56
394.556	109.56
394.78	99.56
395.005	104.56
395.229	114.56
395.454	118.56
395.678	117.56
395.903	104.56
396.127	115.56
396.352	117.56
396.576	110.56
396.801	114.56
397.025	122.56
397.249	89.56
397.474	93.56
397.698	95.56
397.922	112.56
398.147	111.56
398.371	118.56
398.595	110.56
398.82	115.56
399.044	114.56
399.268	114.56
399.492	104.56
399.717	109.56
399.941	117.56
400.165	110.56
400.389	117.56
400.613	115.56
400.837	98.56
401.062	109.56
401.286	105.56
401.51	106.56
401.734	122.56
401.958	107.56
402.182	103.56
402.406	120.56
402.63	108.56
402.854	116.56
403.078	127.56
403.302	123.56
403.526	110.56
403.75	115.56
403.974	101.56
404.198	122.56
404.422	111.56
404.645	123.56
404.869	126.56
405.093	122.56
405.317	117.56
405.541	114.56
405.765	104.56
405.988	125.56
406.212	113.56
406.436	123.56
406.66	114.56
406.883	122.56
407.107	132.56
407.331	129.56
407.555	115.56
407.778	122.56
408.002	120.56
408.226	127.56
408.449	113.56
408.673	111.56
408.896	122.56
409.12	111.56
409.344	126.56
409.567	111.56
409.791	122.56
410.014	126.56
410.238	113.56
410.461	141.56
410.685	129.56
410.908	134.56
411.132	131.56
411.355	121.56
411.578	122.56
411.802	132.56
412.025	127.56
412.249	128.56
412.472	129.56
412.695	124.56
412.919	110.56
413.142	120.56
413.365	125.56
413.589	131.56
413.812	127.56
414.035	123.56
414.258	125.56
414.482	125.56
414.705	115.56
414.928	123.56
415.151	119.56
415.374	109.56
415.597	120.56
415.821	135.56
416.044	123.56
416.267	118.56
416.49	107.56
416.713	119.56
416.936	141.56
417.159	135.56
417.382	116.56
417.605	122.56
417.828	123.56
418.051	146.56
418.274	129.56
418.497	135.56
418.72	122.56
418.943	135.56
419.166	145.56
419.389	139.56
419.611	128.56
419.834	144.56
420.057	143.56
420.28	123.56
420.503	137.56
420.726	131.56
420.948	128.56
421.171	117.56
421.394	136.56
421.617	137.56
421.839	148.56
422.062	147.56
422.285	137.56
422.507	140.56
422.73	134.56
422.953	128.56
423.175	133.56
423.398	149.56
423.621	142.56
423.843	152.56
424.066	136.56
424.288	140.56
424.511	152.56
424.733	146.56
424.956	138.56
425.178	153.56
425.401	123.56
425.623	127.56
425.846	131.56
426.068	141.56
426.291	135.56
426.513	133.56
426.735	130.56
426.958	135.56
427.18	135.56
427.402	129.56
427.625	125.56
427.847	139.56
428.069	139.56
428.292	142.56
428.514	106.56
428.736	128.56
428.958	137.56
429.181	128.56
429.403	126.56
429.625	137.56
429.847	129.56
430.069	134.56
430.292	132.56
430.514	131.56
430.736	133.56
430.958	149.56
431.18	139.56
431.402	133.56
431.624	120.56
431.846	102.56
432.068	98.56
432.29	101.56
432.512	120.56
432.734	121.56
432.956	146.56
433.178	127.56
433.4	130.56
433.622	131.56
433.844	131.56
434.066	124.56
434.287	104.56
434.509	89.56
434.731	98.56
434.953	129.56
435.175	125.56
435.397	135.56
435.618	128.56
435.84	117.56
436.062	120.56
436.284	125.56
436.505	133.56
436.727	127.56
436.949	127.56
437.17	122.56
437.392	142.56
437.614	119.56
437.835	116.56
438.057	118.56
438.278	119.56
438.5	106.56
438.721	123.56
438.943	133.56
439.165	128.56
439.386	139.56
439.608	138.56
439.829	157.56
440.05	149.56
440.272	152.56
440.493	142.56
440.715	126.56
440.936	152.56
441.158	157.56
441.379	174.56
441.6	146.56
441.822	143.56
442.043	156.56
442.264	143.56
442.486	143.56
442.707	139.56
442.928	123.56
443.149	119.56
443.371	141.56
443.592	131.56
443.813	139.56
444.034	138.56
444.255	150.56
444.476	139.56
444.698	136.56
444.919	159.56
445.14	288.56
445.361	213.56
445.582	164.56
445.803	161.56
446.024	144.56
446.245	152.56
446.466	169.56
446.687	173.56
446.908	161.56
447.129	151.56
447.35	151.56
447.571	154.56
447.792	142.56
448.013	156.56
448.234	154.56
448.455	162.56
448.675	152.56
448.896	153.56
449.117	144.56
449.338	138.56
449.559	155.56
449.779	148.56
450	144.56
450.221	147.56
450.442	145.56
450.662	150.56
450.883	131.56
451.104	133.56
451.324	133.56
451.545	133.56
451.766	131.56
451.986	123.56
452.207	114.56
452.428	134.56
452.648	146.56
452.869	125.56
453.089	122.56
453.31	119.56
453.53	110.56
453.751	103.56
453.971	97.56
454.192	114.56
454.412	121.56
454.633	121.56
454.853	116.56
455.073	131.56
455.294	125.56
455.514	130.56
455.734	129.56
455.955	103.56
456.175	101.56
456.395	118.56
456.616	117.56
456.836	122.56
457.056	125.56
457.276	109.56
457.497	101.56
457.717	102.56
457.937	98.56
458.157	116.56
458.377	108.56
458.598	95.56
458.818	98.56
459.038	96.56
459.258	86.56
459.478	102.56
459.698	114.56
459.918	102.56
460.138	119.56
460.358	121.56
460.578	122.56
460.798	127.56
461.018	106.56
461.238	132.56
461.458	106.56
461.678	110.56
461.898	118.56
462.118	118.56
462.338	118.56
462.558	122.56
462.777	106.56
462.997	121.56
463.217	114.56
463.437	115.56
463.657	114.56
463.876	102.56
464.096	109.56
464.316	101.56
464.536	104.56
464.755	97.56
464.975	127.56
465.195	129.56
465.414	118.56
465.634	121.56
465.854	125.56
466.073	122.56
466.293	133.56
466.512	121.56
466.732	142.56
466.951	149.56
467.171	137.56
467.391	141.56
467.61	151.56
467.829	141.56
468.049	135.56
468.268	157.56
468.488	157.56
468.707	133.56
468.927	147.56
469.146	120.56
469.365	136.56
469.585	156.56
469.804	145.56
470.023	126.56
470.243	162.56
470.462	146.56
470.681	140.56
470.901	131.56
471.12	143.56
471.339	134.56
471.558	136.56
471.777	129.56
471.997	140.56
472.216	135.56
472.435	117.56
472.654	112.56
472.873	119.56
473.092	131.56
473.311	127.56
473.53	126.56
473.749	126.56
473.968	110.56
474.187	117.56
474.406	100.56
474.625	124.56
474.844	135.56
475.063	123.56
475.282	127.56
475.501	126.56
475.72	128.56
475.939	139.56
476.158	125.56
476.377	129.56
476.596	124.56
476.814	130.56
477.033	130.56
477.252	116.56
477.471	116.56
477.69	142.56
477.908	150.56
478.127	127.56
478.346	137.56
478.564	139.56
478.783	142.56
479.002	157.56
479.22	149.56
479.439	153.56
479.658	126.56
479.876	102.56
480.095	108.56
480.313	127.56
480.532	101.56
480.751	109.56
480.969	106.56
481.188	91.56
481.406	98.56
481.624	98.56
481.843	95.56
482.061	95.56
482.28	111.56
482.498	113.56
482.717	111.56
482.935	115.56
483.153	150.56
483.372	138.56
483.59	147.56
483.808	141.56
484.027	149.56
484.245	148.56
484.463	151.56
484.681	158.56
484.9	148.56
485.118	157.56
485.336	136.56
485.554	121.56
485.772	100.56
485.99	104.56
486.209	99.56
486.427	103.56
486.645	138.56
486.863	147.56
487.081	155.56
487.299	135.56
487.517	140.56
487.735	179.56
487.953	216.56
488.171	187.56
488.389	191.56
488.607	159.56
488.825	146.56
489.043	122.56
489.261	155.56
489.479	146.56
489.696	152.56
489.914	158.56
490.132	158.56
490.35	149.56
490.568	161.56
490.786	193.56
491.003	189.56
491.221	175.56
491.439	183.56
491.657	206.56
491.874	208.56
492.092	227.56
492.31	257.56
492.527	246.56
492.745	223.56
492.963	193.56
493.18	194.56
493.398	180.56
493.615	193.56
493.833	193.56
494.05	166.56
494.268	178.56
494.485	185.56
494.703	170.56
494.92	162.56
495.138	164.56
495.355	184.56
495.573	185.56
495.79	165.56
496.008	164.56
496.225	163.56
496.442	168.56
496.66	169.56
496.877	164.56
497.094	179.56
497.312	165.56
497.529	163.56
497.746	161.56
497.963	153.56
498.181	130.56
498.398	122.56
498.615	114.56
498.832	120.56
499.049	120.56
499.267	125.56
499.484	141.56
499.701	129.56
499.918	131.56
500.135	144.56
500.352	131.56
500.569	135.56
500.786	140.56
501.003	140.56
501.22	150.56
501.437	136.56
501.654	129.56
501.871	138.56
502.088	144.56
502.305	127.56
502.522	139.56
502.739	124.56
502.956	121.56
503.172	126.56
503.389	118.56
503.606	124.56
503.823	129.56
504.04	118.56
504.256	121.56
504.473	125.56
504.69	125.56
504.907	110.56
505.123	125.56
505.34	139.56
505.557	118.56
505.773	128.56
505.99	134.56
506.207	146.56
506.423	133.56
506.64	114.56
506.856	122.56
507.073	126.56
507.289	113.56
507.506	120.56
507.722	121.56
507.939	118.56
508.155	102.56
508.372	99.56
508.588	103.56
508.805	91.56
509.021	117.56
509.238	112.56
509.454	120.56
509.67	98.56
509.887	98.56
510.103	96.56
510.319	86.56
510.536	84.56
510.752	82.56
510.968	81.56
511.184	103.56
511.401	89.56
511.617	81.56
511.833	74.56
