Data from Location6.07152019.Energy5.Lamp.07192019.3%Agarose_HRD10591_16-12-43-395.txt Node
Date: Fri Jul 19 16:12:43 EDT 2019
User: cochatt
Spectrometer: HR+D1059
Trigger mode: 1
Integration Time (sec): 1.000000E-1
Scans to average: 1
Electric dark correction enabled: true
Nonlinearity correction enabled: false
Boxcar width: 0
XAxis mode: Wavelengths
Number of Pixels in Spectrum: 2048
>>>>>Begin Spectral Data<<<<<
223.165	-0.31
223.4	-0.31
223.635	-0.31
223.869	-11.31
224.104	-10.31
224.338	-22.31
224.573	-0.31
224.808	-12.31
225.042	-21.31
225.277	-12.31
225.511	-8.31
225.746	-10.31
225.98	8.69
226.215	14.69
226.449	10.69
226.683	21.69
226.918	28.69
227.152	24.69
227.387	43.69
227.621	23.69
227.856	39.69
228.09	44.69
228.324	55.69
228.559	53.69
228.793	38.69
229.027	62.69
229.262	59.69
229.496	78.69
229.73	67.69
229.964	64.69
230.199	71.69
230.433	95.69
230.667	76.69
230.901	76.69
231.136	93.69
231.37	72.69
231.604	77.69
231.838	80.69
232.072	68.69
232.306	72.69
232.541	74.69
232.775	82.69
233.009	92.69
233.243	89.69
233.477	90.69
233.711	91.69
233.945	81.69
234.179	81.69
234.413	73.69
234.647	92.69
234.881	81.69
235.115	78.69
235.349	81.69
235.583	85.69
235.817	82.69
236.051	92.69
236.285	91.69
236.519	82.69
236.753	66.69
236.987	53.69
237.221	82.69
237.455	78.69
237.689	82.69
237.922	83.69
238.156	64.69
238.39	63.69
238.624	80.69
238.858	72.69
239.091	83.69
239.325	71.69
239.559	68.69
239.793	67.69
240.027	89.69
240.26	71.69
240.494	64.69
240.728	71.69
240.961	88.69
241.195	85.69
241.429	85.69
241.662	86.69
241.896	80.69
242.13	69.69
242.363	61.69
242.597	79.69
242.83	80.69
243.064	84.69
243.298	77.69
243.531	77.69
243.765	77.69
243.998	83.69
244.232	74.69
244.465	85.69
244.699	90.69
244.932	80.69
245.166	76.69
245.399	82.69
245.633	83.69
245.866	81.69
246.099	86.69
246.333	68.69
246.566	75.69
246.8	90.69
247.033	77.69
247.266	80.69
247.5	90.69
247.733	74.69
247.966	78.69
248.2	71.69
248.433	79.69
248.666	83.69
248.899	82.69
249.133	83.69
249.366	76.69
249.599	87.69
249.832	73.69
250.066	75.69
250.299	72.69
250.532	65.69
250.765	85.69
250.998	77.69
251.231	85.69
251.465	98.69
251.698	73.69
251.931	83.69
252.164	91.69
252.397	77.69
252.63	86.69
252.863	81.69
253.096	90.69
253.329	86.69
253.562	81.69
253.795	100.69
254.028	82.69
254.261	80.69
254.494	87.69
254.727	82.69
254.96	74.69
255.193	77.69
255.426	87.69
255.659	83.69
255.892	96.69
256.124	77.69
256.357	86.69
256.59	90.69
256.823	78.69
257.056	85.69
257.289	83.69
257.521	74.69
257.754	92.69
257.987	84.69
258.22	73.69
258.452	74.69
258.685	74.69
258.918	76.69
259.151	74.69
259.383	76.69
259.616	71.69
259.849	85.69
260.081	86.69
260.314	77.69
260.547	75.69
260.779	85.69
261.012	86.69
261.244	86.69
261.477	81.69
261.71	78.69
261.942	83.69
262.175	83.69
262.407	66.69
262.64	78.69
262.872	74.69
263.105	87.69
263.337	92.69
263.57	76.69
263.802	78.69
264.035	79.69
264.267	77.69
264.499	73.69
264.732	89.69
264.964	80.69
265.197	73.69
265.429	88.69
265.661	76.69
265.894	72.69
266.126	85.69
266.358	89.69
266.591	78.69
266.823	82.69
267.055	88.69
267.287	85.69
267.52	93.69
267.752	81.69
267.984	79.69
268.216	79.69
268.448	76.69
268.681	93.69
268.913	76.69
269.145	85.69
269.377	88.69
269.609	91.69
269.841	75.69
270.073	81.69
270.306	75.69
270.538	85.69
270.77	89.69
271.002	92.69
271.234	85.69
271.466	81.69
271.698	87.69
271.93	72.69
272.162	93.69
272.394	81.69
272.626	90.69
272.858	88.69
273.09	101.69
273.322	97.69
273.553	89.69
273.785	84.69
274.017	86.69
274.249	89.69
274.481	79.69
274.713	77.69
274.945	99.69
275.176	87.69
275.408	85.69
275.64	78.69
275.872	87.69
276.104	88.69
276.335	81.69
276.567	80.69
276.799	83.69
277.031	73.69
277.262	85.69
277.494	86.69
277.726	77.69
277.957	82.69
278.189	89.69
278.421	73.69
278.652	91.69
278.884	79.69
279.115	79.69
279.347	85.69
279.579	84.69
279.81	76.69
280.042	65.69
280.273	85.69
280.505	82.69
280.736	80.69
280.968	76.69
281.199	81.69
281.431	82.69
281.662	88.69
281.894	89.69
282.125	88.69
282.356	84.69
282.588	78.69
282.819	77.69
283.051	76.69
283.282	88.69
283.513	89.69
283.745	87.69
283.976	75.69
284.207	84.69
284.439	80.69
284.67	80.69
284.901	92.69
285.132	74.69
285.364	84.69
285.595	93.69
285.826	76.69
286.057	85.69
286.288	87.69
286.52	80.69
286.751	101.69
286.982	87.69
287.213	80.69
287.444	89.69
287.675	86.69
287.906	77.69
288.138	83.69
288.369	89.69
288.6	91.69
288.831	79.69
289.062	91.69
289.293	98.69
289.524	78.69
289.755	80.69
289.986	88.69
290.217	85.69
290.448	80.69
290.679	82.69
290.91	98.69
291.141	79.69
291.371	70.69
291.602	87.69
291.833	82.69
292.064	88.69
292.295	88.69
292.526	86.69
292.757	96.69
292.987	67.69
293.218	95.69
293.449	85.69
293.68	84.69
293.91	87.69
294.141	84.69
294.372	71.69
294.603	71.69
294.833	64.69
295.064	89.69
295.295	84.69
295.525	79.69
295.756	91.69
295.987	89.69
296.217	81.69
296.448	88.69
296.679	92.69
296.909	78.69
297.14	87.69
297.37	82.69
297.601	80.69
297.831	82.69
298.062	83.69
298.292	69.69
298.523	91.69
298.753	84.69
298.984	95.69
299.214	91.69
299.445	89.69
299.675	95.69
299.905	67.69
300.136	76.69
300.366	100.69
300.597	87.69
300.827	94.69
301.057	95.69
301.288	90.69
301.518	73.69
301.748	88.69
301.979	77.69
302.209	90.69
302.439	85.69
302.669	85.69
302.9	88.69
303.13	91.69
303.36	80.69
303.59	81.69
303.82	87.69
304.051	93.69
304.281	91.69
304.511	85.69
304.741	89.69
304.971	79.69
305.201	83.69
305.431	86.69
305.661	87.69
305.891	90.69
306.121	78.69
306.352	80.69
306.582	83.69
306.812	91.69
307.042	84.69
307.272	98.69
307.502	91.69
307.731	77.69
307.961	83.69
308.191	76.69
308.421	71.69
308.651	74.69
308.881	86.69
309.111	99.69
309.341	90.69
309.571	82.69
309.8	85.69
310.03	77.69
310.26	75.69
310.49	81.69
310.72	79.69
310.949	83.69
311.179	86.69
311.409	88.69
311.639	90.69
311.868	81.69
312.098	82.69
312.328	97.69
312.557	90.69
312.787	72.69
313.017	81.69
313.246	86.69
313.476	71.69
313.706	95.69
313.935	95.69
314.165	77.69
314.394	83.69
314.624	74.69
314.853	84.69
315.083	95.69
315.312	101.69
315.542	101.69
315.771	71.69
316.001	88.69
316.23	81.69
316.46	75.69
316.689	69.69
316.919	91.69
317.148	90.69
317.377	84.69
317.607	83.69
317.836	74.69
318.065	85.69
318.295	78.69
318.524	88.69
318.753	81.69
318.983	95.69
319.212	83.69
319.441	90.69
319.67	85.69
319.9	95.69
320.129	85.69
320.358	87.69
320.587	80.69
320.816	87.69
321.046	82.69
321.275	83.69
321.504	100.69
321.733	94.69
321.962	88.69
322.191	87.69
322.42	88.69
322.649	80.69
322.878	107.69
323.108	81.69
323.337	83.69
323.566	92.69
323.795	92.69
324.024	95.69
324.253	83.69
324.482	86.69
324.71	84.69
324.939	93.69
325.168	106.69
325.397	74.69
325.626	91.69
325.855	77.69
326.084	90.69
326.313	91.69
326.542	83.69
326.77	87.69
326.999	90.69
327.228	88.69
327.457	88.69
327.686	86.69
327.914	95.69
328.143	90.69
328.372	88.69
328.6	73.69
328.829	75.69
329.058	67.69
329.287	91.69
329.515	86.69
329.744	76.69
329.972	79.69
330.201	89.69
330.43	82.69
330.658	90.69
330.887	80.69
331.115	96.69
331.344	76.69
331.572	89.69
331.801	76.69
332.03	79.69
332.258	84.69
332.486	82.69
332.715	77.69
332.943	82.69
333.172	87.69
333.4	96.69
333.629	88.69
333.857	92.69
334.085	93.69
334.314	91.69
334.542	84.69
334.771	96.69
334.999	81.69
335.227	84.69
335.455	81.69
335.684	97.69
335.912	98.69
336.14	86.69
336.369	87.69
336.597	83.69
336.825	96.69
337.053	86.69
337.281	87.69
337.51	74.69
337.738	86.69
337.966	98.69
338.194	87.69
338.422	81.69
338.65	87.69
338.878	82.69
339.106	87.69
339.334	97.69
339.562	94.69
339.79	85.69
340.018	80.69
340.246	79.69
340.474	85.69
340.702	98.69
340.93	84.69
341.158	91.69
341.386	96.69
341.614	72.69
341.842	88.69
342.07	73.69
342.298	84.69
342.526	81.69
342.754	81.69
342.981	85.69
343.209	83.69
343.437	78.69
343.665	85.69
343.893	93.69
344.12	100.69
344.348	88.69
344.576	83.69
344.804	94.69
345.031	95.69
345.259	84.69
345.487	85.69
345.714	83.69
345.942	83.69
346.17	89.69
346.397	90.69
346.625	95.69
346.853	91.69
347.08	86.69
347.308	81.69
347.535	83.69
347.763	80.69
347.99	71.69
348.218	77.69
348.445	87.69
348.673	96.69
348.9	76.69
349.128	88.69
349.355	100.69
349.583	81.69
349.81	91.69
350.037	82.69
350.265	88.69
350.492	104.69
350.72	93.69
350.947	85.69
351.174	85.69
351.402	78.69
351.629	77.69
351.856	89.69
352.083	89.69
352.311	78.69
352.538	84.69
352.765	80.69
352.992	81.69
353.22	87.69
353.447	73.69
353.674	100.69
353.901	88.69
354.128	86.69
354.355	78.69
354.583	92.69
354.81	95.69
355.037	82.69
355.264	82.69
355.491	79.69
355.718	85.69
355.945	78.69
356.172	76.69
356.399	73.69
356.626	85.69
356.853	83.69
357.08	88.69
357.307	75.69
357.534	74.69
357.761	77.69
357.988	85.69
358.215	86.69
358.441	79.69
358.668	85.69
358.895	72.69
359.122	90.69
359.349	81.69
359.576	96.69
359.802	77.69
360.029	97.69
360.256	83.69
360.483	89.69
360.709	79.69
360.936	78.69
361.163	92.69
361.39	92.69
361.616	84.69
361.843	85.69
362.07	83.69
362.296	85.69
362.523	80.69
362.749	91.69
362.976	87.69
363.203	86.69
363.429	82.69
363.656	93.69
363.882	93.69
364.109	88.69
364.335	89.69
364.562	89.69
364.788	76.69
365.015	83.69
365.241	85.69
365.468	83.69
365.694	75.69
365.92	78.69
366.147	91.69
366.373	85.69
366.599	95.69
366.826	81.69
367.052	89.69
367.278	88.69
367.505	84.69
367.731	86.69
367.957	99.69
368.184	88.69
368.41	100.69
368.636	104.69
368.862	102.69
369.089	79.69
369.315	85.69
369.541	80.69
369.767	101.69
369.993	98.69
370.219	92.69
370.445	82.69
370.672	82.69
370.898	95.69
371.124	81.69
371.35	88.69
371.576	86.69
371.802	84.69
372.028	80.69
372.254	100.69
372.48	82.69
372.706	100.69
372.932	97.69
373.158	91.69
373.384	100.69
373.61	87.69
373.835	81.69
374.061	77.69
374.287	83.69
374.513	102.69
374.739	98.69
374.965	94.69
375.191	96.69
375.416	95.69
375.642	85.69
375.868	99.69
376.094	99.69
376.319	90.69
376.545	108.69
376.771	91.69
376.997	92.69
377.222	87.69
377.448	100.69
377.674	90.69
377.899	103.69
378.125	98.69
378.35	92.69
378.576	94.69
378.802	104.69
379.027	110.69
379.253	87.69
379.478	83.69
379.704	85.69
379.929	84.69
380.155	94.69
380.38	104.69
380.606	100.69
380.831	95.69
381.057	108.69
381.282	97.69
381.507	103.69
381.733	115.69
381.958	104.69
382.184	84.69
382.409	93.69
382.634	88.69
382.86	90.69
383.085	107.69
383.31	97.69
383.535	92.69
383.761	107.69
383.986	94.69
384.211	96.69
384.436	108.69
384.662	97.69
384.887	97.69
385.112	104.69
385.337	100.69
385.562	105.69
385.787	100.69
386.013	103.69
386.238	123.69
386.463	115.69
386.688	115.69
386.913	88.69
387.138	90.69
387.363	101.69
387.588	100.69
387.813	98.69
388.038	101.69
388.263	98.69
388.488	97.69
388.713	103.69
388.938	104.69
389.163	89.69
389.387	115.69
389.612	101.69
389.837	109.69
390.062	119.69
390.287	103.69
390.512	95.69
390.736	106.69
390.961	93.69
391.186	103.69
391.411	104.69
391.636	100.69
391.86	104.69
392.085	119.69
392.31	113.69
392.534	104.69
392.759	111.69
392.984	100.69
393.208	104.69
393.433	99.69
393.658	102.69
393.882	107.69
394.107	106.69
394.331	99.69
394.556	92.69
394.78	107.69
395.005	97.69
395.229	104.69
395.454	105.69
395.678	105.69
395.903	111.69
396.127	119.69
396.352	105.69
396.576	111.69
396.801	116.69
397.025	115.69
397.249	119.69
397.474	103.69
397.698	92.69
397.922	105.69
398.147	112.69
398.371	118.69
398.595	106.69
398.82	106.69
399.044	111.69
399.268	115.69
399.492	122.69
399.717	104.69
399.941	118.69
400.165	117.69
400.389	127.69
400.613	119.69
400.837	120.69
401.062	106.69
401.286	108.69
401.51	120.69
401.734	118.69
401.958	115.69
402.182	110.69
402.406	117.69
402.63	120.69
402.854	112.69
403.078	118.69
403.302	121.69
403.526	118.69
403.75	97.69
403.974	111.69
404.198	115.69
404.422	126.69
404.645	131.69
404.869	125.69
405.093	106.69
405.317	119.69
405.541	113.69
405.765	115.69
405.988	121.69
406.212	132.69
406.436	121.69
406.66	120.69
406.883	114.69
407.107	117.69
407.331	122.69
407.555	113.69
407.778	122.69
408.002	119.69
408.226	119.69
408.449	121.69
408.673	127.69
408.896	106.69
409.12	125.69
409.344	131.69
409.567	126.69
409.791	124.69
410.014	126.69
410.238	121.69
410.461	111.69
410.685	122.69
410.908	123.69
411.132	126.69
411.355	122.69
411.578	127.69
411.802	124.69
412.025	108.69
412.249	120.69
412.472	110.69
412.695	119.69
412.919	124.69
413.142	127.69
413.365	126.69
413.589	122.69
413.812	123.69
414.035	123.69
414.258	116.69
414.482	149.69
414.705	126.69
414.928	119.69
415.151	124.69
415.374	106.69
415.597	124.69
415.821	121.69
416.044	132.69
416.267	128.69
416.49	119.69
416.713	118.69
416.936	126.69
417.159	132.69
417.382	120.69
417.605	129.69
417.828	127.69
418.051	122.69
418.274	152.69
418.497	131.69
418.72	142.69
418.943	139.69
419.166	141.69
419.389	126.69
419.611	149.69
419.834	132.69
420.057	136.69
420.28	139.69
420.503	133.69
420.726	125.69
420.948	150.69
421.171	143.69
421.394	132.69
421.617	139.69
421.839	144.69
422.062	141.69
422.285	125.69
422.507	148.69
422.73	129.69
422.953	128.69
423.175	128.69
423.398	119.69
423.621	139.69
423.843	153.69
424.066	141.69
424.288	134.69
424.511	149.69
424.733	158.69
424.956	135.69
425.178	139.69
425.401	145.69
425.623	145.69
425.846	138.69
426.068	132.69
426.291	132.69
426.513	145.69
426.735	131.69
426.958	131.69
427.18	133.69
427.402	140.69
427.625	154.69
427.847	132.69
428.069	146.69
428.292	155.69
428.514	135.69
428.736	125.69
428.958	139.69
429.181	125.69
429.403	138.69
429.625	138.69
429.847	142.69
430.069	107.69
430.292	143.69
430.514	147.69
430.736	124.69
430.958	131.69
431.18	135.69
431.402	105.69
431.624	121.69
431.846	107.69
432.068	99.69
432.29	106.69
432.512	104.69
432.734	135.69
432.956	139.69
433.178	140.69
433.4	139.69
433.622	136.69
433.844	152.69
434.066	128.69
434.287	108.69
434.509	97.69
434.731	107.69
434.953	113.69
435.175	131.69
435.397	129.69
435.618	121.69
435.84	122.69
436.062	121.69
436.284	116.69
436.505	139.69
436.727	139.69
436.949	134.69
437.17	125.69
437.392	131.69
437.614	129.69
437.835	113.69
438.057	113.69
438.278	127.69
438.5	125.69
438.721	142.69
438.943	139.69
439.165	139.69
439.386	143.69
439.608	133.69
439.829	146.69
440.05	141.69
440.272	136.69
440.493	140.69
440.715	147.69
440.936	131.69
441.158	138.69
441.379	155.69
441.6	159.69
441.822	146.69
442.043	152.69
442.264	150.69
442.486	141.69
442.707	130.69
442.928	125.69
443.149	123.69
443.371	141.69
443.592	132.69
443.813	139.69
444.034	149.69
444.255	143.69
444.476	168.69
444.698	154.69
444.919	151.69
445.14	265.69
445.361	205.69
445.582	157.69
445.803	162.69
446.024	130.69
446.245	163.69
446.466	164.69
446.687	169.69
446.908	166.69
447.129	169.69
447.35	148.69
447.571	156.69
447.792	136.69
448.013	152.69
448.234	148.69
448.455	147.69
448.675	138.69
448.896	135.69
449.117	146.69
449.338	128.69
449.559	161.69
449.779	137.69
450	138.69
450.221	132.69
450.442	144.69
450.662	139.69
450.883	139.69
451.104	142.69
451.324	133.69
451.545	127.69
451.766	122.69
451.986	124.69
452.207	133.69
452.428	136.69
452.648	130.69
452.869	123.69
453.089	127.69
453.31	108.69
453.53	123.69
453.751	97.69
453.971	97.69
454.192	112.69
454.412	120.69
454.633	104.69
454.853	121.69
455.073	118.69
455.294	140.69
455.514	127.69
455.734	116.69
455.955	123.69
456.175	106.69
456.395	105.69
456.616	104.69
456.836	118.69
457.056	116.69
457.276	107.69
457.497	121.69
457.717	103.69
457.937	112.69
458.157	121.69
458.377	100.69
458.598	99.69
458.818	84.69
459.038	92.69
459.258	91.69
459.478	90.69
459.698	93.69
459.918	100.69
460.138	108.69
460.358	120.69
460.578	111.69
460.798	118.69
461.018	115.69
461.238	91.69
461.458	114.69
461.678	118.69
461.898	126.69
462.118	120.69
462.338	111.69
462.558	119.69
462.777	108.69
462.997	111.69
463.217	120.69
463.437	123.69
463.657	103.69
463.876	90.69
464.096	115.69
464.316	102.69
464.536	114.69
464.755	113.69
464.975	115.69
465.195	116.69
465.414	121.69
465.634	134.69
465.854	130.69
466.073	128.69
466.293	114.69
466.512	141.69
466.732	136.69
466.951	145.69
467.171	137.69
467.391	127.69
467.61	136.69
467.829	125.69
468.049	130.69
468.268	140.69
468.488	154.69
468.707	141.69
468.927	135.69
469.146	149.69
469.365	155.69
469.585	141.69
469.804	150.69
470.023	147.69
470.243	147.69
470.462	137.69
470.681	131.69
470.901	141.69
471.12	148.69
471.339	139.69
471.558	137.69
471.777	148.69
471.997	131.69
472.216	139.69
472.435	114.69
472.654	96.69
472.873	104.69
473.092	115.69
473.311	141.69
473.53	145.69
473.749	127.69
473.968	121.69
474.187	124.69
474.406	123.69
474.625	124.69
474.844	126.69
475.063	133.69
475.282	132.69
475.501	129.69
475.72	123.69
475.939	131.69
476.158	143.69
476.377	134.69
476.596	128.69
476.814	111.69
477.033	104.69
477.252	115.69
477.471	122.69
477.69	129.69
477.908	150.69
478.127	151.69
478.346	124.69
478.564	136.69
478.783	141.69
479.002	128.69
479.22	151.69
479.439	135.69
479.658	128.69
479.876	115.69
480.095	111.69
480.313	124.69
480.532	119.69
480.751	132.69
480.969	103.69
481.188	89.69
481.406	93.69
481.624	95.69
481.843	89.69
482.061	108.69
482.28	112.69
482.498	127.69
482.717	117.69
482.935	125.69
483.153	151.69
483.372	149.69
483.59	154.69
483.808	155.69
484.027	148.69
484.245	134.69
484.463	155.69
484.681	158.69
484.9	163.69
485.118	148.69
485.336	128.69
485.554	108.69
485.772	102.69
485.99	105.69
486.209	121.69
486.427	116.69
486.645	130.69
486.863	158.69
487.081	146.69
487.299	144.69
487.517	135.69
487.735	181.69
487.953	180.69
488.171	186.69
488.389	187.69
488.607	168.69
488.825	153.69
489.043	145.69
489.261	146.69
489.479	154.69
489.696	154.69
489.914	139.69
490.132	142.69
490.35	162.69
490.568	177.69
490.786	188.69
491.003	182.69
491.221	186.69
491.439	189.69
491.657	199.69
491.874	210.69
492.092	230.69
492.31	247.69
492.527	241.69
492.745	200.69
492.963	208.69
493.18	206.69
493.398	212.69
493.615	189.69
493.833	199.69
494.05	186.69
494.268	176.69
494.485	157.69
494.703	183.69
494.92	175.69
495.138	173.69
495.355	179.69
495.573	185.69
495.79	175.69
496.008	178.69
496.225	163.69
496.442	153.69
496.66	174.69
496.877	175.69
497.094	164.69
497.312	155.69
497.529	159.69
497.746	171.69
497.963	170.69
498.181	133.69
498.398	131.69
498.615	129.69
498.832	131.69
499.049	121.69
499.267	116.69
499.484	135.69
499.701	131.69
499.918	131.69
500.135	150.69
500.352	141.69
500.569	147.69
500.786	143.69
501.003	148.69
501.22	147.69
501.437	134.69
501.654	137.69
501.871	137.69
502.088	140.69
502.305	134.69
502.522	127.69
502.739	134.69
502.956	115.69
503.172	121.69
503.389	122.69
503.606	121.69
503.823	133.69
504.04	123.69
504.256	125.69
504.473	117.69
504.69	126.69
504.907	125.69
505.123	131.69
505.34	120.69
505.557	145.69
505.773	135.69
505.99	138.69
506.207	134.69
506.423	133.69
506.64	104.69
506.856	121.69
507.073	132.69
507.289	122.69
507.506	124.69
507.722	137.69
507.939	116.69
508.155	135.69
508.372	104.69
508.588	121.69
508.805	121.69
509.021	115.69
509.238	113.69
509.454	105.69
509.67	99.69
509.887	112.69
510.103	95.69
510.319	97.69
510.536	117.69
510.752	81.69
510.968	92.69
511.184	82.69
