Data from Location6.07152019.Energy5.Lamp.07192019.3%Agarose_HRD10591_16-11-34-396.txt Node
Date: Fri Jul 19 16:11:34 EDT 2019
User: cochatt
Spectrometer: HR+D1059
Trigger mode: 1
Integration Time (sec): 1.000000E-1
Scans to average: 1
Electric dark correction enabled: true
Nonlinearity correction enabled: false
Boxcar width: 0
XAxis mode: Wavelengths
Number of Pixels in Spectrum: 2048
>>>>>Begin Spectral Data<<<<<
223.165	-11.12
223.4	-11.12
223.635	-11.12
223.869	-25.12
224.104	-24.12
224.338	-21.12
224.573	-4.12
224.808	-11.12
225.042	5.88
225.277	-19.12
225.511	8.88
225.746	-0.12
225.98	13.88
226.215	15.88
226.449	19.88
226.683	8.88
226.918	20.88
227.152	21.88
227.387	27.88
227.621	52.88
227.856	36.88
228.09	37.88
228.324	35.88
228.559	57.88
228.793	62.88
229.027	56.88
229.262	59.88
229.496	58.88
229.73	82.88
229.964	78.88
230.199	74.88
230.433	78.88
230.667	73.88
230.901	83.88
231.136	85.88
231.37	85.88
231.604	85.88
231.838	80.88
232.072	80.88
232.306	66.88
232.541	81.88
232.775	86.88
233.009	85.88
233.243	81.88
233.477	91.88
233.711	76.88
233.945	94.88
234.179	86.88
234.413	99.88
234.647	76.88
234.881	76.88
235.115	80.88
235.349	76.88
235.583	89.88
235.817	97.88
236.051	83.88
236.285	86.88
236.519	77.88
236.753	78.88
236.987	81.88
237.221	88.88
237.455	75.88
237.689	82.88
237.922	77.88
238.156	81.88
238.39	65.88
238.624	80.88
238.858	72.88
239.091	83.88
239.325	74.88
239.559	74.88
239.793	76.88
240.027	71.88
240.26	75.88
240.494	84.88
240.728	63.88
240.961	82.88
241.195	85.88
241.429	78.88
241.662	71.88
241.896	59.88
242.13	88.88
242.363	78.88
242.597	74.88
242.83	85.88
243.064	83.88
243.298	67.88
243.531	81.88
243.765	72.88
243.998	59.88
244.232	74.88
244.465	78.88
244.699	64.88
244.932	66.88
245.166	71.88
245.399	90.88
245.633	77.88
245.866	78.88
246.099	61.88
246.333	83.88
246.566	77.88
246.8	86.88
247.033	63.88
247.266	72.88
247.5	88.88
247.733	78.88
247.966	83.88
248.2	76.88
248.433	89.88
248.666	66.88
248.899	88.88
249.133	91.88
249.366	83.88
249.599	83.88
249.832	83.88
250.066	90.88
250.299	79.88
250.532	84.88
250.765	92.88
250.998	92.88
251.231	90.88
251.465	98.88
251.698	70.88
251.931	81.88
252.164	88.88
252.397	93.88
252.63	84.88
252.863	76.88
253.096	93.88
253.329	75.88
253.562	78.88
253.795	80.88
254.028	67.88
254.261	89.88
254.494	82.88
254.727	77.88
254.96	77.88
255.193	81.88
255.426	88.88
255.659	80.88
255.892	69.88
256.124	74.88
256.357	78.88
256.59	76.88
256.823	83.88
257.056	84.88
257.289	83.88
257.521	91.88
257.754	76.88
257.987	78.88
258.22	95.88
258.452	86.88
258.685	96.88
258.918	86.88
259.151	81.88
259.383	69.88
259.616	100.88
259.849	84.88
260.081	85.88
260.314	81.88
260.547	76.88
260.779	88.88
261.012	81.88
261.244	97.88
261.477	69.88
261.71	83.88
261.942	71.88
262.175	75.88
262.407	91.88
262.64	80.88
262.872	86.88
263.105	90.88
263.337	85.88
263.57	77.88
263.802	84.88
264.035	89.88
264.267	73.88
264.499	82.88
264.732	93.88
264.964	77.88
265.197	85.88
265.429	70.88
265.661	88.88
265.894	86.88
266.126	80.88
266.358	97.88
266.591	98.88
266.823	96.88
267.055	80.88
267.287	77.88
267.52	92.88
267.752	93.88
267.984	72.88
268.216	70.88
268.448	77.88
268.681	82.88
268.913	90.88
269.145	83.88
269.377	78.88
269.609	89.88
269.841	90.88
270.073	80.88
270.306	92.88
270.538	77.88
270.77	73.88
271.002	83.88
271.234	80.88
271.466	91.88
271.698	90.88
271.93	94.88
272.162	80.88
272.394	84.88
272.626	82.88
272.858	80.88
273.09	85.88
273.322	86.88
273.553	91.88
273.785	87.88
274.017	82.88
274.249	88.88
274.481	68.88
274.713	73.88
274.945	80.88
275.176	89.88
275.408	89.88
275.64	100.88
275.872	84.88
276.104	91.88
276.335	85.88
276.567	80.88
276.799	82.88
277.031	83.88
277.262	81.88
277.494	98.88
277.726	84.88
277.957	100.88
278.189	92.88
278.421	75.88
278.652	76.88
278.884	84.88
279.115	82.88
279.347	84.88
279.579	86.88
279.81	97.88
280.042	89.88
280.273	83.88
280.505	79.88
280.736	89.88
280.968	92.88
281.199	85.88
281.431	86.88
281.662	85.88
281.894	91.88
282.125	80.88
282.356	91.88
282.588	86.88
282.819	76.88
283.051	84.88
283.282	97.88
283.513	89.88
283.745	90.88
283.976	88.88
284.207	87.88
284.439	103.88
284.67	78.88
284.901	90.88
285.132	79.88
285.364	96.88
285.595	82.88
285.826	88.88
286.057	100.88
286.288	101.88
286.52	83.88
286.751	75.88
286.982	84.88
287.213	89.88
287.444	78.88
287.675	86.88
287.906	91.88
288.138	90.88
288.369	87.88
288.6	93.88
288.831	84.88
289.062	93.88
289.293	94.88
289.524	86.88
289.755	87.88
289.986	82.88
290.217	82.88
290.448	81.88
290.679	74.88
290.91	81.88
291.141	92.88
291.371	86.88
291.602	96.88
291.833	92.88
292.064	90.88
292.295	75.88
292.526	84.88
292.757	101.88
292.987	88.88
293.218	81.88
293.449	91.88
293.68	92.88
293.91	81.88
294.141	82.88
294.372	89.88
294.603	84.88
294.833	82.88
295.064	85.88
295.295	98.88
295.525	85.88
295.756	83.88
295.987	73.88
296.217	69.88
296.448	76.88
296.679	84.88
296.909	88.88
297.14	91.88
297.37	91.88
297.601	80.88
297.831	84.88
298.062	92.88
298.292	88.88
298.523	85.88
298.753	78.88
298.984	88.88
299.214	94.88
299.445	80.88
299.675	96.88
299.905	84.88
300.136	91.88
300.366	77.88
300.597	80.88
300.827	93.88
301.057	92.88
301.288	93.88
301.518	87.88
301.748	85.88
301.979	85.88
302.209	75.88
302.439	82.88
302.669	92.88
302.9	85.88
303.13	92.88
303.36	94.88
303.59	85.88
303.82	92.88
304.051	81.88
304.281	92.88
304.511	84.88
304.741	88.88
304.971	85.88
305.201	85.88
305.431	94.88
305.661	79.88
305.891	98.88
306.121	94.88
306.352	86.88
306.582	76.88
306.812	84.88
307.042	93.88
307.272	81.88
307.502	83.88
307.731	96.88
307.961	93.88
308.191	90.88
308.421	90.88
308.651	76.88
308.881	75.88
309.111	82.88
309.341	80.88
309.571	99.88
309.8	98.88
310.03	88.88
310.26	84.88
310.49	88.88
310.72	97.88
310.949	92.88
311.179	76.88
311.409	79.88
311.639	91.88
311.868	77.88
312.098	89.88
312.328	82.88
312.557	94.88
312.787	87.88
313.017	107.88
313.246	103.88
313.476	100.88
313.706	102.88
313.935	101.88
314.165	77.88
314.394	88.88
314.624	78.88
314.853	75.88
315.083	78.88
315.312	97.88
315.542	82.88
315.771	85.88
316.001	87.88
316.23	88.88
316.46	82.88
316.689	85.88
316.919	106.88
317.148	82.88
317.377	89.88
317.607	88.88
317.836	89.88
318.065	99.88
318.295	92.88
318.524	75.88
318.753	91.88
318.983	67.88
319.212	86.88
319.441	75.88
319.67	83.88
319.9	76.88
320.129	91.88
320.358	89.88
320.587	82.88
320.816	93.88
321.046	78.88
321.275	83.88
321.504	90.88
321.733	88.88
321.962	91.88
322.191	94.88
322.42	76.88
322.649	86.88
322.878	88.88
323.108	103.88
323.337	92.88
323.566	86.88
323.795	89.88
324.024	87.88
324.253	91.88
324.482	85.88
324.71	87.88
324.939	93.88
325.168	90.88
325.397	93.88
325.626	74.88
325.855	86.88
326.084	82.88
326.313	93.88
326.542	77.88
326.77	79.88
326.999	88.88
327.228	88.88
327.457	91.88
327.686	93.88
327.914	85.88
328.143	83.88
328.372	70.88
328.6	92.88
328.829	97.88
329.058	83.88
329.287	82.88
329.515	73.88
329.744	73.88
329.972	100.88
330.201	83.88
330.43	89.88
330.658	97.88
330.887	85.88
331.115	84.88
331.344	72.88
331.572	81.88
331.801	85.88
332.03	86.88
332.258	94.88
332.486	98.88
332.715	101.88
332.943	88.88
333.172	84.88
333.4	77.88
333.629	93.88
333.857	66.88
334.085	87.88
334.314	91.88
334.542	95.88
334.771	81.88
334.999	92.88
335.227	79.88
335.455	90.88
335.684	86.88
335.912	89.88
336.14	95.88
336.369	80.88
336.597	72.88
336.825	87.88
337.053	89.88
337.281	79.88
337.51	92.88
337.738	85.88
337.966	86.88
338.194	77.88
338.422	90.88
338.65	84.88
338.878	90.88
339.106	89.88
339.334	90.88
339.562	84.88
339.79	88.88
340.018	80.88
340.246	79.88
340.474	90.88
340.702	92.88
340.93	107.88
341.158	85.88
341.386	79.88
341.614	84.88
341.842	94.88
342.07	76.88
342.298	92.88
342.526	84.88
342.754	73.88
342.981	93.88
343.209	74.88
343.437	85.88
343.665	88.88
343.893	85.88
344.12	85.88
344.348	88.88
344.576	76.88
344.804	81.88
345.031	89.88
345.259	91.88
345.487	97.88
345.714	90.88
345.942	92.88
346.17	86.88
346.397	74.88
346.625	89.88
346.853	63.88
347.08	73.88
347.308	96.88
347.535	82.88
347.763	75.88
347.99	73.88
348.218	92.88
348.445	89.88
348.673	87.88
348.9	86.88
349.128	94.88
349.355	81.88
349.583	84.88
349.81	88.88
350.037	97.88
350.265	91.88
350.492	89.88
350.72	104.88
350.947	83.88
351.174	95.88
351.402	75.88
351.629	94.88
351.856	86.88
352.083	88.88
352.311	97.88
352.538	83.88
352.765	88.88
352.992	77.88
353.22	84.88
353.447	73.88
353.674	81.88
353.901	84.88
354.128	85.88
354.355	85.88
354.583	92.88
354.81	88.88
355.037	90.88
355.264	93.88
355.491	86.88
355.718	84.88
355.945	84.88
356.172	79.88
356.399	92.88
356.626	93.88
356.853	98.88
357.08	85.88
357.307	90.88
357.534	88.88
357.761	88.88
357.988	73.88
358.215	88.88
358.441	102.88
358.668	99.88
358.895	85.88
359.122	101.88
359.349	85.88
359.576	83.88
359.802	92.88
360.029	105.88
360.256	102.88
360.483	80.88
360.709	66.88
360.936	75.88
361.163	83.88
361.39	94.88
361.616	72.88
361.843	73.88
362.07	96.88
362.296	90.88
362.523	89.88
362.749	94.88
362.976	107.88
363.203	95.88
363.429	94.88
363.656	93.88
363.882	83.88
364.109	96.88
364.335	91.88
364.562	89.88
364.788	86.88
365.015	69.88
365.241	86.88
365.468	105.88
365.694	93.88
365.92	83.88
366.147	84.88
366.373	103.88
366.599	91.88
366.826	91.88
367.052	85.88
367.278	65.88
367.505	92.88
367.731	89.88
367.957	76.88
368.184	107.88
368.41	86.88
368.636	88.88
368.862	91.88
369.089	90.88
369.315	98.88
369.541	91.88
369.767	97.88
369.993	92.88
370.219	85.88
370.445	95.88
370.672	87.88
370.898	84.88
371.124	101.88
371.35	113.88
371.576	93.88
371.802	91.88
372.028	109.88
372.254	89.88
372.48	88.88
372.706	94.88
372.932	94.88
373.158	89.88
373.384	108.88
373.61	97.88
373.835	89.88
374.061	96.88
374.287	97.88
374.513	89.88
374.739	96.88
374.965	102.88
375.191	93.88
375.416	95.88
375.642	92.88
375.868	93.88
376.094	100.88
376.319	87.88
376.545	100.88
376.771	92.88
376.997	92.88
377.222	99.88
377.448	93.88
377.674	106.88
377.899	100.88
378.125	89.88
378.35	89.88
378.576	97.88
378.802	83.88
379.027	107.88
379.253	99.88
379.478	91.88
379.704	89.88
379.929	105.88
380.155	90.88
380.38	109.88
380.606	100.88
380.831	91.88
381.057	113.88
381.282	113.88
381.507	96.88
381.733	101.88
381.958	97.88
382.184	87.88
382.409	100.88
382.634	94.88
382.86	91.88
383.085	108.88
383.31	118.88
383.535	101.88
383.761	97.88
383.986	101.88
384.211	108.88
384.436	101.88
384.662	92.88
384.887	86.88
385.112	97.88
385.337	89.88
385.562	100.88
385.787	96.88
386.013	107.88
386.238	96.88
386.463	96.88
386.688	86.88
386.913	100.88
387.138	108.88
387.363	102.88
387.588	97.88
387.813	96.88
388.038	109.88
388.263	114.88
388.488	98.88
388.713	115.88
388.938	106.88
389.163	98.88
389.387	121.88
389.612	95.88
389.837	110.88
390.062	117.88
390.287	102.88
390.512	113.88
390.736	99.88
390.961	109.88
391.186	114.88
391.411	118.88
391.636	108.88
391.86	96.88
392.085	110.88
392.31	98.88
392.534	101.88
392.759	113.88
392.984	112.88
393.208	99.88
393.433	114.88
393.658	100.88
393.882	110.88
394.107	100.88
394.331	114.88
394.556	122.88
394.78	114.88
395.005	100.88
395.229	117.88
395.454	135.88
395.678	124.88
395.903	114.88
396.127	116.88
396.352	99.88
396.576	119.88
396.801	107.88
397.025	110.88
397.249	120.88
397.474	102.88
397.698	122.88
397.922	110.88
398.147	107.88
398.371	108.88
398.595	102.88
398.82	105.88
399.044	119.88
399.268	113.88
399.492	125.88
399.717	119.88
399.941	119.88
400.165	125.88
400.389	116.88
400.613	92.88
400.837	107.88
401.062	98.88
401.286	123.88
401.51	124.88
401.734	113.88
401.958	124.88
402.182	126.88
402.406	112.88
402.63	124.88
402.854	115.88
403.078	108.88
403.302	116.88
403.526	118.88
403.75	126.88
403.974	126.88
404.198	117.88
404.422	119.88
404.645	112.88
404.869	115.88
405.093	137.88
405.317	117.88
405.541	127.88
405.765	125.88
405.988	125.88
406.212	122.88
406.436	116.88
406.66	135.88
406.883	128.88
407.107	130.88
407.331	109.88
407.555	120.88
407.778	126.88
408.002	127.88
408.226	125.88
408.449	120.88
408.673	118.88
408.896	134.88
409.12	126.88
409.344	123.88
409.567	115.88
409.791	134.88
410.014	135.88
410.238	130.88
410.461	135.88
410.685	144.88
410.908	124.88
411.132	122.88
411.355	130.88
411.578	121.88
411.802	126.88
412.025	119.88
412.249	134.88
412.472	123.88
412.695	124.88
412.919	124.88
413.142	124.88
413.365	132.88
413.589	129.88
413.812	124.88
414.035	120.88
414.258	121.88
414.482	127.88
414.705	136.88
414.928	131.88
415.151	107.88
415.374	122.88
415.597	132.88
415.821	128.88
416.044	129.88
416.267	131.88
416.49	127.88
416.713	129.88
416.936	132.88
417.159	134.88
417.382	130.88
417.605	140.88
417.828	134.88
418.051	137.88
418.274	132.88
418.497	128.88
418.72	135.88
418.943	133.88
419.166	140.88
419.389	134.88
419.611	151.88
419.834	134.88
420.057	158.88
420.28	136.88
420.503	136.88
420.726	131.88
420.948	144.88
421.171	138.88
421.394	146.88
421.617	153.88
421.839	154.88
422.062	148.88
422.285	128.88
422.507	140.88
422.73	134.88
422.953	140.88
423.175	137.88
423.398	127.88
423.621	151.88
423.843	138.88
424.066	136.88
424.288	139.88
424.511	150.88
424.733	158.88
424.956	161.88
425.178	148.88
425.401	139.88
425.623	141.88
425.846	143.88
426.068	142.88
426.291	144.88
426.513	124.88
426.735	125.88
426.958	125.88
427.18	135.88
427.402	125.88
427.625	129.88
427.847	120.88
428.069	153.88
428.292	132.88
428.514	137.88
428.736	140.88
428.958	136.88
429.181	117.88
429.403	130.88
429.625	138.88
429.847	135.88
430.069	132.88
430.292	116.88
430.514	143.88
430.736	142.88
430.958	143.88
431.18	124.88
431.402	113.88
431.624	126.88
431.846	102.88
432.068	101.88
432.29	95.88
432.512	105.88
432.734	128.88
432.956	125.88
433.178	139.88
433.4	128.88
433.622	155.88
433.844	145.88
434.066	132.88
434.287	112.88
434.509	112.88
434.731	107.88
434.953	136.88
435.175	124.88
435.397	137.88
435.618	125.88
435.84	124.88
436.062	125.88
436.284	138.88
436.505	126.88
436.727	140.88
436.949	128.88
437.17	139.88
437.392	130.88
437.614	142.88
437.835	110.88
438.057	91.88
438.278	128.88
438.5	126.88
438.721	130.88
438.943	140.88
439.165	141.88
439.386	139.88
439.608	150.88
439.829	167.88
440.05	153.88
440.272	143.88
440.493	152.88
440.715	154.88
440.936	140.88
441.158	148.88
441.379	163.88
441.6	160.88
441.822	174.88
442.043	159.88
442.264	144.88
442.486	142.88
442.707	145.88
442.928	158.88
443.149	140.88
443.371	161.88
443.592	158.88
443.813	146.88
444.034	163.88
444.255	149.88
444.476	144.88
444.698	158.88
444.919	143.88
445.14	308.88
445.361	223.88
445.582	157.88
445.803	159.88
446.024	157.88
446.245	161.88
446.466	170.88
446.687	179.88
446.908	156.88
447.129	151.88
447.35	168.88
447.571	159.88
447.792	154.88
448.013	160.88
448.234	142.88
448.455	138.88
448.675	162.88
448.896	146.88
449.117	134.88
449.338	141.88
449.559	143.88
449.779	136.88
450	143.88
450.221	142.88
450.442	142.88
450.662	137.88
450.883	151.88
451.104	147.88
451.324	131.88
451.545	116.88
451.766	138.88
451.986	140.88
452.207	135.88
452.428	123.88
452.648	141.88
452.869	142.88
453.089	127.88
453.31	116.88
453.53	116.88
453.751	110.88
453.971	93.88
454.192	119.88
454.412	104.88
454.633	107.88
454.853	128.88
455.073	132.88
455.294	119.88
455.514	123.88
455.734	132.88
455.955	135.88
456.175	131.88
456.395	118.88
456.616	120.88
456.836	106.88
457.056	117.88
457.276	116.88
457.497	118.88
457.717	106.88
457.937	110.88
458.157	117.88
458.377	118.88
458.598	108.88
458.818	94.88
459.038	97.88
459.258	109.88
459.478	92.88
459.698	100.88
459.918	96.88
460.138	108.88
460.358	122.88
460.578	113.88
460.798	101.88
461.018	123.88
461.238	125.88
461.458	124.88
461.678	119.88
461.898	114.88
462.118	132.88
462.338	114.88
462.558	134.88
462.777	109.88
462.997	103.88
463.217	108.88
463.437	99.88
463.657	113.88
463.876	106.88
464.096	97.88
464.316	101.88
464.536	108.88
464.755	106.88
464.975	107.88
465.195	136.88
465.414	108.88
465.634	125.88
465.854	119.88
466.073	124.88
466.293	140.88
466.512	140.88
466.732	139.88
466.951	140.88
467.171	134.88
467.391	156.88
467.61	132.88
467.829	128.88
468.049	140.88
468.268	151.88
468.488	150.88
468.707	151.88
468.927	145.88
469.146	142.88
469.365	157.88
469.585	152.88
469.804	140.88
470.023	142.88
470.243	157.88
470.462	153.88
470.681	148.88
470.901	142.88
471.12	132.88
471.339	140.88
471.558	143.88
471.777	152.88
471.997	138.88
472.216	144.88
472.435	127.88
472.654	115.88
472.873	124.88
473.092	122.88
473.311	115.88
473.53	129.88
473.749	125.88
473.968	140.88
474.187	133.88
474.406	113.88
474.625	118.88
474.844	134.88
475.063	150.88
475.282	125.88
475.501	109.88
475.72	116.88
475.939	127.88
476.158	138.88
476.377	132.88
476.596	121.88
476.814	130.88
477.033	124.88
477.252	121.88
477.471	130.88
477.69	139.88
477.908	123.88
478.127	147.88
478.346	137.88
478.564	135.88
478.783	149.88
479.002	126.88
479.22	128.88
479.439	146.88
479.658	131.88
479.876	123.88
480.095	108.88
480.313	109.88
480.532	118.88
480.751	107.88
480.969	97.88
481.188	83.88
481.406	99.88
481.624	91.88
481.843	82.88
482.061	105.88
482.28	120.88
482.498	134.88
482.717	110.88
482.935	130.88
483.153	144.88
483.372	155.88
483.59	151.88
483.808	154.88
484.027	134.88
484.245	139.88
484.463	147.88
484.681	167.88
484.9	169.88
485.118	147.88
485.336	150.88
485.554	117.88
485.772	102.88
485.99	90.88
486.209	115.88
486.427	112.88
486.645	128.88
486.863	149.88
487.081	150.88
487.299	144.88
487.517	145.88
487.735	183.88
487.953	190.88
488.171	202.88
488.389	196.88
488.607	180.88
488.825	139.88
489.043	132.88
489.261	134.88
489.479	150.88
489.696	150.88
489.914	138.88
490.132	155.88
490.35	173.88
490.568	172.88
490.786	204.88
491.003	185.88
491.221	201.88
491.439	204.88
491.657	206.88
491.874	222.88
492.092	218.88
492.31	246.88
492.527	252.88
492.745	229.88
492.963	208.88
493.18	196.88
493.398	196.88
493.615	174.88
493.833	182.88
494.05	200.88
494.268	184.88
494.485	187.88
494.703	176.88
494.92	187.88
495.138	181.88
495.355	177.88
495.573	178.88
495.79	176.88
496.008	176.88
496.225	191.88
496.442	177.88
496.66	156.88
496.877	159.88
497.094	174.88
497.312	168.88
497.529	169.88
497.746	160.88
497.963	148.88
498.181	144.88
498.398	129.88
498.615	125.88
498.832	126.88
499.049	109.88
499.267	137.88
499.484	137.88
499.701	123.88
499.918	131.88
500.135	140.88
500.352	159.88
500.569	164.88
500.786	144.88
501.003	158.88
501.22	145.88
501.437	138.88
501.654	150.88
501.871	131.88
502.088	129.88
502.305	150.88
502.522	145.88
502.739	152.88
502.956	137.88
503.172	135.88
503.389	134.88
503.606	114.88
503.823	136.88
504.04	122.88
504.256	116.88
504.473	130.88
504.69	104.88
504.907	130.88
505.123	122.88
505.34	125.88
505.557	129.88
505.773	136.88
505.99	121.88
506.207	149.88
506.423	140.88
506.64	139.88
506.856	131.88
507.073	121.88
507.289	112.88
507.506	121.88
507.722	124.88
507.939	120.88
508.155	130.88
508.372	124.88
508.588	119.88
508.805	113.88
509.021	109.88
509.238	112.88
509.454	102.88
509.67	82.88
509.887	102.88
510.103	112.88
510.319	98.88
510.536	109.88
510.752	84.88
510.968	91.88
511.184	90.88
