Data from Location6.07152019.Energy5.Lamp.07192019.3%Agarose_HRD10591_16-11-17-396.txt Node
Date: Fri Jul 19 16:11:17 EDT 2019
User: cochatt
Spectrometer: HR+D1059
Trigger mode: 1
Integration Time (sec): 1.000000E-1
Scans to average: 1
Electric dark correction enabled: true
Nonlinearity correction enabled: false
Boxcar width: 0
XAxis mode: Wavelengths
Number of Pixels in Spectrum: 2048
>>>>>Begin Spectral Data<<<<<
223.165	-21.94
223.4	-21.94
223.635	-21.94
223.869	-28.94
224.104	-7.94
224.338	-1.94
224.573	-16.94
224.808	-11.94
225.042	-17.94
225.277	-17.94
225.511	-2.94
225.746	2.06
225.98	20.06
226.215	9.06
226.449	16.06
226.683	22.06
226.918	33.06
227.152	26.06
227.387	27.06
227.621	47.06
227.856	52.06
228.09	44.06
228.324	42.06
228.559	65.06
228.793	61.06
229.027	57.06
229.262	63.06
229.496	83.06
229.73	83.06
229.964	86.06
230.199	75.06
230.433	86.06
230.667	66.06
230.901	89.06
231.136	86.06
231.37	91.06
231.604	92.06
231.838	94.06
232.072	76.06
232.306	85.06
232.541	90.06
232.775	86.06
233.009	82.06
233.243	77.06
233.477	92.06
233.711	85.06
233.945	80.06
234.179	81.06
234.413	76.06
234.647	84.06
234.881	79.06
235.115	79.06
235.349	91.06
235.583	95.06
235.817	78.06
236.051	78.06
236.285	81.06
236.519	80.06
236.753	82.06
236.987	108.06
237.221	75.06
237.455	80.06
237.689	80.06
237.922	79.06
238.156	76.06
238.39	70.06
238.624	74.06
238.858	81.06
239.091	74.06
239.325	83.06
239.559	79.06
239.793	78.06
240.027	85.06
240.26	90.06
240.494	77.06
240.728	79.06
240.961	72.06
241.195	81.06
241.429	71.06
241.662	74.06
241.896	86.06
242.13	86.06
242.363	77.06
242.597	75.06
242.83	84.06
243.064	85.06
243.298	88.06
243.531	77.06
243.765	87.06
243.998	82.06
244.232	78.06
244.465	70.06
244.699	84.06
244.932	83.06
245.166	84.06
245.399	69.06
245.633	73.06
245.866	80.06
246.099	72.06
246.333	87.06
246.566	92.06
246.8	85.06
247.033	89.06
247.266	76.06
247.5	75.06
247.733	76.06
247.966	84.06
248.2	81.06
248.433	86.06
248.666	90.06
248.899	80.06
249.133	96.06
249.366	79.06
249.599	79.06
249.832	76.06
250.066	92.06
250.299	90.06
250.532	78.06
250.765	78.06
250.998	93.06
251.231	84.06
251.465	92.06
251.698	95.06
251.931	82.06
252.164	89.06
252.397	74.06
252.63	84.06
252.863	91.06
253.096	95.06
253.329	95.06
253.562	76.06
253.795	84.06
254.028	84.06
254.261	87.06
254.494	79.06
254.727	83.06
254.96	101.06
255.193	94.06
255.426	72.06
255.659	79.06
255.892	87.06
256.124	101.06
256.357	84.06
256.59	93.06
256.823	92.06
257.056	75.06
257.289	76.06
257.521	85.06
257.754	84.06
257.987	71.06
258.22	90.06
258.452	87.06
258.685	80.06
258.918	92.06
259.151	76.06
259.383	95.06
259.616	83.06
259.849	78.06
260.081	75.06
260.314	95.06
260.547	88.06
260.779	100.06
261.012	87.06
261.244	86.06
261.477	96.06
261.71	72.06
261.942	99.06
262.175	79.06
262.407	85.06
262.64	77.06
262.872	92.06
263.105	87.06
263.337	87.06
263.57	92.06
263.802	82.06
264.035	88.06
264.267	82.06
264.499	89.06
264.732	87.06
264.964	83.06
265.197	81.06
265.429	90.06
265.661	83.06
265.894	82.06
266.126	85.06
266.358	89.06
266.591	79.06
266.823	82.06
267.055	79.06
267.287	97.06
267.52	101.06
267.752	80.06
267.984	82.06
268.216	76.06
268.448	72.06
268.681	86.06
268.913	92.06
269.145	76.06
269.377	76.06
269.609	83.06
269.841	86.06
270.073	99.06
270.306	89.06
270.538	95.06
270.77	82.06
271.002	94.06
271.234	81.06
271.466	90.06
271.698	94.06
271.93	74.06
272.162	101.06
272.394	104.06
272.626	108.06
272.858	99.06
273.09	83.06
273.322	68.06
273.553	90.06
273.785	95.06
274.017	100.06
274.249	85.06
274.481	77.06
274.713	81.06
274.945	93.06
275.176	94.06
275.408	101.06
275.64	79.06
275.872	84.06
276.104	88.06
276.335	88.06
276.567	92.06
276.799	94.06
277.031	97.06
277.262	95.06
277.494	84.06
277.726	93.06
277.957	88.06
278.189	89.06
278.421	89.06
278.652	77.06
278.884	99.06
279.115	98.06
279.347	86.06
279.579	95.06
279.81	93.06
280.042	90.06
280.273	87.06
280.505	90.06
280.736	88.06
280.968	86.06
281.199	84.06
281.431	95.06
281.662	96.06
281.894	94.06
282.125	84.06
282.356	89.06
282.588	72.06
282.819	85.06
283.051	94.06
283.282	88.06
283.513	96.06
283.745	99.06
283.976	79.06
284.207	108.06
284.439	87.06
284.67	91.06
284.901	86.06
285.132	88.06
285.364	79.06
285.595	83.06
285.826	98.06
286.057	94.06
286.288	84.06
286.52	91.06
286.751	87.06
286.982	100.06
287.213	84.06
287.444	95.06
287.675	88.06
287.906	76.06
288.138	90.06
288.369	91.06
288.6	94.06
288.831	90.06
289.062	96.06
289.293	90.06
289.524	87.06
289.755	85.06
289.986	90.06
290.217	88.06
290.448	88.06
290.679	99.06
290.91	86.06
291.141	80.06
291.371	98.06
291.602	77.06
291.833	82.06
292.064	81.06
292.295	88.06
292.526	87.06
292.757	94.06
292.987	95.06
293.218	93.06
293.449	88.06
293.68	94.06
293.91	99.06
294.141	85.06
294.372	94.06
294.603	92.06
294.833	96.06
295.064	98.06
295.295	89.06
295.525	88.06
295.756	104.06
295.987	77.06
296.217	88.06
296.448	93.06
296.679	94.06
296.909	100.06
297.14	86.06
297.37	98.06
297.601	100.06
297.831	90.06
298.062	83.06
298.292	91.06
298.523	87.06
298.753	96.06
298.984	72.06
299.214	99.06
299.445	78.06
299.675	98.06
299.905	78.06
300.136	84.06
300.366	86.06
300.597	93.06
300.827	103.06
301.057	85.06
301.288	80.06
301.518	87.06
301.748	88.06
301.979	85.06
302.209	87.06
302.439	84.06
302.669	100.06
302.9	87.06
303.13	79.06
303.36	96.06
303.59	91.06
303.82	80.06
304.051	95.06
304.281	88.06
304.511	91.06
304.741	94.06
304.971	86.06
305.201	89.06
305.431	85.06
305.661	85.06
305.891	83.06
306.121	89.06
306.352	97.06
306.582	91.06
306.812	98.06
307.042	87.06
307.272	89.06
307.502	80.06
307.731	85.06
307.961	86.06
308.191	99.06
308.421	101.06
308.651	93.06
308.881	88.06
309.111	93.06
309.341	92.06
309.571	101.06
309.8	86.06
310.03	78.06
310.26	77.06
310.49	98.06
310.72	88.06
310.949	78.06
311.179	85.06
311.409	85.06
311.639	77.06
311.868	83.06
312.098	87.06
312.328	75.06
312.557	90.06
312.787	90.06
313.017	86.06
313.246	91.06
313.476	97.06
313.706	100.06
313.935	93.06
314.165	95.06
314.394	86.06
314.624	100.06
314.853	87.06
315.083	87.06
315.312	97.06
315.542	84.06
315.771	85.06
316.001	91.06
316.23	83.06
316.46	90.06
316.689	85.06
316.919	80.06
317.148	86.06
317.377	78.06
317.607	95.06
317.836	81.06
318.065	91.06
318.295	75.06
318.524	96.06
318.753	95.06
318.983	96.06
319.212	98.06
319.441	96.06
319.67	79.06
319.9	85.06
320.129	101.06
320.358	94.06
320.587	81.06
320.816	81.06
321.046	87.06
321.275	95.06
321.504	84.06
321.733	91.06
321.962	90.06
322.191	90.06
322.42	89.06
322.649	96.06
322.878	91.06
323.108	92.06
323.337	87.06
323.566	90.06
323.795	86.06
324.024	73.06
324.253	86.06
324.482	90.06
324.71	85.06
324.939	78.06
325.168	82.06
325.397	94.06
325.626	89.06
325.855	93.06
326.084	96.06
326.313	82.06
326.542	84.06
326.77	92.06
326.999	95.06
327.228	90.06
327.457	75.06
327.686	93.06
327.914	86.06
328.143	85.06
328.372	90.06
328.6	100.06
328.829	98.06
329.058	84.06
329.287	94.06
329.515	92.06
329.744	89.06
329.972	90.06
330.201	92.06
330.43	88.06
330.658	86.06
330.887	92.06
331.115	91.06
331.344	86.06
331.572	82.06
331.801	72.06
332.03	90.06
332.258	81.06
332.486	88.06
332.715	76.06
332.943	86.06
333.172	71.06
333.4	95.06
333.629	93.06
333.857	82.06
334.085	94.06
334.314	99.06
334.542	83.06
334.771	88.06
334.999	103.06
335.227	93.06
335.455	92.06
335.684	72.06
335.912	82.06
336.14	89.06
336.369	92.06
336.597	83.06
336.825	89.06
337.053	84.06
337.281	80.06
337.51	93.06
337.738	92.06
337.966	93.06
338.194	90.06
338.422	95.06
338.65	94.06
338.878	86.06
339.106	95.06
339.334	93.06
339.562	82.06
339.79	91.06
340.018	86.06
340.246	90.06
340.474	93.06
340.702	91.06
340.93	90.06
341.158	86.06
341.386	86.06
341.614	86.06
341.842	84.06
342.07	88.06
342.298	106.06
342.526	94.06
342.754	91.06
342.981	89.06
343.209	93.06
343.437	84.06
343.665	88.06
343.893	91.06
344.12	89.06
344.348	98.06
344.576	107.06
344.804	95.06
345.031	83.06
345.259	95.06
345.487	96.06
345.714	87.06
345.942	78.06
346.17	75.06
346.397	90.06
346.625	77.06
346.853	82.06
347.08	88.06
347.308	97.06
347.535	83.06
347.763	90.06
347.99	82.06
348.218	84.06
348.445	90.06
348.673	76.06
348.9	84.06
349.128	88.06
349.355	87.06
349.583	85.06
349.81	75.06
350.037	81.06
350.265	88.06
350.492	94.06
350.72	74.06
350.947	74.06
351.174	93.06
351.402	101.06
351.629	92.06
351.856	80.06
352.083	81.06
352.311	86.06
352.538	86.06
352.765	75.06
352.992	103.06
353.22	95.06
353.447	92.06
353.674	83.06
353.901	91.06
354.128	89.06
354.355	86.06
354.583	79.06
354.81	98.06
355.037	88.06
355.264	91.06
355.491	79.06
355.718	91.06
355.945	92.06
356.172	72.06
356.399	92.06
356.626	100.06
356.853	90.06
357.08	99.06
357.307	93.06
357.534	94.06
357.761	92.06
357.988	86.06
358.215	98.06
358.441	93.06
358.668	86.06
358.895	87.06
359.122	90.06
359.349	92.06
359.576	83.06
359.802	99.06
360.029	90.06
360.256	88.06
360.483	104.06
360.709	100.06
360.936	93.06
361.163	98.06
361.39	91.06
361.616	93.06
361.843	94.06
362.07	100.06
362.296	84.06
362.523	98.06
362.749	85.06
362.976	86.06
363.203	92.06
363.429	94.06
363.656	89.06
363.882	86.06
364.109	83.06
364.335	84.06
364.562	89.06
364.788	94.06
365.015	82.06
365.241	85.06
365.468	88.06
365.694	95.06
365.92	89.06
366.147	82.06
366.373	95.06
366.599	93.06
366.826	75.06
367.052	96.06
367.278	107.06
367.505	89.06
367.731	100.06
367.957	76.06
368.184	90.06
368.41	93.06
368.636	88.06
368.862	84.06
369.089	100.06
369.315	98.06
369.541	106.06
369.767	87.06
369.993	94.06
370.219	101.06
370.445	102.06
370.672	72.06
370.898	81.06
371.124	96.06
371.35	105.06
371.576	107.06
371.802	111.06
372.028	99.06
372.254	116.06
372.48	88.06
372.706	91.06
372.932	103.06
373.158	94.06
373.384	89.06
373.61	81.06
373.835	107.06
374.061	98.06
374.287	107.06
374.513	92.06
374.739	99.06
374.965	87.06
375.191	87.06
375.416	95.06
375.642	88.06
375.868	97.06
376.094	113.06
376.319	101.06
376.545	108.06
376.771	111.06
376.997	83.06
377.222	90.06
377.448	97.06
377.674	95.06
377.899	111.06
378.125	106.06
378.35	102.06
378.576	108.06
378.802	107.06
379.027	109.06
379.253	104.06
379.478	95.06
379.704	107.06
379.929	100.06
380.155	100.06
380.38	104.06
380.606	108.06
380.831	99.06
381.057	105.06
381.282	105.06
381.507	95.06
381.733	101.06
381.958	91.06
382.184	90.06
382.409	94.06
382.634	109.06
382.86	97.06
383.085	114.06
383.31	91.06
383.535	99.06
383.761	103.06
383.986	113.06
384.211	108.06
384.436	110.06
384.662	100.06
384.887	103.06
385.112	102.06
385.337	117.06
385.562	100.06
385.787	99.06
386.013	94.06
386.238	92.06
386.463	82.06
386.688	113.06
386.913	100.06
387.138	107.06
387.363	87.06
387.588	99.06
387.813	111.06
388.038	114.06
388.263	106.06
388.488	95.06
388.713	96.06
388.938	128.06
389.163	100.06
389.387	99.06
389.612	117.06
389.837	98.06
390.062	121.06
390.287	106.06
390.512	114.06
390.736	107.06
390.961	111.06
391.186	108.06
391.411	115.06
391.636	107.06
391.86	109.06
392.085	102.06
392.31	103.06
392.534	113.06
392.759	105.06
392.984	109.06
393.208	106.06
393.433	112.06
393.658	106.06
393.882	103.06
394.107	127.06
394.331	105.06
394.556	101.06
394.78	115.06
395.005	122.06
395.229	119.06
395.454	110.06
395.678	99.06
395.903	100.06
396.127	120.06
396.352	111.06
396.576	107.06
396.801	104.06
397.025	119.06
397.249	118.06
397.474	115.06
397.698	116.06
397.922	122.06
398.147	107.06
398.371	116.06
398.595	119.06
398.82	115.06
399.044	117.06
399.268	109.06
399.492	100.06
399.717	117.06
399.941	116.06
400.165	108.06
400.389	108.06
400.613	131.06
400.837	112.06
401.062	119.06
401.286	130.06
401.51	107.06
401.734	107.06
401.958	123.06
402.182	132.06
402.406	117.06
402.63	119.06
402.854	117.06
403.078	124.06
403.302	112.06
403.526	133.06
403.75	128.06
403.974	131.06
404.198	111.06
404.422	130.06
404.645	120.06
404.869	130.06
405.093	132.06
405.317	117.06
405.541	125.06
405.765	136.06
405.988	126.06
406.212	134.06
406.436	126.06
406.66	129.06
406.883	119.06
407.107	118.06
407.331	106.06
407.555	123.06
407.778	115.06
408.002	144.06
408.226	140.06
408.449	134.06
408.673	110.06
408.896	126.06
409.12	127.06
409.344	121.06
409.567	131.06
409.791	113.06
410.014	116.06
410.238	131.06
410.461	142.06
410.685	118.06
410.908	128.06
411.132	127.06
411.355	126.06
411.578	124.06
411.802	124.06
412.025	115.06
412.249	121.06
412.472	112.06
412.695	129.06
412.919	124.06
413.142	130.06
413.365	138.06
413.589	127.06
413.812	123.06
414.035	127.06
414.258	134.06
414.482	128.06
414.705	122.06
414.928	125.06
415.151	134.06
415.374	120.06
415.597	126.06
415.821	128.06
416.044	142.06
416.267	133.06
416.49	131.06
416.713	126.06
416.936	136.06
417.159	139.06
417.382	133.06
417.605	138.06
417.828	144.06
418.051	148.06
418.274	151.06
418.497	140.06
418.72	146.06
418.943	150.06
419.166	126.06
419.389	156.06
419.611	151.06
419.834	136.06
420.057	142.06
420.28	128.06
420.503	147.06
420.726	136.06
420.948	136.06
421.171	132.06
421.394	145.06
421.617	155.06
421.839	165.06
422.062	150.06
422.285	138.06
422.507	138.06
422.73	142.06
422.953	139.06
423.175	140.06
423.398	137.06
423.621	128.06
423.843	138.06
424.066	153.06
424.288	155.06
424.511	137.06
424.733	151.06
424.956	146.06
425.178	148.06
425.401	146.06
425.623	148.06
425.846	135.06
426.068	132.06
426.291	140.06
426.513	133.06
426.735	138.06
426.958	133.06
427.18	143.06
427.402	146.06
427.625	135.06
427.847	127.06
428.069	137.06
428.292	133.06
428.514	132.06
428.736	142.06
428.958	148.06
429.181	143.06
429.403	146.06
429.625	126.06
429.847	131.06
430.069	144.06
430.292	139.06
430.514	128.06
430.736	131.06
430.958	137.06
431.18	128.06
431.402	121.06
431.624	130.06
431.846	120.06
432.068	103.06
432.29	107.06
432.512	124.06
432.734	134.06
432.956	133.06
433.178	151.06
433.4	152.06
433.622	160.06
433.844	125.06
434.066	142.06
434.287	118.06
434.509	111.06
434.731	120.06
434.953	126.06
435.175	126.06
435.397	125.06
435.618	117.06
435.84	116.06
436.062	126.06
436.284	143.06
436.505	127.06
436.727	137.06
436.949	133.06
437.17	136.06
437.392	112.06
437.614	124.06
437.835	103.06
438.057	127.06
438.278	121.06
438.5	125.06
438.721	127.06
438.943	151.06
439.165	143.06
439.386	142.06
439.608	154.06
439.829	152.06
440.05	158.06
440.272	178.06
440.493	149.06
440.715	162.06
440.936	166.06
441.158	155.06
441.379	151.06
441.6	162.06
441.822	155.06
442.043	156.06
442.264	148.06
442.486	152.06
442.707	159.06
442.928	141.06
443.149	154.06
443.371	164.06
443.592	144.06
443.813	143.06
444.034	156.06
444.255	156.06
444.476	149.06
444.698	152.06
444.919	165.06
445.14	273.06
445.361	195.06
445.582	158.06
445.803	166.06
446.024	142.06
446.245	164.06
446.466	175.06
446.687	165.06
446.908	160.06
447.129	175.06
447.35	155.06
447.571	173.06
447.792	163.06
448.013	142.06
448.234	137.06
448.455	153.06
448.675	163.06
448.896	152.06
449.117	147.06
449.338	156.06
449.559	154.06
449.779	151.06
450	151.06
450.221	141.06
450.442	134.06
450.662	135.06
450.883	155.06
451.104	146.06
451.324	133.06
451.545	137.06
451.766	146.06
451.986	136.06
452.207	148.06
452.428	133.06
452.648	118.06
452.869	113.06
453.089	128.06
453.31	115.06
453.53	112.06
453.751	115.06
453.971	114.06
454.192	121.06
454.412	128.06
454.633	122.06
454.853	130.06
455.073	130.06
455.294	132.06
455.514	124.06
455.734	133.06
455.955	142.06
456.175	122.06
456.395	106.06
456.616	108.06
456.836	124.06
457.056	121.06
457.276	105.06
457.497	112.06
457.717	111.06
457.937	117.06
458.157	123.06
458.377	120.06
458.598	104.06
458.818	118.06
459.038	97.06
459.258	85.06
459.478	80.06
459.698	99.06
459.918	99.06
460.138	132.06
460.358	128.06
460.578	134.06
460.798	122.06
461.018	120.06
461.238	117.06
461.458	101.06
461.678	120.06
461.898	129.06
462.118	119.06
462.338	130.06
462.558	120.06
462.777	100.06
462.997	126.06
463.217	119.06
463.437	118.06
463.657	124.06
463.876	114.06
464.096	112.06
464.316	112.06
464.536	114.06
464.755	118.06
464.975	139.06
465.195	112.06
465.414	125.06
465.634	108.06
465.854	141.06
466.073	132.06
466.293	128.06
466.512	130.06
466.732	140.06
466.951	147.06
467.171	140.06
467.391	148.06
467.61	144.06
467.829	142.06
468.049	130.06
468.268	138.06
468.488	144.06
468.707	142.06
468.927	138.06
469.146	127.06
469.365	142.06
469.585	141.06
469.804	156.06
470.023	138.06
470.243	133.06
470.462	138.06
470.681	141.06
470.901	160.06
471.12	143.06
471.339	151.06
471.558	156.06
471.777	155.06
471.997	154.06
472.216	124.06
472.435	118.06
472.654	113.06
472.873	127.06
473.092	134.06
473.311	136.06
473.53	127.06
473.749	137.06
473.968	127.06
474.187	134.06
474.406	131.06
474.625	132.06
474.844	148.06
475.063	152.06
475.282	142.06
475.501	111.06
475.72	126.06
475.939	126.06
476.158	133.06
476.377	130.06
476.596	112.06
476.814	116.06
477.033	124.06
477.252	121.06
477.471	139.06
477.69	152.06
477.908	151.06
478.127	153.06
478.346	152.06
478.564	147.06
478.783	138.06
479.002	152.06
479.22	156.06
479.439	136.06
479.658	141.06
479.876	127.06
480.095	100.06
480.313	123.06
480.532	125.06
480.751	106.06
480.969	100.06
481.188	93.06
481.406	100.06
481.624	89.06
481.843	100.06
482.061	116.06
482.28	110.06
482.498	119.06
482.717	98.06
482.935	115.06
483.153	145.06
483.372	155.06
483.59	153.06
483.808	148.06
484.027	136.06
484.245	142.06
484.463	155.06
484.681	176.06
484.9	156.06
485.118	164.06
485.336	130.06
485.554	131.06
485.772	114.06
485.99	112.06
486.209	130.06
486.427	118.06
486.645	130.06
486.863	156.06
487.081	152.06
487.299	144.06
487.517	154.06
487.735	183.06
487.953	198.06
488.171	192.06
488.389	202.06
488.607	175.06
488.825	148.06
489.043	145.06
489.261	145.06
489.479	155.06
489.696	149.06
489.914	156.06
490.132	150.06
490.35	174.06
490.568	153.06
490.786	196.06
491.003	178.06
491.221	195.06
491.439	197.06
491.657	212.06
491.874	225.06
492.092	237.06
492.31	276.06
492.527	231.06
492.745	214.06
492.963	194.06
493.18	221.06
493.398	203.06
493.615	186.06
493.833	194.06
494.05	198.06
494.268	183.06
494.485	189.06
494.703	195.06
494.92	183.06
495.138	197.06
495.355	192.06
495.573	192.06
495.79	180.06
496.008	171.06
496.225	187.06
496.442	171.06
496.66	187.06
496.877	167.06
497.094	173.06
497.312	169.06
497.529	181.06
497.746	154.06
497.963	148.06
498.181	142.06
498.398	135.06
498.615	135.06
498.832	119.06
499.049	132.06
499.267	138.06
499.484	144.06
499.701	148.06
499.918	150.06
500.135	144.06
500.352	159.06
500.569	160.06
500.786	152.06
501.003	158.06
501.22	160.06
501.437	148.06
501.654	145.06
501.871	140.06
502.088	151.06
502.305	142.06
502.522	152.06
502.739	128.06
502.956	130.06
503.172	136.06
503.389	129.06
503.606	133.06
503.823	134.06
504.04	141.06
504.256	123.06
504.473	139.06
504.69	123.06
504.907	128.06
505.123	130.06
505.34	137.06
505.557	150.06
505.773	133.06
505.99	123.06
506.207	132.06
506.423	136.06
506.64	128.06
506.856	131.06
507.073	119.06
507.289	119.06
507.506	142.06
507.722	125.06
507.939	131.06
508.155	130.06
508.372	128.06
508.588	129.06
508.805	117.06
509.021	114.06
509.238	103.06
509.454	106.06
509.67	105.06
509.887	116.06
510.103	114.06
510.319	99.06
510.536	94.06
