Data from Location6.07152019.Energy5.Lamp.07192019.3%Agarose_HRD10591_16-13-48-395.txt Node
Date: Fri Jul 19 16:13:48 EDT 2019
User: cochatt
Spectrometer: HR+D1059
Trigger mode: 1
Integration Time (sec): 1.000000E-1
Scans to average: 1
Electric dark correction enabled: true
Nonlinearity correction enabled: false
Boxcar width: 0
XAxis mode: Wavelengths
Number of Pixels in Spectrum: 2048
>>>>>Begin Spectral Data<<<<<
223.165	-8.31
223.4	-8.31
223.635	-8.31
223.869	-12.31
224.104	-24.31
224.338	-10.31
224.573	-22.31
224.808	-5.31
225.042	-11.31
225.277	-6.31
225.511	-9.31
225.746	-5.31
225.98	3.69
226.215	16.69
226.449	23.69
226.683	17.69
226.918	22.69
227.152	30.69
227.387	32.69
227.621	44.69
227.856	56.69
228.09	60.69
228.324	61.69
228.559	57.69
228.793	44.69
229.027	72.69
229.262	69.69
229.496	70.69
229.73	73.69
229.964	75.69
230.199	72.69
230.433	79.69
230.667	85.69
230.901	85.69
231.136	78.69
231.37	86.69
231.604	79.69
231.838	92.69
232.072	100.69
232.306	77.69
232.541	98.69
232.775	102.69
233.009	91.69
233.243	81.69
233.477	87.69
233.711	79.69
233.945	98.69
234.179	95.69
234.413	87.69
234.647	86.69
234.881	78.69
235.115	89.69
235.349	97.69
235.583	93.69
235.817	95.69
236.051	81.69
236.285	87.69
236.519	79.69
236.753	69.69
236.987	87.69
237.221	80.69
237.455	84.69
237.689	74.69
237.922	91.69
238.156	89.69
238.39	83.69
238.624	64.69
238.858	81.69
239.091	82.69
239.325	77.69
239.559	102.69
239.793	84.69
240.027	80.69
240.26	81.69
240.494	96.69
240.728	79.69
240.961	76.69
241.195	83.69
241.429	76.69
241.662	88.69
241.896	84.69
242.13	77.69
242.363	90.69
242.597	80.69
242.83	85.69
243.064	101.69
243.298	98.69
243.531	78.69
243.765	89.69
243.998	82.69
244.232	82.69
244.465	87.69
244.699	66.69
244.932	88.69
245.166	75.69
245.399	77.69
245.633	82.69
245.866	81.69
246.099	86.69
246.333	88.69
246.566	89.69
246.8	94.69
247.033	70.69
247.266	88.69
247.5	88.69
247.733	72.69
247.966	91.69
248.2	85.69
248.433	71.69
248.666	75.69
248.899	91.69
249.133	87.69
249.366	94.69
249.599	81.69
249.832	94.69
250.066	84.69
250.299	85.69
250.532	79.69
250.765	77.69
250.998	81.69
251.231	95.69
251.465	85.69
251.698	88.69
251.931	75.69
252.164	74.69
252.397	93.69
252.63	88.69
252.863	78.69
253.096	72.69
253.329	84.69
253.562	74.69
253.795	97.69
254.028	78.69
254.261	86.69
254.494	98.69
254.727	88.69
254.96	83.69
255.193	81.69
255.426	79.69
255.659	77.69
255.892	90.69
256.124	87.69
256.357	85.69
256.59	81.69
256.823	84.69
257.056	77.69
257.289	82.69
257.521	80.69
257.754	79.69
257.987	71.69
258.22	73.69
258.452	71.69
258.685	83.69
258.918	84.69
259.151	81.69
259.383	79.69
259.616	81.69
259.849	86.69
260.081	89.69
260.314	87.69
260.547	89.69
260.779	92.69
261.012	87.69
261.244	78.69
261.477	91.69
261.71	92.69
261.942	90.69
262.175	91.69
262.407	79.69
262.64	63.69
262.872	81.69
263.105	79.69
263.337	81.69
263.57	90.69
263.802	86.69
264.035	70.69
264.267	87.69
264.499	98.69
264.732	90.69
264.964	94.69
265.197	80.69
265.429	90.69
265.661	73.69
265.894	83.69
266.126	88.69
266.358	93.69
266.591	68.69
266.823	83.69
267.055	99.69
267.287	88.69
267.52	85.69
267.752	87.69
267.984	86.69
268.216	71.69
268.448	88.69
268.681	93.69
268.913	80.69
269.145	80.69
269.377	82.69
269.609	79.69
269.841	87.69
270.073	92.69
270.306	81.69
270.538	72.69
270.77	92.69
271.002	86.69
271.234	78.69
271.466	85.69
271.698	79.69
271.93	89.69
272.162	87.69
272.394	84.69
272.626	83.69
272.858	84.69
273.09	86.69
273.322	87.69
273.553	88.69
273.785	77.69
274.017	87.69
274.249	95.69
274.481	86.69
274.713	91.69
274.945	82.69
275.176	81.69
275.408	88.69
275.64	92.69
275.872	81.69
276.104	92.69
276.335	75.69
276.567	88.69
276.799	84.69
277.031	91.69
277.262	85.69
277.494	85.69
277.726	81.69
277.957	79.69
278.189	76.69
278.421	91.69
278.652	87.69
278.884	101.69
279.115	88.69
279.347	100.69
279.579	84.69
279.81	86.69
280.042	92.69
280.273	95.69
280.505	96.69
280.736	78.69
280.968	99.69
281.199	94.69
281.431	106.69
281.662	105.69
281.894	89.69
282.125	94.69
282.356	98.69
282.588	83.69
282.819	84.69
283.051	91.69
283.282	93.69
283.513	85.69
283.745	95.69
283.976	91.69
284.207	90.69
284.439	90.69
284.67	99.69
284.901	82.69
285.132	101.69
285.364	99.69
285.595	86.69
285.826	88.69
286.057	88.69
286.288	90.69
286.52	94.69
286.751	87.69
286.982	94.69
287.213	90.69
287.444	92.69
287.675	85.69
287.906	80.69
288.138	82.69
288.369	101.69
288.6	92.69
288.831	92.69
289.062	75.69
289.293	95.69
289.524	76.69
289.755	91.69
289.986	76.69
290.217	89.69
290.448	84.69
290.679	77.69
290.91	89.69
291.141	91.69
291.371	90.69
291.602	85.69
291.833	77.69
292.064	94.69
292.295	93.69
292.526	86.69
292.757	87.69
292.987	84.69
293.218	81.69
293.449	81.69
293.68	73.69
293.91	103.69
294.141	84.69
294.372	88.69
294.603	80.69
294.833	86.69
295.064	97.69
295.295	92.69
295.525	87.69
295.756	84.69
295.987	64.69
296.217	83.69
296.448	107.69
296.679	90.69
296.909	91.69
297.14	97.69
297.37	82.69
297.601	77.69
297.831	92.69
298.062	92.69
298.292	96.69
298.523	93.69
298.753	84.69
298.984	87.69
299.214	94.69
299.445	91.69
299.675	92.69
299.905	94.69
300.136	97.69
300.366	82.69
300.597	85.69
300.827	88.69
301.057	91.69
301.288	86.69
301.518	87.69
301.748	81.69
301.979	86.69
302.209	88.69
302.439	95.69
302.669	85.69
302.9	96.69
303.13	101.69
303.36	95.69
303.59	93.69
303.82	97.69
304.051	84.69
304.281	71.69
304.511	93.69
304.741	88.69
304.971	90.69
305.201	87.69
305.431	82.69
305.661	85.69
305.891	86.69
306.121	88.69
306.352	102.69
306.582	87.69
306.812	95.69
307.042	93.69
307.272	96.69
307.502	93.69
307.731	76.69
307.961	76.69
308.191	95.69
308.421	89.69
308.651	88.69
308.881	95.69
309.111	74.69
309.341	86.69
309.571	95.69
309.8	81.69
310.03	94.69
310.26	89.69
310.49	82.69
310.72	101.69
310.949	80.69
311.179	84.69
311.409	84.69
311.639	101.69
311.868	84.69
312.098	97.69
312.328	93.69
312.557	87.69
312.787	91.69
313.017	94.69
313.246	93.69
313.476	92.69
313.706	91.69
313.935	74.69
314.165	82.69
314.394	91.69
314.624	86.69
314.853	86.69
315.083	80.69
315.312	94.69
315.542	87.69
315.771	99.69
316.001	99.69
316.23	96.69
316.46	87.69
316.689	94.69
316.919	93.69
317.148	96.69
317.377	103.69
317.607	80.69
317.836	76.69
318.065	105.69
318.295	98.69
318.524	92.69
318.753	73.69
318.983	85.69
319.212	111.69
319.441	96.69
319.67	90.69
319.9	85.69
320.129	108.69
320.358	95.69
320.587	86.69
320.816	84.69
321.046	94.69
321.275	107.69
321.504	98.69
321.733	94.69
321.962	75.69
322.191	92.69
322.42	95.69
322.649	79.69
322.878	96.69
323.108	92.69
323.337	91.69
323.566	83.69
323.795	96.69
324.024	91.69
324.253	88.69
324.482	93.69
324.71	85.69
324.939	82.69
325.168	90.69
325.397	96.69
325.626	85.69
325.855	86.69
326.084	94.69
326.313	84.69
326.542	89.69
326.77	78.69
326.999	74.69
327.228	100.69
327.457	90.69
327.686	91.69
327.914	73.69
328.143	102.69
328.372	103.69
328.6	100.69
328.829	95.69
329.058	82.69
329.287	96.69
329.515	98.69
329.744	105.69
329.972	85.69
330.201	89.69
330.43	79.69
330.658	83.69
330.887	85.69
331.115	94.69
331.344	81.69
331.572	86.69
331.801	76.69
332.03	103.69
332.258	91.69
332.486	101.69
332.715	88.69
332.943	69.69
333.172	81.69
333.4	89.69
333.629	95.69
333.857	110.69
334.085	99.69
334.314	91.69
334.542	100.69
334.771	98.69
334.999	86.69
335.227	80.69
335.455	93.69
335.684	87.69
335.912	82.69
336.14	87.69
336.369	94.69
336.597	94.69
336.825	73.69
337.053	87.69
337.281	102.69
337.51	87.69
337.738	93.69
337.966	83.69
338.194	90.69
338.422	78.69
338.65	94.69
338.878	94.69
339.106	97.69
339.334	80.69
339.562	88.69
339.79	90.69
340.018	93.69
340.246	91.69
340.474	82.69
340.702	86.69
340.93	97.69
341.158	89.69
341.386	108.69
341.614	96.69
341.842	93.69
342.07	85.69
342.298	96.69
342.526	94.69
342.754	86.69
342.981	88.69
343.209	93.69
343.437	75.69
343.665	96.69
343.893	104.69
344.12	102.69
344.348	89.69
344.576	84.69
344.804	92.69
345.031	92.69
345.259	93.69
345.487	92.69
345.714	82.69
345.942	85.69
346.17	92.69
346.397	104.69
346.625	88.69
346.853	96.69
347.08	96.69
347.308	90.69
347.535	74.69
347.763	90.69
347.99	90.69
348.218	87.69
348.445	83.69
348.673	79.69
348.9	82.69
349.128	90.69
349.355	82.69
349.583	91.69
349.81	90.69
350.037	79.69
350.265	88.69
350.492	90.69
350.72	90.69
350.947	80.69
351.174	92.69
351.402	85.69
351.629	80.69
351.856	83.69
352.083	92.69
352.311	101.69
352.538	82.69
352.765	91.69
352.992	92.69
353.22	85.69
353.447	95.69
353.674	98.69
353.901	91.69
354.128	85.69
354.355	87.69
354.583	87.69
354.81	97.69
355.037	84.69
355.264	92.69
355.491	89.69
355.718	88.69
355.945	94.69
356.172	94.69
356.399	85.69
356.626	79.69
356.853	91.69
357.08	92.69
357.307	83.69
357.534	81.69
357.761	82.69
357.988	83.69
358.215	76.69
358.441	89.69
358.668	86.69
358.895	99.69
359.122	85.69
359.349	98.69
359.576	88.69
359.802	81.69
360.029	97.69
360.256	93.69
360.483	98.69
360.709	87.69
360.936	98.69
361.163	92.69
361.39	88.69
361.616	91.69
361.843	79.69
362.07	86.69
362.296	94.69
362.523	80.69
362.749	92.69
362.976	99.69
363.203	95.69
363.429	83.69
363.656	107.69
363.882	100.69
364.109	86.69
364.335	92.69
364.562	92.69
364.788	96.69
365.015	92.69
365.241	83.69
365.468	84.69
365.694	86.69
365.92	83.69
366.147	95.69
366.373	81.69
366.599	99.69
366.826	96.69
367.052	97.69
367.278	101.69
367.505	97.69
367.731	92.69
367.957	94.69
368.184	93.69
368.41	87.69
368.636	78.69
368.862	95.69
369.089	98.69
369.315	86.69
369.541	101.69
369.767	90.69
369.993	110.69
370.219	85.69
370.445	103.69
370.672	94.69
370.898	96.69
371.124	102.69
371.35	85.69
371.576	99.69
371.802	106.69
372.028	93.69
372.254	85.69
372.48	101.69
372.706	104.69
372.932	95.69
373.158	101.69
373.384	95.69
373.61	87.69
373.835	99.69
374.061	103.69
374.287	107.69
374.513	109.69
374.739	103.69
374.965	108.69
375.191	89.69
375.416	97.69
375.642	95.69
375.868	91.69
376.094	89.69
376.319	98.69
376.545	100.69
376.771	86.69
376.997	94.69
377.222	100.69
377.448	100.69
377.674	91.69
377.899	96.69
378.125	109.69
378.35	105.69
378.576	116.69
378.802	101.69
379.027	96.69
379.253	106.69
379.478	98.69
379.704	100.69
379.929	98.69
380.155	96.69
380.38	97.69
380.606	99.69
380.831	109.69
381.057	102.69
381.282	90.69
381.507	108.69
381.733	91.69
381.958	94.69
382.184	103.69
382.409	103.69
382.634	125.69
382.86	102.69
383.085	98.69
383.31	107.69
383.535	102.69
383.761	89.69
383.986	101.69
384.211	112.69
384.436	93.69
384.662	106.69
384.887	90.69
385.112	87.69
385.337	110.69
385.562	117.69
385.787	103.69
386.013	118.69
386.238	105.69
386.463	110.69
386.688	95.69
386.913	116.69
387.138	108.69
387.363	107.69
387.588	120.69
387.813	92.69
388.038	105.69
388.263	105.69
388.488	98.69
388.713	112.69
388.938	100.69
389.163	111.69
389.387	106.69
389.612	109.69
389.837	91.69
390.062	111.69
390.287	106.69
390.512	101.69
390.736	122.69
390.961	116.69
391.186	104.69
391.411	116.69
391.636	105.69
391.86	99.69
392.085	108.69
392.31	110.69
392.534	94.69
392.759	104.69
392.984	104.69
393.208	107.69
393.433	110.69
393.658	94.69
393.882	110.69
394.107	108.69
394.331	129.69
394.556	96.69
394.78	102.69
395.005	109.69
395.229	121.69
395.454	102.69
395.678	112.69
395.903	121.69
396.127	128.69
396.352	114.69
396.576	120.69
396.801	115.69
397.025	121.69
397.249	113.69
397.474	128.69
397.698	116.69
397.922	102.69
398.147	100.69
398.371	119.69
398.595	126.69
398.82	118.69
399.044	130.69
399.268	118.69
399.492	116.69
399.717	130.69
399.941	110.69
400.165	113.69
400.389	130.69
400.613	114.69
400.837	128.69
401.062	117.69
401.286	121.69
401.51	126.69
401.734	117.69
401.958	106.69
402.182	106.69
402.406	114.69
402.63	119.69
402.854	109.69
403.078	116.69
403.302	109.69
403.526	129.69
403.75	109.69
403.974	112.69
404.198	113.69
404.422	130.69
404.645	115.69
404.869	127.69
405.093	113.69
405.317	131.69
405.541	126.69
405.765	127.69
405.988	140.69
406.212	126.69
406.436	130.69
406.66	145.69
406.883	126.69
407.107	129.69
407.331	128.69
407.555	122.69
407.778	128.69
408.002	141.69
408.226	123.69
408.449	119.69
408.673	129.69
408.896	128.69
409.12	112.69
409.344	134.69
409.567	111.69
409.791	122.69
410.014	118.69
410.238	133.69
410.461	135.69
410.685	123.69
410.908	123.69
411.132	117.69
411.355	125.69
411.578	120.69
411.802	124.69
412.025	120.69
412.249	130.69
412.472	124.69
412.695	123.69
412.919	114.69
413.142	132.69
413.365	121.69
413.589	125.69
413.812	125.69
414.035	124.69
414.258	136.69
414.482	135.69
414.705	122.69
414.928	124.69
415.151	124.69
415.374	132.69
415.597	137.69
415.821	122.69
416.044	122.69
416.267	142.69
416.49	142.69
416.713	144.69
416.936	130.69
417.159	132.69
417.382	126.69
417.605	120.69
417.828	139.69
418.051	140.69
418.274	145.69
418.497	139.69
418.72	133.69
418.943	144.69
419.166	133.69
419.389	129.69
419.611	138.69
419.834	125.69
420.057	115.69
420.28	146.69
420.503	144.69
420.726	136.69
420.948	117.69
421.171	142.69
421.394	132.69
421.617	136.69
421.839	158.69
422.062	155.69
422.285	150.69
422.507	143.69
422.73	136.69
422.953	146.69
423.175	119.69
423.398	136.69
423.621	130.69
423.843	131.69
424.066	138.69
424.288	148.69
424.511	156.69
424.733	150.69
424.956	160.69
425.178	138.69
425.401	151.69
425.623	136.69
425.846	140.69
426.068	133.69
426.291	136.69
426.513	149.69
426.735	132.69
426.958	148.69
427.18	132.69
427.402	124.69
427.625	134.69
427.847	141.69
428.069	134.69
428.292	134.69
428.514	135.69
428.736	120.69
428.958	124.69
429.181	138.69
429.403	118.69
429.625	145.69
429.847	123.69
430.069	148.69
430.292	158.69
430.514	148.69
430.736	137.69
430.958	138.69
431.18	134.69
431.402	126.69
431.624	101.69
431.846	126.69
432.068	111.69
432.29	102.69
432.512	114.69
432.734	132.69
432.956	142.69
433.178	153.69
433.4	144.69
433.622	151.69
433.844	140.69
434.066	140.69
434.287	114.69
434.509	102.69
434.731	117.69
434.953	124.69
435.175	123.69
435.397	130.69
435.618	129.69
435.84	117.69
436.062	122.69
436.284	142.69
436.505	136.69
436.727	136.69
436.949	126.69
437.17	134.69
437.392	134.69
437.614	120.69
437.835	118.69
438.057	133.69
438.278	133.69
438.5	135.69
438.721	140.69
438.943	146.69
439.165	154.69
439.386	139.69
439.608	147.69
439.829	154.69
440.05	159.69
440.272	144.69
440.493	163.69
440.715	150.69
440.936	152.69
441.158	145.69
441.379	147.69
441.6	154.69
441.822	152.69
442.043	141.69
442.264	154.69
442.486	144.69
442.707	155.69
442.928	137.69
443.149	145.69
443.371	140.69
443.592	144.69
443.813	159.69
444.034	120.69
444.255	136.69
444.476	142.69
444.698	152.69
444.919	150.69
445.14	283.69
445.361	213.69
445.582	168.69
445.803	151.69
446.024	149.69
446.245	149.69
446.466	156.69
446.687	160.69
446.908	160.69
447.129	151.69
447.35	162.69
447.571	160.69
447.792	150.69
448.013	153.69
448.234	150.69
448.455	160.69
448.675	132.69
448.896	142.69
449.117	152.69
449.338	153.69
449.559	145.69
449.779	159.69
450	136.69
450.221	145.69
450.442	130.69
450.662	152.69
450.883	141.69
451.104	134.69
451.324	144.69
451.545	144.69
451.766	130.69
451.986	124.69
452.207	141.69
452.428	164.69
452.648	128.69
452.869	111.69
453.089	128.69
453.31	113.69
453.53	101.69
453.751	108.69
453.971	121.69
454.192	116.69
454.412	140.69
454.633	122.69
454.853	118.69
455.073	130.69
455.294	141.69
455.514	126.69
455.734	139.69
455.955	132.69
456.175	123.69
456.395	113.69
456.616	119.69
456.836	111.69
457.056	120.69
457.276	123.69
457.497	116.69
457.717	124.69
457.937	122.69
458.157	103.69
458.377	98.69
458.598	94.69
458.818	102.69
459.038	94.69
459.258	77.69
459.478	96.69
459.698	104.69
459.918	110.69
460.138	113.69
460.358	115.69
460.578	107.69
460.798	134.69
461.018	128.69
461.238	120.69
461.458	126.69
461.678	122.69
461.898	111.69
462.118	125.69
462.338	118.69
462.558	123.69
462.777	120.69
462.997	107.69
463.217	107.69
463.437	117.69
463.657	106.69
463.876	109.69
464.096	125.69
464.316	125.69
464.536	116.69
464.755	119.69
464.975	118.69
465.195	124.69
465.414	110.69
465.634	114.69
465.854	114.69
466.073	120.69
466.293	126.69
466.512	130.69
466.732	149.69
466.951	133.69
467.171	164.69
467.391	148.69
467.61	143.69
467.829	137.69
468.049	138.69
468.268	147.69
468.488	142.69
468.707	141.69
468.927	146.69
469.146	150.69
469.365	150.69
469.585	146.69
469.804	153.69
470.023	153.69
470.243	147.69
470.462	126.69
470.681	152.69
470.901	164.69
471.12	157.69
471.339	148.69
471.558	149.69
471.777	140.69
471.997	142.69
472.216	127.69
472.435	112.69
472.654	120.69
472.873	122.69
473.092	131.69
473.311	120.69
473.53	132.69
473.749	134.69
473.968	133.69
474.187	131.69
474.406	126.69
474.625	134.69
474.844	139.69
475.063	129.69
475.282	134.69
475.501	126.69
475.72	135.69
475.939	133.69
476.158	121.69
476.377	134.69
476.596	123.69
476.814	128.69
477.033	120.69
477.252	125.69
477.471	131.69
477.69	138.69
477.908	161.69
478.127	158.69
478.346	151.69
478.564	146.69
478.783	127.69
479.002	146.69
479.22	129.69
479.439	128.69
479.658	123.69
479.876	118.69
480.095	127.69
480.313	116.69
480.532	111.69
480.751	125.69
480.969	90.69
481.188	105.69
481.406	82.69
481.624	100.69
481.843	85.69
482.061	94.69
482.28	103.69
482.498	130.69
482.717	113.69
482.935	131.69
483.153	148.69
483.372	161.69
483.59	158.69
483.808	154.69
484.027	128.69
484.245	132.69
484.463	159.69
484.681	169.69
484.9	170.69
485.118	137.69
485.336	134.69
485.554	124.69
485.772	121.69
485.99	116.69
486.209	133.69
486.427	120.69
486.645	132.69
486.863	161.69
487.081	152.69
487.299	152.69
487.517	154.69
487.735	174.69
487.953	183.69
488.171	197.69
488.389	177.69
488.607	172.69
488.825	154.69
489.043	130.69
489.261	133.69
489.479	132.69
489.696	134.69
489.914	152.69
490.132	151.69
490.35	160.69
490.568	159.69
490.786	181.69
491.003	198.69
491.221	183.69
491.439	198.69
491.657	199.69
491.874	219.69
492.092	240.69
492.31	258.69
492.527	242.69
492.745	223.69
492.963	199.69
493.18	207.69
493.398	190.69
493.615	180.69
493.833	187.69
494.05	182.69
494.268	180.69
494.485	185.69
494.703	181.69
494.92	188.69
495.138	182.69
495.355	180.69
495.573	175.69
495.79	158.69
496.008	172.69
496.225	170.69
496.442	180.69
496.66	181.69
496.877	172.69
497.094	161.69
497.312	171.69
497.529	166.69
497.746	164.69
497.963	150.69
498.181	139.69
498.398	130.69
498.615	126.69
498.832	125.69
499.049	121.69
499.267	136.69
499.484	130.69
499.701	146.69
499.918	144.69
500.135	140.69
500.352	139.69
500.569	144.69
500.786	145.69
501.003	160.69
501.22	146.69
501.437	145.69
501.654	150.69
501.871	133.69
502.088	152.69
502.305	143.69
502.522	136.69
502.739	134.69
502.956	144.69
503.172	136.69
503.389	140.69
503.606	129.69
503.823	118.69
504.04	136.69
504.256	124.69
504.473	137.69
504.69	135.69
504.907	138.69
505.123	144.69
505.34	134.69
505.557	126.69
505.773	133.69
505.99	129.69
506.207	124.69
506.423	136.69
506.64	127.69
506.856	124.69
507.073	133.69
507.289	135.69
507.506	120.69
507.722	116.69
507.939	139.69
508.155	126.69
508.372	116.69
508.588	111.69
508.805	113.69
509.021	112.69
509.238	122.69
509.454	105.69
509.67	116.69
509.887	98.69
510.103	106.69
510.319	92.69
510.536	107.69
