Data from Location6.07152019.Energy5.Lamp.07192019.3%Agarose_HRD10591_16-13-35-395.txt Node
Date: Fri Jul 19 16:13:35 EDT 2019
User: cochatt
Spectrometer: HR+D1059
Trigger mode: 1
Integration Time (sec): 1.000000E-1
Scans to average: 1
Electric dark correction enabled: true
Nonlinearity correction enabled: false
Boxcar width: 0
XAxis mode: Wavelengths
Number of Pixels in Spectrum: 2048
>>>>>Begin Spectral Data<<<<<
223.165	-16.56
223.4	-16.56
223.635	-16.56
223.869	-17.56
224.104	-17.56
224.338	-13.56
224.573	-11.56
224.808	-19.56
225.042	-16.56
225.277	-7.56
225.511	8.44
225.746	10.44
225.98	3.44
226.215	7.44
226.449	21.44
226.683	26.44
226.918	19.44
227.152	23.44
227.387	34.44
227.621	30.44
227.856	54.44
228.09	43.44
228.324	56.44
228.559	49.44
228.793	52.44
229.027	55.44
229.262	66.44
229.496	67.44
229.73	69.44
229.964	76.44
230.199	61.44
230.433	81.44
230.667	85.44
230.901	84.44
231.136	85.44
231.37	82.44
231.604	100.44
231.838	75.44
232.072	71.44
232.306	91.44
232.541	87.44
232.775	62.44
233.009	78.44
233.243	80.44
233.477	85.44
233.711	96.44
233.945	80.44
234.179	82.44
234.413	76.44
234.647	77.44
234.881	85.44
235.115	93.44
235.349	86.44
235.583	90.44
235.817	81.44
236.051	95.44
236.285	64.44
236.519	90.44
236.753	83.44
236.987	77.44
237.221	69.44
237.455	75.44
237.689	79.44
237.922	70.44
238.156	72.44
238.39	91.44
238.624	67.44
238.858	75.44
239.091	82.44
239.325	81.44
239.559	84.44
239.793	83.44
240.027	78.44
240.26	68.44
240.494	82.44
240.728	83.44
240.961	91.44
241.195	86.44
241.429	82.44
241.662	78.44
241.896	78.44
242.13	81.44
242.363	68.44
242.597	81.44
242.83	76.44
243.064	90.44
243.298	65.44
243.531	65.44
243.765	78.44
243.998	71.44
244.232	76.44
244.465	68.44
244.699	76.44
244.932	59.44
245.166	85.44
245.399	82.44
245.633	86.44
245.866	89.44
246.099	83.44
246.333	69.44
246.566	94.44
246.8	84.44
247.033	81.44
247.266	69.44
247.5	75.44
247.733	68.44
247.966	74.44
248.2	74.44
248.433	93.44
248.666	76.44
248.899	76.44
249.133	60.44
249.366	80.44
249.599	89.44
249.832	80.44
250.066	67.44
250.299	85.44
250.532	83.44
250.765	62.44
250.998	79.44
251.231	73.44
251.465	79.44
251.698	69.44
251.931	86.44
252.164	79.44
252.397	72.44
252.63	74.44
252.863	68.44
253.096	89.44
253.329	71.44
253.562	87.44
253.795	89.44
254.028	100.44
254.261	87.44
254.494	91.44
254.727	79.44
254.96	78.44
255.193	95.44
255.426	76.44
255.659	85.44
255.892	78.44
256.124	80.44
256.357	83.44
256.59	91.44
256.823	81.44
257.056	78.44
257.289	66.44
257.521	72.44
257.754	74.44
257.987	74.44
258.22	82.44
258.452	76.44
258.685	82.44
258.918	77.44
259.151	82.44
259.383	83.44
259.616	59.44
259.849	84.44
260.081	76.44
260.314	90.44
260.547	99.44
260.779	83.44
261.012	97.44
261.244	82.44
261.477	101.44
261.71	87.44
261.942	96.44
262.175	77.44
262.407	67.44
262.64	73.44
262.872	94.44
263.105	77.44
263.337	92.44
263.57	81.44
263.802	81.44
264.035	86.44
264.267	92.44
264.499	72.44
264.732	83.44
264.964	87.44
265.197	87.44
265.429	84.44
265.661	80.44
265.894	72.44
266.126	89.44
266.358	77.44
266.591	78.44
266.823	86.44
267.055	103.44
267.287	80.44
267.52	86.44
267.752	89.44
267.984	77.44
268.216	85.44
268.448	79.44
268.681	77.44
268.913	75.44
269.145	92.44
269.377	100.44
269.609	91.44
269.841	89.44
270.073	82.44
270.306	82.44
270.538	77.44
270.77	85.44
271.002	87.44
271.234	101.44
271.466	71.44
271.698	74.44
271.93	87.44
272.162	82.44
272.394	97.44
272.626	86.44
272.858	94.44
273.09	80.44
273.322	84.44
273.553	86.44
273.785	89.44
274.017	93.44
274.249	83.44
274.481	85.44
274.713	81.44
274.945	97.44
275.176	84.44
275.408	82.44
275.64	98.44
275.872	97.44
276.104	98.44
276.335	92.44
276.567	85.44
276.799	86.44
277.031	79.44
277.262	94.44
277.494	85.44
277.726	84.44
277.957	93.44
278.189	70.44
278.421	80.44
278.652	78.44
278.884	77.44
279.115	80.44
279.347	101.44
279.579	78.44
279.81	95.44
280.042	88.44
280.273	71.44
280.505	87.44
280.736	87.44
280.968	84.44
281.199	90.44
281.431	104.44
281.662	83.44
281.894	88.44
282.125	79.44
282.356	74.44
282.588	92.44
282.819	92.44
283.051	85.44
283.282	84.44
283.513	81.44
283.745	72.44
283.976	77.44
284.207	83.44
284.439	90.44
284.67	81.44
284.901	78.44
285.132	78.44
285.364	98.44
285.595	89.44
285.826	85.44
286.057	80.44
286.288	88.44
286.52	90.44
286.751	104.44
286.982	88.44
287.213	94.44
287.444	89.44
287.675	79.44
287.906	78.44
288.138	96.44
288.369	99.44
288.6	92.44
288.831	84.44
289.062	95.44
289.293	83.44
289.524	73.44
289.755	96.44
289.986	91.44
290.217	80.44
290.448	92.44
290.679	85.44
290.91	94.44
291.141	94.44
291.371	85.44
291.602	88.44
291.833	85.44
292.064	82.44
292.295	100.44
292.526	79.44
292.757	86.44
292.987	84.44
293.218	86.44
293.449	90.44
293.68	83.44
293.91	75.44
294.141	72.44
294.372	83.44
294.603	82.44
294.833	89.44
295.064	84.44
295.295	80.44
295.525	88.44
295.756	86.44
295.987	98.44
296.217	87.44
296.448	101.44
296.679	98.44
296.909	79.44
297.14	93.44
297.37	91.44
297.601	79.44
297.831	96.44
298.062	91.44
298.292	89.44
298.523	75.44
298.753	89.44
298.984	88.44
299.214	80.44
299.445	75.44
299.675	90.44
299.905	98.44
300.136	90.44
300.366	70.44
300.597	95.44
300.827	84.44
301.057	95.44
301.288	84.44
301.518	89.44
301.748	89.44
301.979	79.44
302.209	94.44
302.439	99.44
302.669	89.44
302.9	92.44
303.13	99.44
303.36	78.44
303.59	87.44
303.82	85.44
304.051	92.44
304.281	74.44
304.511	92.44
304.741	79.44
304.971	78.44
305.201	104.44
305.431	95.44
305.661	84.44
305.891	73.44
306.121	82.44
306.352	79.44
306.582	88.44
306.812	95.44
307.042	80.44
307.272	78.44
307.502	71.44
307.731	86.44
307.961	89.44
308.191	89.44
308.421	83.44
308.651	68.44
308.881	84.44
309.111	83.44
309.341	79.44
309.571	86.44
309.8	86.44
310.03	73.44
310.26	90.44
310.49	83.44
310.72	89.44
310.949	82.44
311.179	102.44
311.409	79.44
311.639	89.44
311.868	103.44
312.098	91.44
312.328	85.44
312.557	88.44
312.787	80.44
313.017	102.44
313.246	94.44
313.476	102.44
313.706	96.44
313.935	100.44
314.165	80.44
314.394	92.44
314.624	82.44
314.853	75.44
315.083	86.44
315.312	91.44
315.542	68.44
315.771	76.44
316.001	94.44
316.23	102.44
316.46	81.44
316.689	95.44
316.919	89.44
317.148	93.44
317.377	86.44
317.607	91.44
317.836	102.44
318.065	83.44
318.295	87.44
318.524	103.44
318.753	93.44
318.983	89.44
319.212	76.44
319.441	94.44
319.67	89.44
319.9	104.44
320.129	87.44
320.358	83.44
320.587	90.44
320.816	88.44
321.046	94.44
321.275	75.44
321.504	95.44
321.733	91.44
321.962	84.44
322.191	97.44
322.42	86.44
322.649	94.44
322.878	84.44
323.108	74.44
323.337	93.44
323.566	79.44
323.795	91.44
324.024	79.44
324.253	94.44
324.482	93.44
324.71	67.44
324.939	91.44
325.168	87.44
325.397	94.44
325.626	93.44
325.855	68.44
326.084	80.44
326.313	77.44
326.542	82.44
326.77	91.44
326.999	81.44
327.228	84.44
327.457	80.44
327.686	91.44
327.914	82.44
328.143	91.44
328.372	90.44
328.6	96.44
328.829	87.44
329.058	95.44
329.287	87.44
329.515	85.44
329.744	77.44
329.972	85.44
330.201	95.44
330.43	84.44
330.658	98.44
330.887	86.44
331.115	78.44
331.344	89.44
331.572	98.44
331.801	97.44
332.03	85.44
332.258	85.44
332.486	109.44
332.715	88.44
332.943	85.44
333.172	84.44
333.4	78.44
333.629	91.44
333.857	104.44
334.085	90.44
334.314	79.44
334.542	83.44
334.771	89.44
334.999	85.44
335.227	82.44
335.455	75.44
335.684	82.44
335.912	81.44
336.14	76.44
336.369	80.44
336.597	98.44
336.825	102.44
337.053	82.44
337.281	87.44
337.51	92.44
337.738	93.44
337.966	89.44
338.194	87.44
338.422	97.44
338.65	106.44
338.878	91.44
339.106	87.44
339.334	85.44
339.562	92.44
339.79	92.44
340.018	101.44
340.246	83.44
340.474	74.44
340.702	84.44
340.93	86.44
341.158	89.44
341.386	77.44
341.614	93.44
341.842	89.44
342.07	91.44
342.298	79.44
342.526	76.44
342.754	98.44
342.981	81.44
343.209	76.44
343.437	73.44
343.665	91.44
343.893	97.44
344.12	97.44
344.348	68.44
344.576	86.44
344.804	78.44
345.031	93.44
345.259	77.44
345.487	85.44
345.714	86.44
345.942	88.44
346.17	77.44
346.397	90.44
346.625	88.44
346.853	81.44
347.08	86.44
347.308	75.44
347.535	98.44
347.763	105.44
347.99	88.44
348.218	85.44
348.445	85.44
348.673	80.44
348.9	81.44
349.128	83.44
349.355	95.44
349.583	86.44
349.81	81.44
350.037	79.44
350.265	86.44
350.492	97.44
350.72	85.44
350.947	94.44
351.174	88.44
351.402	103.44
351.629	89.44
351.856	91.44
352.083	80.44
352.311	80.44
352.538	102.44
352.765	90.44
352.992	91.44
353.22	91.44
353.447	100.44
353.674	103.44
353.901	95.44
354.128	111.44
354.355	102.44
354.583	78.44
354.81	87.44
355.037	77.44
355.264	78.44
355.491	80.44
355.718	93.44
355.945	81.44
356.172	85.44
356.399	90.44
356.626	82.44
356.853	99.44
357.08	106.44
357.307	88.44
357.534	91.44
357.761	75.44
357.988	92.44
358.215	87.44
358.441	90.44
358.668	74.44
358.895	74.44
359.122	74.44
359.349	87.44
359.576	81.44
359.802	82.44
360.029	86.44
360.256	91.44
360.483	83.44
360.709	92.44
360.936	85.44
361.163	93.44
361.39	84.44
361.616	86.44
361.843	89.44
362.07	86.44
362.296	74.44
362.523	92.44
362.749	81.44
362.976	80.44
363.203	88.44
363.429	82.44
363.656	68.44
363.882	84.44
364.109	98.44
364.335	74.44
364.562	79.44
364.788	81.44
365.015	88.44
365.241	74.44
365.468	98.44
365.694	91.44
365.92	78.44
366.147	78.44
366.373	78.44
366.599	84.44
366.826	92.44
367.052	80.44
367.278	92.44
367.505	88.44
367.731	102.44
367.957	83.44
368.184	98.44
368.41	90.44
368.636	84.44
368.862	91.44
369.089	92.44
369.315	84.44
369.541	83.44
369.767	90.44
369.993	101.44
370.219	109.44
370.445	95.44
370.672	83.44
370.898	105.44
371.124	89.44
371.35	81.44
371.576	85.44
371.802	99.44
372.028	105.44
372.254	107.44
372.48	97.44
372.706	109.44
372.932	71.44
373.158	93.44
373.384	81.44
373.61	93.44
373.835	99.44
374.061	92.44
374.287	101.44
374.513	99.44
374.739	101.44
374.965	106.44
375.191	99.44
375.416	99.44
375.642	108.44
375.868	108.44
376.094	98.44
376.319	98.44
376.545	100.44
376.771	97.44
376.997	85.44
377.222	99.44
377.448	105.44
377.674	83.44
377.899	85.44
378.125	86.44
378.35	107.44
378.576	100.44
378.802	97.44
379.027	100.44
379.253	97.44
379.478	96.44
379.704	100.44
379.929	90.44
380.155	107.44
380.38	98.44
380.606	109.44
380.831	113.44
381.057	105.44
381.282	87.44
381.507	109.44
381.733	108.44
381.958	86.44
382.184	92.44
382.409	108.44
382.634	108.44
382.86	106.44
383.085	109.44
383.31	94.44
383.535	101.44
383.761	91.44
383.986	96.44
384.211	101.44
384.436	83.44
384.662	102.44
384.887	98.44
385.112	105.44
385.337	117.44
385.562	108.44
385.787	95.44
386.013	101.44
386.238	106.44
386.463	107.44
386.688	109.44
386.913	101.44
387.138	113.44
387.363	93.44
387.588	113.44
387.813	115.44
388.038	98.44
388.263	107.44
388.488	103.44
388.713	95.44
388.938	109.44
389.163	114.44
389.387	122.44
389.612	102.44
389.837	110.44
390.062	121.44
390.287	110.44
390.512	113.44
390.736	109.44
390.961	125.44
391.186	111.44
391.411	100.44
391.636	109.44
391.86	109.44
392.085	118.44
392.31	110.44
392.534	107.44
392.759	117.44
392.984	106.44
393.208	129.44
393.433	120.44
393.658	112.44
393.882	118.44
394.107	104.44
394.331	108.44
394.556	113.44
394.78	121.44
395.005	104.44
395.229	106.44
395.454	93.44
395.678	122.44
395.903	110.44
396.127	108.44
396.352	111.44
396.576	112.44
396.801	109.44
397.025	124.44
397.249	102.44
397.474	91.44
397.698	99.44
397.922	100.44
398.147	122.44
398.371	125.44
398.595	120.44
398.82	112.44
399.044	113.44
399.268	118.44
399.492	107.44
399.717	111.44
399.941	117.44
400.165	102.44
400.389	125.44
400.613	103.44
400.837	119.44
401.062	117.44
401.286	108.44
401.51	111.44
401.734	126.44
401.958	119.44
402.182	95.44
402.406	113.44
402.63	107.44
402.854	124.44
403.078	124.44
403.302	121.44
403.526	117.44
403.75	118.44
403.974	118.44
404.198	124.44
404.422	121.44
404.645	127.44
404.869	116.44
405.093	127.44
405.317	133.44
405.541	129.44
405.765	135.44
405.988	135.44
406.212	131.44
406.436	111.44
406.66	117.44
406.883	141.44
407.107	117.44
407.331	120.44
407.555	129.44
407.778	117.44
408.002	107.44
408.226	129.44
408.449	135.44
408.673	124.44
408.896	125.44
409.12	126.44
409.344	129.44
409.567	143.44
409.791	117.44
410.014	138.44
410.238	133.44
410.461	129.44
410.685	126.44
410.908	115.44
411.132	125.44
411.355	130.44
411.578	114.44
411.802	138.44
412.025	124.44
412.249	124.44
412.472	123.44
412.695	126.44
412.919	119.44
413.142	121.44
413.365	125.44
413.589	130.44
413.812	142.44
414.035	129.44
414.258	123.44
414.482	118.44
414.705	119.44
414.928	124.44
415.151	129.44
415.374	134.44
415.597	138.44
415.821	139.44
416.044	126.44
416.267	127.44
416.49	126.44
416.713	135.44
416.936	143.44
417.159	129.44
417.382	121.44
417.605	123.44
417.828	127.44
418.051	127.44
418.274	145.44
418.497	128.44
418.72	137.44
418.943	148.44
419.166	139.44
419.389	141.44
419.611	142.44
419.834	148.44
420.057	148.44
420.28	146.44
420.503	125.44
420.726	144.44
420.948	144.44
421.171	126.44
421.394	141.44
421.617	143.44
421.839	158.44
422.062	147.44
422.285	129.44
422.507	136.44
422.73	148.44
422.953	118.44
423.175	128.44
423.398	144.44
423.621	140.44
423.843	147.44
424.066	155.44
424.288	139.44
424.511	156.44
424.733	174.44
424.956	146.44
425.178	138.44
425.401	153.44
425.623	140.44
425.846	127.44
426.068	137.44
426.291	132.44
426.513	137.44
426.735	116.44
426.958	139.44
427.18	133.44
427.402	126.44
427.625	130.44
427.847	138.44
428.069	118.44
428.292	139.44
428.514	133.44
428.736	141.44
428.958	143.44
429.181	149.44
429.403	129.44
429.625	133.44
429.847	148.44
430.069	138.44
430.292	134.44
430.514	130.44
430.736	139.44
430.958	143.44
431.18	140.44
431.402	134.44
431.624	117.44
431.846	111.44
432.068	94.44
432.29	114.44
432.512	123.44
432.734	117.44
432.956	139.44
433.178	141.44
433.4	173.44
433.622	138.44
433.844	123.44
434.066	142.44
434.287	114.44
434.509	93.44
434.731	106.44
434.953	116.44
435.175	118.44
435.397	136.44
435.618	115.44
435.84	108.44
436.062	123.44
436.284	123.44
436.505	141.44
436.727	119.44
436.949	139.44
437.17	129.44
437.392	129.44
437.614	111.44
437.835	115.44
438.057	117.44
438.278	121.44
438.5	117.44
438.721	132.44
438.943	128.44
439.165	156.44
439.386	151.44
439.608	150.44
439.829	139.44
440.05	150.44
440.272	160.44
440.493	156.44
440.715	148.44
440.936	140.44
441.158	154.44
441.379	171.44
441.6	167.44
441.822	153.44
442.043	139.44
442.264	153.44
442.486	141.44
442.707	145.44
442.928	150.44
443.149	147.44
443.371	155.44
443.592	141.44
443.813	150.44
444.034	147.44
444.255	154.44
444.476	141.44
444.698	149.44
444.919	151.44
445.14	287.44
445.361	213.44
445.582	171.44
445.803	165.44
446.024	166.44
446.245	168.44
446.466	178.44
446.687	165.44
446.908	170.44
447.129	177.44
447.35	147.44
447.571	167.44
447.792	164.44
448.013	149.44
448.234	153.44
448.455	136.44
448.675	147.44
448.896	168.44
449.117	169.44
449.338	142.44
449.559	149.44
449.779	147.44
450	132.44
450.221	149.44
450.442	145.44
450.662	144.44
450.883	143.44
451.104	144.44
451.324	126.44
451.545	133.44
451.766	140.44
451.986	128.44
452.207	143.44
452.428	131.44
452.648	129.44
452.869	130.44
453.089	130.44
453.31	105.44
453.53	107.44
453.751	94.44
453.971	100.44
454.192	107.44
454.412	104.44
454.633	121.44
454.853	120.44
455.073	122.44
455.294	133.44
455.514	124.44
455.734	129.44
455.955	121.44
456.175	111.44
456.395	121.44
456.616	129.44
456.836	113.44
457.056	110.44
457.276	94.44
457.497	106.44
457.717	98.44
457.937	118.44
458.157	107.44
458.377	109.44
458.598	95.44
458.818	88.44
459.038	105.44
459.258	84.44
459.478	76.44
459.698	92.44
459.918	97.44
460.138	118.44
460.358	129.44
460.578	124.44
460.798	134.44
461.018	116.44
461.238	106.44
461.458	125.44
461.678	123.44
461.898	119.44
462.118	113.44
462.338	118.44
462.558	125.44
462.777	125.44
462.997	118.44
463.217	110.44
463.437	121.44
463.657	125.44
463.876	120.44
464.096	135.44
464.316	97.44
464.536	107.44
464.755	117.44
464.975	117.44
465.195	131.44
465.414	129.44
465.634	117.44
465.854	136.44
466.073	134.44
466.293	139.44
466.512	127.44
466.732	121.44
466.951	131.44
467.171	124.44
467.391	134.44
467.61	148.44
467.829	148.44
468.049	142.44
468.268	146.44
468.488	142.44
468.707	141.44
468.927	155.44
469.146	153.44
469.365	154.44
469.585	143.44
469.804	150.44
470.023	147.44
470.243	143.44
470.462	140.44
470.681	142.44
470.901	146.44
471.12	145.44
471.339	144.44
471.558	161.44
471.777	133.44
471.997	147.44
472.216	148.44
472.435	125.44
472.654	96.44
472.873	117.44
473.092	110.44
473.311	131.44
473.53	132.44
473.749	143.44
473.968	134.44
474.187	129.44
474.406	123.44
474.625	122.44
474.844	149.44
475.063	146.44
475.282	122.44
475.501	121.44
475.72	121.44
475.939	124.44
476.158	132.44
476.377	125.44
476.596	124.44
476.814	103.44
477.033	123.44
477.252	119.44
477.471	126.44
477.69	143.44
477.908	154.44
478.127	140.44
478.346	146.44
478.564	142.44
478.783	145.44
479.002	142.44
479.22	123.44
479.439	141.44
479.658	139.44
479.876	128.44
480.095	118.44
480.313	120.44
480.532	123.44
480.751	110.44
480.969	97.44
481.188	92.44
481.406	93.44
481.624	88.44
481.843	97.44
482.061	107.44
482.28	122.44
482.498	119.44
482.717	119.44
482.935	118.44
483.153	149.44
483.372	150.44
483.59	163.44
483.808	157.44
484.027	144.44
484.245	133.44
484.463	154.44
484.681	165.44
484.9	169.44
485.118	157.44
485.336	139.44
485.554	123.44
485.772	98.44
485.99	114.44
486.209	126.44
486.427	110.44
486.645	129.44
486.863	145.44
487.081	140.44
487.299	145.44
487.517	137.44
487.735	177.44
487.953	198.44
488.171	193.44
488.389	179.44
488.607	182.44
488.825	137.44
489.043	145.44
489.261	122.44
489.479	160.44
489.696	162.44
489.914	150.44
490.132	160.44
490.35	157.44
490.568	179.44
490.786	196.44
491.003	182.44
491.221	187.44
491.439	190.44
491.657	204.44
491.874	223.44
492.092	220.44
492.31	268.44
492.527	237.44
492.745	237.44
492.963	214.44
493.18	182.44
493.398	196.44
493.615	194.44
493.833	174.44
494.05	190.44
494.268	177.44
494.485	190.44
494.703	191.44
494.92	193.44
495.138	178.44
495.355	186.44
495.573	176.44
495.79	161.44
496.008	173.44
496.225	184.44
496.442	177.44
496.66	185.44
496.877	170.44
497.094	169.44
497.312	162.44
497.529	156.44
497.746	151.44
497.963	137.44
498.181	138.44
498.398	141.44
498.615	125.44
498.832	120.44
499.049	116.44
499.267	150.44
499.484	136.44
499.701	129.44
499.918	137.44
500.135	147.44
500.352	126.44
500.569	142.44
500.786	165.44
501.003	137.44
501.22	166.44
501.437	130.44
501.654	135.44
501.871	151.44
502.088	136.44
502.305	142.44
502.522	131.44
502.739	142.44
502.956	129.44
503.172	114.44
503.389	121.44
503.606	142.44
503.823	129.44
504.04	123.44
504.256	117.44
504.473	136.44
504.69	135.44
504.907	133.44
505.123	132.44
505.34	134.44
505.557	137.44
505.773	124.44
505.99	129.44
506.207	117.44
506.423	102.44
506.64	111.44
506.856	114.44
507.073	109.44
507.289	137.44
507.506	125.44
507.722	120.44
507.939	117.44
508.155	120.44
508.372	119.44
508.588	114.44
508.805	93.44
509.021	126.44
509.238	117.44
509.454	110.44
509.67	95.44
509.887	106.44
510.103	100.44
510.319	95.44
510.536	97.44
510.752	90.44
