Data from Location6.07152019.Energy5.Lamp.07192019.3%Agarose_HRD10591_16-12-05-395.txt Node
Date: Fri Jul 19 16:12:05 EDT 2019
User: cochatt
Spectrometer: HR+D1059
Trigger mode: 1
Integration Time (sec): 1.000000E-1
Scans to average: 1
Electric dark correction enabled: true
Nonlinearity correction enabled: false
Boxcar width: 0
XAxis mode: Wavelengths
Number of Pixels in Spectrum: 2048
>>>>>Begin Spectral Data<<<<<
223.165	-7.56
223.4	-7.56
223.635	-7.56
223.869	-17.56
224.104	-8.56
224.338	-7.56
224.573	-5.56
224.808	-24.56
225.042	6.44
225.277	0.44
225.511	-21.56
225.746	8.44
225.98	-0.56
226.215	-2.56
226.449	23.44
226.683	13.44
226.918	19.44
227.152	24.44
227.387	27.44
227.621	48.44
227.856	58.44
228.09	55.44
228.324	57.44
228.559	62.44
228.793	56.44
229.027	61.44
229.262	59.44
229.496	69.44
229.73	74.44
229.964	79.44
230.199	83.44
230.433	80.44
230.667	73.44
230.901	75.44
231.136	87.44
231.37	72.44
231.604	80.44
231.838	88.44
232.072	86.44
232.306	85.44
232.541	79.44
232.775	93.44
233.009	86.44
233.243	88.44
233.477	80.44
233.711	80.44
233.945	93.44
234.179	84.44
234.413	89.44
234.647	84.44
234.881	79.44
235.115	83.44
235.349	87.44
235.583	70.44
235.817	70.44
236.051	78.44
236.285	85.44
236.519	81.44
236.753	81.44
236.987	88.44
237.221	89.44
237.455	66.44
237.689	86.44
237.922	83.44
238.156	76.44
238.39	70.44
238.624	84.44
238.858	85.44
239.091	75.44
239.325	70.44
239.559	78.44
239.793	65.44
240.027	78.44
240.26	73.44
240.494	84.44
240.728	81.44
240.961	73.44
241.195	85.44
241.429	84.44
241.662	69.44
241.896	78.44
242.13	86.44
242.363	62.44
242.597	79.44
242.83	93.44
243.064	73.44
243.298	81.44
243.531	88.44
243.765	83.44
243.998	80.44
244.232	79.44
244.465	70.44
244.699	72.44
244.932	77.44
245.166	82.44
245.399	88.44
245.633	74.44
245.866	88.44
246.099	85.44
246.333	91.44
246.566	83.44
246.8	92.44
247.033	79.44
247.266	78.44
247.5	67.44
247.733	82.44
247.966	61.44
248.2	76.44
248.433	69.44
248.666	81.44
248.899	97.44
249.133	80.44
249.366	83.44
249.599	103.44
249.832	77.44
250.066	89.44
250.299	80.44
250.532	81.44
250.765	84.44
250.998	82.44
251.231	89.44
251.465	95.44
251.698	63.44
251.931	74.44
252.164	88.44
252.397	75.44
252.63	79.44
252.863	75.44
253.096	75.44
253.329	81.44
253.562	83.44
253.795	81.44
254.028	79.44
254.261	86.44
254.494	97.44
254.727	71.44
254.96	84.44
255.193	70.44
255.426	103.44
255.659	84.44
255.892	93.44
256.124	90.44
256.357	83.44
256.59	75.44
256.823	89.44
257.056	80.44
257.289	86.44
257.521	77.44
257.754	82.44
257.987	89.44
258.22	98.44
258.452	78.44
258.685	86.44
258.918	83.44
259.151	82.44
259.383	88.44
259.616	79.44
259.849	83.44
260.081	94.44
260.314	88.44
260.547	81.44
260.779	84.44
261.012	75.44
261.244	80.44
261.477	107.44
261.71	86.44
261.942	76.44
262.175	88.44
262.407	86.44
262.64	87.44
262.872	78.44
263.105	77.44
263.337	97.44
263.57	90.44
263.802	92.44
264.035	96.44
264.267	95.44
264.499	80.44
264.732	87.44
264.964	89.44
265.197	75.44
265.429	87.44
265.661	88.44
265.894	91.44
266.126	92.44
266.358	87.44
266.591	84.44
266.823	92.44
267.055	98.44
267.287	72.44
267.52	80.44
267.752	71.44
267.984	79.44
268.216	80.44
268.448	95.44
268.681	88.44
268.913	82.44
269.145	93.44
269.377	78.44
269.609	86.44
269.841	85.44
270.073	90.44
270.306	97.44
270.538	95.44
270.77	89.44
271.002	80.44
271.234	74.44
271.466	100.44
271.698	95.44
271.93	83.44
272.162	87.44
272.394	86.44
272.626	74.44
272.858	91.44
273.09	86.44
273.322	93.44
273.553	76.44
273.785	89.44
274.017	83.44
274.249	89.44
274.481	86.44
274.713	90.44
274.945	74.44
275.176	80.44
275.408	83.44
275.64	93.44
275.872	83.44
276.104	78.44
276.335	67.44
276.567	87.44
276.799	72.44
277.031	88.44
277.262	81.44
277.494	84.44
277.726	86.44
277.957	94.44
278.189	89.44
278.421	94.44
278.652	93.44
278.884	94.44
279.115	74.44
279.347	95.44
279.579	86.44
279.81	85.44
280.042	97.44
280.273	74.44
280.505	84.44
280.736	84.44
280.968	85.44
281.199	95.44
281.431	100.44
281.662	68.44
281.894	80.44
282.125	85.44
282.356	84.44
282.588	79.44
282.819	82.44
283.051	90.44
283.282	98.44
283.513	87.44
283.745	95.44
283.976	82.44
284.207	79.44
284.439	87.44
284.67	99.44
284.901	97.44
285.132	80.44
285.364	86.44
285.595	94.44
285.826	84.44
286.057	69.44
286.288	92.44
286.52	88.44
286.751	90.44
286.982	77.44
287.213	82.44
287.444	86.44
287.675	88.44
287.906	87.44
288.138	88.44
288.369	69.44
288.6	88.44
288.831	82.44
289.062	91.44
289.293	83.44
289.524	111.44
289.755	96.44
289.986	95.44
290.217	90.44
290.448	84.44
290.679	79.44
290.91	91.44
291.141	93.44
291.371	84.44
291.602	82.44
291.833	90.44
292.064	85.44
292.295	80.44
292.526	85.44
292.757	87.44
292.987	80.44
293.218	86.44
293.449	91.44
293.68	103.44
293.91	94.44
294.141	92.44
294.372	75.44
294.603	88.44
294.833	82.44
295.064	96.44
295.295	86.44
295.525	87.44
295.756	88.44
295.987	93.44
296.217	87.44
296.448	88.44
296.679	87.44
296.909	76.44
297.14	84.44
297.37	99.44
297.601	88.44
297.831	88.44
298.062	105.44
298.292	85.44
298.523	85.44
298.753	95.44
298.984	96.44
299.214	96.44
299.445	91.44
299.675	99.44
299.905	80.44
300.136	84.44
300.366	91.44
300.597	88.44
300.827	93.44
301.057	93.44
301.288	85.44
301.518	78.44
301.748	70.44
301.979	91.44
302.209	91.44
302.439	76.44
302.669	93.44
302.9	99.44
303.13	83.44
303.36	100.44
303.59	82.44
303.82	86.44
304.051	80.44
304.281	85.44
304.511	90.44
304.741	91.44
304.971	83.44
305.201	85.44
305.431	95.44
305.661	93.44
305.891	86.44
306.121	89.44
306.352	89.44
306.582	79.44
306.812	80.44
307.042	79.44
307.272	81.44
307.502	85.44
307.731	90.44
307.961	81.44
308.191	78.44
308.421	88.44
308.651	98.44
308.881	91.44
309.111	84.44
309.341	79.44
309.571	80.44
309.8	86.44
310.03	88.44
310.26	98.44
310.49	87.44
310.72	86.44
310.949	83.44
311.179	97.44
311.409	86.44
311.639	80.44
311.868	80.44
312.098	97.44
312.328	79.44
312.557	87.44
312.787	85.44
313.017	77.44
313.246	97.44
313.476	76.44
313.706	86.44
313.935	94.44
314.165	90.44
314.394	92.44
314.624	88.44
314.853	93.44
315.083	87.44
315.312	93.44
315.542	91.44
315.771	90.44
316.001	81.44
316.23	100.44
316.46	83.44
316.689	91.44
316.919	86.44
317.148	97.44
317.377	90.44
317.607	84.44
317.836	82.44
318.065	79.44
318.295	86.44
318.524	96.44
318.753	82.44
318.983	78.44
319.212	88.44
319.441	90.44
319.67	85.44
319.9	86.44
320.129	80.44
320.358	97.44
320.587	86.44
320.816	81.44
321.046	89.44
321.275	101.44
321.504	93.44
321.733	87.44
321.962	93.44
322.191	83.44
322.42	96.44
322.649	92.44
322.878	73.44
323.108	87.44
323.337	89.44
323.566	92.44
323.795	87.44
324.024	87.44
324.253	94.44
324.482	84.44
324.71	97.44
324.939	88.44
325.168	83.44
325.397	85.44
325.626	105.44
325.855	77.44
326.084	101.44
326.313	99.44
326.542	77.44
326.77	79.44
326.999	78.44
327.228	84.44
327.457	86.44
327.686	80.44
327.914	88.44
328.143	85.44
328.372	93.44
328.6	93.44
328.829	90.44
329.058	88.44
329.287	86.44
329.515	77.44
329.744	96.44
329.972	93.44
330.201	97.44
330.43	78.44
330.658	77.44
330.887	71.44
331.115	94.44
331.344	84.44
331.572	95.44
331.801	74.44
332.03	90.44
332.258	74.44
332.486	90.44
332.715	98.44
332.943	85.44
333.172	85.44
333.4	83.44
333.629	103.44
333.857	96.44
334.085	92.44
334.314	75.44
334.542	95.44
334.771	90.44
334.999	91.44
335.227	97.44
335.455	78.44
335.684	98.44
335.912	84.44
336.14	87.44
336.369	73.44
336.597	83.44
336.825	101.44
337.053	91.44
337.281	94.44
337.51	78.44
337.738	85.44
337.966	91.44
338.194	83.44
338.422	84.44
338.65	89.44
338.878	92.44
339.106	85.44
339.334	96.44
339.562	100.44
339.79	93.44
340.018	82.44
340.246	96.44
340.474	95.44
340.702	88.44
340.93	84.44
341.158	89.44
341.386	89.44
341.614	99.44
341.842	88.44
342.07	92.44
342.298	88.44
342.526	85.44
342.754	93.44
342.981	90.44
343.209	101.44
343.437	88.44
343.665	99.44
343.893	85.44
344.12	96.44
344.348	83.44
344.576	91.44
344.804	78.44
345.031	74.44
345.259	80.44
345.487	84.44
345.714	81.44
345.942	93.44
346.17	81.44
346.397	89.44
346.625	89.44
346.853	90.44
347.08	90.44
347.308	84.44
347.535	91.44
347.763	90.44
347.99	93.44
348.218	94.44
348.445	91.44
348.673	87.44
348.9	86.44
349.128	87.44
349.355	102.44
349.583	84.44
349.81	91.44
350.037	84.44
350.265	73.44
350.492	75.44
350.72	90.44
350.947	91.44
351.174	102.44
351.402	92.44
351.629	89.44
351.856	87.44
352.083	68.44
352.311	86.44
352.538	104.44
352.765	89.44
352.992	91.44
353.22	80.44
353.447	81.44
353.674	94.44
353.901	77.44
354.128	91.44
354.355	88.44
354.583	92.44
354.81	94.44
355.037	84.44
355.264	88.44
355.491	86.44
355.718	83.44
355.945	87.44
356.172	79.44
356.399	87.44
356.626	79.44
356.853	83.44
357.08	79.44
357.307	99.44
357.534	86.44
357.761	78.44
357.988	82.44
358.215	91.44
358.441	100.44
358.668	84.44
358.895	101.44
359.122	83.44
359.349	70.44
359.576	87.44
359.802	86.44
360.029	86.44
360.256	83.44
360.483	85.44
360.709	70.44
360.936	94.44
361.163	92.44
361.39	80.44
361.616	87.44
361.843	77.44
362.07	78.44
362.296	83.44
362.523	98.44
362.749	87.44
362.976	73.44
363.203	91.44
363.429	85.44
363.656	95.44
363.882	101.44
364.109	94.44
364.335	77.44
364.562	84.44
364.788	88.44
365.015	98.44
365.241	78.44
365.468	86.44
365.694	85.44
365.92	90.44
366.147	95.44
366.373	87.44
366.599	93.44
366.826	92.44
367.052	100.44
367.278	95.44
367.505	84.44
367.731	82.44
367.957	94.44
368.184	81.44
368.41	84.44
368.636	89.44
368.862	95.44
369.089	84.44
369.315	99.44
369.541	93.44
369.767	88.44
369.993	87.44
370.219	85.44
370.445	87.44
370.672	100.44
370.898	90.44
371.124	95.44
371.35	87.44
371.576	89.44
371.802	88.44
372.028	85.44
372.254	91.44
372.48	93.44
372.706	85.44
372.932	103.44
373.158	100.44
373.384	102.44
373.61	97.44
373.835	90.44
374.061	91.44
374.287	105.44
374.513	109.44
374.739	95.44
374.965	91.44
375.191	87.44
375.416	99.44
375.642	92.44
375.868	108.44
376.094	96.44
376.319	95.44
376.545	102.44
376.771	88.44
376.997	87.44
377.222	103.44
377.448	101.44
377.674	103.44
377.899	100.44
378.125	98.44
378.35	96.44
378.576	92.44
378.802	88.44
379.027	99.44
379.253	99.44
379.478	99.44
379.704	109.44
379.929	91.44
380.155	87.44
380.38	95.44
380.606	80.44
380.831	101.44
381.057	116.44
381.282	100.44
381.507	101.44
381.733	112.44
381.958	92.44
382.184	95.44
382.409	101.44
382.634	91.44
382.86	99.44
383.085	107.44
383.31	94.44
383.535	102.44
383.761	111.44
383.986	91.44
384.211	95.44
384.436	105.44
384.662	102.44
384.887	105.44
385.112	94.44
385.337	112.44
385.562	104.44
385.787	103.44
386.013	99.44
386.238	108.44
386.463	97.44
386.688	114.44
386.913	103.44
387.138	111.44
387.363	115.44
387.588	114.44
387.813	110.44
388.038	97.44
388.263	102.44
388.488	98.44
388.713	100.44
388.938	102.44
389.163	105.44
389.387	100.44
389.612	100.44
389.837	104.44
390.062	104.44
390.287	113.44
390.512	111.44
390.736	120.44
390.961	117.44
391.186	118.44
391.411	103.44
391.636	97.44
391.86	110.44
392.085	92.44
392.31	99.44
392.534	114.44
392.759	120.44
392.984	100.44
393.208	108.44
393.433	114.44
393.658	120.44
393.882	119.44
394.107	109.44
394.331	95.44
394.556	102.44
394.78	121.44
395.005	116.44
395.229	104.44
395.454	100.44
395.678	116.44
395.903	105.44
396.127	115.44
396.352	115.44
396.576	120.44
396.801	105.44
397.025	95.44
397.249	106.44
397.474	104.44
397.698	105.44
397.922	124.44
398.147	117.44
398.371	118.44
398.595	106.44
398.82	117.44
399.044	128.44
399.268	119.44
399.492	109.44
399.717	116.44
399.941	126.44
400.165	126.44
400.389	127.44
400.613	104.44
400.837	108.44
401.062	108.44
401.286	108.44
401.51	110.44
401.734	124.44
401.958	125.44
402.182	112.44
402.406	97.44
402.63	104.44
402.854	125.44
403.078	122.44
403.302	103.44
403.526	120.44
403.75	109.44
403.974	107.44
404.198	117.44
404.422	128.44
404.645	121.44
404.869	126.44
405.093	124.44
405.317	127.44
405.541	114.44
405.765	122.44
405.988	124.44
406.212	133.44
406.436	132.44
406.66	134.44
406.883	123.44
407.107	130.44
407.331	124.44
407.555	117.44
407.778	120.44
408.002	126.44
408.226	108.44
408.449	122.44
408.673	122.44
408.896	130.44
409.12	111.44
409.344	128.44
409.567	126.44
409.791	115.44
410.014	123.44
410.238	130.44
410.461	135.44
410.685	137.44
410.908	135.44
411.132	135.44
411.355	132.44
411.578	134.44
411.802	121.44
412.025	119.44
412.249	125.44
412.472	116.44
412.695	138.44
412.919	120.44
413.142	129.44
413.365	121.44
413.589	116.44
413.812	118.44
414.035	107.44
414.258	126.44
414.482	122.44
414.705	123.44
414.928	127.44
415.151	126.44
415.374	119.44
415.597	122.44
415.821	122.44
416.044	128.44
416.267	124.44
416.49	126.44
416.713	130.44
416.936	126.44
417.159	130.44
417.382	123.44
417.605	129.44
417.828	128.44
418.051	143.44
418.274	148.44
418.497	134.44
418.72	142.44
418.943	141.44
419.166	134.44
419.389	139.44
419.611	132.44
419.834	136.44
420.057	136.44
420.28	136.44
420.503	128.44
420.726	138.44
420.948	133.44
421.171	144.44
421.394	150.44
421.617	138.44
421.839	136.44
422.062	142.44
422.285	145.44
422.507	139.44
422.73	142.44
422.953	136.44
423.175	143.44
423.398	139.44
423.621	131.44
423.843	154.44
424.066	152.44
424.288	155.44
424.511	142.44
424.733	146.44
424.956	146.44
425.178	150.44
425.401	141.44
425.623	154.44
425.846	147.44
426.068	158.44
426.291	143.44
426.513	128.44
426.735	131.44
426.958	146.44
427.18	132.44
427.402	140.44
427.625	128.44
427.847	134.44
428.069	138.44
428.292	136.44
428.514	142.44
428.736	137.44
428.958	125.44
429.181	146.44
429.403	132.44
429.625	149.44
429.847	123.44
430.069	142.44
430.292	143.44
430.514	137.44
430.736	132.44
430.958	136.44
431.18	142.44
431.402	126.44
431.624	116.44
431.846	114.44
432.068	99.44
432.29	106.44
432.512	112.44
432.734	133.44
432.956	132.44
433.178	130.44
433.4	151.44
433.622	145.44
433.844	136.44
434.066	122.44
434.287	103.44
434.509	110.44
434.731	122.44
434.953	126.44
435.175	120.44
435.397	136.44
435.618	124.44
435.84	111.44
436.062	114.44
436.284	129.44
436.505	137.44
436.727	147.44
436.949	134.44
437.17	143.44
437.392	135.44
437.614	132.44
437.835	138.44
438.057	97.44
438.278	122.44
438.5	115.44
438.721	130.44
438.943	154.44
439.165	131.44
439.386	154.44
439.608	142.44
439.829	163.44
440.05	135.44
440.272	158.44
440.493	146.44
440.715	151.44
440.936	142.44
441.158	146.44
441.379	153.44
441.6	156.44
441.822	152.44
442.043	162.44
442.264	143.44
442.486	148.44
442.707	143.44
442.928	137.44
443.149	132.44
443.371	144.44
443.592	152.44
443.813	145.44
444.034	160.44
444.255	136.44
444.476	144.44
444.698	143.44
444.919	143.44
445.14	287.44
445.361	200.44
445.582	150.44
445.803	162.44
446.024	147.44
446.245	158.44
446.466	163.44
446.687	162.44
446.908	175.44
447.129	157.44
447.35	162.44
447.571	159.44
447.792	160.44
448.013	154.44
448.234	149.44
448.455	155.44
448.675	151.44
448.896	153.44
449.117	145.44
449.338	126.44
449.559	153.44
449.779	138.44
450	150.44
450.221	137.44
450.442	139.44
450.662	143.44
450.883	143.44
451.104	155.44
451.324	138.44
451.545	127.44
451.766	152.44
451.986	122.44
452.207	134.44
452.428	131.44
452.648	149.44
452.869	136.44
453.089	122.44
453.31	128.44
453.53	116.44
453.751	118.44
453.971	123.44
454.192	108.44
454.412	122.44
454.633	133.44
454.853	120.44
455.073	133.44
455.294	117.44
455.514	117.44
455.734	115.44
455.955	115.44
456.175	115.44
456.395	107.44
456.616	122.44
456.836	122.44
457.056	120.44
457.276	125.44
457.497	109.44
457.717	124.44
457.937	104.44
458.157	108.44
458.377	116.44
458.598	94.44
458.818	102.44
459.038	82.44
459.258	84.44
459.478	103.44
459.698	107.44
459.918	111.44
460.138	103.44
460.358	131.44
460.578	126.44
460.798	128.44
461.018	121.44
461.238	122.44
461.458	126.44
461.678	127.44
461.898	122.44
462.118	109.44
462.338	129.44
462.558	127.44
462.777	120.44
462.997	106.44
463.217	117.44
463.437	125.44
463.657	119.44
463.876	106.44
464.096	106.44
464.316	114.44
464.536	91.44
464.755	108.44
464.975	120.44
465.195	132.44
465.414	124.44
465.634	119.44
465.854	99.44
466.073	122.44
466.293	134.44
466.512	141.44
466.732	145.44
466.951	128.44
467.171	128.44
467.391	133.44
467.61	145.44
467.829	154.44
468.049	145.44
468.268	142.44
468.488	140.44
468.707	155.44
468.927	141.44
469.146	149.44
469.365	157.44
469.585	146.44
469.804	165.44
470.023	156.44
470.243	146.44
470.462	148.44
470.681	144.44
470.901	138.44
471.12	154.44
471.339	160.44
471.558	151.44
471.777	150.44
471.997	138.44
472.216	131.44
472.435	115.44
472.654	128.44
472.873	120.44
473.092	127.44
473.311	131.44
473.53	126.44
473.749	129.44
473.968	155.44
474.187	130.44
474.406	126.44
474.625	137.44
474.844	149.44
475.063	141.44
475.282	129.44
475.501	130.44
475.72	136.44
475.939	142.44
476.158	135.44
476.377	147.44
476.596	142.44
476.814	106.44
477.033	112.44
477.252	115.44
477.471	118.44
477.69	134.44
477.908	142.44
478.127	154.44
478.346	147.44
478.564	139.44
478.783	150.44
479.002	139.44
479.22	138.44
479.439	139.44
479.658	120.44
479.876	125.44
480.095	103.44
480.313	130.44
480.532	126.44
480.751	116.44
480.969	101.44
481.188	106.44
481.406	103.44
481.624	97.44
481.843	103.44
482.061	106.44
482.28	106.44
482.498	129.44
482.717	124.44
482.935	134.44
483.153	146.44
483.372	170.44
483.59	137.44
483.808	135.44
484.027	136.44
484.245	132.44
484.463	145.44
484.681	164.44
484.9	162.44
485.118	159.44
485.336	136.44
485.554	128.44
485.772	124.44
485.99	97.44
486.209	105.44
486.427	110.44
486.645	123.44
486.863	142.44
487.081	154.44
487.299	137.44
487.517	162.44
487.735	170.44
487.953	175.44
488.171	199.44
488.389	179.44
488.607	168.44
488.825	158.44
489.043	137.44
489.261	146.44
489.479	148.44
489.696	144.44
489.914	137.44
490.132	139.44
490.35	166.44
490.568	168.44
490.786	179.44
491.003	194.44
491.221	194.44
491.439	198.44
491.657	203.44
491.874	222.44
492.092	259.44
492.31	262.44
492.527	252.44
492.745	217.44
492.963	204.44
493.18	193.44
493.398	197.44
493.615	183.44
493.833	186.44
494.05	185.44
494.268	174.44
494.485	202.44
494.703	203.44
494.92	185.44
495.138	185.44
495.355	183.44
495.573	188.44
495.79	179.44
496.008	185.44
496.225	170.44
496.442	195.44
496.66	185.44
496.877	166.44
497.094	188.44
497.312	164.44
497.529	174.44
497.746	168.44
497.963	150.44
498.181	136.44
498.398	119.44
498.615	134.44
498.832	128.44
499.049	122.44
499.267	127.44
499.484	134.44
499.701	140.44
499.918	153.44
500.135	147.44
500.352	151.44
500.569	159.44
500.786	160.44
501.003	160.44
501.22	144.44
501.437	150.44
501.654	154.44
501.871	158.44
502.088	147.44
502.305	138.44
502.522	139.44
502.739	134.44
502.956	141.44
503.172	127.44
503.389	126.44
503.606	118.44
503.823	118.44
504.04	124.44
504.256	127.44
504.473	122.44
504.69	117.44
504.907	130.44
505.123	126.44
505.34	132.44
505.557	125.44
505.773	128.44
505.99	122.44
506.207	126.44
506.423	117.44
506.64	140.44
506.856	134.44
507.073	134.44
507.289	123.44
507.506	140.44
507.722	125.44
507.939	126.44
508.155	137.44
508.372	116.44
508.588	121.44
508.805	123.44
509.021	120.44
509.238	133.44
509.454	99.44
509.67	98.44
509.887	105.44
510.103	85.44
510.319	92.44
510.536	81.44
510.752	85.44
510.968	103.44
