Data from Location6.07152019.Energy5.Lamp.07192019.3%Agarose_HRD10591_16-12-01-396.txt Node
Date: Fri Jul 19 16:12:01 EDT 2019
User: cochatt
Spectrometer: HR+D1059
Trigger mode: 1
Integration Time (sec): 1.000000E-1
Scans to average: 1
Electric dark correction enabled: true
Nonlinearity correction enabled: false
Boxcar width: 0
XAxis mode: Wavelengths
Number of Pixels in Spectrum: 2048
>>>>>Begin Spectral Data<<<<<
223.165	-16
223.4	-16
223.635	-16
223.869	-12
224.104	-22
224.338	-17
224.573	-16
224.808	-17
225.042	-10
225.277	-20
225.511	-3
225.746	11
225.98	11
226.215	27
226.449	27
226.683	13
226.918	20
227.152	24
227.387	30
227.621	47
227.856	43
228.09	49
228.324	60
228.559	59
228.793	71
229.027	71
229.262	78
229.496	72
229.73	74
229.964	63
230.199	75
230.433	77
230.667	80
230.901	82
231.136	89
231.37	80
231.604	79
231.838	87
232.072	95
232.306	80
232.541	72
232.775	83
233.009	80
233.243	84
233.477	87
233.711	76
233.945	70
234.179	81
234.413	88
234.647	86
234.881	90
235.115	81
235.349	93
235.583	93
235.817	81
236.051	88
236.285	79
236.519	79
236.753	93
236.987	80
237.221	75
237.455	81
237.689	85
237.922	74
238.156	70
238.39	81
238.624	85
238.858	72
239.091	77
239.325	73
239.559	67
239.793	95
240.027	87
240.26	78
240.494	82
240.728	88
240.961	86
241.195	90
241.429	84
241.662	75
241.896	82
242.13	93
242.363	68
242.597	64
242.83	86
243.064	73
243.298	78
243.531	81
243.765	86
243.998	79
244.232	79
244.465	76
244.699	76
244.932	87
245.166	77
245.399	87
245.633	81
245.866	80
246.099	75
246.333	87
246.566	81
246.8	82
247.033	76
247.266	81
247.5	80
247.733	74
247.966	83
248.2	80
248.433	85
248.666	80
248.899	83
249.133	87
249.366	94
249.599	97
249.832	92
250.066	91
250.299	77
250.532	85
250.765	82
250.998	71
251.231	76
251.465	92
251.698	88
251.931	87
252.164	85
252.397	69
252.63	98
252.863	87
253.096	78
253.329	103
253.562	87
253.795	85
254.028	86
254.261	97
254.494	92
254.727	84
254.96	79
255.193	85
255.426	93
255.659	86
255.892	93
256.124	93
256.357	89
256.59	77
256.823	75
257.056	73
257.289	72
257.521	91
257.754	76
257.987	99
258.22	96
258.452	81
258.685	87
258.918	75
259.151	81
259.383	80
259.616	81
259.849	79
260.081	72
260.314	91
260.547	88
260.779	73
261.012	79
261.244	77
261.477	81
261.71	66
261.942	75
262.175	86
262.407	98
262.64	81
262.872	93
263.105	88
263.337	89
263.57	91
263.802	92
264.035	74
264.267	81
264.499	95
264.732	88
264.964	84
265.197	83
265.429	91
265.661	93
265.894	78
266.126	97
266.358	85
266.591	93
266.823	89
267.055	93
267.287	77
267.52	86
267.752	86
267.984	91
268.216	93
268.448	72
268.681	78
268.913	85
269.145	86
269.377	71
269.609	75
269.841	92
270.073	86
270.306	76
270.538	86
270.77	88
271.002	86
271.234	87
271.466	92
271.698	97
271.93	99
272.162	87
272.394	93
272.626	76
272.858	78
273.09	74
273.322	91
273.553	102
273.785	89
274.017	88
274.249	103
274.481	87
274.713	81
274.945	102
275.176	78
275.408	91
275.64	78
275.872	86
276.104	95
276.335	73
276.567	82
276.799	75
277.031	93
277.262	95
277.494	94
277.726	89
277.957	87
278.189	87
278.421	99
278.652	85
278.884	87
279.115	97
279.347	81
279.579	94
279.81	84
280.042	81
280.273	85
280.505	76
280.736	92
280.968	98
281.199	94
281.431	85
281.662	85
281.894	87
282.125	76
282.356	92
282.588	87
282.819	98
283.051	77
283.282	84
283.513	97
283.745	101
283.976	89
284.207	97
284.439	84
284.67	87
284.901	81
285.132	70
285.364	80
285.595	86
285.826	81
286.057	101
286.288	81
286.52	83
286.751	83
286.982	85
287.213	78
287.444	91
287.675	91
287.906	86
288.138	103
288.369	91
288.6	94
288.831	94
289.062	92
289.293	103
289.524	82
289.755	78
289.986	90
290.217	106
290.448	103
290.679	101
290.91	102
291.141	89
291.371	80
291.602	95
291.833	84
292.064	82
292.295	85
292.526	88
292.757	78
292.987	86
293.218	84
293.449	93
293.68	88
293.91	89
294.141	86
294.372	90
294.603	87
294.833	85
295.064	81
295.295	97
295.525	91
295.756	84
295.987	89
296.217	82
296.448	87
296.679	99
296.909	90
297.14	98
297.37	91
297.601	92
297.831	91
298.062	89
298.292	87
298.523	92
298.753	84
298.984	100
299.214	90
299.445	94
299.675	89
299.905	96
300.136	88
300.366	86
300.597	81
300.827	91
301.057	93
301.288	103
301.518	98
301.748	94
301.979	81
302.209	91
302.439	80
302.669	83
302.9	87
303.13	92
303.36	86
303.59	80
303.82	93
304.051	87
304.281	78
304.511	88
304.741	80
304.971	99
305.201	91
305.431	84
305.661	92
305.891	83
306.121	86
306.352	97
306.582	92
306.812	68
307.042	79
307.272	76
307.502	102
307.731	87
307.961	99
308.191	114
308.421	86
308.651	91
308.881	83
309.111	85
309.341	76
309.571	92
309.8	93
310.03	94
310.26	88
310.49	89
310.72	96
310.949	91
311.179	73
311.409	80
311.639	92
311.868	76
312.098	92
312.328	90
312.557	80
312.787	89
313.017	106
313.246	90
313.476	84
313.706	84
313.935	91
314.165	80
314.394	91
314.624	86
314.853	86
315.083	85
315.312	92
315.542	89
315.771	109
316.001	96
316.23	75
316.46	79
316.689	80
316.919	94
317.148	82
317.377	93
317.607	83
317.836	90
318.065	90
318.295	97
318.524	93
318.753	102
318.983	95
319.212	91
319.441	86
319.67	89
319.9	80
320.129	76
320.358	84
320.587	83
320.816	81
321.046	98
321.275	100
321.504	96
321.733	97
321.962	108
322.191	85
322.42	81
322.649	91
322.878	91
323.108	87
323.337	93
323.566	92
323.795	75
324.024	80
324.253	87
324.482	97
324.71	96
324.939	96
325.168	91
325.397	85
325.626	97
325.855	78
326.084	103
326.313	97
326.542	93
326.77	89
326.999	88
327.228	86
327.457	76
327.686	88
327.914	84
328.143	93
328.372	84
328.6	95
328.829	93
329.058	102
329.287	90
329.515	92
329.744	89
329.972	85
330.201	95
330.43	97
330.658	81
330.887	81
331.115	95
331.344	99
331.572	87
331.801	96
332.03	80
332.258	77
332.486	77
332.715	102
332.943	77
333.172	91
333.4	94
333.629	95
333.857	94
334.085	95
334.314	102
334.542	81
334.771	103
334.999	83
335.227	88
335.455	100
335.684	95
335.912	91
336.14	75
336.369	95
336.597	91
336.825	81
337.053	91
337.281	92
337.51	95
337.738	89
337.966	74
338.194	93
338.422	85
338.65	82
338.878	87
339.106	101
339.334	99
339.562	94
339.79	93
340.018	99
340.246	104
340.474	87
340.702	80
340.93	91
341.158	77
341.386	84
341.614	101
341.842	93
342.07	85
342.298	85
342.526	79
342.754	89
342.981	94
343.209	104
343.437	116
343.665	85
343.893	101
344.12	86
344.348	80
344.576	101
344.804	106
345.031	89
345.259	94
345.487	114
345.714	100
345.942	84
346.17	92
346.397	108
346.625	84
346.853	93
347.08	81
347.308	93
347.535	92
347.763	95
347.99	88
348.218	85
348.445	87
348.673	96
348.9	91
349.128	109
349.355	93
349.583	84
349.81	80
350.037	103
350.265	75
350.492	80
350.72	94
350.947	83
351.174	74
351.402	96
351.629	91
351.856	89
352.083	93
352.311	101
352.538	88
352.765	93
352.992	85
353.22	89
353.447	86
353.674	72
353.901	79
354.128	79
354.355	84
354.583	87
354.81	84
355.037	89
355.264	92
355.491	93
355.718	103
355.945	79
356.172	94
356.399	79
356.626	86
356.853	76
357.08	81
357.307	97
357.534	84
357.761	94
357.988	96
358.215	88
358.441	94
358.668	93
358.895	110
359.122	88
359.349	95
359.576	79
359.802	90
360.029	94
360.256	103
360.483	94
360.709	94
360.936	95
361.163	93
361.39	83
361.616	105
361.843	92
362.07	99
362.296	100
362.523	97
362.749	80
362.976	84
363.203	99
363.429	88
363.656	90
363.882	88
364.109	86
364.335	102
364.562	89
364.788	81
365.015	81
365.241	84
365.468	104
365.694	92
365.92	84
366.147	100
366.373	73
366.599	74
366.826	95
367.052	82
367.278	95
367.505	101
367.731	103
367.957	77
368.184	90
368.41	100
368.636	92
368.862	80
369.089	87
369.315	92
369.541	109
369.767	80
369.993	100
370.219	94
370.445	81
370.672	92
370.898	104
371.124	98
371.35	108
371.576	84
371.802	104
372.028	99
372.254	109
372.48	92
372.706	120
372.932	106
373.158	103
373.384	105
373.61	87
373.835	89
374.061	96
374.287	91
374.513	114
374.739	100
374.965	87
375.191	107
375.416	82
375.642	103
375.868	113
376.094	103
376.319	109
376.545	106
376.771	92
376.997	95
377.222	102
377.448	104
377.674	108
377.899	101
378.125	94
378.35	106
378.576	95
378.802	97
379.027	102
379.253	99
379.478	121
379.704	105
379.929	97
380.155	111
380.38	82
380.606	102
380.831	108
381.057	105
381.282	92
381.507	96
381.733	104
381.958	118
382.184	103
382.409	117
382.634	94
382.86	100
383.085	116
383.31	99
383.535	94
383.761	107
383.986	121
384.211	102
384.436	98
384.662	104
384.887	99
385.112	124
385.337	102
385.562	89
385.787	116
386.013	115
386.238	112
386.463	112
386.688	107
386.913	121
387.138	106
387.363	109
387.588	113
387.813	96
388.038	105
388.263	107
388.488	100
388.713	109
388.938	106
389.163	101
389.387	102
389.612	119
389.837	109
390.062	106
390.287	122
390.512	99
390.736	110
390.961	115
391.186	116
391.411	102
391.636	99
391.86	108
392.085	127
392.31	101
392.534	120
392.759	110
392.984	109
393.208	115
393.433	119
393.658	116
393.882	114
394.107	120
394.331	104
394.556	114
394.78	110
395.005	123
395.229	120
395.454	117
395.678	113
395.903	131
396.127	117
396.352	117
396.576	108
396.801	123
397.025	95
397.249	112
397.474	103
397.698	122
397.922	133
398.147	127
398.371	119
398.595	128
398.82	119
399.044	109
399.268	127
399.492	114
399.717	115
399.941	116
400.165	108
400.389	106
400.613	117
400.837	116
401.062	139
401.286	128
401.51	126
401.734	129
401.958	148
402.182	107
402.406	129
402.63	118
402.854	122
403.078	118
403.302	108
403.526	117
403.75	119
403.974	134
404.198	123
404.422	130
404.645	135
404.869	129
405.093	140
405.317	131
405.541	129
405.765	135
405.988	125
406.212	128
406.436	125
406.66	128
406.883	133
407.107	129
407.331	139
407.555	142
407.778	137
408.002	126
408.226	120
408.449	112
408.673	131
408.896	122
409.12	138
409.344	124
409.567	128
409.791	121
410.014	133
410.238	137
410.461	128
410.685	146
410.908	123
411.132	119
411.355	132
411.578	132
411.802	122
412.025	102
412.249	125
412.472	126
412.695	120
412.919	143
413.142	131
413.365	135
413.589	133
413.812	122
414.035	143
414.258	133
414.482	127
414.705	135
414.928	124
415.151	125
415.374	126
415.597	132
415.821	127
416.044	127
416.267	123
416.49	134
416.713	138
416.936	137
417.159	132
417.382	143
417.605	108
417.828	142
418.051	142
418.274	145
418.497	128
418.72	148
418.943	152
419.166	135
419.389	152
419.611	145
419.834	145
420.057	143
420.28	129
420.503	152
420.726	136
420.948	125
421.171	135
421.394	142
421.617	152
421.839	163
422.062	146
422.285	141
422.507	135
422.73	143
422.953	137
423.175	136
423.398	144
423.621	135
423.843	142
424.066	141
424.288	158
424.511	160
424.733	167
424.956	161
425.178	150
425.401	157
425.623	138
425.846	138
426.068	148
426.291	142
426.513	139
426.735	149
426.958	154
427.18	145
427.402	127
427.625	138
427.847	146
428.069	128
428.292	144
428.514	155
428.736	148
428.958	143
429.181	127
429.403	130
429.625	135
429.847	138
430.069	138
430.292	128
430.514	135
430.736	138
430.958	152
431.18	143
431.402	141
431.624	124
431.846	110
432.068	115
432.29	103
432.512	122
432.734	127
432.956	136
433.178	133
433.4	143
433.622	156
433.844	135
434.066	129
434.287	118
434.509	109
434.731	113
434.953	124
435.175	123
435.397	128
435.618	128
435.84	125
436.062	125
436.284	130
436.505	146
436.727	131
436.949	151
437.17	135
437.392	153
437.614	129
437.835	122
438.057	118
438.278	124
438.5	136
438.721	143
438.943	131
439.165	141
439.386	151
439.608	141
439.829	139
440.05	156
440.272	149
440.493	150
440.715	153
440.936	144
441.158	151
441.379	151
441.6	155
441.822	156
442.043	136
442.264	143
442.486	168
442.707	156
442.928	151
443.149	141
443.371	134
443.592	155
443.813	157
444.034	155
444.255	153
444.476	143
444.698	156
444.919	150
445.14	286
445.361	207
445.582	165
445.803	166
446.024	151
446.245	164
446.466	154
446.687	171
446.908	175
447.129	184
447.35	165
447.571	179
447.792	152
448.013	155
448.234	156
448.455	158
448.675	153
448.896	150
449.117	165
449.338	133
449.559	153
449.779	133
450	140
450.221	147
450.442	149
450.662	144
450.883	153
451.104	152
451.324	150
451.545	140
451.766	151
451.986	127
452.207	143
452.428	142
452.648	128
452.869	117
453.089	127
453.31	122
453.53	124
453.751	116
453.971	114
454.192	112
454.412	108
454.633	125
454.853	111
455.073	125
455.294	126
455.514	131
455.734	122
455.955	127
456.175	131
456.395	121
456.616	113
456.836	108
457.056	117
457.276	110
457.497	113
457.717	119
457.937	123
458.157	116
458.377	121
458.598	99
458.818	105
459.038	115
459.258	87
459.478	94
459.698	83
459.918	107
460.138	115
460.358	129
460.578	127
460.798	120
461.018	109
461.238	141
461.458	116
461.678	129
461.898	122
462.118	121
462.338	135
462.558	121
462.777	132
462.997	106
463.217	109
463.437	113
463.657	111
463.876	111
464.096	128
464.316	113
464.536	109
464.755	132
464.975	135
465.195	132
465.414	127
465.634	122
465.854	117
466.073	125
466.293	135
466.512	134
466.732	152
466.951	158
467.171	149
467.391	134
467.61	145
467.829	150
468.049	147
468.268	135
468.488	142
468.707	144
468.927	140
469.146	141
469.365	161
469.585	145
469.804	156
470.023	148
470.243	156
470.462	140
470.681	156
470.901	152
471.12	162
471.339	156
471.558	146
471.777	141
471.997	147
472.216	122
472.435	131
472.654	110
472.873	127
473.092	117
473.311	135
473.53	138
473.749	134
473.968	132
474.187	139
474.406	121
474.625	141
474.844	151
475.063	135
475.282	135
475.501	128
475.72	121
475.939	141
476.158	139
476.377	124
476.596	134
476.814	111
477.033	120
477.252	119
477.471	149
477.69	142
477.908	144
478.127	146
478.346	138
478.564	153
478.783	143
479.002	156
479.22	165
479.439	152
479.658	116
479.876	115
480.095	112
480.313	117
480.532	127
480.751	108
480.969	100
481.188	102
481.406	93
481.624	93
481.843	105
482.061	109
482.28	111
482.498	109
482.717	121
482.935	129
483.153	143
483.372	164
483.59	177
483.808	152
484.027	144
484.245	148
484.463	141
484.681	176
484.9	162
485.118	152
485.336	129
485.554	112
485.772	108
485.99	116
486.209	128
486.427	121
486.645	140
486.863	151
487.081	133
487.299	160
487.517	158
487.735	179
487.953	200
488.171	208
488.389	188
488.607	171
488.825	163
489.043	132
489.261	148
489.479	139
489.696	143
489.914	136
490.132	159
490.35	156
490.568	171
490.786	165
491.003	177
491.221	195
491.439	207
491.657	207
491.874	209
492.092	252
492.31	268
492.527	248
492.745	228
492.963	207
493.18	195
493.398	197
493.615	184
493.833	194
494.05	181
494.268	189
494.485	192
494.703	191
494.92	182
495.138	192
495.355	193
495.573	197
495.79	179
496.008	186
496.225	197
496.442	186
496.66	175
496.877	163
497.094	171
497.312	182
497.529	186
497.746	168
497.963	153
498.181	148
498.398	132
498.615	156
498.832	126
499.049	131
499.267	131
499.484	131
499.701	136
499.918	137
500.135	138
500.352	161
500.569	150
500.786	165
501.003	148
501.22	149
501.437	143
501.654	145
501.871	152
502.088	134
502.305	147
502.522	147
502.739	135
502.956	131
503.172	129
503.389	128
503.606	125
503.823	141
504.04	127
504.256	132
504.473	131
504.69	139
504.907	129
505.123	136
505.34	119
505.557	127
505.773	135
505.99	133
506.207	129
506.423	130
506.64	133
506.856	135
507.073	120
507.289	129
507.506	127
507.722	127
507.939	132
508.155	115
508.372	108
508.588	119
508.805	107
509.021	120
509.238	115
509.454	126
509.67	116
509.887	106
510.103	105
510.319	100
510.536	96
510.752	69
510.968	94
511.184	83
511.401	74
511.617	93
511.833	104
512.049	99
512.265	102
512.481	109
512.698	99
512.914	92
513.13	94
513.346	104
513.562	89
513.778	94
513.994	92
514.21	100
514.426	101
514.642	86
514.858	76
515.074	92
515.29	101
515.506	93
515.721	95
515.937	109
516.153	100
516.369	88
516.585	98
516.801	86
517.016	104
517.232	85
517.448	113
517.664	110
517.879	100
518.095	95
518.311	119
518.527	85
518.742	100
518.958	113
519.173	113
519.389	99
519.605	102
519.82	124
520.036	112
520.251	119
520.467	109
520.682	111
520.898	109
521.113	101
521.329	92
521.544	100
521.76	101
521.975	98
522.19	106
522.406	109
522.621	122
522.836	117
523.052	102
523.267	108
523.482	126
523.698	104
523.913	115
524.128	119
524.343	126
524.559	132
524.774	123
524.989	134
525.204	122
525.419	117
525.634	111
525.849	115
526.064	110
526.28	107
526.495	103
526.71	103
526.925	99
527.14	93
527.355	92
527.57	90
527.785	102
527.999	80
528.214	126
528.429	119
528.644	141
528.859	137
529.074	161
529.289	165
529.503	175
529.718	145
529.933	124
530.148	99
530.363	107
530.577	94
530.792	93
531.007	89
531.221	99
531.436	88
531.651	82
531.865	87
532.08	91
532.295	104
532.509	95
532.724	100
532.938	91
533.153	104
533.367	112
533.582	123
533.796	125
534.011	117
534.225	95
534.44	103
534.654	90
534.868	94
535.083	114
535.297	112
535.511	100
535.726	111
535.94	113
536.154	100
536.369	80
536.583	89
536.797	99
537.011	96
537.225	107
537.44	99
537.654	109
537.868	96
538.082	101
538.296	95
538.51	99
538.724	119
538.938	120
539.153	136
539.367	120
539.581	115
539.795	102
540.009	107
540.222	107
540.436	97
540.65	116
540.864	141
541.078	154
541.292	159
541.506	171
541.72	201
541.934	192
542.147	207
542.361	196
542.575	179
542.789	159
543.002	145
543.216	153
543.43	123
543.644	131
543.857	151
544.071	179
544.285	166
544.498	174
544.712	170
544.925	170
545.139	173
545.352	173
545.566	184
545.779	169
545.993	179
546.206	190
546.42	181
546.633	196
546.847	168
547.06	149
547.274	177
547.487	198
547.7	183
547.914	185
548.127	182
548.34	169
548.554	167
548.767	164
548.98	169
549.193	160
549.407	166
549.62	159
549.833	151
550.046	171
550.259	164
550.473	167
550.686	174
550.899	146
551.112	152
551.325	156
551.538	152
551.751	151
551.964	123
552.177	128
552.39	151
552.603	169
552.816	156
553.029	158
553.242	173
553.455	165
553.667	175
553.88	162
554.093	145
554.306	172
554.519	165
554.732	160
554.944	157
555.157	151
555.37	163
555.583	152
555.795	123
556.008	143
556.221	156
556.433	152
556.646	151
556.859	152
557.071	147
557.284	157
557.496	154
557.709	158
557.921	144
558.134	146
558.346	159
558.559	146
558.771	155
558.984	157
559.196	135
559.409	147
559.621	143
559.833	129
560.046	124
560.258	154
560.47	144
560.683	133
560.895	135
561.107	129
561.32	157
561.532	139
561.744	129
561.956	125
562.168	124
562.381	148
562.593	140
562.805	132
563.017	149
563.229	110
563.441	131
563.653	104
563.865	131
564.077	130
564.289	141
564.501	126
564.713	122
564.925	134
565.137	126
565.349	140
565.561	125
565.773	140
565.985	129
566.197	127
566.408	130
566.62	127
566.832	121
567.044	143
567.255	131
567.467	136
567.679	112
567.891	126
568.102	109
568.314	101
568.526	88
568.737	90
568.949	94
569.161	91
569.372	98
569.584	89
569.795	89
570.007	92
570.218	83
570.43	77
570.641	100
570.853	108
571.064	112
571.276	115
571.487	121
571.698	109
571.91	112
572.121	102
572.333	116
572.544	93
572.755	94
572.966	111
573.178	92
573.389	85
573.6	91
573.811	92
574.023	95
574.234	103
574.445	104
574.656	92
