Data from Location6.07152019.Energy5.Lamp.07192019.3%Agarose_HRD10591_16-11-48-394.txt Node
Date: Fri Jul 19 16:11:48 EDT 2019
User: cochatt
Spectrometer: HR+D1059
Trigger mode: 1
Integration Time (sec): 1.000000E-1
Scans to average: 1
Electric dark correction enabled: true
Nonlinearity correction enabled: false
Boxcar width: 0
XAxis mode: Wavelengths
Number of Pixels in Spectrum: 2048
>>>>>Begin Spectral Data<<<<<
223.165	-25.5
223.4	-25.5
223.635	-25.5
223.869	-5.5
224.104	-17.5
224.338	-17.5
224.573	-8.5
224.808	-14.5
225.042	-11.5
225.277	3.5
225.511	-10.5
225.746	2.5
225.98	19.5
226.215	17.5
226.449	10.5
226.683	14.5
226.918	10.5
227.152	32.5
227.387	20.5
227.621	34.5
227.856	37.5
228.09	46.5
228.324	54.5
228.559	44.5
228.793	50.5
229.027	68.5
229.262	60.5
229.496	87.5
229.73	69.5
229.964	64.5
230.199	69.5
230.433	80.5
230.667	79.5
230.901	73.5
231.136	74.5
231.37	88.5
231.604	84.5
231.838	80.5
232.072	76.5
232.306	71.5
232.541	78.5
232.775	77.5
233.009	75.5
233.243	81.5
233.477	89.5
233.711	82.5
233.945	89.5
234.179	73.5
234.413	70.5
234.647	78.5
234.881	78.5
235.115	69.5
235.349	74.5
235.583	80.5
235.817	78.5
236.051	79.5
236.285	85.5
236.519	82.5
236.753	73.5
236.987	72.5
237.221	79.5
237.455	81.5
237.689	86.5
237.922	87.5
238.156	74.5
238.39	74.5
238.624	77.5
238.858	74.5
239.091	78.5
239.325	80.5
239.559	75.5
239.793	73.5
240.027	80.5
240.26	76.5
240.494	79.5
240.728	75.5
240.961	84.5
241.195	85.5
241.429	70.5
241.662	76.5
241.896	74.5
242.13	70.5
242.363	73.5
242.597	78.5
242.83	80.5
243.064	66.5
243.298	83.5
243.531	75.5
243.765	80.5
243.998	70.5
244.232	80.5
244.465	75.5
244.699	86.5
244.932	88.5
245.166	84.5
245.399	82.5
245.633	80.5
245.866	88.5
246.099	78.5
246.333	77.5
246.566	79.5
246.8	69.5
247.033	65.5
247.266	71.5
247.5	81.5
247.733	86.5
247.966	80.5
248.2	78.5
248.433	94.5
248.666	70.5
248.899	82.5
249.133	71.5
249.366	86.5
249.599	78.5
249.832	61.5
250.066	91.5
250.299	92.5
250.532	82.5
250.765	84.5
250.998	83.5
251.231	69.5
251.465	76.5
251.698	74.5
251.931	82.5
252.164	72.5
252.397	77.5
252.63	80.5
252.863	68.5
253.096	75.5
253.329	60.5
253.562	75.5
253.795	85.5
254.028	78.5
254.261	73.5
254.494	76.5
254.727	74.5
254.96	83.5
255.193	76.5
255.426	68.5
255.659	88.5
255.892	88.5
256.124	85.5
256.357	87.5
256.59	88.5
256.823	72.5
257.056	86.5
257.289	67.5
257.521	82.5
257.754	78.5
257.987	77.5
258.22	77.5
258.452	70.5
258.685	74.5
258.918	79.5
259.151	69.5
259.383	83.5
259.616	76.5
259.849	78.5
260.081	74.5
260.314	83.5
260.547	84.5
260.779	78.5
261.012	78.5
261.244	79.5
261.477	86.5
261.71	86.5
261.942	75.5
262.175	71.5
262.407	87.5
262.64	76.5
262.872	81.5
263.105	92.5
263.337	102.5
263.57	87.5
263.802	92.5
264.035	80.5
264.267	78.5
264.499	86.5
264.732	83.5
264.964	84.5
265.197	76.5
265.429	86.5
265.661	81.5
265.894	87.5
266.126	84.5
266.358	80.5
266.591	87.5
266.823	78.5
267.055	82.5
267.287	90.5
267.52	88.5
267.752	86.5
267.984	75.5
268.216	72.5
268.448	99.5
268.681	83.5
268.913	71.5
269.145	88.5
269.377	82.5
269.609	85.5
269.841	76.5
270.073	82.5
270.306	89.5
270.538	81.5
270.77	76.5
271.002	86.5
271.234	96.5
271.466	75.5
271.698	65.5
271.93	85.5
272.162	73.5
272.394	92.5
272.626	75.5
272.858	72.5
273.09	83.5
273.322	78.5
273.553	80.5
273.785	85.5
274.017	75.5
274.249	76.5
274.481	87.5
274.713	72.5
274.945	75.5
275.176	75.5
275.408	86.5
275.64	82.5
275.872	88.5
276.104	90.5
276.335	77.5
276.567	67.5
276.799	82.5
277.031	95.5
277.262	82.5
277.494	89.5
277.726	91.5
277.957	74.5
278.189	75.5
278.421	69.5
278.652	79.5
278.884	68.5
279.115	74.5
279.347	82.5
279.579	83.5
279.81	85.5
280.042	66.5
280.273	75.5
280.505	82.5
280.736	78.5
280.968	76.5
281.199	86.5
281.431	74.5
281.662	79.5
281.894	85.5
282.125	71.5
282.356	95.5
282.588	83.5
282.819	92.5
283.051	80.5
283.282	90.5
283.513	65.5
283.745	88.5
283.976	96.5
284.207	86.5
284.439	90.5
284.67	92.5
284.901	87.5
285.132	84.5
285.364	82.5
285.595	94.5
285.826	79.5
286.057	83.5
286.288	73.5
286.52	96.5
286.751	80.5
286.982	79.5
287.213	86.5
287.444	89.5
287.675	86.5
287.906	79.5
288.138	86.5
288.369	82.5
288.6	93.5
288.831	78.5
289.062	91.5
289.293	89.5
289.524	81.5
289.755	84.5
289.986	88.5
290.217	101.5
290.448	82.5
290.679	95.5
290.91	91.5
291.141	84.5
291.371	97.5
291.602	74.5
291.833	76.5
292.064	83.5
292.295	91.5
292.526	71.5
292.757	79.5
292.987	74.5
293.218	91.5
293.449	93.5
293.68	94.5
293.91	91.5
294.141	75.5
294.372	87.5
294.603	91.5
294.833	76.5
295.064	75.5
295.295	76.5
295.525	93.5
295.756	98.5
295.987	77.5
296.217	86.5
296.448	94.5
296.679	78.5
296.909	73.5
297.14	77.5
297.37	69.5
297.601	83.5
297.831	68.5
298.062	104.5
298.292	94.5
298.523	77.5
298.753	51.5
298.984	83.5
299.214	76.5
299.445	67.5
299.675	84.5
299.905	83.5
300.136	86.5
300.366	81.5
300.597	90.5
300.827	94.5
301.057	88.5
301.288	83.5
301.518	92.5
301.748	81.5
301.979	91.5
302.209	81.5
302.439	67.5
302.669	90.5
302.9	77.5
303.13	81.5
303.36	65.5
303.59	64.5
303.82	70.5
304.051	80.5
304.281	90.5
304.511	116.5
304.741	86.5
304.971	95.5
305.201	84.5
305.431	86.5
305.661	81.5
305.891	95.5
306.121	97.5
306.352	95.5
306.582	89.5
306.812	75.5
307.042	93.5
307.272	78.5
307.502	96.5
307.731	90.5
307.961	80.5
308.191	98.5
308.421	81.5
308.651	83.5
308.881	99.5
309.111	80.5
309.341	76.5
309.571	77.5
309.8	75.5
310.03	76.5
310.26	73.5
310.49	71.5
310.72	60.5
310.949	90.5
311.179	92.5
311.409	97.5
311.639	78.5
311.868	81.5
312.098	94.5
312.328	84.5
312.557	86.5
312.787	95.5
313.017	98.5
313.246	91.5
313.476	93.5
313.706	81.5
313.935	86.5
314.165	87.5
314.394	83.5
314.624	80.5
314.853	89.5
315.083	77.5
315.312	94.5
315.542	83.5
315.771	83.5
316.001	76.5
316.23	90.5
316.46	80.5
316.689	73.5
316.919	84.5
317.148	82.5
317.377	87.5
317.607	74.5
317.836	85.5
318.065	80.5
318.295	81.5
318.524	73.5
318.753	76.5
318.983	86.5
319.212	80.5
319.441	87.5
319.67	94.5
319.9	80.5
320.129	82.5
320.358	82.5
320.587	94.5
320.816	86.5
321.046	88.5
321.275	96.5
321.504	84.5
321.733	72.5
321.962	81.5
322.191	80.5
322.42	86.5
322.649	82.5
322.878	95.5
323.108	91.5
323.337	94.5
323.566	84.5
323.795	83.5
324.024	84.5
324.253	81.5
324.482	87.5
324.71	91.5
324.939	85.5
325.168	76.5
325.397	86.5
325.626	82.5
325.855	85.5
326.084	82.5
326.313	76.5
326.542	86.5
326.77	77.5
326.999	78.5
327.228	84.5
327.457	95.5
327.686	90.5
327.914	83.5
328.143	77.5
328.372	90.5
328.6	92.5
328.829	85.5
329.058	84.5
329.287	82.5
329.515	72.5
329.744	76.5
329.972	88.5
330.201	91.5
330.43	79.5
330.658	81.5
330.887	72.5
331.115	89.5
331.344	77.5
331.572	71.5
331.801	96.5
332.03	75.5
332.258	86.5
332.486	81.5
332.715	89.5
332.943	87.5
333.172	99.5
333.4	70.5
333.629	79.5
333.857	82.5
334.085	66.5
334.314	79.5
334.542	82.5
334.771	86.5
334.999	87.5
335.227	86.5
335.455	79.5
335.684	80.5
335.912	91.5
336.14	63.5
336.369	70.5
336.597	80.5
336.825	92.5
337.053	99.5
337.281	80.5
337.51	78.5
337.738	83.5
337.966	75.5
338.194	75.5
338.422	83.5
338.65	80.5
338.878	79.5
339.106	83.5
339.334	90.5
339.562	93.5
339.79	87.5
340.018	82.5
340.246	88.5
340.474	80.5
340.702	85.5
340.93	84.5
341.158	72.5
341.386	92.5
341.614	85.5
341.842	84.5
342.07	74.5
342.298	73.5
342.526	93.5
342.754	81.5
342.981	82.5
343.209	78.5
343.437	80.5
343.665	93.5
343.893	82.5
344.12	87.5
344.348	79.5
344.576	83.5
344.804	77.5
345.031	81.5
345.259	82.5
345.487	88.5
345.714	90.5
345.942	70.5
346.17	86.5
346.397	71.5
346.625	75.5
346.853	88.5
347.08	90.5
347.308	79.5
347.535	75.5
347.763	60.5
347.99	87.5
348.218	87.5
348.445	82.5
348.673	78.5
348.9	88.5
349.128	85.5
349.355	89.5
349.583	84.5
349.81	81.5
350.037	73.5
350.265	92.5
350.492	99.5
350.72	87.5
350.947	77.5
351.174	73.5
351.402	99.5
351.629	81.5
351.856	94.5
352.083	64.5
352.311	95.5
352.538	86.5
352.765	92.5
352.992	83.5
353.22	76.5
353.447	90.5
353.674	80.5
353.901	79.5
354.128	72.5
354.355	86.5
354.583	86.5
354.81	89.5
355.037	77.5
355.264	75.5
355.491	70.5
355.718	94.5
355.945	73.5
356.172	95.5
356.399	86.5
356.626	94.5
356.853	82.5
357.08	93.5
357.307	92.5
357.534	72.5
357.761	81.5
357.988	91.5
358.215	69.5
358.441	82.5
358.668	85.5
358.895	84.5
359.122	92.5
359.349	88.5
359.576	95.5
359.802	81.5
360.029	78.5
360.256	77.5
360.483	77.5
360.709	96.5
360.936	88.5
361.163	89.5
361.39	88.5
361.616	82.5
361.843	83.5
362.07	81.5
362.296	77.5
362.523	81.5
362.749	84.5
362.976	79.5
363.203	93.5
363.429	73.5
363.656	95.5
363.882	95.5
364.109	84.5
364.335	88.5
364.562	83.5
364.788	100.5
365.015	87.5
365.241	87.5
365.468	73.5
365.694	89.5
365.92	78.5
366.147	92.5
366.373	94.5
366.599	79.5
366.826	75.5
367.052	84.5
367.278	81.5
367.505	91.5
367.731	83.5
367.957	88.5
368.184	75.5
368.41	102.5
368.636	95.5
368.862	98.5
369.089	81.5
369.315	79.5
369.541	98.5
369.767	92.5
369.993	86.5
370.219	87.5
370.445	97.5
370.672	81.5
370.898	105.5
371.124	88.5
371.35	94.5
371.576	80.5
371.802	92.5
372.028	92.5
372.254	92.5
372.48	79.5
372.706	99.5
372.932	83.5
373.158	82.5
373.384	86.5
373.61	84.5
373.835	84.5
374.061	83.5
374.287	101.5
374.513	96.5
374.739	81.5
374.965	90.5
375.191	87.5
375.416	85.5
375.642	89.5
375.868	88.5
376.094	88.5
376.319	96.5
376.545	96.5
376.771	96.5
376.997	94.5
377.222	96.5
377.448	86.5
377.674	108.5
377.899	92.5
378.125	94.5
378.35	104.5
378.576	78.5
378.802	102.5
379.027	99.5
379.253	90.5
379.478	90.5
379.704	99.5
379.929	102.5
380.155	104.5
380.38	87.5
380.606	95.5
380.831	91.5
381.057	92.5
381.282	79.5
381.507	89.5
381.733	105.5
381.958	96.5
382.184	107.5
382.409	94.5
382.634	112.5
382.86	112.5
383.085	107.5
383.31	101.5
383.535	101.5
383.761	103.5
383.986	110.5
384.211	100.5
384.436	91.5
384.662	109.5
384.887	96.5
385.112	110.5
385.337	100.5
385.562	94.5
385.787	111.5
386.013	108.5
386.238	89.5
386.463	91.5
386.688	78.5
386.913	96.5
387.138	97.5
387.363	102.5
387.588	112.5
387.813	115.5
388.038	101.5
388.263	107.5
388.488	127.5
388.713	97.5
388.938	107.5
389.163	107.5
389.387	89.5
389.612	96.5
389.837	100.5
390.062	93.5
390.287	94.5
390.512	94.5
390.736	112.5
390.961	92.5
391.186	94.5
391.411	95.5
391.636	114.5
391.86	105.5
392.085	93.5
392.31	103.5
392.534	98.5
392.759	97.5
392.984	117.5
393.208	98.5
393.433	105.5
393.658	102.5
393.882	98.5
394.107	110.5
394.331	85.5
394.556	100.5
394.78	104.5
395.005	104.5
395.229	103.5
395.454	104.5
395.678	93.5
395.903	92.5
396.127	119.5
396.352	113.5
396.576	106.5
396.801	106.5
397.025	101.5
397.249	115.5
397.474	130.5
397.698	112.5
397.922	96.5
398.147	105.5
398.371	110.5
398.595	90.5
398.82	98.5
399.044	117.5
399.268	125.5
399.492	107.5
399.717	102.5
399.941	110.5
400.165	112.5
400.389	103.5
400.613	112.5
400.837	110.5
401.062	102.5
401.286	115.5
401.51	101.5
401.734	95.5
401.958	101.5
402.182	100.5
402.406	117.5
402.63	122.5
402.854	114.5
403.078	121.5
403.302	119.5
403.526	110.5
403.75	111.5
403.974	121.5
404.198	121.5
404.422	113.5
404.645	117.5
404.869	113.5
405.093	123.5
405.317	123.5
405.541	105.5
405.765	101.5
405.988	126.5
406.212	108.5
406.436	124.5
406.66	123.5
406.883	121.5
407.107	123.5
407.331	128.5
407.555	128.5
407.778	120.5
408.002	129.5
408.226	105.5
408.449	124.5
408.673	122.5
408.896	121.5
409.12	128.5
409.344	100.5
409.567	114.5
409.791	120.5
410.014	122.5
410.238	131.5
410.461	119.5
410.685	117.5
410.908	119.5
411.132	124.5
411.355	107.5
411.578	128.5
411.802	112.5
412.025	118.5
412.249	125.5
412.472	126.5
412.695	144.5
412.919	118.5
413.142	126.5
413.365	126.5
413.589	125.5
413.812	135.5
414.035	112.5
414.258	126.5
414.482	120.5
414.705	110.5
414.928	136.5
415.151	120.5
415.374	118.5
415.597	117.5
415.821	106.5
416.044	131.5
416.267	132.5
416.49	124.5
416.713	114.5
416.936	130.5
417.159	130.5
417.382	113.5
417.605	128.5
417.828	118.5
418.051	120.5
418.274	132.5
418.497	128.5
418.72	140.5
418.943	144.5
419.166	122.5
419.389	148.5
419.611	134.5
419.834	124.5
420.057	156.5
420.28	139.5
420.503	140.5
420.726	127.5
420.948	127.5
421.171	148.5
421.394	142.5
421.617	150.5
421.839	148.5
422.062	145.5
422.285	123.5
422.507	136.5
422.73	140.5
422.953	129.5
423.175	158.5
423.398	134.5
423.621	123.5
423.843	139.5
424.066	137.5
424.288	137.5
424.511	159.5
424.733	126.5
424.956	141.5
425.178	153.5
425.401	131.5
425.623	140.5
425.846	128.5
426.068	130.5
426.291	123.5
426.513	146.5
426.735	122.5
426.958	126.5
427.18	130.5
427.402	150.5
427.625	148.5
427.847	135.5
428.069	138.5
428.292	126.5
428.514	129.5
428.736	119.5
428.958	124.5
429.181	135.5
429.403	133.5
429.625	122.5
429.847	134.5
430.069	123.5
430.292	131.5
430.514	130.5
430.736	135.5
430.958	133.5
431.18	124.5
431.402	126.5
431.624	113.5
431.846	111.5
432.068	112.5
432.29	87.5
432.512	112.5
432.734	121.5
432.956	131.5
433.178	144.5
433.4	141.5
433.622	145.5
433.844	140.5
434.066	128.5
434.287	115.5
434.509	91.5
434.731	111.5
434.953	116.5
435.175	122.5
435.397	131.5
435.618	118.5
435.84	115.5
436.062	128.5
436.284	123.5
436.505	130.5
436.727	123.5
436.949	130.5
437.17	122.5
437.392	123.5
437.614	143.5
437.835	123.5
438.057	106.5
438.278	104.5
438.5	139.5
438.721	137.5
438.943	132.5
439.165	130.5
439.386	150.5
439.608	133.5
439.829	154.5
440.05	142.5
440.272	146.5
440.493	139.5
440.715	155.5
440.936	141.5
441.158	155.5
441.379	152.5
441.6	154.5
441.822	141.5
442.043	138.5
442.264	136.5
442.486	146.5
442.707	140.5
442.928	135.5
443.149	159.5
443.371	134.5
443.592	158.5
443.813	149.5
444.034	144.5
444.255	144.5
444.476	148.5
444.698	140.5
444.919	142.5
445.14	278.5
445.361	198.5
445.582	163.5
445.803	158.5
446.024	157.5
446.245	160.5
446.466	160.5
446.687	160.5
446.908	160.5
447.129	167.5
447.35	157.5
447.571	140.5
447.792	150.5
448.013	147.5
448.234	154.5
448.455	122.5
448.675	134.5
448.896	126.5
449.117	135.5
449.338	130.5
449.559	141.5
449.779	135.5
450	146.5
450.221	132.5
450.442	151.5
450.662	137.5
450.883	140.5
451.104	132.5
451.324	144.5
451.545	121.5
451.766	134.5
451.986	126.5
452.207	124.5
452.428	129.5
452.648	120.5
452.869	119.5
453.089	132.5
453.31	111.5
453.53	121.5
453.751	109.5
453.971	106.5
454.192	95.5
454.412	134.5
454.633	113.5
454.853	114.5
455.073	119.5
455.294	118.5
455.514	118.5
455.734	118.5
455.955	123.5
456.175	119.5
456.395	100.5
456.616	110.5
456.836	114.5
457.056	115.5
457.276	107.5
457.497	112.5
457.717	112.5
457.937	102.5
458.157	110.5
458.377	114.5
458.598	96.5
458.818	96.5
459.038	89.5
459.258	87.5
459.478	99.5
459.698	82.5
459.918	90.5
460.138	98.5
460.358	112.5
460.578	134.5
460.798	116.5
461.018	119.5
461.238	130.5
461.458	115.5
461.678	123.5
461.898	111.5
462.118	117.5
462.338	111.5
462.558	110.5
462.777	107.5
462.997	116.5
463.217	118.5
463.437	121.5
463.657	110.5
463.876	114.5
464.096	105.5
464.316	105.5
464.536	107.5
464.755	127.5
464.975	122.5
465.195	133.5
465.414	113.5
465.634	123.5
465.854	122.5
466.073	139.5
466.293	129.5
466.512	124.5
466.732	133.5
466.951	140.5
467.171	134.5
467.391	141.5
467.61	137.5
467.829	159.5
468.049	134.5
468.268	130.5
468.488	139.5
468.707	134.5
468.927	132.5
469.146	136.5
469.365	145.5
469.585	132.5
469.804	146.5
470.023	142.5
470.243	133.5
470.462	138.5
470.681	155.5
470.901	149.5
471.12	135.5
471.339	149.5
471.558	139.5
471.777	128.5
471.997	146.5
472.216	139.5
472.435	119.5
472.654	103.5
472.873	112.5
473.092	128.5
473.311	127.5
473.53	128.5
473.749	134.5
473.968	136.5
474.187	122.5
474.406	119.5
474.625	125.5
474.844	128.5
475.063	135.5
475.282	144.5
475.501	106.5
475.72	130.5
475.939	131.5
476.158	126.5
476.377	126.5
476.596	105.5
476.814	122.5
477.033	119.5
477.252	114.5
477.471	124.5
477.69	139.5
477.908	138.5
478.127	145.5
478.346	134.5
478.564	142.5
478.783	131.5
479.002	135.5
479.22	124.5
479.439	132.5
479.658	122.5
479.876	106.5
480.095	99.5
480.313	123.5
480.532	138.5
480.751	127.5
480.969	84.5
481.188	89.5
481.406	88.5
481.624	101.5
481.843	83.5
482.061	96.5
482.28	124.5
482.498	120.5
482.717	113.5
482.935	112.5
483.153	146.5
483.372	152.5
483.59	152.5
483.808	136.5
484.027	130.5
484.245	134.5
484.463	161.5
484.681	150.5
484.9	150.5
485.118	138.5
485.336	138.5
485.554	124.5
485.772	102.5
485.99	120.5
486.209	99.5
486.427	106.5
486.645	125.5
486.863	136.5
487.081	135.5
487.299	131.5
487.517	156.5
487.735	165.5
487.953	192.5
488.171	190.5
488.389	180.5
488.607	168.5
488.825	143.5
489.043	118.5
489.261	144.5
489.479	144.5
489.696	143.5
489.914	144.5
490.132	155.5
490.35	157.5
490.568	152.5
490.786	186.5
491.003	175.5
491.221	193.5
491.439	187.5
491.657	194.5
491.874	221.5
492.092	235.5
492.31	255.5
492.527	242.5
492.745	206.5
492.963	205.5
493.18	202.5
493.398	184.5
493.615	192.5
493.833	188.5
494.05	183.5
494.268	178.5
494.485	186.5
494.703	171.5
494.92	165.5
495.138	189.5
495.355	193.5
495.573	174.5
495.79	190.5
496.008	178.5
496.225	166.5
496.442	174.5
496.66	172.5
496.877	174.5
497.094	172.5
497.312	168.5
497.529	177.5
497.746	163.5
497.963	146.5
498.181	140.5
498.398	112.5
498.615	116.5
498.832	122.5
499.049	122.5
499.267	141.5
499.484	136.5
499.701	130.5
499.918	141.5
500.135	146.5
500.352	137.5
500.569	134.5
500.786	144.5
501.003	161.5
501.22	138.5
501.437	138.5
501.654	123.5
501.871	130.5
502.088	132.5
502.305	142.5
502.522	140.5
502.739	132.5
502.956	121.5
503.172	124.5
503.389	132.5
503.606	124.5
503.823	126.5
504.04	116.5
504.256	128.5
504.473	104.5
504.69	122.5
504.907	127.5
505.123	133.5
505.34	122.5
505.557	119.5
505.773	107.5
505.99	117.5
506.207	118.5
506.423	117.5
506.64	134.5
506.856	117.5
507.073	123.5
507.289	126.5
507.506	136.5
507.722	126.5
507.939	119.5
508.155	119.5
508.372	113.5
508.588	89.5
508.805	103.5
509.021	105.5
509.238	96.5
509.454	106.5
509.67	103.5
509.887	99.5
510.103	94.5
510.319	102.5
510.536	80.5
510.752	82.5
510.968	87.5
511.184	103.5
511.401	88.5
511.617	92.5
511.833	103.5
512.049	102.5
512.265	84.5
512.481	89.5
512.698	99.5
512.914	75.5
513.13	101.5
513.346	89.5
513.562	102.5
513.778	87.5
513.994	101.5
514.21	88.5
514.426	112.5
514.642	87.5
514.858	100.5
515.074	81.5
515.29	96.5
515.506	81.5
515.721	99.5
515.937	80.5
516.153	77.5
516.369	87.5
516.585	80.5
516.801	91.5
517.016	89.5
517.232	80.5
517.448	99.5
517.664	86.5
517.879	110.5
518.095	80.5
518.311	95.5
518.527	98.5
518.742	115.5
518.958	91.5
519.173	110.5
519.389	114.5
519.605	116.5
519.82	106.5
520.036	96.5
520.251	116.5
520.467	116.5
520.682	106.5
520.898	92.5
521.113	91.5
521.329	87.5
521.544	68.5
521.76	80.5
521.975	93.5
522.19	98.5
522.406	83.5
522.621	110.5
522.836	112.5
523.052	111.5
523.267	107.5
523.482	104.5
523.698	120.5
523.913	120.5
524.128	104.5
524.343	108.5
524.559	115.5
524.774	110.5
524.989	115.5
525.204	109.5
525.419	104.5
525.634	112.5
525.849	114.5
526.064	99.5
526.28	89.5
526.495	75.5
526.71	88.5
526.925	76.5
527.14	96.5
527.355	100.5
527.57	72.5
527.785	90.5
527.999	98.5
528.214	103.5
528.429	107.5
528.644	125.5
528.859	134.5
529.074	153.5
529.289	179.5
529.503	164.5
529.718	133.5
529.933	120.5
530.148	104.5
530.363	111.5
530.577	93.5
530.792	89.5
