Data from Location6.07152019.Energy5.Lamp.07192019.3%Agarose_HRD10591_16-13-13-396.txt Node
Date: Fri Jul 19 16:13:13 EDT 2019
User: cochatt
Spectrometer: HR+D1059
Trigger mode: 1
Integration Time (sec): 1.000000E-1
Scans to average: 1
Electric dark correction enabled: true
Nonlinearity correction enabled: false
Boxcar width: 0
XAxis mode: Wavelengths
Number of Pixels in Spectrum: 2048
>>>>>Begin Spectral Data<<<<<
223.165	-13.19
223.4	-13.19
223.635	-13.19
223.869	-19.19
224.104	-7.19
224.338	-22.19
224.573	-12.19
224.808	-10.19
225.042	-6.19
225.277	-5.19
225.511	8.81
225.746	2.81
225.98	3.81
226.215	12.81
226.449	19.81
226.683	21.81
226.918	12.81
227.152	12.81
227.387	34.81
227.621	33.81
227.856	43.81
228.09	38.81
228.324	41.81
228.559	51.81
228.793	72.81
229.027	63.81
229.262	64.81
229.496	73.81
229.73	56.81
229.964	62.81
230.199	64.81
230.433	68.81
230.667	68.81
230.901	77.81
231.136	73.81
231.37	83.81
231.604	59.81
231.838	85.81
232.072	84.81
232.306	82.81
232.541	69.81
232.775	81.81
233.009	88.81
233.243	77.81
233.477	93.81
233.711	68.81
233.945	73.81
234.179	78.81
234.413	87.81
234.647	77.81
234.881	86.81
235.115	83.81
235.349	68.81
235.583	79.81
235.817	76.81
236.051	65.81
236.285	77.81
236.519	67.81
236.753	61.81
236.987	67.81
237.221	58.81
237.455	79.81
237.689	79.81
237.922	76.81
238.156	70.81
238.39	80.81
238.624	65.81
238.858	77.81
239.091	79.81
239.325	66.81
239.559	63.81
239.793	76.81
240.027	71.81
240.26	76.81
240.494	75.81
240.728	69.81
240.961	71.81
241.195	79.81
241.429	74.81
241.662	74.81
241.896	58.81
242.13	66.81
242.363	62.81
242.597	61.81
242.83	84.81
243.064	88.81
243.298	70.81
243.531	75.81
243.765	90.81
243.998	82.81
244.232	81.81
244.465	77.81
244.699	76.81
244.932	64.81
245.166	78.81
245.399	73.81
245.633	66.81
245.866	64.81
246.099	77.81
246.333	80.81
246.566	63.81
246.8	85.81
247.033	78.81
247.266	75.81
247.5	70.81
247.733	69.81
247.966	65.81
248.2	80.81
248.433	67.81
248.666	77.81
248.899	72.81
249.133	68.81
249.366	70.81
249.599	64.81
249.832	81.81
250.066	68.81
250.299	69.81
250.532	72.81
250.765	86.81
250.998	82.81
251.231	73.81
251.465	80.81
251.698	76.81
251.931	76.81
252.164	70.81
252.397	68.81
252.63	60.81
252.863	73.81
253.096	73.81
253.329	75.81
253.562	86.81
253.795	79.81
254.028	70.81
254.261	84.81
254.494	70.81
254.727	78.81
254.96	79.81
255.193	74.81
255.426	65.81
255.659	83.81
255.892	75.81
256.124	73.81
256.357	75.81
256.59	71.81
256.823	76.81
257.056	77.81
257.289	84.81
257.521	71.81
257.754	73.81
257.987	79.81
258.22	79.81
258.452	84.81
258.685	97.81
258.918	80.81
259.151	97.81
259.383	70.81
259.616	80.81
259.849	79.81
260.081	69.81
260.314	80.81
260.547	83.81
260.779	76.81
261.012	80.81
261.244	67.81
261.477	66.81
261.71	78.81
261.942	74.81
262.175	78.81
262.407	87.81
262.64	77.81
262.872	93.81
263.105	67.81
263.337	80.81
263.57	75.81
263.802	73.81
264.035	84.81
264.267	88.81
264.499	87.81
264.732	72.81
264.964	79.81
265.197	93.81
265.429	82.81
265.661	69.81
265.894	79.81
266.126	77.81
266.358	86.81
266.591	87.81
266.823	75.81
267.055	69.81
267.287	78.81
267.52	70.81
267.752	76.81
267.984	79.81
268.216	79.81
268.448	84.81
268.681	75.81
268.913	82.81
269.145	87.81
269.377	83.81
269.609	85.81
269.841	89.81
270.073	73.81
270.306	83.81
270.538	71.81
270.77	70.81
271.002	75.81
271.234	63.81
271.466	66.81
271.698	83.81
271.93	92.81
272.162	89.81
272.394	78.81
272.626	79.81
272.858	71.81
273.09	85.81
273.322	93.81
273.553	81.81
273.785	79.81
274.017	84.81
274.249	73.81
274.481	78.81
274.713	79.81
274.945	92.81
275.176	63.81
275.408	87.81
275.64	71.81
275.872	91.81
276.104	86.81
276.335	75.81
276.567	65.81
276.799	64.81
277.031	66.81
277.262	98.81
277.494	92.81
277.726	89.81
277.957	76.81
278.189	87.81
278.421	71.81
278.652	72.81
278.884	74.81
279.115	72.81
279.347	88.81
279.579	94.81
279.81	73.81
280.042	85.81
280.273	77.81
280.505	72.81
280.736	78.81
280.968	72.81
281.199	87.81
281.431	91.81
281.662	89.81
281.894	80.81
282.125	79.81
282.356	78.81
282.588	68.81
282.819	77.81
283.051	73.81
283.282	87.81
283.513	82.81
283.745	80.81
283.976	69.81
284.207	85.81
284.439	77.81
284.67	78.81
284.901	71.81
285.132	71.81
285.364	82.81
285.595	80.81
285.826	88.81
286.057	100.81
286.288	77.81
286.52	78.81
286.751	77.81
286.982	71.81
287.213	67.81
287.444	79.81
287.675	83.81
287.906	66.81
288.138	83.81
288.369	67.81
288.6	78.81
288.831	76.81
289.062	93.81
289.293	78.81
289.524	79.81
289.755	91.81
289.986	76.81
290.217	87.81
290.448	81.81
290.679	63.81
290.91	75.81
291.141	70.81
291.371	82.81
291.602	76.81
291.833	81.81
292.064	74.81
292.295	89.81
292.526	94.81
292.757	82.81
292.987	88.81
293.218	75.81
293.449	85.81
293.68	72.81
293.91	75.81
294.141	98.81
294.372	67.81
294.603	86.81
294.833	75.81
295.064	62.81
295.295	81.81
295.525	93.81
295.756	85.81
295.987	93.81
296.217	77.81
296.448	81.81
296.679	89.81
296.909	79.81
297.14	64.81
297.37	79.81
297.601	86.81
297.831	82.81
298.062	77.81
298.292	76.81
298.523	80.81
298.753	79.81
298.984	81.81
299.214	79.81
299.445	93.81
299.675	68.81
299.905	79.81
300.136	87.81
300.366	89.81
300.597	86.81
300.827	63.81
301.057	79.81
301.288	99.81
301.518	86.81
301.748	78.81
301.979	78.81
302.209	73.81
302.439	77.81
302.669	88.81
302.9	82.81
303.13	89.81
303.36	72.81
303.59	82.81
303.82	65.81
304.051	94.81
304.281	86.81
304.511	83.81
304.741	73.81
304.971	82.81
305.201	80.81
305.431	79.81
305.661	56.81
305.891	74.81
306.121	77.81
306.352	76.81
306.582	89.81
306.812	81.81
307.042	81.81
307.272	76.81
307.502	83.81
307.731	77.81
307.961	67.81
308.191	75.81
308.421	69.81
308.651	72.81
308.881	81.81
309.111	86.81
309.341	77.81
309.571	79.81
309.8	81.81
310.03	73.81
310.26	72.81
310.49	81.81
310.72	78.81
310.949	75.81
311.179	78.81
311.409	83.81
311.639	97.81
311.868	83.81
312.098	78.81
312.328	67.81
312.557	85.81
312.787	72.81
313.017	68.81
313.246	92.81
313.476	79.81
313.706	67.81
313.935	81.81
314.165	87.81
314.394	93.81
314.624	82.81
314.853	81.81
315.083	73.81
315.312	76.81
315.542	77.81
315.771	97.81
316.001	75.81
316.23	81.81
316.46	72.81
316.689	76.81
316.919	77.81
317.148	84.81
317.377	95.81
317.607	75.81
317.836	88.81
318.065	66.81
318.295	92.81
318.524	72.81
318.753	72.81
318.983	70.81
319.212	68.81
319.441	89.81
319.67	85.81
319.9	80.81
320.129	80.81
320.358	89.81
320.587	75.81
320.816	67.81
321.046	81.81
321.275	72.81
321.504	71.81
321.733	72.81
321.962	83.81
322.191	76.81
322.42	79.81
322.649	85.81
322.878	79.81
323.108	83.81
323.337	76.81
323.566	75.81
323.795	76.81
324.024	93.81
324.253	75.81
324.482	85.81
324.71	77.81
324.939	76.81
325.168	78.81
325.397	84.81
325.626	94.81
325.855	76.81
326.084	67.81
326.313	84.81
326.542	89.81
326.77	84.81
326.999	79.81
327.228	77.81
327.457	68.81
327.686	89.81
327.914	79.81
328.143	81.81
328.372	70.81
328.6	79.81
328.829	76.81
329.058	66.81
329.287	79.81
329.515	71.81
329.744	84.81
329.972	84.81
330.201	81.81
330.43	89.81
330.658	71.81
330.887	76.81
331.115	71.81
331.344	101.81
331.572	77.81
331.801	82.81
332.03	78.81
332.258	74.81
332.486	84.81
332.715	81.81
332.943	69.81
333.172	69.81
333.4	72.81
333.629	81.81
333.857	80.81
334.085	71.81
334.314	75.81
334.542	90.81
334.771	73.81
334.999	78.81
335.227	77.81
335.455	79.81
335.684	84.81
335.912	93.81
336.14	72.81
336.369	93.81
336.597	78.81
336.825	83.81
337.053	97.81
337.281	73.81
337.51	71.81
337.738	80.81
337.966	77.81
338.194	90.81
338.422	68.81
338.65	83.81
338.878	74.81
339.106	65.81
339.334	89.81
339.562	80.81
339.79	78.81
340.018	77.81
340.246	92.81
340.474	86.81
340.702	79.81
340.93	80.81
341.158	74.81
341.386	76.81
341.614	79.81
341.842	77.81
342.07	91.81
342.298	85.81
342.526	91.81
342.754	78.81
342.981	72.81
343.209	70.81
343.437	80.81
343.665	80.81
343.893	65.81
344.12	72.81
344.348	84.81
344.576	82.81
344.804	72.81
345.031	72.81
345.259	79.81
345.487	73.81
345.714	99.81
345.942	80.81
346.17	87.81
346.397	87.81
346.625	85.81
346.853	74.81
347.08	72.81
347.308	82.81
347.535	83.81
347.763	66.81
347.99	90.81
348.218	91.81
348.445	66.81
348.673	72.81
348.9	80.81
349.128	83.81
349.355	82.81
349.583	77.81
349.81	73.81
350.037	79.81
350.265	78.81
350.492	80.81
350.72	78.81
350.947	78.81
351.174	64.81
351.402	86.81
351.629	67.81
351.856	73.81
352.083	72.81
352.311	88.81
352.538	75.81
352.765	67.81
352.992	85.81
353.22	93.81
353.447	81.81
353.674	76.81
353.901	73.81
354.128	80.81
354.355	77.81
354.583	80.81
354.81	77.81
355.037	64.81
355.264	74.81
355.491	73.81
355.718	55.81
355.945	83.81
356.172	79.81
356.399	71.81
356.626	81.81
356.853	81.81
357.08	80.81
357.307	88.81
357.534	77.81
357.761	79.81
357.988	76.81
358.215	74.81
358.441	84.81
358.668	83.81
358.895	72.81
359.122	83.81
359.349	80.81
359.576	69.81
359.802	78.81
360.029	72.81
360.256	93.81
360.483	79.81
360.709	77.81
360.936	84.81
361.163	82.81
361.39	76.81
361.616	57.81
361.843	89.81
362.07	76.81
362.296	76.81
362.523	89.81
362.749	72.81
362.976	93.81
363.203	93.81
363.429	79.81
363.656	76.81
363.882	73.81
364.109	67.81
364.335	64.81
364.562	84.81
364.788	80.81
365.015	77.81
365.241	86.81
365.468	98.81
365.694	86.81
365.92	93.81
366.147	88.81
366.373	76.81
366.599	81.81
366.826	83.81
367.052	79.81
367.278	84.81
367.505	76.81
367.731	81.81
367.957	86.81
368.184	66.81
368.41	79.81
368.636	80.81
368.862	77.81
369.089	86.81
369.315	89.81
369.541	87.81
369.767	80.81
369.993	73.81
370.219	72.81
370.445	92.81
370.672	79.81
370.898	78.81
371.124	79.81
371.35	86.81
371.576	86.81
371.802	91.81
372.028	88.81
372.254	87.81
372.48	83.81
372.706	76.81
372.932	86.81
373.158	77.81
373.384	79.81
373.61	77.81
373.835	87.81
374.061	81.81
374.287	87.81
374.513	81.81
374.739	77.81
374.965	96.81
375.191	98.81
375.416	82.81
375.642	79.81
375.868	92.81
376.094	100.81
376.319	96.81
376.545	103.81
376.771	91.81
376.997	98.81
377.222	97.81
377.448	99.81
377.674	87.81
377.899	101.81
378.125	95.81
378.35	92.81
378.576	90.81
378.802	68.81
379.027	89.81
379.253	94.81
379.478	99.81
379.704	78.81
379.929	93.81
380.155	95.81
380.38	84.81
380.606	99.81
380.831	87.81
381.057	101.81
381.282	98.81
381.507	80.81
381.733	93.81
381.958	100.81
382.184	84.81
382.409	101.81
382.634	92.81
382.86	91.81
383.085	91.81
383.31	103.81
383.535	88.81
383.761	91.81
383.986	95.81
384.211	80.81
384.436	97.81
384.662	95.81
384.887	93.81
385.112	100.81
385.337	91.81
385.562	88.81
385.787	79.81
386.013	107.81
386.238	103.81
386.463	95.81
386.688	100.81
386.913	101.81
387.138	94.81
387.363	101.81
387.588	114.81
387.813	87.81
388.038	104.81
388.263	89.81
388.488	102.81
388.713	103.81
388.938	111.81
389.163	97.81
389.387	104.81
389.612	92.81
389.837	97.81
390.062	113.81
390.287	105.81
390.512	94.81
390.736	98.81
390.961	88.81
391.186	93.81
391.411	108.81
391.636	101.81
391.86	109.81
392.085	95.81
392.31	105.81
392.534	100.81
392.759	102.81
392.984	98.81
393.208	100.81
393.433	111.81
393.658	91.81
393.882	92.81
394.107	115.81
394.331	94.81
394.556	110.81
394.78	111.81
395.005	96.81
395.229	100.81
395.454	109.81
395.678	92.81
395.903	91.81
396.127	103.81
396.352	100.81
396.576	115.81
396.801	108.81
397.025	100.81
397.249	109.81
397.474	108.81
397.698	105.81
397.922	113.81
398.147	102.81
398.371	93.81
398.595	121.81
398.82	111.81
399.044	102.81
399.268	107.81
399.492	85.81
399.717	91.81
399.941	118.81
400.165	109.81
400.389	98.81
400.613	104.81
400.837	115.81
401.062	107.81
401.286	109.81
401.51	112.81
401.734	113.81
401.958	107.81
402.182	106.81
402.406	111.81
402.63	112.81
402.854	115.81
403.078	98.81
403.302	111.81
403.526	127.81
403.75	123.81
403.974	116.81
404.198	125.81
404.422	116.81
404.645	120.81
404.869	119.81
405.093	117.81
405.317	115.81
405.541	127.81
405.765	107.81
405.988	112.81
406.212	109.81
406.436	110.81
406.66	130.81
406.883	119.81
407.107	117.81
407.331	116.81
407.555	117.81
407.778	112.81
408.002	117.81
408.226	112.81
408.449	119.81
408.673	112.81
408.896	123.81
409.12	112.81
409.344	120.81
409.567	113.81
409.791	118.81
410.014	117.81
410.238	122.81
410.461	111.81
410.685	132.81
410.908	120.81
411.132	137.81
411.355	115.81
411.578	125.81
411.802	103.81
412.025	135.81
412.249	120.81
412.472	123.81
412.695	118.81
412.919	123.81
413.142	131.81
413.365	123.81
413.589	131.81
413.812	117.81
414.035	126.81
414.258	119.81
414.482	114.81
414.705	109.81
414.928	112.81
415.151	112.81
415.374	116.81
415.597	121.81
415.821	119.81
416.044	124.81
416.267	128.81
416.49	123.81
416.713	119.81
416.936	117.81
417.159	132.81
417.382	147.81
417.605	123.81
417.828	134.81
418.051	125.81
418.274	134.81
418.497	133.81
418.72	123.81
418.943	131.81
419.166	118.81
419.389	129.81
419.611	128.81
419.834	135.81
420.057	129.81
420.28	137.81
420.503	131.81
420.726	142.81
420.948	123.81
421.171	126.81
421.394	129.81
421.617	145.81
421.839	140.81
422.062	134.81
422.285	135.81
422.507	128.81
422.73	130.81
422.953	122.81
423.175	116.81
423.398	120.81
423.621	145.81
423.843	146.81
424.066	130.81
424.288	155.81
424.511	135.81
424.733	151.81
424.956	147.81
425.178	126.81
425.401	149.81
425.623	152.81
425.846	141.81
426.068	136.81
426.291	116.81
426.513	129.81
426.735	129.81
426.958	115.81
427.18	124.81
427.402	118.81
427.625	145.81
427.847	125.81
428.069	123.81
428.292	127.81
428.514	124.81
428.736	137.81
428.958	146.81
429.181	128.81
429.403	125.81
429.625	128.81
429.847	135.81
430.069	125.81
430.292	115.81
430.514	126.81
430.736	129.81
430.958	130.81
431.18	123.81
431.402	131.81
431.624	126.81
431.846	125.81
432.068	95.81
432.29	86.81
432.512	116.81
432.734	125.81
432.956	112.81
433.178	133.81
433.4	131.81
433.622	135.81
433.844	138.81
434.066	111.81
434.287	112.81
434.509	103.81
434.731	113.81
434.953	125.81
435.175	131.81
435.397	142.81
435.618	123.81
435.84	119.81
436.062	114.81
436.284	131.81
436.505	129.81
436.727	131.81
436.949	125.81
437.17	140.81
437.392	117.81
437.614	111.81
437.835	105.81
438.057	110.81
438.278	107.81
438.5	124.81
438.721	134.81
438.943	139.81
439.165	132.81
439.386	141.81
439.608	131.81
439.829	140.81
440.05	157.81
440.272	146.81
440.493	145.81
440.715	148.81
440.936	144.81
441.158	150.81
441.379	140.81
441.6	153.81
441.822	141.81
442.043	151.81
442.264	138.81
442.486	131.81
442.707	125.81
442.928	143.81
443.149	143.81
443.371	128.81
443.592	123.81
443.813	156.81
444.034	141.81
444.255	143.81
444.476	140.81
444.698	145.81
444.919	143.81
445.14	281.81
445.361	198.81
445.582	151.81
445.803	155.81
446.024	154.81
446.245	158.81
446.466	165.81
446.687	157.81
446.908	164.81
447.129	154.81
447.35	143.81
447.571	160.81
447.792	143.81
448.013	137.81
448.234	135.81
448.455	139.81
448.675	139.81
448.896	150.81
449.117	147.81
449.338	137.81
449.559	130.81
449.779	131.81
450	136.81
450.221	141.81
450.442	133.81
450.662	153.81
450.883	143.81
451.104	127.81
451.324	138.81
451.545	140.81
451.766	141.81
451.986	112.81
452.207	127.81
452.428	123.81
452.648	115.81
452.869	113.81
453.089	125.81
453.31	109.81
453.53	113.81
453.751	105.81
453.971	115.81
454.192	94.81
454.412	100.81
454.633	116.81
454.853	116.81
455.073	118.81
455.294	140.81
455.514	144.81
455.734	124.81
455.955	114.81
456.175	123.81
456.395	120.81
456.616	106.81
456.836	118.81
457.056	97.81
457.276	108.81
457.497	117.81
457.717	117.81
457.937	116.81
458.157	107.81
458.377	99.81
458.598	96.81
458.818	94.81
459.038	93.81
459.258	89.81
459.478	79.81
459.698	89.81
459.918	93.81
460.138	118.81
460.358	107.81
460.578	114.81
460.798	115.81
461.018	121.81
461.238	111.81
461.458	107.81
461.678	103.81
461.898	107.81
462.118	109.81
462.338	103.81
462.558	108.81
462.777	112.81
462.997	102.81
463.217	99.81
463.437	110.81
463.657	100.81
463.876	109.81
464.096	103.81
464.316	101.81
464.536	113.81
464.755	116.81
464.975	122.81
465.195	133.81
465.414	117.81
465.634	117.81
465.854	119.81
466.073	134.81
466.293	108.81
466.512	128.81
466.732	140.81
466.951	135.81
467.171	133.81
467.391	116.81
467.61	138.81
467.829	135.81
468.049	143.81
468.268	151.81
468.488	134.81
468.707	123.81
468.927	146.81
469.146	127.81
469.365	148.81
469.585	143.81
469.804	125.81
470.023	134.81
470.243	136.81
470.462	143.81
470.681	141.81
470.901	146.81
471.12	131.81
471.339	141.81
471.558	134.81
471.777	133.81
471.997	145.81
472.216	123.81
472.435	123.81
472.654	103.81
472.873	116.81
473.092	114.81
473.311	130.81
473.53	123.81
473.749	133.81
473.968	134.81
474.187	131.81
474.406	122.81
474.625	123.81
474.844	142.81
475.063	135.81
475.282	134.81
475.501	125.81
475.72	135.81
475.939	133.81
476.158	131.81
476.377	120.81
476.596	130.81
476.814	115.81
477.033	125.81
477.252	121.81
477.471	120.81
477.69	134.81
477.908	132.81
478.127	134.81
478.346	141.81
478.564	116.81
478.783	135.81
479.002	131.81
479.22	137.81
479.439	140.81
479.658	124.81
479.876	114.81
480.095	120.81
480.313	119.81
480.532	115.81
480.751	116.81
480.969	83.81
481.188	86.81
481.406	79.81
481.624	89.81
481.843	90.81
482.061	97.81
482.28	107.81
482.498	109.81
482.717	116.81
482.935	94.81
483.153	131.81
483.372	162.81
483.59	156.81
483.808	151.81
484.027	133.81
484.245	136.81
484.463	156.81
484.681	165.81
484.9	147.81
485.118	149.81
485.336	144.81
485.554	119.81
485.772	96.81
485.99	111.81
486.209	121.81
486.427	121.81
486.645	123.81
486.863	140.81
487.081	156.81
487.299	148.81
487.517	133.81
487.735	165.81
487.953	191.81
488.171	197.81
488.389	187.81
488.607	155.81
488.825	160.81
489.043	139.81
489.261	134.81
489.479	150.81
489.696	140.81
489.914	144.81
490.132	158.81
490.35	133.81
490.568	161.81
490.786	173.81
491.003	171.81
491.221	186.81
491.439	192.81
491.657	189.81
491.874	222.81
492.092	215.81
492.31	246.81
492.527	238.81
492.745	213.81
492.963	207.81
493.18	187.81
493.398	193.81
493.615	179.81
493.833	168.81
494.05	179.81
494.268	171.81
494.485	178.81
494.703	171.81
494.92	176.81
495.138	183.81
495.355	171.81
495.573	165.81
495.79	166.81
496.008	155.81
496.225	182.81
496.442	178.81
496.66	165.81
496.877	196.81
497.094	162.81
497.312	149.81
497.529	170.81
497.746	157.81
497.963	151.81
498.181	129.81
498.398	116.81
498.615	121.81
498.832	112.81
499.049	126.81
499.267	116.81
499.484	128.81
499.701	129.81
499.918	143.81
500.135	143.81
500.352	148.81
500.569	139.81
500.786	145.81
501.003	125.81
501.22	126.81
501.437	133.81
501.654	128.81
501.871	133.81
502.088	122.81
502.305	110.81
502.522	133.81
502.739	135.81
502.956	130.81
503.172	126.81
503.389	122.81
503.606	103.81
503.823	138.81
504.04	132.81
504.256	120.81
504.473	106.81
504.69	121.81
504.907	116.81
505.123	117.81
505.34	125.81
505.557	120.81
505.773	118.81
505.99	129.81
506.207	130.81
506.423	132.81
506.64	104.81
506.856	125.81
507.073	124.81
507.289	122.81
507.506	115.81
507.722	117.81
507.939	116.81
508.155	111.81
508.372	120.81
508.588	102.81
508.805	127.81
509.021	104.81
509.238	99.81
509.454	103.81
509.67	109.81
509.887	101.81
510.103	92.81
510.319	86.81
510.536	87.81
510.752	96.81
510.968	73.81
511.184	69.81
511.401	94.81
511.617	78.81
511.833	88.81
512.049	88.81
