Data from Location6.07152019.Energy5.Lamp.07192019.3%Agarose_HRD10591_16-11-24-395.txt Node
Date: Fri Jul 19 16:11:24 EDT 2019
User: cochatt
Spectrometer: HR+D1059
Trigger mode: 1
Integration Time (sec): 1.000000E-1
Scans to average: 1
Electric dark correction enabled: true
Nonlinearity correction enabled: false
Boxcar width: 0
XAxis mode: Wavelengths
Number of Pixels in Spectrum: 2048
>>>>>Begin Spectral Data<<<<<
223.165	-10.88
223.4	-10.88
223.635	-10.88
223.869	-18.88
224.104	-7.88
224.338	-21.88
224.573	-20.88
224.808	-19.88
225.042	-21.88
225.277	5.12
225.511	1.12
225.746	16.12
225.98	15.12
226.215	5.12
226.449	10.12
226.683	19.12
226.918	18.12
227.152	32.12
227.387	37.12
227.621	32.12
227.856	44.12
228.09	28.12
228.324	48.12
228.559	60.12
228.793	60.12
229.027	49.12
229.262	76.12
229.496	55.12
229.73	59.12
229.964	82.12
230.199	69.12
230.433	82.12
230.667	83.12
230.901	85.12
231.136	81.12
231.37	88.12
231.604	76.12
231.838	75.12
232.072	74.12
232.306	83.12
232.541	87.12
232.775	71.12
233.009	80.12
233.243	89.12
233.477	77.12
233.711	74.12
233.945	106.12
234.179	86.12
234.413	68.12
234.647	84.12
234.881	73.12
235.115	83.12
235.349	82.12
235.583	77.12
235.817	80.12
236.051	78.12
236.285	75.12
236.519	80.12
236.753	80.12
236.987	75.12
237.221	80.12
237.455	85.12
237.689	86.12
237.922	77.12
238.156	78.12
238.39	73.12
238.624	73.12
238.858	63.12
239.091	69.12
239.325	74.12
239.559	82.12
239.793	71.12
240.027	84.12
240.26	75.12
240.494	92.12
240.728	90.12
240.961	64.12
241.195	79.12
241.429	75.12
241.662	79.12
241.896	79.12
242.13	72.12
242.363	69.12
242.597	84.12
242.83	79.12
243.064	78.12
243.298	78.12
243.531	84.12
243.765	81.12
243.998	81.12
244.232	72.12
244.465	73.12
244.699	82.12
244.932	74.12
245.166	79.12
245.399	80.12
245.633	67.12
245.866	77.12
246.099	68.12
246.333	68.12
246.566	76.12
246.8	88.12
247.033	82.12
247.266	77.12
247.5	91.12
247.733	77.12
247.966	72.12
248.2	101.12
248.433	84.12
248.666	92.12
248.899	79.12
249.133	78.12
249.366	73.12
249.599	89.12
249.832	78.12
250.066	79.12
250.299	99.12
250.532	85.12
250.765	83.12
250.998	83.12
251.231	82.12
251.465	73.12
251.698	75.12
251.931	80.12
252.164	73.12
252.397	86.12
252.63	77.12
252.863	80.12
253.096	88.12
253.329	86.12
253.562	72.12
253.795	78.12
254.028	86.12
254.261	73.12
254.494	80.12
254.727	84.12
254.96	86.12
255.193	86.12
255.426	81.12
255.659	85.12
255.892	71.12
256.124	69.12
256.357	82.12
256.59	87.12
256.823	62.12
257.056	65.12
257.289	82.12
257.521	77.12
257.754	84.12
257.987	90.12
258.22	90.12
258.452	79.12
258.685	78.12
258.918	94.12
259.151	82.12
259.383	81.12
259.616	71.12
259.849	82.12
260.081	91.12
260.314	80.12
260.547	85.12
260.779	73.12
261.012	91.12
261.244	80.12
261.477	75.12
261.71	84.12
261.942	68.12
262.175	76.12
262.407	80.12
262.64	78.12
262.872	98.12
263.105	85.12
263.337	88.12
263.57	80.12
263.802	72.12
264.035	77.12
264.267	80.12
264.499	87.12
264.732	80.12
264.964	81.12
265.197	89.12
265.429	71.12
265.661	85.12
265.894	86.12
266.126	87.12
266.358	75.12
266.591	85.12
266.823	85.12
267.055	97.12
267.287	85.12
267.52	79.12
267.752	75.12
267.984	87.12
268.216	93.12
268.448	89.12
268.681	91.12
268.913	91.12
269.145	85.12
269.377	78.12
269.609	77.12
269.841	77.12
270.073	82.12
270.306	91.12
270.538	86.12
270.77	84.12
271.002	94.12
271.234	78.12
271.466	83.12
271.698	87.12
271.93	84.12
272.162	81.12
272.394	102.12
272.626	89.12
272.858	79.12
273.09	101.12
273.322	80.12
273.553	71.12
273.785	89.12
274.017	77.12
274.249	78.12
274.481	89.12
274.713	93.12
274.945	100.12
275.176	89.12
275.408	97.12
275.64	82.12
275.872	79.12
276.104	92.12
276.335	78.12
276.567	84.12
276.799	94.12
277.031	70.12
277.262	81.12
277.494	83.12
277.726	90.12
277.957	82.12
278.189	99.12
278.421	81.12
278.652	81.12
278.884	93.12
279.115	90.12
279.347	85.12
279.579	83.12
279.81	67.12
280.042	101.12
280.273	86.12
280.505	97.12
280.736	81.12
280.968	82.12
281.199	88.12
281.431	81.12
281.662	68.12
281.894	77.12
282.125	85.12
282.356	80.12
282.588	88.12
282.819	82.12
283.051	98.12
283.282	76.12
283.513	82.12
283.745	83.12
283.976	102.12
284.207	80.12
284.439	88.12
284.67	85.12
284.901	84.12
285.132	93.12
285.364	80.12
285.595	87.12
285.826	86.12
286.057	94.12
286.288	85.12
286.52	93.12
286.751	88.12
286.982	83.12
287.213	75.12
287.444	78.12
287.675	97.12
287.906	85.12
288.138	86.12
288.369	86.12
288.6	87.12
288.831	87.12
289.062	75.12
289.293	98.12
289.524	90.12
289.755	85.12
289.986	102.12
290.217	84.12
290.448	88.12
290.679	76.12
290.91	88.12
291.141	76.12
291.371	103.12
291.602	77.12
291.833	84.12
292.064	82.12
292.295	83.12
292.526	79.12
292.757	85.12
292.987	62.12
293.218	76.12
293.449	89.12
293.68	86.12
293.91	96.12
294.141	86.12
294.372	90.12
294.603	91.12
294.833	77.12
295.064	90.12
295.295	86.12
295.525	78.12
295.756	83.12
295.987	78.12
296.217	88.12
296.448	85.12
296.679	74.12
296.909	87.12
297.14	91.12
297.37	86.12
297.601	91.12
297.831	74.12
298.062	97.12
298.292	95.12
298.523	88.12
298.753	91.12
298.984	95.12
299.214	83.12
299.445	80.12
299.675	89.12
299.905	92.12
300.136	93.12
300.366	88.12
300.597	75.12
300.827	80.12
301.057	83.12
301.288	87.12
301.518	88.12
301.748	73.12
301.979	81.12
302.209	84.12
302.439	87.12
302.669	88.12
302.9	81.12
303.13	105.12
303.36	78.12
303.59	92.12
303.82	90.12
304.051	89.12
304.281	106.12
304.511	83.12
304.741	76.12
304.971	82.12
305.201	82.12
305.431	94.12
305.661	93.12
305.891	81.12
306.121	89.12
306.352	94.12
306.582	78.12
306.812	96.12
307.042	81.12
307.272	83.12
307.502	82.12
307.731	87.12
307.961	88.12
308.191	84.12
308.421	87.12
308.651	68.12
308.881	97.12
309.111	83.12
309.341	87.12
309.571	86.12
309.8	90.12
310.03	80.12
310.26	85.12
310.49	82.12
310.72	87.12
310.949	72.12
311.179	78.12
311.409	81.12
311.639	83.12
311.868	82.12
312.098	85.12
312.328	92.12
312.557	91.12
312.787	89.12
313.017	86.12
313.246	99.12
313.476	90.12
313.706	91.12
313.935	90.12
314.165	86.12
314.394	90.12
314.624	87.12
314.853	100.12
315.083	90.12
315.312	82.12
315.542	90.12
315.771	81.12
316.001	85.12
316.23	81.12
316.46	85.12
316.689	86.12
316.919	83.12
317.148	89.12
317.377	85.12
317.607	90.12
317.836	82.12
318.065	81.12
318.295	74.12
318.524	99.12
318.753	99.12
318.983	93.12
319.212	96.12
319.441	88.12
319.67	97.12
319.9	83.12
320.129	82.12
320.358	89.12
320.587	84.12
320.816	88.12
321.046	88.12
321.275	87.12
321.504	88.12
321.733	88.12
321.962	84.12
322.191	80.12
322.42	84.12
322.649	96.12
322.878	95.12
323.108	84.12
323.337	77.12
323.566	90.12
323.795	78.12
324.024	85.12
324.253	93.12
324.482	85.12
324.71	65.12
324.939	89.12
325.168	75.12
325.397	84.12
325.626	89.12
325.855	86.12
326.084	77.12
326.313	82.12
326.542	79.12
326.77	72.12
326.999	86.12
327.228	86.12
327.457	93.12
327.686	70.12
327.914	84.12
328.143	92.12
328.372	90.12
328.6	78.12
328.829	87.12
329.058	83.12
329.287	88.12
329.515	90.12
329.744	90.12
329.972	83.12
330.201	89.12
330.43	91.12
330.658	85.12
330.887	88.12
331.115	89.12
331.344	73.12
331.572	88.12
331.801	92.12
332.03	99.12
332.258	84.12
332.486	76.12
332.715	86.12
332.943	84.12
333.172	78.12
333.4	95.12
333.629	81.12
333.857	81.12
334.085	100.12
334.314	86.12
334.542	76.12
334.771	87.12
334.999	88.12
335.227	87.12
335.455	93.12
335.684	90.12
335.912	99.12
336.14	73.12
336.369	81.12
336.597	84.12
336.825	98.12
337.053	94.12
337.281	84.12
337.51	88.12
337.738	80.12
337.966	90.12
338.194	89.12
338.422	94.12
338.65	89.12
338.878	102.12
339.106	85.12
339.334	94.12
339.562	90.12
339.79	93.12
340.018	90.12
340.246	86.12
340.474	99.12
340.702	84.12
340.93	83.12
341.158	84.12
341.386	85.12
341.614	76.12
341.842	78.12
342.07	101.12
342.298	96.12
342.526	98.12
342.754	95.12
342.981	82.12
343.209	101.12
343.437	95.12
343.665	77.12
343.893	96.12
344.12	101.12
344.348	93.12
344.576	87.12
344.804	79.12
345.031	92.12
345.259	88.12
345.487	81.12
345.714	84.12
345.942	78.12
346.17	89.12
346.397	93.12
346.625	95.12
346.853	83.12
347.08	92.12
347.308	84.12
347.535	76.12
347.763	91.12
347.99	88.12
348.218	82.12
348.445	84.12
348.673	93.12
348.9	71.12
349.128	75.12
349.355	96.12
349.583	92.12
349.81	89.12
350.037	85.12
350.265	97.12
350.492	88.12
350.72	80.12
350.947	96.12
351.174	97.12
351.402	93.12
351.629	93.12
351.856	108.12
352.083	81.12
352.311	93.12
352.538	85.12
352.765	80.12
352.992	80.12
353.22	97.12
353.447	67.12
353.674	79.12
353.901	88.12
354.128	84.12
354.355	80.12
354.583	85.12
354.81	66.12
355.037	90.12
355.264	82.12
355.491	81.12
355.718	89.12
355.945	77.12
356.172	79.12
356.399	89.12
356.626	94.12
356.853	87.12
357.08	86.12
357.307	87.12
357.534	73.12
357.761	87.12
357.988	79.12
358.215	92.12
358.441	73.12
358.668	84.12
358.895	86.12
359.122	93.12
359.349	80.12
359.576	76.12
359.802	98.12
360.029	72.12
360.256	93.12
360.483	84.12
360.709	91.12
360.936	88.12
361.163	91.12
361.39	89.12
361.616	82.12
361.843	80.12
362.07	85.12
362.296	97.12
362.523	99.12
362.749	96.12
362.976	79.12
363.203	87.12
363.429	81.12
363.656	87.12
363.882	72.12
364.109	93.12
364.335	95.12
364.562	90.12
364.788	85.12
365.015	87.12
365.241	76.12
365.468	80.12
365.694	66.12
365.92	77.12
366.147	90.12
366.373	77.12
366.599	80.12
366.826	80.12
367.052	95.12
367.278	100.12
367.505	87.12
367.731	97.12
367.957	94.12
368.184	82.12
368.41	79.12
368.636	92.12
368.862	104.12
369.089	77.12
369.315	103.12
369.541	84.12
369.767	99.12
369.993	111.12
370.219	92.12
370.445	84.12
370.672	78.12
370.898	94.12
371.124	104.12
371.35	85.12
371.576	83.12
371.802	95.12
372.028	91.12
372.254	97.12
372.48	96.12
372.706	100.12
372.932	81.12
373.158	99.12
373.384	105.12
373.61	97.12
373.835	97.12
374.061	89.12
374.287	93.12
374.513	96.12
374.739	86.12
374.965	73.12
375.191	95.12
375.416	86.12
375.642	94.12
375.868	104.12
376.094	97.12
376.319	100.12
376.545	85.12
376.771	89.12
376.997	105.12
377.222	100.12
377.448	98.12
377.674	97.12
377.899	110.12
378.125	91.12
378.35	93.12
378.576	94.12
378.802	93.12
379.027	86.12
379.253	89.12
379.478	100.12
379.704	90.12
379.929	91.12
380.155	90.12
380.38	80.12
380.606	91.12
380.831	93.12
381.057	106.12
381.282	96.12
381.507	107.12
381.733	102.12
381.958	85.12
382.184	93.12
382.409	100.12
382.634	98.12
382.86	95.12
383.085	108.12
383.31	107.12
383.535	93.12
383.761	98.12
383.986	107.12
384.211	93.12
384.436	92.12
384.662	104.12
384.887	89.12
385.112	105.12
385.337	106.12
385.562	108.12
385.787	107.12
386.013	102.12
386.238	113.12
386.463	105.12
386.688	112.12
386.913	99.12
387.138	95.12
387.363	97.12
387.588	102.12
387.813	100.12
388.038	109.12
388.263	93.12
388.488	109.12
388.713	98.12
388.938	102.12
389.163	108.12
389.387	97.12
389.612	100.12
389.837	100.12
390.062	113.12
390.287	110.12
390.512	101.12
390.736	101.12
390.961	89.12
391.186	98.12
391.411	114.12
391.636	113.12
391.86	95.12
392.085	118.12
392.31	105.12
392.534	106.12
392.759	115.12
392.984	117.12
393.208	120.12
393.433	114.12
393.658	107.12
393.882	99.12
394.107	126.12
394.331	107.12
394.556	109.12
394.78	99.12
395.005	90.12
395.229	108.12
395.454	106.12
395.678	109.12
395.903	112.12
396.127	100.12
396.352	113.12
396.576	126.12
396.801	108.12
397.025	102.12
397.249	106.12
397.474	120.12
397.698	114.12
397.922	103.12
398.147	112.12
398.371	122.12
398.595	117.12
398.82	107.12
399.044	106.12
399.268	114.12
399.492	100.12
399.717	120.12
399.941	120.12
400.165	114.12
400.389	104.12
400.613	123.12
400.837	110.12
401.062	120.12
401.286	113.12
401.51	117.12
401.734	113.12
401.958	122.12
402.182	110.12
402.406	122.12
402.63	124.12
402.854	119.12
403.078	107.12
403.302	118.12
403.526	110.12
403.75	112.12
403.974	96.12
404.198	122.12
404.422	132.12
404.645	114.12
404.869	114.12
405.093	128.12
405.317	110.12
405.541	132.12
405.765	130.12
405.988	113.12
406.212	123.12
406.436	102.12
406.66	118.12
406.883	128.12
407.107	112.12
407.331	138.12
407.555	136.12
407.778	130.12
408.002	118.12
408.226	121.12
408.449	131.12
408.673	128.12
408.896	117.12
409.12	128.12
409.344	128.12
409.567	108.12
409.791	132.12
410.014	123.12
410.238	122.12
410.461	126.12
410.685	124.12
410.908	133.12
411.132	123.12
411.355	138.12
411.578	133.12
411.802	125.12
412.025	112.12
412.249	117.12
412.472	133.12
412.695	121.12
412.919	110.12
413.142	132.12
413.365	126.12
413.589	116.12
413.812	128.12
414.035	128.12
414.258	133.12
414.482	134.12
414.705	126.12
414.928	131.12
415.151	124.12
415.374	125.12
415.597	121.12
415.821	117.12
416.044	135.12
416.267	139.12
416.49	137.12
416.713	128.12
416.936	140.12
417.159	119.12
417.382	118.12
417.605	161.12
417.828	149.12
418.051	125.12
418.274	138.12
418.497	139.12
418.72	139.12
418.943	140.12
419.166	144.12
419.389	140.12
419.611	141.12
419.834	138.12
420.057	125.12
420.28	138.12
420.503	128.12
420.726	140.12
420.948	137.12
421.171	143.12
421.394	125.12
421.617	136.12
421.839	144.12
422.062	143.12
422.285	148.12
422.507	136.12
422.73	134.12
422.953	122.12
423.175	125.12
423.398	135.12
423.621	132.12
423.843	142.12
424.066	152.12
424.288	151.12
424.511	157.12
424.733	160.12
424.956	141.12
425.178	152.12
425.401	149.12
425.623	149.12
425.846	144.12
426.068	124.12
426.291	135.12
426.513	141.12
426.735	129.12
426.958	117.12
427.18	130.12
427.402	140.12
427.625	129.12
427.847	150.12
428.069	121.12
428.292	132.12
428.514	130.12
428.736	138.12
428.958	130.12
429.181	126.12
429.403	138.12
429.625	132.12
429.847	143.12
430.069	146.12
430.292	140.12
430.514	122.12
430.736	125.12
430.958	145.12
431.18	142.12
431.402	136.12
431.624	127.12
431.846	120.12
432.068	90.12
432.29	99.12
432.512	130.12
432.734	128.12
432.956	124.12
433.178	155.12
433.4	150.12
433.622	147.12
433.844	134.12
434.066	140.12
434.287	117.12
434.509	94.12
434.731	95.12
434.953	124.12
435.175	125.12
435.397	130.12
435.618	120.12
435.84	116.12
436.062	125.12
436.284	138.12
436.505	141.12
436.727	128.12
436.949	141.12
437.17	142.12
437.392	135.12
437.614	126.12
437.835	114.12
438.057	107.12
438.278	132.12
438.5	123.12
438.721	137.12
438.943	148.12
439.165	142.12
439.386	130.12
439.608	143.12
439.829	145.12
440.05	153.12
440.272	155.12
440.493	162.12
440.715	154.12
440.936	157.12
441.158	141.12
441.379	151.12
441.6	150.12
441.822	163.12
442.043	166.12
442.264	141.12
442.486	141.12
442.707	153.12
442.928	139.12
443.149	148.12
443.371	137.12
443.592	136.12
443.813	141.12
444.034	138.12
444.255	158.12
444.476	155.12
444.698	145.12
444.919	154.12
445.14	271.12
445.361	207.12
445.582	158.12
445.803	137.12
446.024	150.12
446.245	172.12
446.466	161.12
446.687	160.12
446.908	156.12
447.129	161.12
447.35	169.12
447.571	150.12
447.792	135.12
448.013	148.12
448.234	151.12
448.455	145.12
448.675	155.12
448.896	136.12
449.117	134.12
449.338	134.12
449.559	147.12
449.779	146.12
450	138.12
450.221	132.12
450.442	130.12
450.662	142.12
450.883	152.12
451.104	128.12
451.324	126.12
451.545	130.12
451.766	141.12
451.986	136.12
452.207	124.12
452.428	125.12
452.648	119.12
452.869	141.12
453.089	125.12
453.31	128.12
453.53	109.12
453.751	100.12
453.971	103.12
454.192	108.12
454.412	117.12
454.633	122.12
454.853	131.12
455.073	140.12
455.294	129.12
455.514	125.12
455.734	136.12
455.955	125.12
456.175	130.12
456.395	98.12
456.616	109.12
456.836	106.12
457.056	122.12
457.276	132.12
457.497	110.12
457.717	106.12
457.937	121.12
458.157	124.12
458.377	115.12
458.598	95.12
458.818	112.12
459.038	92.12
459.258	90.12
459.478	94.12
459.698	91.12
459.918	112.12
460.138	97.12
460.358	128.12
460.578	121.12
460.798	122.12
461.018	130.12
461.238	124.12
461.458	118.12
461.678	106.12
461.898	116.12
462.118	116.12
462.338	100.12
462.558	123.12
462.777	125.12
462.997	123.12
463.217	120.12
463.437	117.12
463.657	120.12
463.876	97.12
464.096	114.12
464.316	116.12
464.536	109.12
464.755	122.12
464.975	108.12
465.195	115.12
465.414	136.12
465.634	127.12
465.854	126.12
466.073	124.12
466.293	113.12
466.512	126.12
466.732	125.12
466.951	125.12
467.171	140.12
467.391	146.12
467.61	133.12
467.829	128.12
468.049	127.12
468.268	137.12
468.488	145.12
468.707	137.12
468.927	141.12
469.146	148.12
469.365	141.12
469.585	152.12
469.804	137.12
470.023	140.12
470.243	144.12
470.462	132.12
470.681	161.12
470.901	162.12
471.12	152.12
471.339	154.12
471.558	139.12
471.777	142.12
471.997	132.12
472.216	134.12
472.435	121.12
472.654	106.12
472.873	85.12
473.092	123.12
473.311	132.12
473.53	136.12
473.749	132.12
473.968	148.12
474.187	123.12
474.406	104.12
474.625	127.12
474.844	144.12
475.063	131.12
475.282	128.12
475.501	120.12
475.72	118.12
475.939	126.12
476.158	142.12
476.377	133.12
476.596	127.12
476.814	110.12
477.033	114.12
477.252	134.12
477.471	138.12
477.69	147.12
477.908	140.12
478.127	149.12
478.346	151.12
478.564	152.12
478.783	130.12
479.002	164.12
479.22	160.12
479.439	135.12
479.658	130.12
479.876	124.12
480.095	103.12
480.313	107.12
480.532	119.12
480.751	118.12
480.969	114.12
481.188	102.12
481.406	113.12
481.624	95.12
481.843	105.12
482.061	110.12
482.28	103.12
482.498	104.12
482.717	116.12
482.935	121.12
483.153	161.12
483.372	164.12
483.59	169.12
483.808	150.12
484.027	136.12
484.245	151.12
484.463	150.12
484.681	174.12
484.9	164.12
485.118	151.12
485.336	139.12
485.554	118.12
485.772	110.12
485.99	114.12
486.209	128.12
486.427	105.12
486.645	125.12
486.863	142.12
487.081	161.12
487.299	136.12
487.517	150.12
487.735	178.12
487.953	217.12
488.171	204.12
488.389	194.12
488.607	175.12
488.825	152.12
489.043	154.12
489.261	142.12
489.479	153.12
489.696	138.12
489.914	159.12
490.132	146.12
490.35	156.12
490.568	173.12
490.786	184.12
491.003	199.12
491.221	188.12
491.439	184.12
491.657	208.12
491.874	213.12
492.092	246.12
492.31	265.12
492.527	225.12
492.745	215.12
492.963	203.12
493.18	201.12
493.398	194.12
493.615	180.12
493.833	188.12
494.05	190.12
494.268	187.12
494.485	185.12
494.703	188.12
494.92	169.12
495.138	192.12
495.355	184.12
495.573	179.12
495.79	179.12
496.008	180.12
496.225	179.12
496.442	146.12
496.66	173.12
496.877	176.12
497.094	180.12
497.312	170.12
497.529	169.12
497.746	148.12
497.963	140.12
498.181	146.12
498.398	126.12
498.615	138.12
498.832	138.12
499.049	129.12
499.267	135.12
499.484	125.12
499.701	139.12
499.918	144.12
500.135	140.12
500.352	147.12
500.569	144.12
500.786	155.12
501.003	149.12
501.22	160.12
501.437	130.12
501.654	130.12
501.871	145.12
502.088	138.12
502.305	146.12
502.522	133.12
502.739	133.12
502.956	129.12
503.172	138.12
503.389	139.12
503.606	107.12
503.823	112.12
504.04	112.12
504.256	119.12
504.473	122.12
504.69	126.12
504.907	137.12
505.123	128.12
505.34	139.12
505.557	146.12
505.773	151.12
505.99	129.12
506.207	142.12
506.423	123.12
506.64	126.12
506.856	118.12
507.073	119.12
507.289	128.12
507.506	122.12
507.722	128.12
507.939	122.12
508.155	114.12
508.372	122.12
508.588	125.12
508.805	122.12
509.021	121.12
509.238	117.12
509.454	101.12
509.67	97.12
509.887	116.12
510.103	108.12
510.319	97.12
510.536	100.12
510.752	72.12
510.968	81.12
511.184	83.12
