Data from Location6.07152019.Energy5.Lamp.07192019.3%Agarose_HRD10591_16-13-25-396.txt Node
Date: Fri Jul 19 16:13:25 EDT 2019
User: cochatt
Spectrometer: HR+D1059
Trigger mode: 1
Integration Time (sec): 1.000000E-1
Scans to average: 1
Electric dark correction enabled: true
Nonlinearity correction enabled: false
Boxcar width: 0
XAxis mode: Wavelengths
Number of Pixels in Spectrum: 2048
>>>>>Begin Spectral Data<<<<<
223.165	-10.75
223.4	-10.75
223.635	-10.75
223.869	-16.75
224.104	-16.75
224.338	-2.75
224.573	12.25
224.808	-23.75
225.042	-21.75
225.277	4.25
225.511	-2.75
225.746	1.25
225.98	-6.75
226.215	-9.75
226.449	9.25
226.683	25.25
226.918	21.25
227.152	38.25
227.387	18.25
227.621	26.25
227.856	43.25
228.09	36.25
228.324	41.25
228.559	51.25
228.793	57.25
229.027	63.25
229.262	73.25
229.496	60.25
229.73	83.25
229.964	84.25
230.199	73.25
230.433	62.25
230.667	68.25
230.901	88.25
231.136	84.25
231.37	63.25
231.604	68.25
231.838	79.25
232.072	79.25
232.306	85.25
232.541	85.25
232.775	74.25
233.009	90.25
233.243	87.25
233.477	88.25
233.711	92.25
233.945	70.25
234.179	87.25
234.413	94.25
234.647	87.25
234.881	79.25
235.115	85.25
235.349	82.25
235.583	83.25
235.817	78.25
236.051	75.25
236.285	78.25
236.519	78.25
236.753	74.25
236.987	69.25
237.221	66.25
237.455	90.25
237.689	90.25
237.922	94.25
238.156	54.25
238.39	73.25
238.624	86.25
238.858	74.25
239.091	79.25
239.325	79.25
239.559	72.25
239.793	67.25
240.027	74.25
240.26	80.25
240.494	69.25
240.728	60.25
240.961	56.25
241.195	74.25
241.429	76.25
241.662	74.25
241.896	75.25
242.13	89.25
242.363	75.25
242.597	86.25
242.83	81.25
243.064	79.25
243.298	87.25
243.531	77.25
243.765	71.25
243.998	86.25
244.232	99.25
244.465	86.25
244.699	93.25
244.932	72.25
245.166	71.25
245.399	88.25
245.633	72.25
245.866	79.25
246.099	78.25
246.333	80.25
246.566	75.25
246.8	78.25
247.033	84.25
247.266	83.25
247.5	80.25
247.733	77.25
247.966	81.25
248.2	70.25
248.433	82.25
248.666	81.25
248.899	77.25
249.133	81.25
249.366	83.25
249.599	92.25
249.832	84.25
250.066	100.25
250.299	93.25
250.532	80.25
250.765	84.25
250.998	84.25
251.231	87.25
251.465	82.25
251.698	85.25
251.931	94.25
252.164	81.25
252.397	75.25
252.63	85.25
252.863	66.25
253.096	74.25
253.329	81.25
253.562	85.25
253.795	94.25
254.028	77.25
254.261	69.25
254.494	75.25
254.727	69.25
254.96	84.25
255.193	76.25
255.426	91.25
255.659	78.25
255.892	77.25
256.124	91.25
256.357	87.25
256.59	80.25
256.823	97.25
257.056	76.25
257.289	79.25
257.521	89.25
257.754	92.25
257.987	72.25
258.22	84.25
258.452	83.25
258.685	74.25
258.918	85.25
259.151	91.25
259.383	79.25
259.616	70.25
259.849	84.25
260.081	86.25
260.314	90.25
260.547	96.25
260.779	72.25
261.012	79.25
261.244	87.25
261.477	89.25
261.71	78.25
261.942	90.25
262.175	81.25
262.407	75.25
262.64	84.25
262.872	78.25
263.105	76.25
263.337	90.25
263.57	97.25
263.802	66.25
264.035	71.25
264.267	96.25
264.499	91.25
264.732	79.25
264.964	107.25
265.197	92.25
265.429	86.25
265.661	79.25
265.894	82.25
266.126	87.25
266.358	90.25
266.591	67.25
266.823	82.25
267.055	89.25
267.287	91.25
267.52	85.25
267.752	77.25
267.984	85.25
268.216	75.25
268.448	86.25
268.681	92.25
268.913	77.25
269.145	76.25
269.377	80.25
269.609	88.25
269.841	100.25
270.073	87.25
270.306	73.25
270.538	95.25
270.77	74.25
271.002	82.25
271.234	89.25
271.466	79.25
271.698	98.25
271.93	85.25
272.162	80.25
272.394	87.25
272.626	81.25
272.858	93.25
273.09	73.25
273.322	94.25
273.553	89.25
273.785	91.25
274.017	82.25
274.249	80.25
274.481	84.25
274.713	83.25
274.945	68.25
275.176	91.25
275.408	89.25
275.64	76.25
275.872	80.25
276.104	97.25
276.335	82.25
276.567	87.25
276.799	84.25
277.031	91.25
277.262	94.25
277.494	78.25
277.726	94.25
277.957	79.25
278.189	84.25
278.421	66.25
278.652	85.25
278.884	81.25
279.115	89.25
279.347	86.25
279.579	80.25
279.81	98.25
280.042	90.25
280.273	91.25
280.505	68.25
280.736	85.25
280.968	81.25
281.199	91.25
281.431	84.25
281.662	84.25
281.894	84.25
282.125	89.25
282.356	89.25
282.588	92.25
282.819	98.25
283.051	82.25
283.282	86.25
283.513	82.25
283.745	67.25
283.976	85.25
284.207	78.25
284.439	96.25
284.67	84.25
284.901	82.25
285.132	84.25
285.364	92.25
285.595	88.25
285.826	91.25
286.057	70.25
286.288	78.25
286.52	95.25
286.751	88.25
286.982	82.25
287.213	79.25
287.444	92.25
287.675	85.25
287.906	96.25
288.138	82.25
288.369	83.25
288.6	90.25
288.831	93.25
289.062	92.25
289.293	99.25
289.524	86.25
289.755	78.25
289.986	86.25
290.217	85.25
290.448	90.25
290.679	81.25
290.91	91.25
291.141	87.25
291.371	90.25
291.602	84.25
291.833	75.25
292.064	80.25
292.295	75.25
292.526	90.25
292.757	88.25
292.987	92.25
293.218	86.25
293.449	77.25
293.68	71.25
293.91	92.25
294.141	85.25
294.372	76.25
294.603	80.25
294.833	96.25
295.064	94.25
295.295	104.25
295.525	88.25
295.756	89.25
295.987	81.25
296.217	86.25
296.448	76.25
296.679	90.25
296.909	80.25
297.14	85.25
297.37	102.25
297.601	89.25
297.831	92.25
298.062	86.25
298.292	86.25
298.523	76.25
298.753	93.25
298.984	87.25
299.214	93.25
299.445	76.25
299.675	79.25
299.905	94.25
300.136	88.25
300.366	92.25
300.597	94.25
300.827	94.25
301.057	89.25
301.288	86.25
301.518	87.25
301.748	79.25
301.979	85.25
302.209	83.25
302.439	75.25
302.669	93.25
302.9	85.25
303.13	83.25
303.36	84.25
303.59	99.25
303.82	69.25
304.051	87.25
304.281	92.25
304.511	97.25
304.741	98.25
304.971	101.25
305.201	86.25
305.431	78.25
305.661	86.25
305.891	96.25
306.121	86.25
306.352	78.25
306.582	91.25
306.812	87.25
307.042	108.25
307.272	87.25
307.502	72.25
307.731	85.25
307.961	80.25
308.191	91.25
308.421	99.25
308.651	95.25
308.881	92.25
309.111	76.25
309.341	88.25
309.571	83.25
309.8	74.25
310.03	74.25
310.26	89.25
310.49	75.25
310.72	101.25
310.949	97.25
311.179	91.25
311.409	82.25
311.639	78.25
311.868	85.25
312.098	87.25
312.328	92.25
312.557	82.25
312.787	83.25
313.017	70.25
313.246	90.25
313.476	76.25
313.706	83.25
313.935	78.25
314.165	94.25
314.394	97.25
314.624	86.25
314.853	89.25
315.083	93.25
315.312	85.25
315.542	86.25
315.771	90.25
316.001	80.25
316.23	86.25
316.46	87.25
316.689	101.25
316.919	71.25
317.148	80.25
317.377	89.25
317.607	95.25
317.836	87.25
318.065	85.25
318.295	90.25
318.524	90.25
318.753	77.25
318.983	91.25
319.212	90.25
319.441	84.25
319.67	90.25
319.9	85.25
320.129	93.25
320.358	90.25
320.587	74.25
320.816	85.25
321.046	93.25
321.275	84.25
321.504	89.25
321.733	94.25
321.962	90.25
322.191	99.25
322.42	83.25
322.649	91.25
322.878	94.25
323.108	93.25
323.337	67.25
323.566	78.25
323.795	69.25
324.024	90.25
324.253	84.25
324.482	86.25
324.71	100.25
324.939	94.25
325.168	87.25
325.397	92.25
325.626	91.25
325.855	82.25
326.084	89.25
326.313	81.25
326.542	85.25
326.77	88.25
326.999	79.25
327.228	87.25
327.457	70.25
327.686	105.25
327.914	82.25
328.143	90.25
328.372	85.25
328.6	82.25
328.829	94.25
329.058	91.25
329.287	85.25
329.515	85.25
329.744	88.25
329.972	88.25
330.201	78.25
330.43	83.25
330.658	79.25
330.887	82.25
331.115	77.25
331.344	85.25
331.572	88.25
331.801	95.25
332.03	95.25
332.258	99.25
332.486	74.25
332.715	84.25
332.943	96.25
333.172	78.25
333.4	84.25
333.629	87.25
333.857	84.25
334.085	90.25
334.314	83.25
334.542	89.25
334.771	84.25
334.999	92.25
335.227	95.25
335.455	100.25
335.684	79.25
335.912	86.25
336.14	95.25
336.369	79.25
336.597	86.25
336.825	82.25
337.053	85.25
337.281	82.25
337.51	94.25
337.738	83.25
337.966	83.25
338.194	86.25
338.422	80.25
338.65	92.25
338.878	91.25
339.106	86.25
339.334	107.25
339.562	85.25
339.79	86.25
340.018	92.25
340.246	79.25
340.474	83.25
340.702	103.25
340.93	109.25
341.158	87.25
341.386	83.25
341.614	99.25
341.842	92.25
342.07	87.25
342.298	84.25
342.526	92.25
342.754	90.25
342.981	91.25
343.209	79.25
343.437	86.25
343.665	84.25
343.893	82.25
344.12	89.25
344.348	82.25
344.576	81.25
344.804	86.25
345.031	91.25
345.259	83.25
345.487	84.25
345.714	94.25
345.942	98.25
346.17	78.25
346.397	76.25
346.625	83.25
346.853	101.25
347.08	99.25
347.308	94.25
347.535	76.25
347.763	77.25
347.99	80.25
348.218	77.25
348.445	101.25
348.673	91.25
348.9	73.25
349.128	88.25
349.355	88.25
349.583	92.25
349.81	98.25
350.037	85.25
350.265	81.25
350.492	94.25
350.72	90.25
350.947	77.25
351.174	79.25
351.402	101.25
351.629	86.25
351.856	97.25
352.083	83.25
352.311	91.25
352.538	69.25
352.765	89.25
352.992	82.25
353.22	85.25
353.447	87.25
353.674	74.25
353.901	85.25
354.128	88.25
354.355	92.25
354.583	81.25
354.81	90.25
355.037	84.25
355.264	93.25
355.491	84.25
355.718	90.25
355.945	92.25
356.172	78.25
356.399	113.25
356.626	82.25
356.853	84.25
357.08	75.25
357.307	98.25
357.534	85.25
357.761	84.25
357.988	85.25
358.215	81.25
358.441	79.25
358.668	90.25
358.895	95.25
359.122	85.25
359.349	79.25
359.576	85.25
359.802	73.25
360.029	82.25
360.256	93.25
360.483	79.25
360.709	85.25
360.936	91.25
361.163	89.25
361.39	82.25
361.616	88.25
361.843	76.25
362.07	86.25
362.296	84.25
362.523	83.25
362.749	91.25
362.976	94.25
363.203	80.25
363.429	92.25
363.656	88.25
363.882	82.25
364.109	67.25
364.335	73.25
364.562	97.25
364.788	102.25
365.015	87.25
365.241	89.25
365.468	94.25
365.694	88.25
365.92	87.25
366.147	91.25
366.373	99.25
366.599	99.25
366.826	86.25
367.052	101.25
367.278	89.25
367.505	85.25
367.731	94.25
367.957	81.25
368.184	75.25
368.41	94.25
368.636	83.25
368.862	87.25
369.089	95.25
369.315	85.25
369.541	99.25
369.767	71.25
369.993	78.25
370.219	98.25
370.445	90.25
370.672	104.25
370.898	106.25
371.124	89.25
371.35	84.25
371.576	87.25
371.802	74.25
372.028	101.25
372.254	95.25
372.48	90.25
372.706	88.25
372.932	94.25
373.158	97.25
373.384	98.25
373.61	103.25
373.835	109.25
374.061	106.25
374.287	92.25
374.513	85.25
374.739	89.25
374.965	83.25
375.191	90.25
375.416	89.25
375.642	110.25
375.868	95.25
376.094	103.25
376.319	101.25
376.545	113.25
376.771	107.25
376.997	81.25
377.222	83.25
377.448	103.25
377.674	93.25
377.899	103.25
378.125	94.25
378.35	85.25
378.576	102.25
378.802	110.25
379.027	93.25
379.253	98.25
379.478	80.25
379.704	98.25
379.929	95.25
380.155	110.25
380.38	111.25
380.606	110.25
380.831	93.25
381.057	115.25
381.282	99.25
381.507	99.25
381.733	108.25
381.958	95.25
382.184	110.25
382.409	112.25
382.634	108.25
382.86	95.25
383.085	97.25
383.31	108.25
383.535	92.25
383.761	99.25
383.986	95.25
384.211	93.25
384.436	102.25
384.662	98.25
384.887	101.25
385.112	103.25
385.337	87.25
385.562	115.25
385.787	99.25
386.013	105.25
386.238	88.25
386.463	99.25
386.688	92.25
386.913	92.25
387.138	108.25
387.363	110.25
387.588	113.25
387.813	104.25
388.038	94.25
388.263	100.25
388.488	90.25
388.713	102.25
388.938	99.25
389.163	101.25
389.387	125.25
389.612	110.25
389.837	99.25
390.062	121.25
390.287	117.25
390.512	113.25
390.736	111.25
390.961	88.25
391.186	104.25
391.411	106.25
391.636	110.25
391.86	115.25
392.085	121.25
392.31	114.25
392.534	100.25
392.759	118.25
392.984	103.25
393.208	95.25
393.433	107.25
393.658	113.25
393.882	113.25
394.107	109.25
394.331	116.25
394.556	108.25
394.78	116.25
395.005	105.25
395.229	109.25
395.454	121.25
395.678	105.25
395.903	103.25
396.127	128.25
396.352	106.25
396.576	121.25
396.801	122.25
397.025	121.25
397.249	124.25
397.474	113.25
397.698	135.25
397.922	102.25
398.147	104.25
398.371	113.25
398.595	110.25
398.82	113.25
399.044	109.25
399.268	105.25
399.492	122.25
399.717	113.25
399.941	116.25
400.165	108.25
400.389	118.25
400.613	114.25
400.837	129.25
401.062	108.25
401.286	125.25
401.51	116.25
401.734	102.25
401.958	120.25
402.182	118.25
402.406	108.25
402.63	126.25
402.854	122.25
403.078	121.25
403.302	129.25
403.526	134.25
403.75	114.25
403.974	106.25
404.198	119.25
404.422	129.25
404.645	127.25
404.869	122.25
405.093	118.25
405.317	123.25
405.541	131.25
405.765	125.25
405.988	129.25
406.212	119.25
406.436	132.25
406.66	126.25
406.883	129.25
407.107	130.25
407.331	125.25
407.555	115.25
407.778	122.25
408.002	124.25
408.226	117.25
408.449	127.25
408.673	131.25
408.896	109.25
409.12	119.25
409.344	123.25
409.567	126.25
409.791	122.25
410.014	126.25
410.238	128.25
410.461	136.25
410.685	126.25
410.908	124.25
411.132	136.25
411.355	122.25
411.578	116.25
411.802	128.25
412.025	142.25
412.249	137.25
412.472	117.25
412.695	111.25
412.919	116.25
413.142	139.25
413.365	131.25
413.589	133.25
413.812	137.25
414.035	127.25
414.258	129.25
414.482	116.25
414.705	122.25
414.928	119.25
415.151	124.25
415.374	139.25
415.597	115.25
415.821	134.25
416.044	129.25
416.267	141.25
416.49	127.25
416.713	124.25
416.936	124.25
417.159	133.25
417.382	135.25
417.605	120.25
417.828	132.25
418.051	135.25
418.274	137.25
418.497	128.25
418.72	131.25
418.943	130.25
419.166	138.25
419.389	128.25
419.611	140.25
419.834	139.25
420.057	154.25
420.28	142.25
420.503	134.25
420.726	133.25
420.948	132.25
421.171	136.25
421.394	151.25
421.617	153.25
421.839	149.25
422.062	139.25
422.285	141.25
422.507	126.25
422.73	129.25
422.953	129.25
423.175	126.25
423.398	148.25
423.621	137.25
423.843	122.25
424.066	149.25
424.288	151.25
424.511	152.25
424.733	158.25
424.956	145.25
425.178	135.25
425.401	149.25
425.623	133.25
425.846	142.25
426.068	131.25
426.291	129.25
426.513	131.25
426.735	141.25
426.958	149.25
427.18	141.25
427.402	142.25
427.625	136.25
427.847	146.25
428.069	128.25
428.292	126.25
428.514	131.25
428.736	135.25
428.958	138.25
429.181	125.25
429.403	133.25
429.625	124.25
429.847	150.25
430.069	135.25
430.292	135.25
430.514	129.25
430.736	133.25
430.958	148.25
431.18	122.25
431.402	127.25
431.624	124.25
431.846	119.25
432.068	105.25
432.29	120.25
432.512	113.25
432.734	136.25
432.956	145.25
433.178	154.25
433.4	129.25
433.622	134.25
433.844	136.25
434.066	140.25
434.287	119.25
434.509	91.25
434.731	94.25
434.953	119.25
435.175	123.25
435.397	122.25
435.618	116.25
435.84	101.25
436.062	107.25
436.284	136.25
436.505	127.25
436.727	135.25
436.949	137.25
437.17	137.25
437.392	139.25
437.614	127.25
437.835	99.25
438.057	113.25
438.278	123.25
438.5	120.25
438.721	132.25
438.943	143.25
439.165	147.25
439.386	152.25
439.608	151.25
439.829	167.25
440.05	161.25
440.272	144.25
440.493	152.25
440.715	148.25
440.936	154.25
441.158	154.25
441.379	143.25
441.6	149.25
441.822	157.25
442.043	139.25
442.264	147.25
442.486	133.25
442.707	138.25
442.928	159.25
443.149	152.25
443.371	145.25
443.592	144.25
443.813	151.25
444.034	153.25
444.255	161.25
444.476	154.25
444.698	140.25
444.919	147.25
445.14	301.25
445.361	216.25
445.582	159.25
445.803	169.25
446.024	154.25
446.245	155.25
446.466	154.25
446.687	175.25
446.908	172.25
447.129	178.25
447.35	159.25
447.571	146.25
447.792	152.25
448.013	156.25
448.234	150.25
448.455	130.25
448.675	140.25
448.896	146.25
449.117	153.25
449.338	148.25
449.559	157.25
449.779	149.25
450	135.25
450.221	146.25
450.442	146.25
450.662	135.25
450.883	144.25
451.104	143.25
451.324	131.25
451.545	167.25
451.766	144.25
451.986	129.25
452.207	129.25
452.428	122.25
452.648	127.25
452.869	138.25
453.089	124.25
453.31	113.25
453.53	138.25
453.751	117.25
453.971	111.25
454.192	105.25
454.412	117.25
454.633	109.25
454.853	131.25
455.073	119.25
455.294	126.25
455.514	119.25
455.734	128.25
455.955	126.25
456.175	126.25
456.395	127.25
456.616	109.25
456.836	103.25
457.056	114.25
457.276	115.25
457.497	105.25
457.717	114.25
457.937	109.25
458.157	127.25
458.377	103.25
458.598	104.25
458.818	96.25
459.038	108.25
459.258	85.25
459.478	89.25
459.698	95.25
459.918	103.25
460.138	93.25
460.358	137.25
460.578	122.25
460.798	121.25
461.018	130.25
461.238	135.25
461.458	123.25
461.678	126.25
461.898	108.25
462.118	125.25
462.338	121.25
462.558	113.25
462.777	119.25
462.997	115.25
463.217	114.25
463.437	112.25
463.657	136.25
463.876	102.25
464.096	112.25
464.316	108.25
464.536	114.25
464.755	135.25
464.975	129.25
465.195	127.25
465.414	131.25
465.634	124.25
465.854	131.25
466.073	135.25
466.293	138.25
466.512	117.25
466.732	133.25
466.951	155.25
467.171	153.25
467.391	138.25
467.61	166.25
467.829	149.25
468.049	140.25
468.268	143.25
468.488	132.25
468.707	151.25
468.927	139.25
469.146	125.25
469.365	144.25
469.585	147.25
469.804	166.25
470.023	147.25
470.243	156.25
470.462	153.25
470.681	162.25
470.901	155.25
471.12	152.25
471.339	152.25
471.558	157.25
471.777	143.25
471.997	149.25
472.216	141.25
472.435	109.25
472.654	113.25
472.873	113.25
473.092	124.25
473.311	138.25
473.53	137.25
473.749	125.25
473.968	137.25
474.187	129.25
474.406	130.25
474.625	126.25
474.844	140.25
475.063	144.25
475.282	139.25
475.501	135.25
475.72	141.25
475.939	119.25
476.158	131.25
476.377	126.25
476.596	140.25
476.814	123.25
477.033	115.25
477.252	125.25
477.471	123.25
477.69	146.25
477.908	132.25
478.127	164.25
478.346	144.25
478.564	142.25
478.783	142.25
479.002	143.25
479.22	143.25
479.439	147.25
479.658	142.25
479.876	119.25
480.095	113.25
480.313	119.25
480.532	127.25
480.751	122.25
480.969	93.25
481.188	94.25
481.406	86.25
481.624	85.25
481.843	91.25
482.061	109.25
482.28	118.25
482.498	125.25
482.717	134.25
482.935	118.25
483.153	141.25
483.372	174.25
483.59	154.25
483.808	139.25
484.027	144.25
484.245	139.25
484.463	158.25
484.681	155.25
484.9	155.25
485.118	146.25
485.336	149.25
485.554	116.25
485.772	113.25
485.99	100.25
486.209	117.25
486.427	109.25
486.645	141.25
486.863	152.25
487.081	154.25
487.299	147.25
487.517	156.25
487.735	178.25
487.953	195.25
488.171	200.25
488.389	173.25
488.607	163.25
488.825	131.25
489.043	127.25
489.261	137.25
489.479	139.25
489.696	142.25
489.914	157.25
490.132	169.25
490.35	168.25
490.568	158.25
490.786	202.25
491.003	184.25
491.221	199.25
491.439	195.25
491.657	212.25
491.874	197.25
492.092	233.25
492.31	256.25
492.527	235.25
492.745	209.25
492.963	200.25
493.18	190.25
493.398	179.25
493.615	182.25
493.833	179.25
494.05	194.25
494.268	166.25
494.485	187.25
494.703	179.25
494.92	175.25
495.138	179.25
495.355	193.25
495.573	190.25
495.79	163.25
496.008	172.25
496.225	174.25
496.442	183.25
496.66	185.25
496.877	162.25
497.094	168.25
497.312	173.25
497.529	172.25
497.746	162.25
497.963	137.25
498.181	114.25
498.398	143.25
498.615	129.25
498.832	119.25
499.049	119.25
499.267	121.25
499.484	145.25
499.701	135.25
499.918	137.25
500.135	127.25
500.352	136.25
500.569	158.25
500.786	154.25
501.003	158.25
501.22	142.25
501.437	156.25
501.654	142.25
501.871	141.25
502.088	131.25
502.305	144.25
502.522	155.25
502.739	135.25
502.956	142.25
503.172	130.25
503.389	136.25
503.606	122.25
503.823	133.25
504.04	123.25
504.256	145.25
504.473	121.25
504.69	133.25
504.907	126.25
505.123	130.25
505.34	126.25
505.557	140.25
505.773	141.25
505.99	130.25
506.207	127.25
506.423	142.25
506.64	135.25
506.856	135.25
507.073	131.25
507.289	123.25
507.506	116.25
507.722	119.25
507.939	128.25
508.155	121.25
508.372	115.25
508.588	113.25
508.805	118.25
509.021	108.25
509.238	113.25
509.454	100.25
509.67	94.25
509.887	93.25
510.103	100.25
510.319	100.25
510.536	103.25
510.752	98.25
510.968	81.25
