Data from Location6.07152019.Energy5.Lamp.07192019.3%Agarose_HRD10591_16-13-17-395.txt Node
Date: Fri Jul 19 16:13:17 EDT 2019
User: cochatt
Spectrometer: HR+D1059
Trigger mode: 1
Integration Time (sec): 1.000000E-1
Scans to average: 1
Electric dark correction enabled: true
Nonlinearity correction enabled: false
Boxcar width: 0
XAxis mode: Wavelengths
Number of Pixels in Spectrum: 2048
>>>>>Begin Spectral Data<<<<<
223.165	-26.06
223.4	-26.06
223.635	-26.06
223.869	-20.06
224.104	-17.06
224.338	-10.06
224.573	-11.06
224.808	-16.06
225.042	-2.06
225.277	-14.06
225.511	-11.06
225.746	16.94
225.98	13.94
226.215	19.94
226.449	2.94
226.683	22.94
226.918	23.94
227.152	26.94
227.387	27.94
227.621	33.94
227.856	36.94
228.09	54.94
228.324	56.94
228.559	51.94
228.793	51.94
229.027	59.94
229.262	51.94
229.496	74.94
229.73	55.94
229.964	66.94
230.199	68.94
230.433	68.94
230.667	72.94
230.901	77.94
231.136	82.94
231.37	71.94
231.604	74.94
231.838	67.94
232.072	73.94
232.306	82.94
232.541	74.94
232.775	92.94
233.009	84.94
233.243	87.94
233.477	82.94
233.711	80.94
233.945	78.94
234.179	74.94
234.413	88.94
234.647	58.94
234.881	73.94
235.115	74.94
235.349	80.94
235.583	81.94
235.817	79.94
236.051	76.94
236.285	62.94
236.519	73.94
236.753	68.94
236.987	67.94
237.221	75.94
237.455	59.94
237.689	68.94
237.922	72.94
238.156	78.94
238.39	62.94
238.624	70.94
238.858	66.94
239.091	68.94
239.325	67.94
239.559	81.94
239.793	85.94
240.027	79.94
240.26	63.94
240.494	78.94
240.728	81.94
240.961	71.94
241.195	62.94
241.429	77.94
241.662	90.94
241.896	66.94
242.13	67.94
242.363	70.94
242.597	77.94
242.83	75.94
243.064	68.94
243.298	69.94
243.531	73.94
243.765	71.94
243.998	69.94
244.232	76.94
244.465	85.94
244.699	69.94
244.932	73.94
245.166	60.94
245.399	67.94
245.633	89.94
245.866	73.94
246.099	74.94
246.333	71.94
246.566	81.94
246.8	79.94
247.033	75.94
247.266	75.94
247.5	72.94
247.733	74.94
247.966	82.94
248.2	74.94
248.433	74.94
248.666	62.94
248.899	76.94
249.133	90.94
249.366	72.94
249.599	81.94
249.832	80.94
250.066	81.94
250.299	58.94
250.532	68.94
250.765	74.94
250.998	73.94
251.231	92.94
251.465	79.94
251.698	59.94
251.931	69.94
252.164	76.94
252.397	79.94
252.63	70.94
252.863	76.94
253.096	88.94
253.329	84.94
253.562	87.94
253.795	76.94
254.028	77.94
254.261	65.94
254.494	87.94
254.727	76.94
254.96	80.94
255.193	78.94
255.426	89.94
255.659	81.94
255.892	82.94
256.124	80.94
256.357	76.94
256.59	73.94
256.823	76.94
257.056	94.94
257.289	83.94
257.521	80.94
257.754	83.94
257.987	74.94
258.22	65.94
258.452	60.94
258.685	67.94
258.918	76.94
259.151	82.94
259.383	88.94
259.616	78.94
259.849	72.94
260.081	75.94
260.314	85.94
260.547	81.94
260.779	71.94
261.012	53.94
261.244	69.94
261.477	74.94
261.71	67.94
261.942	74.94
262.175	78.94
262.407	62.94
262.64	79.94
262.872	80.94
263.105	72.94
263.337	83.94
263.57	84.94
263.802	76.94
264.035	72.94
264.267	77.94
264.499	101.94
264.732	86.94
264.964	89.94
265.197	74.94
265.429	83.94
265.661	74.94
265.894	79.94
266.126	62.94
266.358	91.94
266.591	71.94
266.823	80.94
267.055	66.94
267.287	82.94
267.52	82.94
267.752	80.94
267.984	77.94
268.216	72.94
268.448	69.94
268.681	73.94
268.913	74.94
269.145	63.94
269.377	79.94
269.609	68.94
269.841	74.94
270.073	76.94
270.306	92.94
270.538	74.94
270.77	89.94
271.002	79.94
271.234	90.94
271.466	79.94
271.698	80.94
271.93	80.94
272.162	85.94
272.394	78.94
272.626	84.94
272.858	85.94
273.09	74.94
273.322	86.94
273.553	87.94
273.785	71.94
274.017	73.94
274.249	73.94
274.481	71.94
274.713	79.94
274.945	87.94
275.176	83.94
275.408	84.94
275.64	58.94
275.872	85.94
276.104	71.94
276.335	72.94
276.567	86.94
276.799	81.94
277.031	76.94
277.262	82.94
277.494	87.94
277.726	63.94
277.957	87.94
278.189	72.94
278.421	86.94
278.652	73.94
278.884	78.94
279.115	77.94
279.347	77.94
279.579	74.94
279.81	92.94
280.042	83.94
280.273	74.94
280.505	71.94
280.736	90.94
280.968	83.94
281.199	76.94
281.431	75.94
281.662	82.94
281.894	78.94
282.125	86.94
282.356	73.94
282.588	82.94
282.819	87.94
283.051	78.94
283.282	88.94
283.513	76.94
283.745	98.94
283.976	97.94
284.207	86.94
284.439	83.94
284.67	76.94
284.901	83.94
285.132	75.94
285.364	78.94
285.595	91.94
285.826	79.94
286.057	79.94
286.288	80.94
286.52	94.94
286.751	76.94
286.982	87.94
287.213	90.94
287.444	79.94
287.675	72.94
287.906	85.94
288.138	78.94
288.369	73.94
288.6	82.94
288.831	83.94
289.062	89.94
289.293	84.94
289.524	82.94
289.755	97.94
289.986	86.94
290.217	84.94
290.448	84.94
290.679	78.94
290.91	95.94
291.141	90.94
291.371	68.94
291.602	65.94
291.833	78.94
292.064	75.94
292.295	79.94
292.526	86.94
292.757	77.94
292.987	81.94
293.218	88.94
293.449	92.94
293.68	80.94
293.91	91.94
294.141	69.94
294.372	86.94
294.603	71.94
294.833	81.94
295.064	79.94
295.295	73.94
295.525	84.94
295.756	85.94
295.987	76.94
296.217	76.94
296.448	80.94
296.679	76.94
296.909	87.94
297.14	86.94
297.37	89.94
297.601	82.94
297.831	88.94
298.062	89.94
298.292	83.94
298.523	81.94
298.753	82.94
298.984	93.94
299.214	78.94
299.445	80.94
299.675	79.94
299.905	83.94
300.136	84.94
300.366	82.94
300.597	84.94
300.827	81.94
301.057	84.94
301.288	71.94
301.518	93.94
301.748	84.94
301.979	88.94
302.209	81.94
302.439	87.94
302.669	71.94
302.9	81.94
303.13	78.94
303.36	74.94
303.59	68.94
303.82	67.94
304.051	82.94
304.281	80.94
304.511	79.94
304.741	75.94
304.971	79.94
305.201	89.94
305.431	74.94
305.661	90.94
305.891	71.94
306.121	83.94
306.352	77.94
306.582	70.94
306.812	84.94
307.042	70.94
307.272	77.94
307.502	78.94
307.731	84.94
307.961	79.94
308.191	80.94
308.421	85.94
308.651	75.94
308.881	78.94
309.111	80.94
309.341	77.94
309.571	83.94
309.8	76.94
310.03	71.94
310.26	76.94
310.49	72.94
310.72	85.94
310.949	82.94
311.179	104.94
311.409	76.94
311.639	71.94
311.868	81.94
312.098	89.94
312.328	76.94
312.557	84.94
312.787	86.94
313.017	81.94
313.246	84.94
313.476	92.94
313.706	84.94
313.935	96.94
314.165	83.94
314.394	93.94
314.624	80.94
314.853	88.94
315.083	90.94
315.312	104.94
315.542	82.94
315.771	88.94
316.001	81.94
316.23	88.94
316.46	78.94
316.689	75.94
316.919	80.94
317.148	86.94
317.377	80.94
317.607	86.94
317.836	78.94
318.065	77.94
318.295	86.94
318.524	73.94
318.753	96.94
318.983	91.94
319.212	70.94
319.441	86.94
319.67	100.94
319.9	80.94
320.129	83.94
320.358	90.94
320.587	82.94
320.816	84.94
321.046	77.94
321.275	70.94
321.504	95.94
321.733	90.94
321.962	80.94
322.191	84.94
322.42	83.94
322.649	88.94
322.878	84.94
323.108	72.94
323.337	84.94
323.566	94.94
323.795	87.94
324.024	81.94
324.253	76.94
324.482	81.94
324.71	78.94
324.939	86.94
325.168	93.94
325.397	86.94
325.626	85.94
325.855	75.94
326.084	73.94
326.313	74.94
326.542	86.94
326.77	86.94
326.999	88.94
327.228	74.94
327.457	83.94
327.686	97.94
327.914	86.94
328.143	78.94
328.372	79.94
328.6	82.94
328.829	77.94
329.058	71.94
329.287	75.94
329.515	79.94
329.744	85.94
329.972	88.94
330.201	90.94
330.43	91.94
330.658	99.94
330.887	80.94
331.115	84.94
331.344	94.94
331.572	82.94
331.801	70.94
332.03	82.94
332.258	66.94
332.486	70.94
332.715	69.94
332.943	89.94
333.172	89.94
333.4	91.94
333.629	92.94
333.857	94.94
334.085	88.94
334.314	87.94
334.542	93.94
334.771	77.94
334.999	60.94
335.227	88.94
335.455	84.94
335.684	91.94
335.912	98.94
336.14	92.94
336.369	74.94
336.597	75.94
336.825	85.94
337.053	90.94
337.281	80.94
337.51	76.94
337.738	82.94
337.966	86.94
338.194	94.94
338.422	91.94
338.65	86.94
338.878	80.94
339.106	94.94
339.334	94.94
339.562	77.94
339.79	88.94
340.018	97.94
340.246	94.94
340.474	81.94
340.702	93.94
340.93	111.94
341.158	80.94
341.386	83.94
341.614	83.94
341.842	101.94
342.07	88.94
342.298	71.94
342.526	81.94
342.754	75.94
342.981	86.94
343.209	94.94
343.437	87.94
343.665	88.94
343.893	97.94
344.12	97.94
344.348	86.94
344.576	88.94
344.804	88.94
345.031	95.94
345.259	79.94
345.487	89.94
345.714	85.94
345.942	76.94
346.17	83.94
346.397	81.94
346.625	80.94
346.853	72.94
347.08	85.94
347.308	82.94
347.535	79.94
347.763	79.94
347.99	85.94
348.218	73.94
348.445	77.94
348.673	77.94
348.9	80.94
349.128	87.94
349.355	87.94
349.583	87.94
349.81	79.94
350.037	80.94
350.265	80.94
350.492	81.94
350.72	79.94
350.947	79.94
351.174	87.94
351.402	103.94
351.629	82.94
351.856	73.94
352.083	81.94
352.311	83.94
352.538	77.94
352.765	81.94
352.992	87.94
353.22	82.94
353.447	82.94
353.674	80.94
353.901	99.94
354.128	95.94
354.355	86.94
354.583	73.94
354.81	98.94
355.037	77.94
355.264	76.94
355.491	79.94
355.718	79.94
355.945	83.94
356.172	83.94
356.399	86.94
356.626	82.94
356.853	87.94
357.08	72.94
357.307	83.94
357.534	79.94
357.761	79.94
357.988	95.94
358.215	84.94
358.441	102.94
358.668	78.94
358.895	78.94
359.122	91.94
359.349	90.94
359.576	92.94
359.802	88.94
360.029	81.94
360.256	71.94
360.483	82.94
360.709	79.94
360.936	99.94
361.163	83.94
361.39	86.94
361.616	87.94
361.843	73.94
362.07	88.94
362.296	82.94
362.523	85.94
362.749	86.94
362.976	81.94
363.203	85.94
363.429	78.94
363.656	91.94
363.882	82.94
364.109	88.94
364.335	96.94
364.562	91.94
364.788	85.94
365.015	83.94
365.241	69.94
365.468	84.94
365.694	87.94
365.92	87.94
366.147	80.94
366.373	85.94
366.599	81.94
366.826	76.94
367.052	87.94
367.278	86.94
367.505	95.94
367.731	96.94
367.957	85.94
368.184	98.94
368.41	101.94
368.636	77.94
368.862	82.94
369.089	98.94
369.315	90.94
369.541	79.94
369.767	92.94
369.993	103.94
370.219	81.94
370.445	99.94
370.672	95.94
370.898	88.94
371.124	83.94
371.35	99.94
371.576	92.94
371.802	89.94
372.028	88.94
372.254	81.94
372.48	89.94
372.706	91.94
372.932	88.94
373.158	104.94
373.384	94.94
373.61	92.94
373.835	92.94
374.061	95.94
374.287	88.94
374.513	93.94
374.739	80.94
374.965	91.94
375.191	87.94
375.416	87.94
375.642	71.94
375.868	90.94
376.094	76.94
376.319	94.94
376.545	89.94
376.771	104.94
376.997	88.94
377.222	91.94
377.448	94.94
377.674	96.94
377.899	98.94
378.125	93.94
378.35	107.94
378.576	92.94
378.802	105.94
379.027	98.94
379.253	97.94
379.478	73.94
379.704	78.94
379.929	98.94
380.155	100.94
380.38	91.94
380.606	95.94
380.831	92.94
381.057	103.94
381.282	100.94
381.507	101.94
381.733	92.94
381.958	87.94
382.184	99.94
382.409	96.94
382.634	87.94
382.86	94.94
383.085	112.94
383.31	98.94
383.535	83.94
383.761	100.94
383.986	97.94
384.211	96.94
384.436	103.94
384.662	91.94
384.887	95.94
385.112	107.94
385.337	106.94
385.562	107.94
385.787	90.94
386.013	100.94
386.238	107.94
386.463	105.94
386.688	93.94
386.913	103.94
387.138	71.94
387.363	108.94
387.588	109.94
387.813	104.94
388.038	103.94
388.263	94.94
388.488	99.94
388.713	91.94
388.938	90.94
389.163	112.94
389.387	110.94
389.612	108.94
389.837	93.94
390.062	93.94
390.287	101.94
390.512	113.94
390.736	102.94
390.961	95.94
391.186	100.94
391.411	104.94
391.636	106.94
391.86	96.94
392.085	114.94
392.31	89.94
392.534	108.94
392.759	107.94
392.984	112.94
393.208	89.94
393.433	112.94
393.658	96.94
393.882	105.94
394.107	118.94
394.331	118.94
394.556	108.94
394.78	94.94
395.005	108.94
395.229	103.94
395.454	96.94
395.678	101.94
395.903	115.94
396.127	114.94
396.352	101.94
396.576	127.94
396.801	116.94
397.025	115.94
397.249	101.94
397.474	103.94
397.698	115.94
397.922	112.94
398.147	100.94
398.371	107.94
398.595	114.94
398.82	112.94
399.044	111.94
399.268	124.94
399.492	101.94
399.717	113.94
399.941	95.94
400.165	120.94
400.389	107.94
400.613	100.94
400.837	116.94
401.062	110.94
401.286	120.94
401.51	113.94
401.734	104.94
401.958	108.94
402.182	111.94
402.406	114.94
402.63	104.94
402.854	105.94
403.078	118.94
403.302	113.94
403.526	114.94
403.75	105.94
403.974	116.94
404.198	118.94
404.422	123.94
404.645	126.94
404.869	137.94
405.093	115.94
405.317	114.94
405.541	122.94
405.765	136.94
405.988	119.94
406.212	120.94
406.436	112.94
406.66	112.94
406.883	116.94
407.107	112.94
407.331	123.94
407.555	124.94
407.778	113.94
408.002	126.94
408.226	104.94
408.449	123.94
408.673	132.94
408.896	122.94
409.12	132.94
409.344	124.94
409.567	129.94
409.791	119.94
410.014	122.94
410.238	113.94
410.461	121.94
410.685	121.94
410.908	115.94
411.132	126.94
411.355	126.94
411.578	117.94
411.802	120.94
412.025	120.94
412.249	135.94
412.472	130.94
412.695	120.94
412.919	124.94
413.142	138.94
413.365	130.94
413.589	132.94
413.812	122.94
414.035	136.94
414.258	121.94
414.482	128.94
414.705	118.94
414.928	124.94
415.151	122.94
415.374	128.94
415.597	110.94
415.821	123.94
416.044	122.94
416.267	130.94
416.49	144.94
416.713	125.94
416.936	126.94
417.159	135.94
417.382	118.94
417.605	120.94
417.828	127.94
418.051	137.94
418.274	142.94
418.497	127.94
418.72	132.94
418.943	118.94
419.166	126.94
419.389	141.94
419.611	130.94
419.834	144.94
420.057	151.94
420.28	118.94
420.503	128.94
420.726	140.94
420.948	130.94
421.171	148.94
421.394	144.94
421.617	146.94
421.839	148.94
422.062	148.94
422.285	131.94
422.507	150.94
422.73	121.94
422.953	128.94
423.175	119.94
423.398	136.94
423.621	131.94
423.843	132.94
424.066	138.94
424.288	142.94
424.511	145.94
424.733	150.94
424.956	152.94
425.178	136.94
425.401	156.94
425.623	140.94
425.846	133.94
426.068	132.94
426.291	126.94
426.513	135.94
426.735	146.94
426.958	138.94
427.18	128.94
427.402	142.94
427.625	120.94
427.847	126.94
428.069	129.94
428.292	132.94
428.514	135.94
428.736	115.94
428.958	140.94
429.181	120.94
429.403	119.94
429.625	143.94
429.847	139.94
430.069	138.94
430.292	128.94
430.514	119.94
430.736	122.94
430.958	130.94
431.18	115.94
431.402	120.94
431.624	128.94
431.846	110.94
432.068	111.94
432.29	99.94
432.512	109.94
432.734	119.94
432.956	137.94
433.178	139.94
433.4	143.94
433.622	149.94
433.844	133.94
434.066	130.94
434.287	105.94
434.509	106.94
434.731	101.94
434.953	119.94
435.175	115.94
435.397	117.94
435.618	104.94
435.84	114.94
436.062	105.94
436.284	122.94
436.505	144.94
436.727	133.94
436.949	134.94
437.17	117.94
437.392	117.94
437.614	123.94
437.835	112.94
438.057	123.94
438.278	103.94
438.5	123.94
438.721	138.94
438.943	157.94
439.165	130.94
439.386	129.94
439.608	147.94
439.829	145.94
440.05	150.94
440.272	156.94
440.493	149.94
440.715	150.94
440.936	147.94
441.158	146.94
441.379	128.94
441.6	132.94
441.822	171.94
442.043	138.94
442.264	143.94
442.486	136.94
442.707	157.94
442.928	155.94
443.149	141.94
443.371	142.94
443.592	134.94
443.813	130.94
444.034	155.94
444.255	146.94
444.476	134.94
444.698	134.94
444.919	154.94
445.14	291.94
445.361	203.94
445.582	146.94
445.803	148.94
446.024	143.94
446.245	152.94
446.466	145.94
446.687	160.94
446.908	154.94
447.129	163.94
447.35	148.94
447.571	153.94
447.792	148.94
448.013	148.94
448.234	155.94
448.455	149.94
448.675	167.94
448.896	156.94
449.117	128.94
449.338	145.94
449.559	139.94
449.779	146.94
450	150.94
450.221	140.94
450.442	148.94
450.662	138.94
450.883	145.94
451.104	134.94
451.324	138.94
451.545	136.94
451.766	130.94
451.986	140.94
452.207	130.94
452.428	114.94
452.648	130.94
452.869	122.94
453.089	120.94
453.31	117.94
453.53	114.94
453.751	116.94
453.971	103.94
454.192	113.94
454.412	110.94
454.633	118.94
454.853	131.94
455.073	126.94
455.294	125.94
455.514	134.94
455.734	122.94
455.955	111.94
456.175	113.94
456.395	118.94
456.616	117.94
456.836	117.94
457.056	115.94
457.276	127.94
457.497	115.94
457.717	107.94
457.937	116.94
458.157	117.94
458.377	99.94
458.598	89.94
458.818	92.94
459.038	94.94
459.258	76.94
459.478	71.94
459.698	98.94
459.918	90.94
460.138	122.94
460.358	118.94
460.578	120.94
460.798	115.94
461.018	115.94
461.238	121.94
461.458	119.94
461.678	118.94
461.898	122.94
462.118	105.94
462.338	104.94
462.558	125.94
462.777	104.94
462.997	111.94
463.217	114.94
463.437	96.94
463.657	108.94
463.876	108.94
464.096	106.94
464.316	103.94
464.536	115.94
464.755	106.94
464.975	116.94
465.195	119.94
465.414	111.94
465.634	113.94
465.854	124.94
466.073	130.94
466.293	119.94
466.512	132.94
466.732	132.94
466.951	139.94
467.171	142.94
467.391	124.94
467.61	120.94
467.829	143.94
468.049	126.94
468.268	149.94
468.488	131.94
468.707	136.94
468.927	134.94
469.146	139.94
469.365	138.94
469.585	136.94
469.804	141.94
470.023	143.94
470.243	148.94
470.462	144.94
470.681	150.94
470.901	143.94
471.12	141.94
471.339	138.94
471.558	155.94
471.777	152.94
471.997	141.94
472.216	120.94
472.435	118.94
472.654	110.94
472.873	115.94
473.092	128.94
473.311	130.94
473.53	130.94
473.749	131.94
473.968	136.94
474.187	119.94
474.406	129.94
474.625	128.94
474.844	144.94
475.063	136.94
475.282	127.94
475.501	120.94
475.72	122.94
475.939	127.94
476.158	120.94
476.377	124.94
476.596	115.94
476.814	111.94
477.033	103.94
477.252	111.94
477.471	134.94
477.69	136.94
477.908	136.94
478.127	147.94
478.346	129.94
478.564	131.94
478.783	145.94
479.002	139.94
479.22	150.94
479.439	132.94
479.658	116.94
479.876	124.94
480.095	98.94
480.313	122.94
480.532	113.94
480.751	111.94
480.969	91.94
481.188	83.94
481.406	60.94
481.624	92.94
481.843	80.94
482.061	102.94
482.28	121.94
482.498	106.94
482.717	102.94
482.935	131.94
483.153	136.94
483.372	138.94
483.59	152.94
483.808	145.94
484.027	138.94
484.245	149.94
484.463	167.94
484.681	153.94
484.9	150.94
485.118	138.94
485.336	121.94
485.554	118.94
485.772	108.94
485.99	104.94
486.209	119.94
486.427	105.94
486.645	111.94
486.863	146.94
487.081	148.94
487.299	145.94
487.517	141.94
487.735	161.94
487.953	191.94
488.171	201.94
488.389	168.94
488.607	170.94
488.825	146.94
489.043	122.94
489.261	134.94
489.479	129.94
489.696	164.94
489.914	153.94
490.132	154.94
490.35	176.94
490.568	162.94
490.786	182.94
491.003	182.94
491.221	196.94
491.439	197.94
491.657	187.94
491.874	211.94
492.092	240.94
492.31	239.94
492.527	256.94
492.745	232.94
492.963	186.94
493.18	204.94
493.398	199.94
493.615	171.94
493.833	176.94
494.05	168.94
494.268	176.94
494.485	170.94
494.703	190.94
494.92	187.94
495.138	185.94
495.355	175.94
495.573	174.94
495.79	171.94
496.008	180.94
496.225	176.94
496.442	179.94
496.66	154.94
496.877	182.94
497.094	179.94
497.312	177.94
497.529	175.94
497.746	160.94
497.963	141.94
498.181	132.94
498.398	128.94
498.615	124.94
498.832	118.94
499.049	117.94
499.267	120.94
499.484	125.94
499.701	137.94
499.918	140.94
500.135	137.94
500.352	141.94
500.569	149.94
500.786	153.94
501.003	154.94
501.22	148.94
501.437	147.94
501.654	137.94
501.871	121.94
502.088	144.94
502.305	122.94
502.522	135.94
502.739	141.94
502.956	134.94
503.172	123.94
503.389	123.94
503.606	116.94
503.823	118.94
504.04	142.94
504.256	118.94
504.473	121.94
504.69	119.94
504.907	116.94
505.123	123.94
505.34	102.94
505.557	126.94
505.773	126.94
505.99	119.94
506.207	120.94
506.423	123.94
506.64	130.94
506.856	125.94
507.073	123.94
507.289	131.94
507.506	137.94
507.722	134.94
507.939	116.94
508.155	131.94
508.372	113.94
508.588	122.94
508.805	117.94
509.021	114.94
509.238	105.94
509.454	95.94
509.67	103.94
509.887	108.94
510.103	104.94
510.319	101.94
510.536	95.94
510.752	90.94
510.968	85.94
511.184	79.94
511.401	82.94
