Data from Location6.07152019.Energy5.Lamp.07192019.3%Agarose_HRD10591_16-13-59-396.txt Node
Date: Fri Jul 19 16:13:59 EDT 2019
User: cochatt
Spectrometer: HR+D1059
Trigger mode: 1
Integration Time (sec): 1.000000E-1
Scans to average: 1
Electric dark correction enabled: true
Nonlinearity correction enabled: false
Boxcar width: 0
XAxis mode: Wavelengths
Number of Pixels in Spectrum: 2048
>>>>>Begin Spectral Data<<<<<
223.165	-23.44
223.4	-23.44
223.635	-23.44
223.869	-10.44
224.104	-35.44
224.338	-8.44
224.573	-5.44
224.808	-10.44
225.042	-7.44
225.277	-17.44
225.511	-2.44
225.746	-2.44
225.98	4.56
226.215	11.56
226.449	12.56
226.683	19.56
226.918	34.56
227.152	40.56
227.387	34.56
227.621	36.56
227.856	53.56
228.09	52.56
228.324	43.56
228.559	55.56
228.793	68.56
229.027	68.56
229.262	65.56
229.496	49.56
229.73	65.56
229.964	78.56
230.199	61.56
230.433	78.56
230.667	78.56
230.901	78.56
231.136	80.56
231.37	80.56
231.604	77.56
231.838	84.56
232.072	83.56
232.306	86.56
232.541	94.56
232.775	67.56
233.009	78.56
233.243	83.56
233.477	87.56
233.711	92.56
233.945	85.56
234.179	94.56
234.413	86.56
234.647	72.56
234.881	74.56
235.115	89.56
235.349	65.56
235.583	83.56
235.817	79.56
236.051	79.56
236.285	77.56
236.519	84.56
236.753	77.56
236.987	79.56
237.221	84.56
237.455	56.56
237.689	68.56
237.922	87.56
238.156	78.56
238.39	75.56
238.624	74.56
238.858	84.56
239.091	72.56
239.325	71.56
239.559	58.56
239.793	75.56
240.027	67.56
240.26	70.56
240.494	78.56
240.728	65.56
240.961	64.56
241.195	81.56
241.429	85.56
241.662	81.56
241.896	71.56
242.13	75.56
242.363	73.56
242.597	86.56
242.83	76.56
243.064	68.56
243.298	64.56
243.531	75.56
243.765	75.56
243.998	80.56
244.232	78.56
244.465	91.56
244.699	70.56
244.932	75.56
245.166	71.56
245.399	81.56
245.633	66.56
245.866	79.56
246.099	89.56
246.333	74.56
246.566	76.56
246.8	82.56
247.033	70.56
247.266	87.56
247.5	83.56
247.733	69.56
247.966	75.56
248.2	75.56
248.433	85.56
248.666	82.56
248.899	86.56
249.133	79.56
249.366	91.56
249.599	75.56
249.832	85.56
250.066	85.56
250.299	69.56
250.532	84.56
250.765	88.56
250.998	75.56
251.231	81.56
251.465	89.56
251.698	88.56
251.931	80.56
252.164	84.56
252.397	84.56
252.63	72.56
252.863	84.56
253.096	89.56
253.329	86.56
253.562	72.56
253.795	86.56
254.028	93.56
254.261	79.56
254.494	84.56
254.727	77.56
254.96	82.56
255.193	81.56
255.426	73.56
255.659	84.56
255.892	84.56
256.124	84.56
256.357	89.56
256.59	72.56
256.823	81.56
257.056	82.56
257.289	91.56
257.521	84.56
257.754	79.56
257.987	77.56
258.22	76.56
258.452	86.56
258.685	89.56
258.918	82.56
259.151	79.56
259.383	84.56
259.616	78.56
259.849	85.56
260.081	83.56
260.314	83.56
260.547	75.56
260.779	90.56
261.012	76.56
261.244	90.56
261.477	97.56
261.71	91.56
261.942	80.56
262.175	88.56
262.407	85.56
262.64	64.56
262.872	66.56
263.105	84.56
263.337	64.56
263.57	73.56
263.802	78.56
264.035	77.56
264.267	54.56
264.499	72.56
264.732	96.56
264.964	79.56
265.197	66.56
265.429	67.56
265.661	73.56
265.894	90.56
266.126	90.56
266.358	81.56
266.591	83.56
266.823	86.56
267.055	85.56
267.287	91.56
267.52	82.56
267.752	88.56
267.984	73.56
268.216	87.56
268.448	88.56
268.681	79.56
268.913	82.56
269.145	82.56
269.377	88.56
269.609	80.56
269.841	84.56
270.073	83.56
270.306	87.56
270.538	85.56
270.77	79.56
271.002	89.56
271.234	91.56
271.466	89.56
271.698	86.56
271.93	72.56
272.162	77.56
272.394	76.56
272.626	74.56
272.858	76.56
273.09	70.56
273.322	86.56
273.553	80.56
273.785	87.56
274.017	81.56
274.249	71.56
274.481	78.56
274.713	82.56
274.945	79.56
275.176	82.56
275.408	68.56
275.64	82.56
275.872	88.56
276.104	82.56
276.335	79.56
276.567	88.56
276.799	84.56
277.031	77.56
277.262	86.56
277.494	89.56
277.726	84.56
277.957	86.56
278.189	79.56
278.421	80.56
278.652	101.56
278.884	89.56
279.115	82.56
279.347	82.56
279.579	86.56
279.81	85.56
280.042	95.56
280.273	78.56
280.505	72.56
280.736	88.56
280.968	77.56
281.199	88.56
281.431	84.56
281.662	96.56
281.894	81.56
282.125	92.56
282.356	88.56
282.588	90.56
282.819	89.56
283.051	89.56
283.282	81.56
283.513	83.56
283.745	77.56
283.976	92.56
284.207	89.56
284.439	72.56
284.67	87.56
284.901	87.56
285.132	85.56
285.364	92.56
285.595	82.56
285.826	81.56
286.057	94.56
286.288	87.56
286.52	84.56
286.751	81.56
286.982	79.56
287.213	82.56
287.444	73.56
287.675	86.56
287.906	83.56
288.138	85.56
288.369	81.56
288.6	88.56
288.831	85.56
289.062	74.56
289.293	92.56
289.524	80.56
289.755	82.56
289.986	81.56
290.217	75.56
290.448	82.56
290.679	85.56
290.91	81.56
291.141	98.56
291.371	78.56
291.602	84.56
291.833	68.56
292.064	74.56
292.295	75.56
292.526	94.56
292.757	75.56
292.987	81.56
293.218	83.56
293.449	77.56
293.68	69.56
293.91	88.56
294.141	74.56
294.372	95.56
294.603	90.56
294.833	72.56
295.064	77.56
295.295	88.56
295.525	80.56
295.756	84.56
295.987	89.56
296.217	76.56
296.448	85.56
296.679	79.56
296.909	90.56
297.14	86.56
297.37	89.56
297.601	91.56
297.831	74.56
298.062	92.56
298.292	96.56
298.523	81.56
298.753	88.56
298.984	87.56
299.214	92.56
299.445	92.56
299.675	85.56
299.905	96.56
300.136	81.56
300.366	81.56
300.597	76.56
300.827	80.56
301.057	96.56
301.288	84.56
301.518	82.56
301.748	89.56
301.979	74.56
302.209	78.56
302.439	93.56
302.669	78.56
302.9	75.56
303.13	93.56
303.36	85.56
303.59	91.56
303.82	84.56
304.051	79.56
304.281	94.56
304.511	84.56
304.741	86.56
304.971	88.56
305.201	92.56
305.431	86.56
305.661	88.56
305.891	93.56
306.121	96.56
306.352	103.56
306.582	88.56
306.812	87.56
307.042	67.56
307.272	92.56
307.502	84.56
307.731	78.56
307.961	82.56
308.191	96.56
308.421	99.56
308.651	85.56
308.881	85.56
309.111	94.56
309.341	88.56
309.571	85.56
309.8	87.56
310.03	84.56
310.26	87.56
310.49	84.56
310.72	72.56
310.949	104.56
311.179	96.56
311.409	72.56
311.639	94.56
311.868	82.56
312.098	82.56
312.328	87.56
312.557	85.56
312.787	79.56
313.017	93.56
313.246	92.56
313.476	84.56
313.706	79.56
313.935	83.56
314.165	78.56
314.394	83.56
314.624	95.56
314.853	76.56
315.083	90.56
315.312	88.56
315.542	73.56
315.771	95.56
316.001	74.56
316.23	87.56
316.46	101.56
316.689	93.56
316.919	90.56
317.148	89.56
317.377	81.56
317.607	95.56
317.836	74.56
318.065	93.56
318.295	85.56
318.524	79.56
318.753	82.56
318.983	81.56
319.212	86.56
319.441	84.56
319.67	77.56
319.9	54.56
320.129	90.56
320.358	79.56
320.587	93.56
320.816	84.56
321.046	77.56
321.275	88.56
321.504	94.56
321.733	69.56
321.962	93.56
322.191	94.56
322.42	80.56
322.649	89.56
322.878	84.56
323.108	86.56
323.337	78.56
323.566	80.56
323.795	90.56
324.024	92.56
324.253	93.56
324.482	80.56
324.71	77.56
324.939	94.56
325.168	76.56
325.397	78.56
325.626	87.56
325.855	85.56
326.084	94.56
326.313	80.56
326.542	72.56
326.77	88.56
326.999	85.56
327.228	86.56
327.457	98.56
327.686	85.56
327.914	110.56
328.143	82.56
328.372	90.56
328.6	88.56
328.829	90.56
329.058	97.56
329.287	94.56
329.515	93.56
329.744	80.56
329.972	73.56
330.201	76.56
330.43	101.56
330.658	77.56
330.887	97.56
331.115	79.56
331.344	76.56
331.572	84.56
331.801	81.56
332.03	85.56
332.258	86.56
332.486	78.56
332.715	74.56
332.943	77.56
333.172	83.56
333.4	88.56
333.629	92.56
333.857	97.56
334.085	83.56
334.314	83.56
334.542	70.56
334.771	75.56
334.999	87.56
335.227	86.56
335.455	83.56
335.684	78.56
335.912	87.56
336.14	87.56
336.369	87.56
336.597	76.56
336.825	77.56
337.053	77.56
337.281	88.56
337.51	82.56
337.738	98.56
337.966	83.56
338.194	62.56
338.422	86.56
338.65	75.56
338.878	91.56
339.106	70.56
339.334	97.56
339.562	90.56
339.79	76.56
340.018	86.56
340.246	86.56
340.474	79.56
340.702	83.56
340.93	86.56
341.158	70.56
341.386	79.56
341.614	96.56
341.842	90.56
342.07	78.56
342.298	89.56
342.526	88.56
342.754	70.56
342.981	70.56
343.209	85.56
343.437	80.56
343.665	72.56
343.893	85.56
344.12	94.56
344.348	71.56
344.576	82.56
344.804	74.56
345.031	78.56
345.259	89.56
345.487	79.56
345.714	84.56
345.942	82.56
346.17	91.56
346.397	98.56
346.625	91.56
346.853	94.56
347.08	93.56
347.308	76.56
347.535	97.56
347.763	100.56
347.99	101.56
348.218	83.56
348.445	74.56
348.673	76.56
348.9	76.56
349.128	97.56
349.355	87.56
349.583	78.56
349.81	84.56
350.037	75.56
350.265	93.56
350.492	89.56
350.72	81.56
350.947	94.56
351.174	79.56
351.402	68.56
351.629	87.56
351.856	88.56
352.083	91.56
352.311	88.56
352.538	84.56
352.765	90.56
352.992	91.56
353.22	80.56
353.447	78.56
353.674	77.56
353.901	97.56
354.128	88.56
354.355	78.56
354.583	81.56
354.81	82.56
355.037	80.56
355.264	80.56
355.491	87.56
355.718	82.56
355.945	79.56
356.172	85.56
356.399	85.56
356.626	90.56
356.853	95.56
357.08	72.56
357.307	74.56
357.534	83.56
357.761	86.56
357.988	93.56
358.215	92.56
358.441	68.56
358.668	83.56
358.895	102.56
359.122	75.56
359.349	82.56
359.576	91.56
359.802	82.56
360.029	93.56
360.256	95.56
360.483	78.56
360.709	94.56
360.936	76.56
361.163	85.56
361.39	78.56
361.616	89.56
361.843	88.56
362.07	84.56
362.296	83.56
362.523	76.56
362.749	73.56
362.976	83.56
363.203	89.56
363.429	87.56
363.656	76.56
363.882	87.56
364.109	87.56
364.335	86.56
364.562	71.56
364.788	68.56
365.015	93.56
365.241	94.56
365.468	93.56
365.694	73.56
365.92	83.56
366.147	89.56
366.373	83.56
366.599	77.56
366.826	79.56
367.052	100.56
367.278	91.56
367.505	105.56
367.731	95.56
367.957	92.56
368.184	89.56
368.41	97.56
368.636	97.56
368.862	86.56
369.089	76.56
369.315	93.56
369.541	97.56
369.767	92.56
369.993	99.56
370.219	96.56
370.445	85.56
370.672	93.56
370.898	74.56
371.124	89.56
371.35	88.56
371.576	92.56
371.802	95.56
372.028	79.56
372.254	88.56
372.48	80.56
372.706	93.56
372.932	88.56
373.158	100.56
373.384	92.56
373.61	100.56
373.835	95.56
374.061	93.56
374.287	101.56
374.513	99.56
374.739	93.56
374.965	77.56
375.191	99.56
375.416	95.56
375.642	91.56
375.868	95.56
376.094	91.56
376.319	90.56
376.545	87.56
376.771	84.56
376.997	97.56
377.222	85.56
377.448	85.56
377.674	97.56
377.899	104.56
378.125	95.56
378.35	87.56
378.576	87.56
378.802	99.56
379.027	89.56
379.253	101.56
379.478	98.56
379.704	96.56
379.929	85.56
380.155	92.56
380.38	100.56
380.606	84.56
380.831	97.56
381.057	116.56
381.282	98.56
381.507	109.56
381.733	103.56
381.958	102.56
382.184	86.56
382.409	101.56
382.634	69.56
382.86	101.56
383.085	88.56
383.31	104.56
383.535	109.56
383.761	112.56
383.986	80.56
384.211	110.56
384.436	101.56
384.662	101.56
384.887	103.56
385.112	99.56
385.337	86.56
385.562	99.56
385.787	104.56
386.013	99.56
386.238	97.56
386.463	92.56
386.688	102.56
386.913	95.56
387.138	104.56
387.363	105.56
387.588	102.56
387.813	101.56
388.038	91.56
388.263	101.56
388.488	110.56
388.713	120.56
388.938	103.56
389.163	95.56
389.387	113.56
389.612	102.56
389.837	114.56
390.062	106.56
390.287	107.56
390.512	84.56
390.736	101.56
390.961	95.56
391.186	109.56
391.411	97.56
391.636	87.56
391.86	105.56
392.085	96.56
392.31	108.56
392.534	113.56
392.759	101.56
392.984	107.56
393.208	101.56
393.433	104.56
393.658	104.56
393.882	124.56
394.107	113.56
394.331	108.56
394.556	91.56
394.78	108.56
395.005	114.56
395.229	115.56
395.454	112.56
395.678	116.56
395.903	96.56
396.127	122.56
396.352	114.56
396.576	109.56
396.801	108.56
397.025	99.56
397.249	121.56
397.474	105.56
397.698	112.56
397.922	118.56
398.147	110.56
398.371	108.56
398.595	117.56
398.82	106.56
399.044	116.56
399.268	100.56
399.492	107.56
399.717	114.56
399.941	119.56
400.165	123.56
400.389	120.56
400.613	98.56
400.837	114.56
401.062	119.56
401.286	102.56
401.51	114.56
401.734	124.56
401.958	113.56
402.182	121.56
402.406	128.56
402.63	114.56
402.854	109.56
403.078	100.56
403.302	106.56
403.526	126.56
403.75	128.56
403.974	119.56
404.198	113.56
404.422	130.56
404.645	116.56
404.869	120.56
405.093	106.56
405.317	126.56
405.541	114.56
405.765	120.56
405.988	121.56
406.212	124.56
406.436	133.56
406.66	116.56
406.883	116.56
407.107	108.56
407.331	108.56
407.555	122.56
407.778	118.56
408.002	130.56
408.226	132.56
408.449	104.56
408.673	129.56
408.896	114.56
409.12	115.56
409.344	124.56
409.567	117.56
409.791	128.56
410.014	114.56
410.238	122.56
410.461	113.56
410.685	123.56
410.908	118.56
411.132	106.56
411.355	122.56
411.578	120.56
411.802	116.56
412.025	116.56
412.249	136.56
412.472	112.56
412.695	120.56
412.919	134.56
413.142	110.56
413.365	124.56
413.589	122.56
413.812	122.56
414.035	130.56
414.258	132.56
414.482	112.56
414.705	109.56
414.928	120.56
415.151	124.56
415.374	136.56
415.597	111.56
415.821	125.56
416.044	122.56
416.267	124.56
416.49	122.56
416.713	141.56
416.936	140.56
417.159	123.56
417.382	128.56
417.605	139.56
417.828	131.56
418.051	121.56
418.274	134.56
418.497	150.56
418.72	136.56
418.943	140.56
419.166	130.56
419.389	140.56
419.611	141.56
419.834	140.56
420.057	132.56
420.28	130.56
420.503	135.56
420.726	137.56
420.948	148.56
421.171	147.56
421.394	132.56
421.617	134.56
421.839	158.56
422.062	143.56
422.285	145.56
422.507	124.56
422.73	132.56
422.953	133.56
423.175	142.56
423.398	146.56
423.621	149.56
423.843	143.56
424.066	136.56
424.288	142.56
424.511	151.56
424.733	156.56
424.956	145.56
425.178	139.56
425.401	141.56
425.623	147.56
425.846	128.56
426.068	141.56
426.291	128.56
426.513	120.56
426.735	129.56
426.958	125.56
427.18	142.56
427.402	151.56
427.625	125.56
427.847	129.56
428.069	139.56
428.292	131.56
428.514	135.56
428.736	131.56
428.958	117.56
429.181	117.56
429.403	124.56
429.625	128.56
429.847	154.56
430.069	129.56
430.292	118.56
430.514	141.56
430.736	133.56
430.958	128.56
431.18	120.56
431.402	118.56
431.624	122.56
431.846	107.56
432.068	98.56
432.29	104.56
432.512	120.56
432.734	121.56
432.956	135.56
433.178	128.56
433.4	150.56
433.622	144.56
433.844	135.56
434.066	132.56
434.287	126.56
434.509	95.56
434.731	102.56
434.953	125.56
435.175	126.56
435.397	138.56
435.618	130.56
435.84	125.56
436.062	117.56
436.284	137.56
436.505	133.56
436.727	124.56
436.949	121.56
437.17	138.56
437.392	136.56
437.614	116.56
437.835	112.56
438.057	106.56
438.278	118.56
438.5	127.56
438.721	155.56
438.943	148.56
439.165	126.56
439.386	149.56
439.608	138.56
439.829	143.56
440.05	143.56
440.272	139.56
440.493	152.56
440.715	152.56
440.936	156.56
441.158	154.56
441.379	147.56
441.6	173.56
441.822	148.56
442.043	134.56
442.264	138.56
442.486	144.56
442.707	136.56
442.928	147.56
443.149	146.56
443.371	156.56
443.592	141.56
443.813	133.56
444.034	133.56
444.255	131.56
444.476	140.56
444.698	142.56
444.919	144.56
445.14	291.56
445.361	209.56
445.582	146.56
445.803	154.56
446.024	146.56
446.245	149.56
446.466	169.56
446.687	166.56
446.908	162.56
447.129	162.56
447.35	164.56
447.571	166.56
447.792	140.56
448.013	150.56
448.234	154.56
448.455	141.56
448.675	161.56
448.896	161.56
449.117	145.56
449.338	147.56
449.559	149.56
449.779	142.56
450	137.56
450.221	154.56
450.442	136.56
450.662	150.56
450.883	136.56
451.104	136.56
451.324	148.56
451.545	142.56
451.766	146.56
451.986	146.56
452.207	134.56
452.428	149.56
452.648	130.56
452.869	130.56
453.089	113.56
453.31	109.56
453.53	100.56
453.751	116.56
453.971	112.56
454.192	103.56
454.412	120.56
454.633	120.56
454.853	113.56
455.073	137.56
455.294	121.56
455.514	113.56
455.734	132.56
455.955	119.56
456.175	126.56
456.395	120.56
456.616	116.56
456.836	109.56
457.056	116.56
457.276	114.56
457.497	117.56
457.717	110.56
457.937	101.56
458.157	120.56
458.377	104.56
458.598	103.56
458.818	95.56
459.038	101.56
459.258	80.56
459.478	96.56
459.698	88.56
459.918	94.56
460.138	112.56
460.358	124.56
460.578	113.56
460.798	130.56
461.018	116.56
461.238	125.56
461.458	114.56
461.678	114.56
461.898	126.56
462.118	115.56
462.338	123.56
462.558	120.56
462.777	118.56
462.997	110.56
463.217	112.56
463.437	105.56
463.657	112.56
463.876	121.56
464.096	100.56
464.316	93.56
464.536	117.56
464.755	118.56
464.975	124.56
465.195	118.56
465.414	115.56
465.634	118.56
465.854	131.56
466.073	139.56
466.293	119.56
466.512	130.56
466.732	130.56
466.951	139.56
467.171	129.56
467.391	123.56
467.61	142.56
467.829	146.56
468.049	139.56
468.268	135.56
468.488	148.56
468.707	133.56
468.927	140.56
469.146	140.56
469.365	140.56
469.585	154.56
469.804	161.56
470.023	146.56
470.243	156.56
470.462	154.56
470.681	139.56
470.901	138.56
471.12	146.56
471.339	136.56
471.558	145.56
471.777	136.56
471.997	134.56
472.216	140.56
472.435	127.56
472.654	118.56
472.873	108.56
473.092	120.56
473.311	122.56
473.53	120.56
473.749	136.56
473.968	146.56
474.187	136.56
474.406	123.56
474.625	125.56
474.844	141.56
475.063	124.56
475.282	117.56
475.501	127.56
475.72	132.56
475.939	126.56
476.158	133.56
476.377	136.56
476.596	123.56
476.814	113.56
477.033	117.56
477.252	118.56
477.471	128.56
477.69	143.56
477.908	141.56
478.127	138.56
478.346	135.56
478.564	135.56
478.783	137.56
479.002	140.56
479.22	150.56
479.439	129.56
479.658	131.56
479.876	116.56
480.095	114.56
480.313	128.56
480.532	117.56
480.751	114.56
480.969	112.56
481.188	93.56
481.406	93.56
481.624	98.56
481.843	89.56
482.061	92.56
482.28	120.56
482.498	114.56
482.717	117.56
482.935	134.56
483.153	151.56
483.372	168.56
483.59	170.56
483.808	151.56
484.027	152.56
484.245	127.56
484.463	141.56
484.681	156.56
484.9	155.56
485.118	140.56
485.336	127.56
485.554	108.56
485.772	114.56
485.99	99.56
486.209	110.56
486.427	121.56
486.645	127.56
486.863	148.56
487.081	152.56
487.299	155.56
487.517	153.56
487.735	171.56
487.953	178.56
488.171	184.56
488.389	185.56
488.607	154.56
488.825	149.56
489.043	136.56
489.261	134.56
489.479	158.56
489.696	151.56
489.914	143.56
490.132	153.56
490.35	159.56
490.568	169.56
490.786	164.56
491.003	189.56
491.221	190.56
491.439	209.56
491.657	184.56
491.874	201.56
492.092	242.56
492.31	276.56
492.527	268.56
492.745	224.56
492.963	210.56
493.18	199.56
493.398	199.56
493.615	177.56
493.833	187.56
494.05	193.56
494.268	184.56
494.485	168.56
494.703	185.56
494.92	186.56
495.138	199.56
495.355	171.56
495.573	161.56
495.79	174.56
496.008	179.56
496.225	166.56
496.442	160.56
496.66	167.56
496.877	168.56
497.094	172.56
497.312	159.56
497.529	157.56
497.746	148.56
497.963	152.56
498.181	137.56
498.398	129.56
498.615	121.56
498.832	128.56
499.049	112.56
499.267	121.56
499.484	129.56
499.701	126.56
499.918	149.56
500.135	143.56
500.352	163.56
500.569	148.56
500.786	137.56
501.003	151.56
501.22	143.56
501.437	132.56
501.654	140.56
501.871	136.56
502.088	152.56
502.305	141.56
502.522	134.56
502.739	128.56
502.956	140.56
503.172	115.56
503.389	120.56
503.606	147.56
503.823	114.56
504.04	118.56
504.256	116.56
504.473	132.56
504.69	117.56
504.907	114.56
505.123	119.56
505.34	118.56
505.557	125.56
505.773	133.56
505.99	122.56
506.207	134.56
506.423	136.56
506.64	114.56
506.856	113.56
507.073	140.56
507.289	123.56
507.506	124.56
507.722	130.56
507.939	124.56
508.155	122.56
508.372	115.56
508.588	101.56
508.805	110.56
509.021	99.56
509.238	99.56
509.454	99.56
509.67	101.56
509.887	90.56
510.103	103.56
510.319	104.56
510.536	90.56
510.752	92.56
510.968	78.56
511.184	82.56
511.401	95.56
