Data from Location6.07152019.Energy5.Lamp.07192019.3%Agarose_HRD10591_16-13-57-395.txt Node
Date: Fri Jul 19 16:13:57 EDT 2019
User: cochatt
Spectrometer: HR+D1059
Trigger mode: 1
Integration Time (sec): 1.000000E-1
Scans to average: 1
Electric dark correction enabled: true
Nonlinearity correction enabled: false
Boxcar width: 0
XAxis mode: Wavelengths
Number of Pixels in Spectrum: 2048
>>>>>Begin Spectral Data<<<<<
223.165	-18.88
223.4	-18.88
223.635	-18.88
223.869	-26.88
224.104	-20.88
224.338	-3.88
224.573	-7.88
224.808	-2.88
225.042	2.12
225.277	-10.88
225.511	-9.88
225.746	-18.88
225.98	14.12
226.215	-0.88
226.449	18.12
226.683	12.12
226.918	32.12
227.152	43.12
227.387	33.12
227.621	36.12
227.856	36.12
228.09	68.12
228.324	60.12
228.559	54.12
228.793	50.12
229.027	54.12
229.262	55.12
229.496	71.12
229.73	82.12
229.964	80.12
230.199	75.12
230.433	69.12
230.667	86.12
230.901	72.12
231.136	70.12
231.37	78.12
231.604	81.12
231.838	84.12
232.072	92.12
232.306	77.12
232.541	86.12
232.775	87.12
233.009	90.12
233.243	78.12
233.477	78.12
233.711	84.12
233.945	83.12
234.179	77.12
234.413	91.12
234.647	82.12
234.881	87.12
235.115	75.12
235.349	81.12
235.583	90.12
235.817	88.12
236.051	73.12
236.285	85.12
236.519	80.12
236.753	85.12
236.987	83.12
237.221	94.12
237.455	88.12
237.689	62.12
237.922	59.12
238.156	78.12
238.39	74.12
238.624	78.12
238.858	78.12
239.091	92.12
239.325	67.12
239.559	92.12
239.793	86.12
240.027	87.12
240.26	90.12
240.494	103.12
240.728	81.12
240.961	76.12
241.195	85.12
241.429	73.12
241.662	73.12
241.896	64.12
242.13	68.12
242.363	79.12
242.597	84.12
242.83	74.12
243.064	92.12
243.298	79.12
243.531	81.12
243.765	72.12
243.998	79.12
244.232	90.12
244.465	88.12
244.699	82.12
244.932	85.12
245.166	66.12
245.399	68.12
245.633	89.12
245.866	89.12
246.099	89.12
246.333	79.12
246.566	83.12
246.8	83.12
247.033	82.12
247.266	67.12
247.5	75.12
247.733	86.12
247.966	73.12
248.2	76.12
248.433	87.12
248.666	71.12
248.899	83.12
249.133	77.12
249.366	85.12
249.599	85.12
249.832	92.12
250.066	85.12
250.299	90.12
250.532	78.12
250.765	66.12
250.998	85.12
251.231	84.12
251.465	85.12
251.698	72.12
251.931	76.12
252.164	81.12
252.397	90.12
252.63	88.12
252.863	71.12
253.096	84.12
253.329	100.12
253.562	83.12
253.795	102.12
254.028	77.12
254.261	73.12
254.494	77.12
254.727	87.12
254.96	69.12
255.193	81.12
255.426	94.12
255.659	85.12
255.892	83.12
256.124	73.12
256.357	84.12
256.59	84.12
256.823	74.12
257.056	77.12
257.289	83.12
257.521	88.12
257.754	78.12
257.987	80.12
258.22	71.12
258.452	75.12
258.685	84.12
258.918	80.12
259.151	85.12
259.383	90.12
259.616	71.12
259.849	86.12
260.081	77.12
260.314	87.12
260.547	82.12
260.779	76.12
261.012	77.12
261.244	84.12
261.477	96.12
261.71	93.12
261.942	81.12
262.175	76.12
262.407	74.12
262.64	77.12
262.872	89.12
263.105	85.12
263.337	73.12
263.57	80.12
263.802	76.12
264.035	94.12
264.267	89.12
264.499	96.12
264.732	79.12
264.964	73.12
265.197	82.12
265.429	75.12
265.661	86.12
265.894	82.12
266.126	96.12
266.358	86.12
266.591	71.12
266.823	76.12
267.055	97.12
267.287	88.12
267.52	88.12
267.752	84.12
267.984	89.12
268.216	93.12
268.448	75.12
268.681	100.12
268.913	82.12
269.145	91.12
269.377	92.12
269.609	77.12
269.841	78.12
270.073	81.12
270.306	80.12
270.538	83.12
270.77	78.12
271.002	92.12
271.234	96.12
271.466	84.12
271.698	91.12
271.93	80.12
272.162	74.12
272.394	80.12
272.626	92.12
272.858	82.12
273.09	78.12
273.322	85.12
273.553	84.12
273.785	83.12
274.017	79.12
274.249	91.12
274.481	84.12
274.713	78.12
274.945	87.12
275.176	74.12
275.408	100.12
275.64	85.12
275.872	96.12
276.104	103.12
276.335	79.12
276.567	79.12
276.799	90.12
277.031	87.12
277.262	99.12
277.494	92.12
277.726	75.12
277.957	83.12
278.189	82.12
278.421	83.12
278.652	76.12
278.884	77.12
279.115	89.12
279.347	67.12
279.579	78.12
279.81	88.12
280.042	92.12
280.273	76.12
280.505	83.12
280.736	80.12
280.968	83.12
281.199	83.12
281.431	103.12
281.662	81.12
281.894	75.12
282.125	76.12
282.356	85.12
282.588	95.12
282.819	96.12
283.051	79.12
283.282	79.12
283.513	70.12
283.745	90.12
283.976	85.12
284.207	88.12
284.439	101.12
284.67	90.12
284.901	96.12
285.132	69.12
285.364	79.12
285.595	81.12
285.826	89.12
286.057	79.12
286.288	83.12
286.52	97.12
286.751	92.12
286.982	88.12
287.213	77.12
287.444	76.12
287.675	88.12
287.906	88.12
288.138	89.12
288.369	95.12
288.6	81.12
288.831	74.12
289.062	76.12
289.293	92.12
289.524	85.12
289.755	87.12
289.986	75.12
290.217	90.12
290.448	95.12
290.679	85.12
290.91	81.12
291.141	90.12
291.371	81.12
291.602	88.12
291.833	89.12
292.064	97.12
292.295	91.12
292.526	89.12
292.757	91.12
292.987	97.12
293.218	77.12
293.449	90.12
293.68	91.12
293.91	76.12
294.141	84.12
294.372	86.12
294.603	89.12
294.833	86.12
295.064	82.12
295.295	89.12
295.525	80.12
295.756	88.12
295.987	92.12
296.217	89.12
296.448	83.12
296.679	83.12
296.909	81.12
297.14	79.12
297.37	89.12
297.601	90.12
297.831	67.12
298.062	77.12
298.292	74.12
298.523	92.12
298.753	81.12
298.984	90.12
299.214	94.12
299.445	105.12
299.675	76.12
299.905	84.12
300.136	80.12
300.366	83.12
300.597	92.12
300.827	77.12
301.057	86.12
301.288	85.12
301.518	74.12
301.748	87.12
301.979	97.12
302.209	79.12
302.439	82.12
302.669	92.12
302.9	86.12
303.13	81.12
303.36	105.12
303.59	82.12
303.82	93.12
304.051	82.12
304.281	88.12
304.511	93.12
304.741	96.12
304.971	91.12
305.201	98.12
305.431	98.12
305.661	81.12
305.891	74.12
306.121	93.12
306.352	80.12
306.582	85.12
306.812	85.12
307.042	87.12
307.272	78.12
307.502	91.12
307.731	77.12
307.961	81.12
308.191	85.12
308.421	93.12
308.651	72.12
308.881	96.12
309.111	76.12
309.341	90.12
309.571	84.12
309.8	79.12
310.03	81.12
310.26	76.12
310.49	92.12
310.72	95.12
310.949	82.12
311.179	85.12
311.409	92.12
311.639	90.12
311.868	90.12
312.098	87.12
312.328	84.12
312.557	91.12
312.787	93.12
313.017	85.12
313.246	77.12
313.476	89.12
313.706	75.12
313.935	90.12
314.165	72.12
314.394	88.12
314.624	84.12
314.853	83.12
315.083	79.12
315.312	84.12
315.542	92.12
315.771	87.12
316.001	89.12
316.23	94.12
316.46	91.12
316.689	85.12
316.919	97.12
317.148	100.12
317.377	94.12
317.607	86.12
317.836	82.12
318.065	92.12
318.295	82.12
318.524	92.12
318.753	92.12
318.983	87.12
319.212	85.12
319.441	88.12
319.67	91.12
319.9	100.12
320.129	94.12
320.358	79.12
320.587	77.12
320.816	83.12
321.046	86.12
321.275	101.12
321.504	85.12
321.733	100.12
321.962	98.12
322.191	86.12
322.42	81.12
322.649	76.12
322.878	84.12
323.108	84.12
323.337	76.12
323.566	80.12
323.795	78.12
324.024	87.12
324.253	93.12
324.482	97.12
324.71	97.12
324.939	94.12
325.168	91.12
325.397	88.12
325.626	91.12
325.855	93.12
326.084	82.12
326.313	76.12
326.542	79.12
326.77	91.12
326.999	87.12
327.228	92.12
327.457	77.12
327.686	83.12
327.914	77.12
328.143	82.12
328.372	92.12
328.6	82.12
328.829	73.12
329.058	98.12
329.287	89.12
329.515	92.12
329.744	78.12
329.972	88.12
330.201	96.12
330.43	94.12
330.658	83.12
330.887	82.12
331.115	85.12
331.344	91.12
331.572	75.12
331.801	78.12
332.03	89.12
332.258	75.12
332.486	88.12
332.715	76.12
332.943	85.12
333.172	90.12
333.4	86.12
333.629	84.12
333.857	91.12
334.085	82.12
334.314	78.12
334.542	78.12
334.771	86.12
334.999	77.12
335.227	90.12
335.455	88.12
335.684	83.12
335.912	99.12
336.14	85.12
336.369	89.12
336.597	86.12
336.825	89.12
337.053	85.12
337.281	86.12
337.51	80.12
337.738	83.12
337.966	75.12
338.194	88.12
338.422	86.12
338.65	85.12
338.878	83.12
339.106	75.12
339.334	97.12
339.562	83.12
339.79	83.12
340.018	83.12
340.246	76.12
340.474	84.12
340.702	77.12
340.93	89.12
341.158	72.12
341.386	84.12
341.614	79.12
341.842	66.12
342.07	88.12
342.298	80.12
342.526	76.12
342.754	90.12
342.981	68.12
343.209	79.12
343.437	89.12
343.665	94.12
343.893	78.12
344.12	82.12
344.348	81.12
344.576	92.12
344.804	77.12
345.031	79.12
345.259	59.12
345.487	74.12
345.714	90.12
345.942	94.12
346.17	92.12
346.397	75.12
346.625	76.12
346.853	82.12
347.08	70.12
347.308	88.12
347.535	91.12
347.763	85.12
347.99	82.12
348.218	88.12
348.445	94.12
348.673	101.12
348.9	90.12
349.128	81.12
349.355	84.12
349.583	86.12
349.81	65.12
350.037	90.12
350.265	96.12
350.492	83.12
350.72	69.12
350.947	85.12
351.174	84.12
351.402	82.12
351.629	87.12
351.856	78.12
352.083	91.12
352.311	91.12
352.538	86.12
352.765	89.12
352.992	97.12
353.22	70.12
353.447	107.12
353.674	79.12
353.901	84.12
354.128	68.12
354.355	86.12
354.583	78.12
354.81	90.12
355.037	86.12
355.264	79.12
355.491	88.12
355.718	83.12
355.945	91.12
356.172	73.12
356.399	75.12
356.626	78.12
356.853	80.12
357.08	81.12
357.307	84.12
357.534	89.12
357.761	73.12
357.988	81.12
358.215	77.12
358.441	83.12
358.668	89.12
358.895	86.12
359.122	90.12
359.349	92.12
359.576	78.12
359.802	85.12
360.029	89.12
360.256	92.12
360.483	72.12
360.709	88.12
360.936	76.12
361.163	95.12
361.39	64.12
361.616	94.12
361.843	97.12
362.07	80.12
362.296	85.12
362.523	77.12
362.749	76.12
362.976	80.12
363.203	99.12
363.429	90.12
363.656	70.12
363.882	82.12
364.109	77.12
364.335	78.12
364.562	77.12
364.788	71.12
365.015	91.12
365.241	88.12
365.468	78.12
365.694	85.12
365.92	80.12
366.147	85.12
366.373	82.12
366.599	101.12
366.826	94.12
367.052	106.12
367.278	82.12
367.505	72.12
367.731	74.12
367.957	95.12
368.184	94.12
368.41	78.12
368.636	76.12
368.862	78.12
369.089	102.12
369.315	82.12
369.541	91.12
369.767	99.12
369.993	96.12
370.219	89.12
370.445	90.12
370.672	98.12
370.898	86.12
371.124	85.12
371.35	98.12
371.576	97.12
371.802	98.12
372.028	87.12
372.254	87.12
372.48	82.12
372.706	82.12
372.932	93.12
373.158	90.12
373.384	97.12
373.61	100.12
373.835	103.12
374.061	83.12
374.287	99.12
374.513	91.12
374.739	92.12
374.965	76.12
375.191	76.12
375.416	79.12
375.642	92.12
375.868	96.12
376.094	92.12
376.319	107.12
376.545	85.12
376.771	94.12
376.997	100.12
377.222	81.12
377.448	101.12
377.674	97.12
377.899	93.12
378.125	91.12
378.35	85.12
378.576	99.12
378.802	93.12
379.027	97.12
379.253	98.12
379.478	98.12
379.704	95.12
379.929	101.12
380.155	92.12
380.38	107.12
380.606	97.12
380.831	106.12
381.057	90.12
381.282	85.12
381.507	98.12
381.733	104.12
381.958	108.12
382.184	84.12
382.409	94.12
382.634	97.12
382.86	104.12
383.085	90.12
383.31	95.12
383.535	94.12
383.761	99.12
383.986	99.12
384.211	88.12
384.436	97.12
384.662	98.12
384.887	93.12
385.112	106.12
385.337	84.12
385.562	76.12
385.787	90.12
386.013	102.12
386.238	96.12
386.463	98.12
386.688	99.12
386.913	104.12
387.138	106.12
387.363	99.12
387.588	103.12
387.813	98.12
388.038	112.12
388.263	94.12
388.488	100.12
388.713	99.12
388.938	113.12
389.163	94.12
389.387	105.12
389.612	84.12
389.837	101.12
390.062	95.12
390.287	101.12
390.512	116.12
390.736	123.12
390.961	99.12
391.186	114.12
391.411	120.12
391.636	104.12
391.86	108.12
392.085	93.12
392.31	112.12
392.534	108.12
392.759	110.12
392.984	115.12
393.208	115.12
393.433	91.12
393.658	118.12
393.882	102.12
394.107	104.12
394.331	126.12
394.556	116.12
394.78	121.12
395.005	106.12
395.229	97.12
395.454	106.12
395.678	117.12
395.903	107.12
396.127	98.12
396.352	121.12
396.576	105.12
396.801	100.12
397.025	101.12
397.249	110.12
397.474	120.12
397.698	122.12
397.922	107.12
398.147	107.12
398.371	112.12
398.595	114.12
398.82	106.12
399.044	112.12
399.268	93.12
399.492	118.12
399.717	106.12
399.941	110.12
400.165	114.12
400.389	128.12
400.613	110.12
400.837	110.12
401.062	107.12
401.286	121.12
401.51	110.12
401.734	121.12
401.958	121.12
402.182	102.12
402.406	109.12
402.63	112.12
402.854	118.12
403.078	104.12
403.302	118.12
403.526	110.12
403.75	124.12
403.974	122.12
404.198	122.12
404.422	134.12
404.645	129.12
404.869	105.12
405.093	106.12
405.317	117.12
405.541	114.12
405.765	126.12
405.988	120.12
406.212	130.12
406.436	124.12
406.66	113.12
406.883	124.12
407.107	130.12
407.331	123.12
407.555	114.12
407.778	118.12
408.002	126.12
408.226	115.12
408.449	121.12
408.673	131.12
408.896	106.12
409.12	122.12
409.344	121.12
409.567	112.12
409.791	118.12
410.014	117.12
410.238	123.12
410.461	112.12
410.685	132.12
410.908	121.12
411.132	121.12
411.355	121.12
411.578	122.12
411.802	108.12
412.025	116.12
412.249	132.12
412.472	125.12
412.695	104.12
412.919	124.12
413.142	120.12
413.365	122.12
413.589	126.12
413.812	120.12
414.035	122.12
414.258	124.12
414.482	120.12
414.705	121.12
414.928	110.12
415.151	124.12
415.374	114.12
415.597	121.12
415.821	129.12
416.044	123.12
416.267	118.12
416.49	121.12
416.713	123.12
416.936	125.12
417.159	131.12
417.382	122.12
417.605	114.12
417.828	127.12
418.051	126.12
418.274	125.12
418.497	137.12
418.72	137.12
418.943	118.12
419.166	126.12
419.389	135.12
419.611	139.12
419.834	145.12
420.057	138.12
420.28	136.12
420.503	139.12
420.726	136.12
420.948	126.12
421.171	129.12
421.394	130.12
421.617	138.12
421.839	138.12
422.062	131.12
422.285	128.12
422.507	120.12
422.73	134.12
422.953	130.12
423.175	126.12
423.398	130.12
423.621	140.12
423.843	128.12
424.066	135.12
424.288	153.12
424.511	170.12
424.733	146.12
424.956	135.12
425.178	152.12
425.401	124.12
425.623	131.12
425.846	145.12
426.068	132.12
426.291	115.12
426.513	137.12
426.735	142.12
426.958	145.12
427.18	132.12
427.402	123.12
427.625	130.12
427.847	134.12
428.069	121.12
428.292	134.12
428.514	134.12
428.736	135.12
428.958	136.12
429.181	114.12
429.403	122.12
429.625	124.12
429.847	138.12
430.069	122.12
430.292	131.12
430.514	137.12
430.736	123.12
430.958	123.12
431.18	139.12
431.402	130.12
431.624	124.12
431.846	106.12
432.068	96.12
432.29	92.12
432.512	121.12
432.734	128.12
432.956	118.12
433.178	137.12
433.4	141.12
433.622	129.12
433.844	123.12
434.066	120.12
434.287	107.12
434.509	91.12
434.731	99.12
434.953	104.12
435.175	132.12
435.397	137.12
435.618	120.12
435.84	105.12
436.062	124.12
436.284	129.12
436.505	136.12
436.727	128.12
436.949	134.12
437.17	131.12
437.392	140.12
437.614	119.12
437.835	119.12
438.057	120.12
438.278	107.12
438.5	121.12
438.721	132.12
438.943	132.12
439.165	148.12
439.386	140.12
439.608	129.12
439.829	141.12
440.05	152.12
440.272	149.12
440.493	133.12
440.715	143.12
440.936	133.12
441.158	151.12
441.379	155.12
441.6	161.12
441.822	138.12
442.043	122.12
442.264	137.12
442.486	148.12
442.707	138.12
442.928	148.12
443.149	137.12
443.371	146.12
443.592	148.12
443.813	126.12
444.034	147.12
444.255	136.12
444.476	140.12
444.698	122.12
444.919	136.12
445.14	268.12
445.361	197.12
445.582	159.12
445.803	160.12
446.024	153.12
446.245	154.12
446.466	148.12
446.687	165.12
446.908	158.12
447.129	150.12
447.35	136.12
447.571	149.12
447.792	154.12
448.013	138.12
448.234	149.12
448.455	142.12
448.675	138.12
448.896	149.12
449.117	149.12
449.338	122.12
449.559	121.12
449.779	133.12
450	132.12
450.221	135.12
450.442	141.12
450.662	128.12
450.883	142.12
451.104	130.12
451.324	147.12
451.545	131.12
451.766	147.12
451.986	130.12
452.207	134.12
452.428	150.12
452.648	127.12
452.869	136.12
453.089	132.12
453.31	116.12
453.53	112.12
453.751	112.12
453.971	108.12
454.192	112.12
454.412	107.12
454.633	106.12
454.853	130.12
455.073	123.12
455.294	125.12
455.514	121.12
455.734	121.12
455.955	135.12
456.175	122.12
456.395	116.12
456.616	118.12
456.836	102.12
457.056	108.12
457.276	94.12
457.497	116.12
457.717	102.12
457.937	124.12
458.157	110.12
458.377	107.12
458.598	92.12
458.818	101.12
459.038	85.12
459.258	90.12
459.478	92.12
459.698	80.12
459.918	95.12
460.138	109.12
460.358	105.12
460.578	114.12
460.798	116.12
461.018	116.12
461.238	112.12
461.458	125.12
461.678	130.12
461.898	131.12
462.118	112.12
462.338	105.12
462.558	111.12
462.777	115.12
462.997	114.12
463.217	128.12
463.437	100.12
463.657	108.12
463.876	117.12
464.096	105.12
464.316	101.12
464.536	113.12
464.755	114.12
464.975	122.12
465.195	122.12
465.414	122.12
465.634	107.12
465.854	124.12
466.073	116.12
466.293	132.12
466.512	142.12
466.732	140.12
466.951	119.12
467.171	134.12
467.391	137.12
467.61	142.12
467.829	130.12
468.049	130.12
468.268	141.12
468.488	142.12
468.707	141.12
468.927	141.12
469.146	148.12
469.365	135.12
469.585	126.12
469.804	152.12
470.023	132.12
470.243	150.12
470.462	143.12
470.681	151.12
470.901	141.12
471.12	147.12
471.339	124.12
471.558	148.12
471.777	137.12
471.997	156.12
472.216	122.12
472.435	122.12
472.654	120.12
472.873	116.12
473.092	128.12
473.311	125.12
473.53	126.12
473.749	129.12
473.968	138.12
474.187	135.12
474.406	125.12
474.625	128.12
474.844	129.12
475.063	149.12
475.282	125.12
475.501	129.12
475.72	136.12
475.939	124.12
476.158	133.12
476.377	134.12
476.596	120.12
476.814	104.12
477.033	121.12
477.252	133.12
477.471	116.12
477.69	148.12
477.908	143.12
478.127	145.12
478.346	149.12
478.564	148.12
478.783	148.12
479.002	138.12
479.22	141.12
479.439	129.12
479.658	129.12
479.876	101.12
480.095	93.12
480.313	109.12
480.532	115.12
480.751	105.12
480.969	93.12
481.188	98.12
481.406	109.12
481.624	92.12
481.843	100.12
482.061	102.12
482.28	116.12
482.498	116.12
482.717	117.12
482.935	128.12
483.153	144.12
483.372	151.12
483.59	154.12
483.808	140.12
484.027	132.12
484.245	132.12
484.463	154.12
484.681	168.12
484.9	155.12
485.118	154.12
485.336	133.12
485.554	121.12
485.772	122.12
485.99	99.12
486.209	99.12
486.427	97.12
486.645	119.12
486.863	142.12
487.081	153.12
487.299	131.12
487.517	162.12
487.735	190.12
487.953	198.12
488.171	191.12
488.389	168.12
488.607	167.12
488.825	153.12
489.043	141.12
489.261	150.12
489.479	133.12
489.696	152.12
489.914	148.12
490.132	155.12
490.35	152.12
490.568	161.12
490.786	179.12
491.003	180.12
491.221	189.12
491.439	184.12
491.657	197.12
491.874	213.12
492.092	229.12
492.31	249.12
492.527	236.12
492.745	213.12
492.963	200.12
493.18	192.12
493.398	184.12
493.615	189.12
493.833	182.12
494.05	187.12
494.268	186.12
494.485	187.12
494.703	162.12
494.92	164.12
495.138	180.12
495.355	175.12
495.573	177.12
495.79	176.12
496.008	171.12
496.225	167.12
496.442	175.12
496.66	165.12
496.877	176.12
497.094	170.12
497.312	166.12
497.529	163.12
497.746	170.12
497.963	158.12
498.181	145.12
498.398	126.12
498.615	132.12
498.832	123.12
499.049	127.12
499.267	116.12
499.484	121.12
499.701	127.12
499.918	133.12
500.135	142.12
500.352	132.12
500.569	145.12
500.786	148.12
501.003	140.12
501.22	138.12
501.437	144.12
501.654	136.12
501.871	133.12
502.088	146.12
502.305	118.12
502.522	132.12
502.739	132.12
502.956	133.12
503.172	125.12
503.389	124.12
503.606	119.12
503.823	125.12
504.04	133.12
504.256	136.12
504.473	128.12
504.69	128.12
504.907	130.12
505.123	129.12
505.34	132.12
505.557	132.12
505.773	123.12
505.99	131.12
506.207	132.12
506.423	121.12
506.64	133.12
506.856	118.12
507.073	130.12
507.289	136.12
507.506	140.12
507.722	122.12
507.939	132.12
508.155	118.12
508.372	113.12
508.588	129.12
508.805	121.12
509.021	108.12
509.238	119.12
509.454	103.12
509.67	113.12
509.887	99.12
510.103	104.12
510.319	82.12
510.536	93.12
510.752	90.12
510.968	87.12
511.184	76.12
511.401	96.12
