Data from Location6.07152019.Energy5.Lamp.07192019.3%Agarose_HRD10591_16-13-43-396.txt Node
Date: Fri Jul 19 16:13:43 EDT 2019
User: cochatt
Spectrometer: HR+D1059
Trigger mode: 1
Integration Time (sec): 1.000000E-1
Scans to average: 1
Electric dark correction enabled: true
Nonlinearity correction enabled: false
Boxcar width: 0
XAxis mode: Wavelengths
Number of Pixels in Spectrum: 2048
>>>>>Begin Spectral Data<<<<<
223.165	-13.19
223.4	-13.19
223.635	-13.19
223.869	-19.19
224.104	-9.19
224.338	-14.19
224.573	-17.19
224.808	-18.19
225.042	-10.19
225.277	-12.19
225.511	-3.19
225.746	-3.19
225.98	-0.19
226.215	23.81
226.449	17.81
226.683	19.81
226.918	26.81
227.152	31.81
227.387	53.81
227.621	31.81
227.856	42.81
228.09	46.81
228.324	46.81
228.559	53.81
228.793	57.81
229.027	68.81
229.262	51.81
229.496	79.81
229.73	71.81
229.964	62.81
230.199	65.81
230.433	69.81
230.667	67.81
230.901	62.81
231.136	91.81
231.37	77.81
231.604	86.81
231.838	86.81
232.072	90.81
232.306	83.81
232.541	89.81
232.775	81.81
233.009	95.81
233.243	86.81
233.477	86.81
233.711	89.81
233.945	75.81
234.179	81.81
234.413	74.81
234.647	80.81
234.881	83.81
235.115	88.81
235.349	91.81
235.583	86.81
235.817	79.81
236.051	71.81
236.285	85.81
236.519	73.81
236.753	76.81
236.987	66.81
237.221	79.81
237.455	73.81
237.689	88.81
237.922	65.81
238.156	72.81
238.39	69.81
238.624	79.81
238.858	82.81
239.091	94.81
239.325	83.81
239.559	75.81
239.793	79.81
240.027	87.81
240.26	91.81
240.494	97.81
240.728	77.81
240.961	77.81
241.195	82.81
241.429	77.81
241.662	71.81
241.896	83.81
242.13	79.81
242.363	83.81
242.597	86.81
242.83	82.81
243.064	89.81
243.298	86.81
243.531	85.81
243.765	84.81
243.998	91.81
244.232	71.81
244.465	77.81
244.699	69.81
244.932	65.81
245.166	75.81
245.399	88.81
245.633	77.81
245.866	79.81
246.099	82.81
246.333	86.81
246.566	70.81
246.8	74.81
247.033	86.81
247.266	93.81
247.5	83.81
247.733	93.81
247.966	84.81
248.2	86.81
248.433	89.81
248.666	81.81
248.899	94.81
249.133	73.81
249.366	102.81
249.599	72.81
249.832	84.81
250.066	90.81
250.299	84.81
250.532	74.81
250.765	83.81
250.998	81.81
251.231	98.81
251.465	82.81
251.698	79.81
251.931	85.81
252.164	91.81
252.397	87.81
252.63	79.81
252.863	70.81
253.096	70.81
253.329	77.81
253.562	72.81
253.795	80.81
254.028	88.81
254.261	76.81
254.494	79.81
254.727	91.81
254.96	90.81
255.193	87.81
255.426	73.81
255.659	69.81
255.892	80.81
256.124	93.81
256.357	78.81
256.59	96.81
256.823	89.81
257.056	78.81
257.289	86.81
257.521	83.81
257.754	79.81
257.987	74.81
258.22	81.81
258.452	84.81
258.685	86.81
258.918	82.81
259.151	83.81
259.383	93.81
259.616	84.81
259.849	86.81
260.081	81.81
260.314	77.81
260.547	84.81
260.779	89.81
261.012	98.81
261.244	83.81
261.477	85.81
261.71	84.81
261.942	90.81
262.175	79.81
262.407	79.81
262.64	61.81
262.872	94.81
263.105	90.81
263.337	94.81
263.57	80.81
263.802	75.81
264.035	79.81
264.267	94.81
264.499	88.81
264.732	68.81
264.964	81.81
265.197	85.81
265.429	84.81
265.661	96.81
265.894	78.81
266.126	85.81
266.358	75.81
266.591	81.81
266.823	72.81
267.055	87.81
267.287	83.81
267.52	77.81
267.752	76.81
267.984	84.81
268.216	90.81
268.448	86.81
268.681	95.81
268.913	81.81
269.145	80.81
269.377	85.81
269.609	86.81
269.841	90.81
270.073	89.81
270.306	85.81
270.538	79.81
270.77	86.81
271.002	81.81
271.234	91.81
271.466	74.81
271.698	72.81
271.93	78.81
272.162	84.81
272.394	90.81
272.626	102.81
272.858	79.81
273.09	84.81
273.322	78.81
273.553	84.81
273.785	91.81
274.017	76.81
274.249	87.81
274.481	99.81
274.713	89.81
274.945	97.81
275.176	83.81
275.408	79.81
275.64	82.81
275.872	70.81
276.104	78.81
276.335	69.81
276.567	85.81
276.799	79.81
277.031	82.81
277.262	87.81
277.494	87.81
277.726	99.81
277.957	93.81
278.189	81.81
278.421	81.81
278.652	89.81
278.884	77.81
279.115	90.81
279.347	89.81
279.579	97.81
279.81	84.81
280.042	82.81
280.273	89.81
280.505	86.81
280.736	92.81
280.968	89.81
281.199	84.81
281.431	89.81
281.662	79.81
281.894	91.81
282.125	76.81
282.356	97.81
282.588	90.81
282.819	92.81
283.051	82.81
283.282	91.81
283.513	78.81
283.745	79.81
283.976	80.81
284.207	84.81
284.439	102.81
284.67	94.81
284.901	91.81
285.132	82.81
285.364	85.81
285.595	88.81
285.826	97.81
286.057	88.81
286.288	89.81
286.52	86.81
286.751	76.81
286.982	77.81
287.213	86.81
287.444	96.81
287.675	79.81
287.906	91.81
288.138	94.81
288.369	80.81
288.6	87.81
288.831	76.81
289.062	100.81
289.293	82.81
289.524	94.81
289.755	76.81
289.986	72.81
290.217	74.81
290.448	87.81
290.679	91.81
290.91	84.81
291.141	94.81
291.371	92.81
291.602	82.81
291.833	87.81
292.064	104.81
292.295	93.81
292.526	79.81
292.757	86.81
292.987	97.81
293.218	94.81
293.449	88.81
293.68	101.81
293.91	91.81
294.141	85.81
294.372	87.81
294.603	86.81
294.833	76.81
295.064	97.81
295.295	92.81
295.525	83.81
295.756	94.81
295.987	73.81
296.217	88.81
296.448	88.81
296.679	89.81
296.909	74.81
297.14	93.81
297.37	85.81
297.601	79.81
297.831	83.81
298.062	89.81
298.292	80.81
298.523	97.81
298.753	87.81
298.984	81.81
299.214	86.81
299.445	81.81
299.675	93.81
299.905	77.81
300.136	73.81
300.366	89.81
300.597	84.81
300.827	76.81
301.057	81.81
301.288	96.81
301.518	100.81
301.748	94.81
301.979	107.81
302.209	94.81
302.439	79.81
302.669	81.81
302.9	64.81
303.13	90.81
303.36	87.81
303.59	89.81
303.82	89.81
304.051	78.81
304.281	91.81
304.511	87.81
304.741	84.81
304.971	69.81
305.201	83.81
305.431	90.81
305.661	89.81
305.891	97.81
306.121	79.81
306.352	87.81
306.582	89.81
306.812	89.81
307.042	78.81
307.272	83.81
307.502	77.81
307.731	89.81
307.961	98.81
308.191	99.81
308.421	96.81
308.651	87.81
308.881	94.81
309.111	109.81
309.341	92.81
309.571	82.81
309.8	95.81
310.03	93.81
310.26	76.81
310.49	100.81
310.72	93.81
310.949	96.81
311.179	77.81
311.409	69.81
311.639	79.81
311.868	99.81
312.098	79.81
312.328	83.81
312.557	85.81
312.787	81.81
313.017	85.81
313.246	83.81
313.476	78.81
313.706	85.81
313.935	88.81
314.165	87.81
314.394	92.81
314.624	77.81
314.853	91.81
315.083	80.81
315.312	80.81
315.542	86.81
315.771	84.81
316.001	88.81
316.23	79.81
316.46	87.81
316.689	86.81
316.919	91.81
317.148	77.81
317.377	93.81
317.607	85.81
317.836	78.81
318.065	92.81
318.295	85.81
318.524	85.81
318.753	80.81
318.983	79.81
319.212	87.81
319.441	90.81
319.67	92.81
319.9	95.81
320.129	103.81
320.358	95.81
320.587	98.81
320.816	85.81
321.046	89.81
321.275	90.81
321.504	89.81
321.733	74.81
321.962	79.81
322.191	81.81
322.42	87.81
322.649	92.81
322.878	95.81
323.108	85.81
323.337	90.81
323.566	85.81
323.795	87.81
324.024	87.81
324.253	77.81
324.482	90.81
324.71	81.81
324.939	86.81
325.168	85.81
325.397	102.81
325.626	97.81
325.855	84.81
326.084	77.81
326.313	90.81
326.542	81.81
326.77	92.81
326.999	83.81
327.228	85.81
327.457	88.81
327.686	86.81
327.914	94.81
328.143	92.81
328.372	89.81
328.6	86.81
328.829	88.81
329.058	78.81
329.287	95.81
329.515	83.81
329.744	96.81
329.972	81.81
330.201	94.81
330.43	82.81
330.658	92.81
330.887	98.81
331.115	87.81
331.344	77.81
331.572	86.81
331.801	82.81
332.03	77.81
332.258	84.81
332.486	84.81
332.715	79.81
332.943	83.81
333.172	88.81
333.4	87.81
333.629	89.81
333.857	80.81
334.085	86.81
334.314	89.81
334.542	99.81
334.771	79.81
334.999	93.81
335.227	94.81
335.455	86.81
335.684	92.81
335.912	84.81
336.14	97.81
336.369	87.81
336.597	82.81
336.825	83.81
337.053	86.81
337.281	87.81
337.51	83.81
337.738	92.81
337.966	92.81
338.194	97.81
338.422	93.81
338.65	93.81
338.878	86.81
339.106	91.81
339.334	80.81
339.562	87.81
339.79	86.81
340.018	88.81
340.246	84.81
340.474	96.81
340.702	88.81
340.93	96.81
341.158	91.81
341.386	89.81
341.614	83.81
341.842	81.81
342.07	77.81
342.298	82.81
342.526	85.81
342.754	78.81
342.981	77.81
343.209	92.81
343.437	75.81
343.665	83.81
343.893	77.81
344.12	84.81
344.348	90.81
344.576	82.81
344.804	88.81
345.031	96.81
345.259	84.81
345.487	90.81
345.714	92.81
345.942	105.81
346.17	98.81
346.397	90.81
346.625	82.81
346.853	78.81
347.08	88.81
347.308	105.81
347.535	79.81
347.763	94.81
347.99	65.81
348.218	80.81
348.445	95.81
348.673	81.81
348.9	87.81
349.128	75.81
349.355	81.81
349.583	72.81
349.81	85.81
350.037	75.81
350.265	84.81
350.492	71.81
350.72	92.81
350.947	90.81
351.174	86.81
351.402	83.81
351.629	90.81
351.856	93.81
352.083	77.81
352.311	79.81
352.538	77.81
352.765	82.81
352.992	83.81
353.22	90.81
353.447	73.81
353.674	87.81
353.901	93.81
354.128	82.81
354.355	86.81
354.583	78.81
354.81	78.81
355.037	93.81
355.264	101.81
355.491	84.81
355.718	84.81
355.945	83.81
356.172	85.81
356.399	90.81
356.626	100.81
356.853	92.81
357.08	86.81
357.307	77.81
357.534	94.81
357.761	71.81
357.988	82.81
358.215	95.81
358.441	87.81
358.668	83.81
358.895	110.81
359.122	82.81
359.349	89.81
359.576	81.81
359.802	67.81
360.029	91.81
360.256	99.81
360.483	83.81
360.709	88.81
360.936	93.81
361.163	96.81
361.39	91.81
361.616	92.81
361.843	85.81
362.07	90.81
362.296	89.81
362.523	79.81
362.749	81.81
362.976	78.81
363.203	85.81
363.429	95.81
363.656	87.81
363.882	89.81
364.109	97.81
364.335	79.81
364.562	88.81
364.788	85.81
365.015	97.81
365.241	108.81
365.468	95.81
365.694	75.81
365.92	88.81
366.147	95.81
366.373	94.81
366.599	88.81
366.826	91.81
367.052	100.81
367.278	94.81
367.505	88.81
367.731	93.81
367.957	92.81
368.184	90.81
368.41	103.81
368.636	81.81
368.862	103.81
369.089	91.81
369.315	101.81
369.541	101.81
369.767	97.81
369.993	99.81
370.219	98.81
370.445	82.81
370.672	93.81
370.898	98.81
371.124	87.81
371.35	100.81
371.576	82.81
371.802	90.81
372.028	97.81
372.254	114.81
372.48	95.81
372.706	96.81
372.932	99.81
373.158	92.81
373.384	93.81
373.61	100.81
373.835	99.81
374.061	102.81
374.287	99.81
374.513	96.81
374.739	85.81
374.965	94.81
375.191	91.81
375.416	90.81
375.642	94.81
375.868	85.81
376.094	101.81
376.319	89.81
376.545	105.81
376.771	92.81
376.997	99.81
377.222	84.81
377.448	116.81
377.674	93.81
377.899	93.81
378.125	104.81
378.35	97.81
378.576	110.81
378.802	114.81
379.027	91.81
379.253	97.81
379.478	96.81
379.704	99.81
379.929	92.81
380.155	97.81
380.38	119.81
380.606	101.81
380.831	100.81
381.057	120.81
381.282	109.81
381.507	107.81
381.733	113.81
381.958	104.81
382.184	107.81
382.409	98.81
382.634	96.81
382.86	114.81
383.085	105.81
383.31	89.81
383.535	103.81
383.761	101.81
383.986	98.81
384.211	109.81
384.436	98.81
384.662	105.81
384.887	104.81
385.112	93.81
385.337	100.81
385.562	99.81
385.787	109.81
386.013	95.81
386.238	97.81
386.463	105.81
386.688	112.81
386.913	96.81
387.138	74.81
387.363	108.81
387.588	112.81
387.813	115.81
388.038	110.81
388.263	108.81
388.488	105.81
388.713	93.81
388.938	95.81
389.163	109.81
389.387	111.81
389.612	102.81
389.837	112.81
390.062	108.81
390.287	118.81
390.512	113.81
390.736	103.81
390.961	99.81
391.186	111.81
391.411	100.81
391.636	117.81
391.86	107.81
392.085	101.81
392.31	102.81
392.534	100.81
392.759	121.81
392.984	111.81
393.208	113.81
393.433	90.81
393.658	101.81
393.882	121.81
394.107	117.81
394.331	119.81
394.556	109.81
394.78	119.81
395.005	97.81
395.229	104.81
395.454	94.81
395.678	107.81
395.903	109.81
396.127	110.81
396.352	121.81
396.576	115.81
396.801	116.81
397.025	111.81
397.249	119.81
397.474	105.81
397.698	106.81
397.922	113.81
398.147	109.81
398.371	100.81
398.595	113.81
398.82	118.81
399.044	105.81
399.268	121.81
399.492	115.81
399.717	111.81
399.941	112.81
400.165	111.81
400.389	113.81
400.613	108.81
400.837	120.81
401.062	121.81
401.286	121.81
401.51	112.81
401.734	113.81
401.958	110.81
402.182	115.81
402.406	123.81
402.63	117.81
402.854	132.81
403.078	116.81
403.302	130.81
403.526	110.81
403.75	121.81
403.974	119.81
404.198	115.81
404.422	129.81
404.645	126.81
404.869	121.81
405.093	127.81
405.317	121.81
405.541	121.81
405.765	118.81
405.988	122.81
406.212	134.81
406.436	126.81
406.66	127.81
406.883	110.81
407.107	128.81
407.331	127.81
407.555	117.81
407.778	153.81
408.002	134.81
408.226	140.81
408.449	125.81
408.673	128.81
408.896	121.81
409.12	119.81
409.344	111.81
409.567	124.81
409.791	133.81
410.014	131.81
410.238	127.81
410.461	132.81
410.685	141.81
410.908	125.81
411.132	139.81
411.355	114.81
411.578	110.81
411.802	113.81
412.025	125.81
412.249	125.81
412.472	115.81
412.695	118.81
412.919	115.81
413.142	134.81
413.365	125.81
413.589	131.81
413.812	124.81
414.035	133.81
414.258	106.81
414.482	121.81
414.705	127.81
414.928	134.81
415.151	134.81
415.374	141.81
415.597	127.81
415.821	130.81
416.044	137.81
416.267	126.81
416.49	128.81
416.713	129.81
416.936	139.81
417.159	139.81
417.382	138.81
417.605	122.81
417.828	148.81
418.051	135.81
418.274	135.81
418.497	153.81
418.72	146.81
418.943	123.81
419.166	133.81
419.389	149.81
419.611	151.81
419.834	148.81
420.057	128.81
420.28	146.81
420.503	131.81
420.726	143.81
420.948	161.81
421.171	155.81
421.394	157.81
421.617	155.81
421.839	134.81
422.062	150.81
422.285	153.81
422.507	136.81
422.73	138.81
422.953	142.81
423.175	135.81
423.398	130.81
423.621	127.81
423.843	134.81
424.066	147.81
424.288	145.81
424.511	146.81
424.733	150.81
424.956	146.81
425.178	147.81
425.401	145.81
425.623	133.81
425.846	137.81
426.068	147.81
426.291	144.81
426.513	142.81
426.735	133.81
426.958	131.81
427.18	136.81
427.402	131.81
427.625	151.81
427.847	133.81
428.069	124.81
428.292	141.81
428.514	135.81
428.736	148.81
428.958	138.81
429.181	131.81
429.403	140.81
429.625	138.81
429.847	127.81
430.069	137.81
430.292	159.81
430.514	127.81
430.736	126.81
430.958	140.81
431.18	135.81
431.402	129.81
431.624	109.81
431.846	113.81
432.068	97.81
432.29	123.81
432.512	115.81
432.734	110.81
432.956	141.81
433.178	146.81
433.4	146.81
433.622	158.81
433.844	125.81
434.066	115.81
434.287	111.81
434.509	102.81
434.731	101.81
434.953	130.81
435.175	135.81
435.397	142.81
435.618	139.81
435.84	111.81
436.062	120.81
436.284	125.81
436.505	127.81
436.727	126.81
436.949	155.81
437.17	134.81
437.392	139.81
437.614	129.81
437.835	99.81
438.057	104.81
438.278	121.81
438.5	135.81
438.721	138.81
438.943	145.81
439.165	151.81
439.386	142.81
439.608	147.81
439.829	148.81
440.05	137.81
440.272	148.81
440.493	153.81
440.715	166.81
440.936	142.81
441.158	134.81
441.379	154.81
441.6	163.81
441.822	149.81
442.043	142.81
442.264	144.81
442.486	150.81
442.707	141.81
442.928	145.81
443.149	146.81
443.371	152.81
443.592	139.81
443.813	144.81
444.034	142.81
444.255	154.81
444.476	148.81
444.698	133.81
444.919	137.81
445.14	286.81
445.361	212.81
445.582	187.81
445.803	157.81
446.024	157.81
446.245	154.81
446.466	161.81
446.687	162.81
446.908	162.81
447.129	167.81
447.35	153.81
447.571	161.81
447.792	162.81
448.013	157.81
448.234	135.81
448.455	147.81
448.675	140.81
448.896	154.81
449.117	147.81
449.338	156.81
449.559	127.81
449.779	155.81
450	148.81
450.221	147.81
450.442	141.81
450.662	151.81
450.883	141.81
451.104	137.81
451.324	125.81
451.545	148.81
451.766	135.81
451.986	127.81
452.207	130.81
452.428	135.81
452.648	133.81
452.869	134.81
453.089	113.81
453.31	123.81
453.53	133.81
453.751	95.81
453.971	111.81
454.192	114.81
454.412	110.81
454.633	134.81
454.853	123.81
455.073	122.81
455.294	132.81
455.514	149.81
455.734	137.81
455.955	133.81
456.175	129.81
456.395	120.81
456.616	109.81
456.836	115.81
457.056	116.81
457.276	104.81
457.497	121.81
457.717	120.81
457.937	121.81
458.157	117.81
458.377	107.81
458.598	115.81
458.818	115.81
459.038	81.81
459.258	79.81
459.478	98.81
459.698	99.81
459.918	106.81
460.138	105.81
460.358	110.81
460.578	120.81
460.798	124.81
461.018	132.81
461.238	128.81
461.458	117.81
461.678	132.81
461.898	114.81
462.118	128.81
462.338	114.81
462.558	123.81
462.777	114.81
462.997	130.81
463.217	125.81
463.437	108.81
463.657	121.81
463.876	120.81
464.096	116.81
464.316	119.81
464.536	122.81
464.755	120.81
464.975	127.81
465.195	123.81
465.414	120.81
465.634	137.81
465.854	111.81
466.073	124.81
466.293	141.81
466.512	152.81
466.732	128.81
466.951	136.81
467.171	152.81
467.391	146.81
467.61	135.81
467.829	145.81
468.049	137.81
468.268	147.81
468.488	149.81
468.707	138.81
468.927	153.81
469.146	137.81
469.365	143.81
469.585	135.81
469.804	128.81
470.023	158.81
470.243	149.81
470.462	160.81
470.681	151.81
470.901	146.81
471.12	147.81
471.339	149.81
471.558	158.81
471.777	134.81
471.997	128.81
472.216	129.81
472.435	123.81
472.654	127.81
472.873	119.81
473.092	124.81
473.311	132.81
473.53	128.81
473.749	140.81
473.968	136.81
474.187	146.81
474.406	126.81
474.625	143.81
474.844	144.81
475.063	119.81
475.282	125.81
475.501	130.81
475.72	147.81
475.939	115.81
476.158	115.81
476.377	136.81
476.596	119.81
476.814	110.81
477.033	101.81
477.252	131.81
477.471	127.81
477.69	132.81
477.908	149.81
478.127	148.81
478.346	149.81
478.564	149.81
478.783	140.81
479.002	146.81
479.22	141.81
479.439	151.81
479.658	129.81
479.876	131.81
480.095	133.81
480.313	125.81
480.532	127.81
480.751	109.81
480.969	93.81
481.188	92.81
481.406	83.81
481.624	86.81
481.843	92.81
482.061	113.81
482.28	133.81
482.498	126.81
482.717	110.81
482.935	127.81
483.153	153.81
483.372	159.81
483.59	174.81
483.808	154.81
484.027	162.81
484.245	134.81
484.463	148.81
484.681	164.81
484.9	149.81
485.118	136.81
485.336	139.81
485.554	113.81
485.772	96.81
485.99	110.81
486.209	119.81
486.427	118.81
486.645	140.81
486.863	152.81
487.081	133.81
487.299	129.81
487.517	150.81
487.735	172.81
487.953	196.81
488.171	217.81
488.389	196.81
488.607	168.81
488.825	157.81
489.043	145.81
489.261	142.81
489.479	145.81
489.696	141.81
489.914	149.81
490.132	129.81
490.35	165.81
490.568	180.81
490.786	183.81
491.003	210.81
491.221	198.81
491.439	189.81
491.657	202.81
491.874	221.81
492.092	233.81
492.31	266.81
492.527	247.81
492.745	213.81
492.963	212.81
493.18	218.81
493.398	195.81
493.615	202.81
493.833	197.81
494.05	187.81
494.268	196.81
494.485	183.81
494.703	181.81
494.92	179.81
495.138	191.81
495.355	176.81
495.573	170.81
495.79	174.81
496.008	168.81
496.225	193.81
496.442	170.81
496.66	188.81
496.877	171.81
497.094	182.81
497.312	170.81
497.529	171.81
497.746	152.81
497.963	147.81
498.181	133.81
498.398	127.81
498.615	133.81
498.832	130.81
499.049	114.81
499.267	131.81
499.484	121.81
499.701	146.81
499.918	148.81
500.135	146.81
500.352	135.81
500.569	148.81
500.786	147.81
501.003	147.81
501.22	150.81
501.437	137.81
501.654	141.81
501.871	149.81
502.088	152.81
502.305	133.81
502.522	137.81
502.739	149.81
502.956	145.81
503.172	135.81
503.389	118.81
503.606	133.81
503.823	127.81
504.04	118.81
504.256	138.81
504.473	130.81
504.69	126.81
504.907	123.81
505.123	126.81
505.34	149.81
505.557	126.81
505.773	146.81
505.99	133.81
506.207	125.81
506.423	131.81
506.64	133.81
506.856	118.81
507.073	123.81
507.289	141.81
507.506	125.81
507.722	125.81
507.939	136.81
508.155	123.81
508.372	116.81
508.588	106.81
508.805	108.81
509.021	119.81
509.238	119.81
509.454	107.81
509.67	102.81
509.887	102.81
510.103	105.81
510.319	111.81
510.536	92.81
510.752	94.81
510.968	86.81
