Data from Location6.07152019.Energy5.Lamp.07192019.3%Agarose_HRD10591_16-11-28-395.txt Node
Date: Fri Jul 19 16:11:28 EDT 2019
User: cochatt
Spectrometer: HR+D1059
Trigger mode: 1
Integration Time (sec): 1.000000E-1
Scans to average: 1
Electric dark correction enabled: true
Nonlinearity correction enabled: false
Boxcar width: 0
XAxis mode: Wavelengths
Number of Pixels in Spectrum: 2048
>>>>>Begin Spectral Data<<<<<
223.165	-7
223.4	-7
223.635	-7
223.869	-13
224.104	-21
224.338	-14
224.573	-21
224.808	-8
225.042	-22
225.277	2
225.511	0
225.746	-8
225.98	15
226.215	19
226.449	7
226.683	28
226.918	20
227.152	23
227.387	15
227.621	24
227.856	42
228.09	40
228.324	57
228.559	57
228.793	66
229.027	58
229.262	71
229.496	71
229.73	70
229.964	62
230.199	73
230.433	72
230.667	69
230.901	63
231.136	84
231.37	66
231.604	85
231.838	68
232.072	66
232.306	80
232.541	85
232.775	91
233.009	79
233.243	88
233.477	91
233.711	79
233.945	77
234.179	78
234.413	87
234.647	71
234.881	67
235.115	84
235.349	70
235.583	76
235.817	82
236.051	85
236.285	84
236.519	82
236.753	71
236.987	75
237.221	76
237.455	70
237.689	71
237.922	79
238.156	82
238.39	77
238.624	78
238.858	61
239.091	72
239.325	75
239.559	56
239.793	70
240.027	92
240.26	68
240.494	79
240.728	68
240.961	75
241.195	89
241.429	82
241.662	69
241.896	76
242.13	72
242.363	65
242.597	87
242.83	76
243.064	83
243.298	85
243.531	81
243.765	79
243.998	66
244.232	68
244.465	75
244.699	82
244.932	78
245.166	76
245.399	78
245.633	66
245.866	72
246.099	82
246.333	68
246.566	89
246.8	66
247.033	79
247.266	91
247.5	80
247.733	74
247.966	96
248.2	75
248.433	73
248.666	72
248.899	78
249.133	71
249.366	86
249.599	83
249.832	68
250.066	77
250.299	77
250.532	84
250.765	86
250.998	68
251.231	75
251.465	87
251.698	86
251.931	78
252.164	81
252.397	78
252.63	55
252.863	70
253.096	81
253.329	86
253.562	82
253.795	65
254.028	73
254.261	93
254.494	82
254.727	82
254.96	84
255.193	85
255.426	68
255.659	78
255.892	75
256.124	77
256.357	71
256.59	80
256.823	89
257.056	90
257.289	88
257.521	74
257.754	81
257.987	89
258.22	76
258.452	82
258.685	96
258.918	79
259.151	60
259.383	75
259.616	61
259.849	84
260.081	89
260.314	87
260.547	79
260.779	87
261.012	94
261.244	86
261.477	77
261.71	81
261.942	85
262.175	70
262.407	71
262.64	72
262.872	83
263.105	86
263.337	88
263.57	84
263.802	76
264.035	87
264.267	86
264.499	95
264.732	83
264.964	76
265.197	85
265.429	96
265.661	86
265.894	84
266.126	83
266.358	84
266.591	80
266.823	72
267.055	86
267.287	85
267.52	97
267.752	87
267.984	99
268.216	84
268.448	76
268.681	84
268.913	75
269.145	89
269.377	82
269.609	77
269.841	84
270.073	75
270.306	68
270.538	91
270.77	83
271.002	78
271.234	88
271.466	73
271.698	67
271.93	75
272.162	95
272.394	76
272.626	80
272.858	88
273.09	71
273.322	79
273.553	62
273.785	87
274.017	91
274.249	77
274.481	88
274.713	85
274.945	94
275.176	99
275.408	80
275.64	69
275.872	77
276.104	98
276.335	83
276.567	93
276.799	88
277.031	80
277.262	79
277.494	95
277.726	85
277.957	90
278.189	74
278.421	81
278.652	84
278.884	81
279.115	85
279.347	85
279.579	91
279.81	86
280.042	82
280.273	65
280.505	78
280.736	76
280.968	87
281.199	82
281.431	82
281.662	78
281.894	78
282.125	86
282.356	93
282.588	85
282.819	92
283.051	85
283.282	75
283.513	91
283.745	77
283.976	86
284.207	81
284.439	66
284.67	80
284.901	89
285.132	84
285.364	90
285.595	77
285.826	89
286.057	100
286.288	84
286.52	77
286.751	66
286.982	68
287.213	83
287.444	83
287.675	88
287.906	94
288.138	82
288.369	82
288.6	75
288.831	80
289.062	83
289.293	80
289.524	74
289.755	83
289.986	66
290.217	88
290.448	95
290.679	99
290.91	93
291.141	91
291.371	85
291.602	84
291.833	83
292.064	86
292.295	86
292.526	90
292.757	77
292.987	76
293.218	95
293.449	82
293.68	90
293.91	83
294.141	80
294.372	72
294.603	85
294.833	78
295.064	73
295.295	85
295.525	85
295.756	91
295.987	81
296.217	75
296.448	79
296.679	78
296.909	96
297.14	100
297.37	99
297.601	82
297.831	84
298.062	86
298.292	96
298.523	113
298.753	80
298.984	78
299.214	86
299.445	94
299.675	88
299.905	90
300.136	80
300.366	89
300.597	87
300.827	94
301.057	84
301.288	82
301.518	95
301.748	99
301.979	72
302.209	65
302.439	93
302.669	79
302.9	83
303.13	77
303.36	75
303.59	77
303.82	84
304.051	84
304.281	74
304.511	81
304.741	88
304.971	83
305.201	71
305.431	66
305.661	85
305.891	71
306.121	83
306.352	91
306.582	79
306.812	75
307.042	91
307.272	87
307.502	93
307.731	86
307.961	89
308.191	84
308.421	83
308.651	89
308.881	74
309.111	76
309.341	83
309.571	84
309.8	82
310.03	66
310.26	80
310.49	93
310.72	73
310.949	81
311.179	77
311.409	73
311.639	86
311.868	77
312.098	88
312.328	82
312.557	75
312.787	86
313.017	91
313.246	87
313.476	85
313.706	87
313.935	69
314.165	83
314.394	88
314.624	78
314.853	88
315.083	85
315.312	83
315.542	86
315.771	83
316.001	78
316.23	73
316.46	85
316.689	81
316.919	92
317.148	88
317.377	85
317.607	83
317.836	89
318.065	79
318.295	84
318.524	86
318.753	93
318.983	97
319.212	79
319.441	89
319.67	90
319.9	85
320.129	86
320.358	99
320.587	95
320.816	87
321.046	64
321.275	80
321.504	99
321.733	78
321.962	97
322.191	84
322.42	95
322.649	96
322.878	88
323.108	78
323.337	78
323.566	85
323.795	88
324.024	87
324.253	83
324.482	74
324.71	90
324.939	98
325.168	90
325.397	85
325.626	97
325.855	89
326.084	78
326.313	99
326.542	81
326.77	99
326.999	94
327.228	94
327.457	88
327.686	86
327.914	77
328.143	83
328.372	79
328.6	73
328.829	80
329.058	71
329.287	80
329.515	70
329.744	75
329.972	88
330.201	80
330.43	89
330.658	86
330.887	85
331.115	92
331.344	86
331.572	96
331.801	65
332.03	86
332.258	90
332.486	80
332.715	80
332.943	85
333.172	82
333.4	91
333.629	75
333.857	92
334.085	77
334.314	69
334.542	83
334.771	90
334.999	85
335.227	82
335.455	73
335.684	90
335.912	88
336.14	81
336.369	80
336.597	90
336.825	83
337.053	73
337.281	92
337.51	66
337.738	75
337.966	84
338.194	83
338.422	78
338.65	80
338.878	89
339.106	86
339.334	73
339.562	77
339.79	77
340.018	85
340.246	87
340.474	92
340.702	83
340.93	91
341.158	85
341.386	78
341.614	87
341.842	84
342.07	85
342.298	78
342.526	78
342.754	94
342.981	88
343.209	82
343.437	84
343.665	91
343.893	73
344.12	73
344.348	75
344.576	85
344.804	78
345.031	83
345.259	85
345.487	85
345.714	94
345.942	80
346.17	78
346.397	89
346.625	85
346.853	83
347.08	74
347.308	78
347.535	85
347.763	84
347.99	68
348.218	85
348.445	61
348.673	73
348.9	90
349.128	92
349.355	72
349.583	88
349.81	92
350.037	88
350.265	91
350.492	100
350.72	81
350.947	90
351.174	87
351.402	82
351.629	81
351.856	96
352.083	83
352.311	98
352.538	70
352.765	80
352.992	82
353.22	71
353.447	77
353.674	97
353.901	94
354.128	90
354.355	82
354.583	98
354.81	81
355.037	85
355.264	76
355.491	84
355.718	87
355.945	84
356.172	85
356.399	82
356.626	70
356.853	80
357.08	74
357.307	86
357.534	82
357.761	83
357.988	78
358.215	76
358.441	80
358.668	66
358.895	85
359.122	89
359.349	80
359.576	90
359.802	76
360.029	88
360.256	70
360.483	80
360.709	98
360.936	84
361.163	83
361.39	88
361.616	78
361.843	91
362.07	78
362.296	83
362.523	91
362.749	74
362.976	74
363.203	70
363.429	83
363.656	80
363.882	85
364.109	89
364.335	78
364.562	83
364.788	79
365.015	81
365.241	92
365.468	76
365.694	70
365.92	81
366.147	86
366.373	80
366.599	92
366.826	82
367.052	82
367.278	91
367.505	77
367.731	102
367.957	87
368.184	94
368.41	82
368.636	100
368.862	98
369.089	77
369.315	87
369.541	82
369.767	101
369.993	88
370.219	91
370.445	94
370.672	97
370.898	74
371.124	86
371.35	91
371.576	92
371.802	90
372.028	92
372.254	86
372.48	89
372.706	91
372.932	93
373.158	86
373.384	98
373.61	91
373.835	93
374.061	86
374.287	90
374.513	83
374.739	85
374.965	90
375.191	103
375.416	88
375.642	91
375.868	84
376.094	94
376.319	98
376.545	91
376.771	98
376.997	85
377.222	98
377.448	94
377.674	100
377.899	85
378.125	74
378.35	83
378.576	84
378.802	99
379.027	100
379.253	101
379.478	92
379.704	95
379.929	113
380.155	89
380.38	94
380.606	91
380.831	96
381.057	98
381.282	94
381.507	96
381.733	92
381.958	85
382.184	89
382.409	97
382.634	92
382.86	100
383.085	89
383.31	76
383.535	96
383.761	101
383.986	94
384.211	88
384.436	83
384.662	97
384.887	113
385.112	103
385.337	90
385.562	95
385.787	97
386.013	106
386.238	100
386.463	79
386.688	92
386.913	108
387.138	111
387.363	104
387.588	100
387.813	115
388.038	107
388.263	112
388.488	87
388.713	91
388.938	106
389.163	97
389.387	120
389.612	100
389.837	106
390.062	105
390.287	106
390.512	99
390.736	87
390.961	120
391.186	110
391.411	103
391.636	106
391.86	95
392.085	98
392.31	118
392.534	110
392.759	104
392.984	93
393.208	109
393.433	96
393.658	107
393.882	97
394.107	90
394.331	110
394.556	122
394.78	110
395.005	104
395.229	101
395.454	110
395.678	101
395.903	107
396.127	98
396.352	104
396.576	119
396.801	110
397.025	105
397.249	120
397.474	117
397.698	120
397.922	120
398.147	113
398.371	120
398.595	117
398.82	105
399.044	113
399.268	111
399.492	102
399.717	107
399.941	115
400.165	107
400.389	112
400.613	113
400.837	120
401.062	101
401.286	126
401.51	120
401.734	110
401.958	116
402.182	106
402.406	117
402.63	126
402.854	113
403.078	100
403.302	113
403.526	110
403.75	113
403.974	125
404.198	115
404.422	121
404.645	108
404.869	106
405.093	115
405.317	121
405.541	110
405.765	123
405.988	123
406.212	119
406.436	119
406.66	125
406.883	130
407.107	122
407.331	120
407.555	128
407.778	133
408.002	122
408.226	113
408.449	102
408.673	111
408.896	132
409.12	117
409.344	122
409.567	118
409.791	119
410.014	123
410.238	138
410.461	117
410.685	124
410.908	119
411.132	121
411.355	118
411.578	134
411.802	111
412.025	128
412.249	102
412.472	111
412.695	125
412.919	123
413.142	134
413.365	121
413.589	108
413.812	132
414.035	126
414.258	117
414.482	120
414.705	123
414.928	122
415.151	140
415.374	125
415.597	122
415.821	114
416.044	130
416.267	124
416.49	128
416.713	121
416.936	132
417.159	138
417.382	146
417.605	130
417.828	120
418.051	139
418.274	124
418.497	127
418.72	140
418.943	129
419.166	130
419.389	144
419.611	129
419.834	122
420.057	145
420.28	124
420.503	131
420.726	136
420.948	135
421.171	122
421.394	138
421.617	136
421.839	144
422.062	140
422.285	126
422.507	118
422.73	136
422.953	125
423.175	128
423.398	131
423.621	135
423.843	126
424.066	139
424.288	130
424.511	140
424.733	133
424.956	144
425.178	154
425.401	142
425.623	138
425.846	141
426.068	144
426.291	127
426.513	122
426.735	130
426.958	136
427.18	136
427.402	124
427.625	129
427.847	135
428.069	135
428.292	136
428.514	144
428.736	129
428.958	132
429.181	126
429.403	130
429.625	135
429.847	133
430.069	143
430.292	145
430.514	126
430.736	129
430.958	141
431.18	140
431.402	134
431.624	116
431.846	100
432.068	98
432.29	103
432.512	96
432.734	112
432.956	133
433.178	146
433.4	148
433.622	138
433.844	129
434.066	120
434.287	118
434.509	93
434.731	96
434.953	112
435.175	120
435.397	126
435.618	124
435.84	124
436.062	130
436.284	145
436.505	128
436.727	135
436.949	135
437.17	132
437.392	134
437.614	119
437.835	110
438.057	123
438.278	121
438.5	122
438.721	140
438.943	112
439.165	146
439.386	158
439.608	154
439.829	146
440.05	140
440.272	160
440.493	149
440.715	138
440.936	139
441.158	134
441.379	149
441.6	165
441.822	163
442.043	146
442.264	145
442.486	146
442.707	147
442.928	145
443.149	150
443.371	148
443.592	131
443.813	142
444.034	146
444.255	146
444.476	133
444.698	138
444.919	145
445.14	284
445.361	205
445.582	157
445.803	151
446.024	144
446.245	162
446.466	163
446.687	150
446.908	168
447.129	159
447.35	162
447.571	156
447.792	155
448.013	148
448.234	159
448.455	148
448.675	150
448.896	134
449.117	134
449.338	138
449.559	132
449.779	144
450	155
450.221	134
450.442	120
450.662	139
450.883	122
451.104	140
451.324	132
451.545	138
451.766	139
451.986	131
452.207	128
452.428	134
452.648	122
452.869	127
453.089	118
453.31	114
453.53	119
453.751	119
453.971	112
454.192	103
454.412	114
454.633	114
454.853	117
455.073	126
455.294	128
455.514	129
455.734	128
455.955	123
456.175	129
456.395	120
456.616	130
456.836	117
457.056	111
457.276	121
457.497	117
457.717	115
457.937	102
458.157	82
458.377	116
458.598	101
458.818	93
459.038	97
459.258	93
459.478	91
459.698	101
459.918	104
460.138	129
460.358	114
460.578	120
460.798	113
461.018	130
461.238	114
461.458	121
461.678	128
461.898	118
462.118	121
462.338	110
462.558	118
462.777	119
462.997	93
463.217	107
463.437	116
463.657	104
463.876	115
464.096	106
464.316	116
464.536	103
464.755	120
464.975	117
465.195	120
465.414	119
465.634	120
465.854	126
466.073	113
466.293	123
466.512	132
466.732	138
466.951	142
467.171	139
467.391	142
467.61	152
467.829	148
468.049	141
468.268	144
468.488	134
468.707	138
468.927	145
469.146	146
469.365	142
469.585	140
469.804	158
470.023	136
470.243	135
470.462	155
470.681	140
470.901	149
471.12	154
471.339	139
471.558	151
471.777	149
471.997	150
472.216	130
472.435	115
472.654	117
472.873	99
473.092	134
473.311	121
473.53	124
473.749	124
473.968	126
474.187	126
474.406	127
474.625	151
474.844	156
475.063	143
475.282	126
475.501	113
475.72	122
475.939	131
476.158	127
476.377	137
476.596	139
476.814	119
477.033	114
477.252	118
477.471	119
477.69	144
477.908	141
478.127	142
478.346	147
478.564	136
478.783	139
479.002	154
479.22	152
479.439	131
479.658	122
479.876	121
480.095	114
480.313	126
480.532	123
480.751	101
480.969	99
481.188	82
481.406	100
481.624	89
481.843	83
482.061	90
482.28	119
482.498	117
482.717	124
482.935	144
483.153	139
483.372	155
483.59	144
483.808	148
484.027	145
484.245	152
484.463	157
484.681	165
484.9	154
485.118	141
485.336	137
485.554	129
485.772	103
485.99	105
486.209	121
486.427	120
486.645	138
486.863	126
487.081	158
487.299	147
487.517	146
487.735	175
487.953	200
488.171	182
488.389	181
488.607	155
488.825	143
489.043	147
489.261	143
489.479	147
489.696	146
489.914	170
490.132	155
490.35	158
490.568	166
490.786	183
491.003	177
491.221	183
491.439	202
491.657	176
491.874	208
492.092	218
492.31	260
492.527	232
492.745	226
492.963	213
493.18	194
493.398	191
493.615	186
493.833	161
494.05	171
494.268	178
494.485	168
494.703	166
494.92	184
495.138	171
495.355	171
495.573	165
495.79	170
496.008	165
496.225	162
496.442	185
496.66	183
496.877	169
497.094	174
497.312	157
497.529	180
497.746	172
497.963	157
498.181	135
498.398	121
498.615	110
498.832	108
499.049	124
499.267	132
499.484	143
499.701	134
499.918	142
500.135	148
500.352	140
500.569	153
500.786	142
501.003	148
501.22	144
501.437	133
501.654	139
501.871	140
502.088	129
502.305	135
502.522	127
502.739	146
502.956	132
503.172	136
503.389	130
503.606	150
503.823	124
504.04	117
504.256	130
504.473	110
504.69	107
504.907	129
505.123	125
505.34	126
505.557	128
505.773	112
505.99	123
506.207	114
506.423	119
506.64	130
506.856	124
507.073	119
507.289	133
507.506	129
507.722	126
507.939	106
508.155	126
508.372	108
508.588	122
508.805	108
509.021	114
509.238	115
509.454	102
509.67	97
509.887	99
510.103	88
510.319	101
510.536	83
510.752	88
510.968	90
511.184	79
511.401	85
511.617	92
511.833	79
512.049	83
512.265	104
512.481	102
512.698	89
512.914	102
513.13	94
513.346	99
513.562	71
513.778	83
513.994	97
514.21	92
514.426	97
514.642	103
514.858	83
515.074	91
515.29	91
515.506	81
515.721	74
515.937	99
516.153	90
516.369	92
516.585	91
516.801	78
517.016	90
517.232	98
517.448	95
517.664	110
517.879	98
518.095	112
518.311	91
518.527	92
518.742	106
518.958	97
519.173	109
519.389	98
519.605	118
519.82	112
520.036	116
520.251	116
520.467	95
520.682	100
520.898	105
521.113	89
521.329	75
521.544	94
521.76	86
521.975	98
522.19	103
522.406	108
522.621	111
522.836	118
523.052	113
523.267	110
523.482	101
523.698	118
523.913	130
524.128	126
524.343	113
524.559	121
524.774	147
524.989	129
525.204	132
525.419	132
525.634	107
525.849	113
526.064	104
526.28	128
526.495	107
526.71	102
526.925	87
527.14	84
527.355	90
527.57	83
527.785	97
527.999	83
528.214	103
528.429	117
528.644	130
528.859	139
529.074	159
529.289	161
529.503	176
529.718	150
529.933	130
530.148	91
530.363	100
530.577	89
530.792	98
531.007	84
531.221	100
531.436	99
531.651	80
531.865	82
532.08	93
532.295	81
532.509	83
532.724	83
532.938	80
533.153	101
533.367	134
533.582	131
533.796	131
534.011	137
534.225	94
534.44	86
534.654	105
534.868	105
535.083	107
535.297	101
535.511	104
535.726	101
535.94	114
536.154	96
536.369	97
536.583	73
536.797	86
537.011	84
537.225	91
537.44	82
537.654	103
537.868	99
538.082	104
538.296	105
538.51	108
538.724	133
538.938	125
539.153	124
539.367	138
539.581	122
539.795	93
540.009	105
540.222	89
540.436	112
540.65	116
540.864	140
541.078	141
541.292	152
541.506	163
541.72	179
541.934	207
542.147	216
542.361	193
542.575	188
542.789	149
543.002	135
543.216	137
543.43	128
543.644	147
543.857	158
544.071	168
544.285	158
544.498	162
544.712	161
544.925	163
545.139	158
545.352	166
545.566	164
545.779	163
545.993	170
546.206	182
546.42	161
546.633	176
546.847	150
547.06	187
547.274	189
547.487	187
547.7	165
547.914	179
548.127	167
548.34	174
548.554	152
548.767	160
548.98	163
549.193	148
549.407	155
549.62	163
549.833	185
550.046	156
550.259	163
550.473	148
550.686	159
550.899	163
551.112	153
551.325	139
551.538	127
551.751	152
551.964	120
552.177	125
552.39	130
552.603	143
552.816	159
553.029	163
553.242	168
553.455	168
553.667	155
553.88	164
554.093	149
554.306	161
554.519	159
554.732	158
554.944	162
555.157	147
555.37	150
555.583	131
555.795	150
556.008	136
556.221	141
556.433	126
556.646	127
556.859	139
557.071	138
557.284	135
557.496	147
557.709	139
557.921	151
558.134	126
558.346	147
558.559	143
558.771	135
558.984	148
559.196	146
559.409	138
559.621	141
559.833	127
560.046	120
560.258	123
560.47	136
560.683	131
560.895	140
561.107	127
561.32	126
561.532	139
561.744	144
561.956	133
562.168	139
562.381	132
562.593	137
562.805	133
563.017	139
563.229	134
563.441	126
563.653	140
563.865	130
564.077	122
564.289	119
564.501	131
564.713	126
564.925	123
565.137	126
565.349	118
565.561	122
565.773	124
565.985	121
566.197	126
566.408	118
566.62	122
566.832	114
567.044	121
567.255	119
567.467	115
567.679	116
567.891	102
568.102	110
568.314	110
568.526	89
568.737	104
568.949	85
569.161	86
569.372	98
569.584	86
569.795	76
570.007	74
570.218	84
570.43	97
570.641	91
570.853	89
571.064	94
571.276	107
571.487	96
571.698	105
571.91	107
572.121	104
572.333	107
572.544	106
572.755	90
572.966	102
573.178	95
573.389	88
573.6	83
573.811	88
574.023	82
574.234	88
574.445	83
574.656	88
574.867	95
575.078	83
575.289	97
575.501	110
575.712	88
575.923	96
576.134	99
576.345	100
576.556	106
576.767	118
