Data from Location6.07152019.Energy5.Lamp.07192019.3%Agarose_HRD10591_16-11-46-394.txt Node
Date: Fri Jul 19 16:11:46 EDT 2019
User: cochatt
Spectrometer: HR+D1059
Trigger mode: 1
Integration Time (sec): 1.000000E-1
Scans to average: 1
Electric dark correction enabled: true
Nonlinearity correction enabled: false
Boxcar width: 0
XAxis mode: Wavelengths
Number of Pixels in Spectrum: 2048
>>>>>Begin Spectral Data<<<<<
223.165	-21.69
223.4	-21.69
223.635	-21.69
223.869	-5.69
224.104	-14.69
224.338	-10.69
224.573	-14.69
224.808	-21.69
225.042	-15.69
225.277	15.31
225.511	-6.69
225.746	-9.69
225.98	1.31
226.215	8.31
226.449	7.31
226.683	29.31
226.918	32.31
227.152	27.31
227.387	42.31
227.621	31.31
227.856	40.31
228.09	39.31
228.324	44.31
228.559	54.31
228.793	73.31
229.027	72.31
229.262	80.31
229.496	70.31
229.73	69.31
229.964	68.31
230.199	66.31
230.433	82.31
230.667	72.31
230.901	74.31
231.136	89.31
231.37	77.31
231.604	88.31
231.838	94.31
232.072	79.31
232.306	74.31
232.541	90.31
232.775	95.31
233.009	85.31
233.243	81.31
233.477	77.31
233.711	81.31
233.945	85.31
234.179	79.31
234.413	70.31
234.647	85.31
234.881	80.31
235.115	68.31
235.349	86.31
235.583	80.31
235.817	80.31
236.051	83.31
236.285	70.31
236.519	81.31
236.753	75.31
236.987	85.31
237.221	86.31
237.455	70.31
237.689	74.31
237.922	74.31
238.156	79.31
238.39	71.31
238.624	70.31
238.858	83.31
239.091	62.31
239.325	59.31
239.559	73.31
239.793	84.31
240.027	64.31
240.26	64.31
240.494	79.31
240.728	87.31
240.961	83.31
241.195	90.31
241.429	72.31
241.662	66.31
241.896	91.31
242.13	71.31
242.363	73.31
242.597	74.31
242.83	81.31
243.064	65.31
243.298	79.31
243.531	92.31
243.765	87.31
243.998	85.31
244.232	74.31
244.465	76.31
244.699	97.31
244.932	68.31
245.166	72.31
245.399	77.31
245.633	77.31
245.866	81.31
246.099	68.31
246.333	75.31
246.566	73.31
246.8	83.31
247.033	83.31
247.266	86.31
247.5	80.31
247.733	86.31
247.966	81.31
248.2	77.31
248.433	80.31
248.666	67.31
248.899	72.31
249.133	75.31
249.366	90.31
249.599	88.31
249.832	70.31
250.066	85.31
250.299	72.31
250.532	96.31
250.765	73.31
250.998	82.31
251.231	64.31
251.465	61.31
251.698	76.31
251.931	84.31
252.164	74.31
252.397	80.31
252.63	81.31
252.863	67.31
253.096	70.31
253.329	80.31
253.562	80.31
253.795	83.31
254.028	93.31
254.261	87.31
254.494	84.31
254.727	78.31
254.96	86.31
255.193	92.31
255.426	85.31
255.659	74.31
255.892	87.31
256.124	67.31
256.357	86.31
256.59	78.31
256.823	84.31
257.056	102.31
257.289	73.31
257.521	64.31
257.754	70.31
257.987	81.31
258.22	96.31
258.452	89.31
258.685	86.31
258.918	84.31
259.151	88.31
259.383	82.31
259.616	80.31
259.849	89.31
260.081	70.31
260.314	89.31
260.547	82.31
260.779	89.31
261.012	106.31
261.244	98.31
261.477	91.31
261.71	78.31
261.942	76.31
262.175	82.31
262.407	76.31
262.64	91.31
262.872	69.31
263.105	87.31
263.337	79.31
263.57	101.31
263.802	83.31
264.035	82.31
264.267	77.31
264.499	69.31
264.732	81.31
264.964	71.31
265.197	87.31
265.429	86.31
265.661	62.31
265.894	77.31
266.126	91.31
266.358	80.31
266.591	77.31
266.823	64.31
267.055	70.31
267.287	71.31
267.52	87.31
267.752	97.31
267.984	85.31
268.216	82.31
268.448	85.31
268.681	86.31
268.913	77.31
269.145	81.31
269.377	86.31
269.609	78.31
269.841	83.31
270.073	86.31
270.306	85.31
270.538	95.31
270.77	85.31
271.002	91.31
271.234	90.31
271.466	93.31
271.698	75.31
271.93	83.31
272.162	84.31
272.394	81.31
272.626	79.31
272.858	92.31
273.09	91.31
273.322	88.31
273.553	85.31
273.785	74.31
274.017	74.31
274.249	88.31
274.481	72.31
274.713	72.31
274.945	76.31
275.176	83.31
275.408	82.31
275.64	92.31
275.872	82.31
276.104	84.31
276.335	77.31
276.567	94.31
276.799	79.31
277.031	82.31
277.262	90.31
277.494	76.31
277.726	70.31
277.957	83.31
278.189	85.31
278.421	83.31
278.652	93.31
278.884	78.31
279.115	74.31
279.347	87.31
279.579	80.31
279.81	97.31
280.042	79.31
280.273	78.31
280.505	85.31
280.736	93.31
280.968	68.31
281.199	75.31
281.431	82.31
281.662	76.31
281.894	85.31
282.125	73.31
282.356	80.31
282.588	73.31
282.819	100.31
283.051	83.31
283.282	76.31
283.513	85.31
283.745	80.31
283.976	79.31
284.207	83.31
284.439	75.31
284.67	90.31
284.901	84.31
285.132	84.31
285.364	82.31
285.595	81.31
285.826	75.31
286.057	91.31
286.288	91.31
286.52	83.31
286.751	96.31
286.982	96.31
287.213	86.31
287.444	91.31
287.675	75.31
287.906	88.31
288.138	85.31
288.369	81.31
288.6	84.31
288.831	73.31
289.062	96.31
289.293	89.31
289.524	68.31
289.755	93.31
289.986	75.31
290.217	85.31
290.448	80.31
290.679	89.31
290.91	73.31
291.141	87.31
291.371	83.31
291.602	78.31
291.833	82.31
292.064	91.31
292.295	91.31
292.526	79.31
292.757	74.31
292.987	82.31
293.218	87.31
293.449	83.31
293.68	97.31
293.91	77.31
294.141	82.31
294.372	86.31
294.603	82.31
294.833	83.31
295.064	93.31
295.295	99.31
295.525	81.31
295.756	91.31
295.987	75.31
296.217	84.31
296.448	89.31
296.679	90.31
296.909	85.31
297.14	71.31
297.37	87.31
297.601	82.31
297.831	85.31
298.062	83.31
298.292	89.31
298.523	92.31
298.753	78.31
298.984	101.31
299.214	85.31
299.445	85.31
299.675	77.31
299.905	79.31
300.136	89.31
300.366	74.31
300.597	86.31
300.827	80.31
301.057	84.31
301.288	95.31
301.518	91.31
301.748	92.31
301.979	86.31
302.209	98.31
302.439	83.31
302.669	84.31
302.9	83.31
303.13	75.31
303.36	84.31
303.59	96.31
303.82	101.31
304.051	81.31
304.281	82.31
304.511	91.31
304.741	96.31
304.971	64.31
305.201	91.31
305.431	85.31
305.661	87.31
305.891	78.31
306.121	88.31
306.352	82.31
306.582	77.31
306.812	89.31
307.042	76.31
307.272	85.31
307.502	92.31
307.731	95.31
307.961	95.31
308.191	81.31
308.421	84.31
308.651	91.31
308.881	85.31
309.111	77.31
309.341	78.31
309.571	81.31
309.8	85.31
310.03	88.31
310.26	91.31
310.49	92.31
310.72	83.31
310.949	76.31
311.179	82.31
311.409	93.31
311.639	74.31
311.868	88.31
312.098	82.31
312.328	93.31
312.557	103.31
312.787	77.31
313.017	90.31
313.246	88.31
313.476	89.31
313.706	88.31
313.935	84.31
314.165	109.31
314.394	73.31
314.624	83.31
314.853	86.31
315.083	69.31
315.312	88.31
315.542	104.31
315.771	99.31
316.001	81.31
316.23	82.31
316.46	88.31
316.689	85.31
316.919	83.31
317.148	98.31
317.377	93.31
317.607	89.31
317.836	94.31
318.065	86.31
318.295	88.31
318.524	71.31
318.753	83.31
318.983	77.31
319.212	102.31
319.441	84.31
319.67	91.31
319.9	79.31
320.129	76.31
320.358	102.31
320.587	85.31
320.816	98.31
321.046	86.31
321.275	79.31
321.504	92.31
321.733	84.31
321.962	86.31
322.191	76.31
322.42	83.31
322.649	72.31
322.878	77.31
323.108	101.31
323.337	90.31
323.566	78.31
323.795	78.31
324.024	91.31
324.253	85.31
324.482	94.31
324.71	81.31
324.939	91.31
325.168	77.31
325.397	99.31
325.626	90.31
325.855	93.31
326.084	85.31
326.313	95.31
326.542	89.31
326.77	90.31
326.999	80.31
327.228	93.31
327.457	81.31
327.686	86.31
327.914	77.31
328.143	76.31
328.372	84.31
328.6	80.31
328.829	85.31
329.058	90.31
329.287	81.31
329.515	84.31
329.744	89.31
329.972	98.31
330.201	85.31
330.43	81.31
330.658	85.31
330.887	88.31
331.115	89.31
331.344	72.31
331.572	86.31
331.801	95.31
332.03	72.31
332.258	82.31
332.486	83.31
332.715	93.31
332.943	83.31
333.172	93.31
333.4	96.31
333.629	74.31
333.857	89.31
334.085	86.31
334.314	87.31
334.542	90.31
334.771	102.31
334.999	86.31
335.227	80.31
335.455	89.31
335.684	93.31
335.912	91.31
336.14	84.31
336.369	81.31
336.597	88.31
336.825	78.31
337.053	92.31
337.281	85.31
337.51	79.31
337.738	88.31
337.966	80.31
338.194	90.31
338.422	76.31
338.65	85.31
338.878	99.31
339.106	82.31
339.334	95.31
339.562	89.31
339.79	84.31
340.018	88.31
340.246	90.31
340.474	78.31
340.702	87.31
340.93	92.31
341.158	85.31
341.386	90.31
341.614	85.31
341.842	90.31
342.07	79.31
342.298	71.31
342.526	71.31
342.754	69.31
342.981	91.31
343.209	87.31
343.437	81.31
343.665	99.31
343.893	83.31
344.12	101.31
344.348	81.31
344.576	91.31
344.804	90.31
345.031	92.31
345.259	86.31
345.487	88.31
345.714	92.31
345.942	80.31
346.17	67.31
346.397	73.31
346.625	83.31
346.853	88.31
347.08	82.31
347.308	77.31
347.535	80.31
347.763	77.31
347.99	82.31
348.218	82.31
348.445	90.31
348.673	87.31
348.9	85.31
349.128	104.31
349.355	73.31
349.583	95.31
349.81	86.31
350.037	98.31
350.265	77.31
350.492	81.31
350.72	76.31
350.947	79.31
351.174	99.31
351.402	87.31
351.629	78.31
351.856	81.31
352.083	92.31
352.311	93.31
352.538	90.31
352.765	77.31
352.992	99.31
353.22	76.31
353.447	83.31
353.674	87.31
353.901	85.31
354.128	86.31
354.355	86.31
354.583	78.31
354.81	92.31
355.037	78.31
355.264	84.31
355.491	91.31
355.718	92.31
355.945	85.31
356.172	87.31
356.399	94.31
356.626	82.31
356.853	90.31
357.08	94.31
357.307	84.31
357.534	84.31
357.761	90.31
357.988	84.31
358.215	80.31
358.441	64.31
358.668	78.31
358.895	74.31
359.122	77.31
359.349	82.31
359.576	81.31
359.802	73.31
360.029	76.31
360.256	92.31
360.483	87.31
360.709	84.31
360.936	91.31
361.163	82.31
361.39	83.31
361.616	77.31
361.843	78.31
362.07	82.31
362.296	100.31
362.523	75.31
362.749	89.31
362.976	86.31
363.203	82.31
363.429	70.31
363.656	103.31
363.882	94.31
364.109	86.31
364.335	81.31
364.562	89.31
364.788	81.31
365.015	89.31
365.241	93.31
365.468	85.31
365.694	81.31
365.92	89.31
366.147	86.31
366.373	73.31
366.599	76.31
366.826	78.31
367.052	86.31
367.278	82.31
367.505	89.31
367.731	90.31
367.957	81.31
368.184	81.31
368.41	74.31
368.636	95.31
368.862	99.31
369.089	75.31
369.315	85.31
369.541	86.31
369.767	98.31
369.993	86.31
370.219	95.31
370.445	89.31
370.672	96.31
370.898	101.31
371.124	90.31
371.35	93.31
371.576	79.31
371.802	91.31
372.028	98.31
372.254	85.31
372.48	81.31
372.706	85.31
372.932	101.31
373.158	100.31
373.384	89.31
373.61	88.31
373.835	84.31
374.061	90.31
374.287	86.31
374.513	94.31
374.739	96.31
374.965	87.31
375.191	92.31
375.416	102.31
375.642	104.31
375.868	95.31
376.094	83.31
376.319	91.31
376.545	84.31
376.771	98.31
376.997	77.31
377.222	82.31
377.448	92.31
377.674	98.31
377.899	107.31
378.125	102.31
378.35	90.31
378.576	109.31
378.802	87.31
379.027	111.31
379.253	91.31
379.478	100.31
379.704	105.31
379.929	90.31
380.155	85.31
380.38	91.31
380.606	97.31
380.831	91.31
381.057	104.31
381.282	91.31
381.507	91.31
381.733	102.31
381.958	91.31
382.184	92.31
382.409	92.31
382.634	108.31
382.86	85.31
383.085	106.31
383.31	95.31
383.535	99.31
383.761	102.31
383.986	96.31
384.211	106.31
384.436	89.31
384.662	97.31
384.887	95.31
385.112	92.31
385.337	99.31
385.562	91.31
385.787	104.31
386.013	105.31
386.238	106.31
386.463	94.31
386.688	97.31
386.913	100.31
387.138	101.31
387.363	109.31
387.588	100.31
387.813	104.31
388.038	112.31
388.263	109.31
388.488	123.31
388.713	103.31
388.938	93.31
389.163	104.31
389.387	118.31
389.612	100.31
389.837	102.31
390.062	108.31
390.287	102.31
390.512	105.31
390.736	99.31
390.961	120.31
391.186	122.31
391.411	106.31
391.636	104.31
391.86	100.31
392.085	90.31
392.31	109.31
392.534	111.31
392.759	109.31
392.984	98.31
393.208	123.31
393.433	104.31
393.658	107.31
393.882	121.31
394.107	99.31
394.331	107.31
394.556	118.31
394.78	114.31
395.005	118.31
395.229	114.31
395.454	105.31
395.678	111.31
395.903	90.31
396.127	100.31
396.352	105.31
396.576	113.31
396.801	105.31
397.025	91.31
397.249	116.31
397.474	107.31
397.698	105.31
397.922	116.31
398.147	111.31
398.371	114.31
398.595	118.31
398.82	119.31
399.044	112.31
399.268	112.31
399.492	106.31
399.717	107.31
399.941	110.31
400.165	115.31
400.389	114.31
400.613	118.31
400.837	109.31
401.062	117.31
401.286	119.31
401.51	102.31
401.734	122.31
401.958	106.31
402.182	96.31
402.406	118.31
402.63	123.31
402.854	124.31
403.078	119.31
403.302	116.31
403.526	121.31
403.75	96.31
403.974	120.31
404.198	93.31
404.422	120.31
404.645	104.31
404.869	108.31
405.093	115.31
405.317	113.31
405.541	128.31
405.765	122.31
405.988	124.31
406.212	124.31
406.436	97.31
406.66	144.31
406.883	124.31
407.107	130.31
407.331	117.31
407.555	132.31
407.778	121.31
408.002	116.31
408.226	133.31
408.449	132.31
408.673	130.31
408.896	110.31
409.12	116.31
409.344	120.31
409.567	116.31
409.791	132.31
410.014	115.31
410.238	140.31
410.461	128.31
410.685	124.31
410.908	127.31
411.132	128.31
411.355	120.31
411.578	124.31
411.802	118.31
412.025	124.31
412.249	131.31
412.472	122.31
412.695	126.31
412.919	138.31
413.142	136.31
413.365	125.31
413.589	118.31
413.812	129.31
414.035	134.31
414.258	118.31
414.482	115.31
414.705	125.31
414.928	120.31
415.151	131.31
415.374	124.31
415.597	125.31
415.821	121.31
416.044	121.31
416.267	135.31
416.49	129.31
416.713	128.31
416.936	117.31
417.159	124.31
417.382	124.31
417.605	139.31
417.828	126.31
418.051	121.31
418.274	142.31
418.497	144.31
418.72	139.31
418.943	138.31
419.166	156.31
419.389	153.31
419.611	138.31
419.834	130.31
420.057	128.31
420.28	142.31
420.503	137.31
420.726	132.31
420.948	132.31
421.171	143.31
421.394	125.31
421.617	156.31
421.839	150.31
422.062	152.31
422.285	142.31
422.507	131.31
422.73	127.31
422.953	130.31
423.175	126.31
423.398	117.31
423.621	119.31
423.843	142.31
424.066	143.31
424.288	141.31
424.511	122.31
424.733	146.31
424.956	146.31
425.178	136.31
425.401	138.31
425.623	137.31
425.846	128.31
426.068	134.31
426.291	131.31
426.513	120.31
426.735	139.31
426.958	122.31
427.18	132.31
427.402	130.31
427.625	126.31
427.847	139.31
428.069	123.31
428.292	124.31
428.514	131.31
428.736	134.31
428.958	154.31
429.181	128.31
429.403	134.31
429.625	130.31
429.847	130.31
430.069	145.31
430.292	138.31
430.514	132.31
430.736	130.31
430.958	123.31
431.18	133.31
431.402	113.31
431.624	124.31
431.846	110.31
432.068	92.31
432.29	105.31
432.512	101.31
432.734	131.31
432.956	140.31
433.178	138.31
433.4	141.31
433.622	123.31
433.844	158.31
434.066	132.31
434.287	104.31
434.509	82.31
434.731	88.31
434.953	113.31
435.175	109.31
435.397	122.31
435.618	121.31
435.84	114.31
436.062	116.31
436.284	130.31
436.505	138.31
436.727	140.31
436.949	136.31
437.17	134.31
437.392	119.31
437.614	115.31
437.835	118.31
438.057	105.31
438.278	117.31
438.5	124.31
438.721	137.31
438.943	139.31
439.165	132.31
439.386	156.31
439.608	150.31
439.829	149.31
440.05	143.31
440.272	160.31
440.493	142.31
440.715	148.31
440.936	147.31
441.158	158.31
441.379	164.31
441.6	142.31
441.822	157.31
442.043	147.31
442.264	149.31
442.486	148.31
442.707	134.31
442.928	141.31
443.149	142.31
443.371	157.31
443.592	127.31
443.813	142.31
444.034	154.31
444.255	140.31
444.476	142.31
444.698	148.31
444.919	146.31
445.14	288.31
445.361	205.31
445.582	165.31
445.803	161.31
446.024	163.31
446.245	151.31
446.466	153.31
446.687	162.31
446.908	162.31
447.129	165.31
447.35	169.31
447.571	169.31
447.792	149.31
448.013	158.31
448.234	156.31
448.455	136.31
448.675	145.31
448.896	156.31
449.117	138.31
449.338	121.31
449.559	136.31
449.779	147.31
450	137.31
450.221	142.31
450.442	142.31
450.662	120.31
450.883	126.31
451.104	142.31
451.324	145.31
451.545	134.31
451.766	143.31
451.986	124.31
452.207	134.31
452.428	138.31
452.648	142.31
452.869	131.31
453.089	121.31
453.31	120.31
453.53	120.31
453.751	103.31
453.971	99.31
454.192	115.31
454.412	110.31
454.633	112.31
454.853	108.31
455.073	124.31
455.294	131.31
455.514	124.31
455.734	118.31
455.955	132.31
456.175	130.31
456.395	125.31
456.616	110.31
456.836	103.31
457.056	116.31
457.276	124.31
457.497	123.31
457.717	109.31
457.937	132.31
458.157	114.31
458.377	89.31
458.598	105.31
458.818	105.31
459.038	95.31
459.258	104.31
459.478	98.31
459.698	81.31
459.918	92.31
460.138	123.31
460.358	123.31
460.578	112.31
460.798	94.31
461.018	113.31
461.238	120.31
461.458	120.31
461.678	121.31
461.898	113.31
462.118	109.31
462.338	132.31
462.558	123.31
462.777	112.31
462.997	99.31
463.217	102.31
463.437	99.31
463.657	109.31
463.876	116.31
464.096	122.31
464.316	115.31
464.536	124.31
464.755	113.31
464.975	123.31
465.195	132.31
465.414	116.31
465.634	122.31
465.854	110.31
466.073	132.31
466.293	139.31
466.512	122.31
466.732	137.31
466.951	143.31
467.171	148.31
467.391	140.31
467.61	135.31
467.829	142.31
468.049	161.31
468.268	136.31
468.488	135.31
468.707	139.31
468.927	133.31
469.146	129.31
469.365	142.31
469.585	148.31
469.804	149.31
470.023	132.31
470.243	146.31
470.462	139.31
470.681	156.31
470.901	145.31
471.12	134.31
471.339	159.31
471.558	158.31
471.777	142.31
471.997	133.31
472.216	136.31
472.435	120.31
472.654	113.31
472.873	126.31
473.092	131.31
473.311	116.31
473.53	127.31
473.749	135.31
473.968	132.31
474.187	107.31
474.406	124.31
474.625	124.31
474.844	133.31
475.063	128.31
475.282	129.31
475.501	128.31
475.72	132.31
475.939	122.31
476.158	134.31
476.377	136.31
476.596	118.31
476.814	131.31
477.033	124.31
477.252	120.31
477.471	141.31
477.69	143.31
477.908	148.31
478.127	152.31
478.346	141.31
478.564	128.31
478.783	151.31
479.002	138.31
479.22	141.31
479.439	133.31
479.658	126.31
479.876	113.31
480.095	114.31
480.313	123.31
480.532	126.31
480.751	110.31
480.969	101.31
481.188	96.31
481.406	108.31
481.624	82.31
481.843	96.31
482.061	106.31
482.28	113.31
482.498	117.31
482.717	113.31
482.935	131.31
483.153	157.31
483.372	165.31
483.59	155.31
483.808	137.31
484.027	145.31
484.245	152.31
484.463	152.31
484.681	182.31
484.9	178.31
485.118	160.31
485.336	147.31
485.554	125.31
485.772	109.31
485.99	95.31
486.209	121.31
486.427	120.31
486.645	116.31
486.863	154.31
487.081	144.31
487.299	136.31
487.517	157.31
487.735	179.31
487.953	204.31
488.171	201.31
488.389	194.31
488.607	143.31
488.825	169.31
489.043	142.31
489.261	146.31
489.479	132.31
489.696	121.31
489.914	148.31
490.132	156.31
490.35	157.31
490.568	164.31
490.786	173.31
491.003	193.31
491.221	199.31
491.439	192.31
491.657	189.31
491.874	207.31
492.092	243.31
492.31	269.31
492.527	227.31
492.745	224.31
492.963	213.31
493.18	190.31
493.398	193.31
493.615	180.31
493.833	172.31
494.05	196.31
494.268	178.31
494.485	180.31
494.703	173.31
494.92	166.31
495.138	172.31
495.355	186.31
495.573	169.31
495.79	179.31
496.008	176.31
496.225	152.31
496.442	158.31
496.66	170.31
496.877	180.31
497.094	179.31
497.312	160.31
497.529	161.31
497.746	152.31
497.963	134.31
498.181	132.31
498.398	127.31
498.615	123.31
498.832	134.31
499.049	134.31
499.267	115.31
499.484	130.31
499.701	138.31
499.918	154.31
500.135	156.31
500.352	137.31
500.569	150.31
500.786	144.31
501.003	139.31
501.22	144.31
501.437	156.31
501.654	141.31
501.871	129.31
502.088	144.31
502.305	130.31
502.522	118.31
502.739	129.31
502.956	128.31
503.172	132.31
503.389	127.31
503.606	124.31
503.823	136.31
504.04	133.31
504.256	120.31
504.473	107.31
504.69	117.31
504.907	135.31
505.123	130.31
505.34	123.31
505.557	130.31
505.773	125.31
505.99	136.31
506.207	122.31
506.423	129.31
506.64	123.31
506.856	129.31
507.073	116.31
507.289	128.31
507.506	118.31
507.722	142.31
507.939	113.31
508.155	136.31
508.372	118.31
508.588	120.31
508.805	110.31
509.021	102.31
509.238	114.31
509.454	120.31
509.67	122.31
509.887	102.31
510.103	100.31
510.319	96.31
510.536	90.31
510.752	91.31
510.968	94.31
511.184	97.31
511.401	100.31
