Data from Location6.07152019.Energy5.Lamp.07192019.3%Agarose_HRD10591_16-12-51-399.txt Node
Date: Fri Jul 19 16:12:51 EDT 2019
User: cochatt
Spectrometer: HR+D1059
Trigger mode: 1
Integration Time (sec): 1.000000E-1
Scans to average: 1
Electric dark correction enabled: true
Nonlinearity correction enabled: false
Boxcar width: 0
XAxis mode: Wavelengths
Number of Pixels in Spectrum: 2048
>>>>>Begin Spectral Data<<<<<
223.165	-8.06
223.4	-8.06
223.635	-8.06
223.869	-11.06
224.104	-5.06
224.338	-6.06
224.573	-11.06
224.808	-6.06
225.042	-2.06
225.277	-11.06
225.511	-9.06
225.746	-3.06
225.98	-12.06
226.215	5.94
226.449	16.94
226.683	12.94
226.918	15.94
227.152	32.94
227.387	43.94
227.621	36.94
227.856	44.94
228.09	40.94
228.324	54.94
228.559	52.94
228.793	57.94
229.027	81.94
229.262	56.94
229.496	63.94
229.73	64.94
229.964	74.94
230.199	67.94
230.433	67.94
230.667	72.94
230.901	75.94
231.136	83.94
231.37	83.94
231.604	82.94
231.838	78.94
232.072	86.94
232.306	79.94
232.541	82.94
232.775	81.94
233.009	97.94
233.243	78.94
233.477	94.94
233.711	65.94
233.945	82.94
234.179	86.94
234.413	93.94
234.647	75.94
234.881	67.94
235.115	86.94
235.349	83.94
235.583	85.94
235.817	103.94
236.051	84.94
236.285	77.94
236.519	83.94
236.753	77.94
236.987	91.94
237.221	86.94
237.455	76.94
237.689	85.94
237.922	78.94
238.156	93.94
238.39	75.94
238.624	76.94
238.858	77.94
239.091	86.94
239.325	83.94
239.559	75.94
239.793	82.94
240.027	73.94
240.26	65.94
240.494	77.94
240.728	87.94
240.961	75.94
241.195	79.94
241.429	83.94
241.662	65.94
241.896	87.94
242.13	78.94
242.363	72.94
242.597	86.94
242.83	91.94
243.064	83.94
243.298	84.94
243.531	74.94
243.765	91.94
243.998	74.94
244.232	85.94
244.465	83.94
244.699	69.94
244.932	86.94
245.166	96.94
245.399	81.94
245.633	63.94
245.866	87.94
246.099	79.94
246.333	83.94
246.566	80.94
246.8	85.94
247.033	92.94
247.266	81.94
247.5	77.94
247.733	94.94
247.966	81.94
248.2	70.94
248.433	74.94
248.666	75.94
248.899	85.94
249.133	71.94
249.366	84.94
249.599	83.94
249.832	86.94
250.066	73.94
250.299	84.94
250.532	71.94
250.765	82.94
250.998	90.94
251.231	74.94
251.465	86.94
251.698	89.94
251.931	83.94
252.164	85.94
252.397	85.94
252.63	84.94
252.863	86.94
253.096	83.94
253.329	92.94
253.562	74.94
253.795	84.94
254.028	92.94
254.261	81.94
254.494	74.94
254.727	92.94
254.96	78.94
255.193	86.94
255.426	80.94
255.659	85.94
255.892	95.94
256.124	76.94
256.357	69.94
256.59	82.94
256.823	76.94
257.056	88.94
257.289	85.94
257.521	85.94
257.754	77.94
257.987	75.94
258.22	80.94
258.452	99.94
258.685	76.94
258.918	78.94
259.151	80.94
259.383	85.94
259.616	89.94
259.849	93.94
260.081	83.94
260.314	74.94
260.547	75.94
260.779	74.94
261.012	88.94
261.244	83.94
261.477	90.94
261.71	81.94
261.942	81.94
262.175	89.94
262.407	95.94
262.64	95.94
262.872	88.94
263.105	74.94
263.337	83.94
263.57	73.94
263.802	70.94
264.035	84.94
264.267	90.94
264.499	94.94
264.732	100.94
264.964	91.94
265.197	100.94
265.429	85.94
265.661	77.94
265.894	94.94
266.126	86.94
266.358	83.94
266.591	97.94
266.823	90.94
267.055	90.94
267.287	89.94
267.52	96.94
267.752	96.94
267.984	85.94
268.216	76.94
268.448	85.94
268.681	99.94
268.913	87.94
269.145	84.94
269.377	85.94
269.609	67.94
269.841	75.94
270.073	71.94
270.306	90.94
270.538	92.94
270.77	86.94
271.002	89.94
271.234	82.94
271.466	68.94
271.698	93.94
271.93	101.94
272.162	85.94
272.394	82.94
272.626	77.94
272.858	83.94
273.09	87.94
273.322	97.94
273.553	79.94
273.785	87.94
274.017	76.94
274.249	85.94
274.481	86.94
274.713	90.94
274.945	92.94
275.176	96.94
275.408	90.94
275.64	93.94
275.872	77.94
276.104	93.94
276.335	89.94
276.567	83.94
276.799	90.94
277.031	84.94
277.262	84.94
277.494	97.94
277.726	80.94
277.957	99.94
278.189	101.94
278.421	78.94
278.652	84.94
278.884	88.94
279.115	82.94
279.347	100.94
279.579	76.94
279.81	83.94
280.042	83.94
280.273	87.94
280.505	84.94
280.736	96.94
280.968	94.94
281.199	91.94
281.431	93.94
281.662	88.94
281.894	83.94
282.125	83.94
282.356	94.94
282.588	99.94
282.819	95.94
283.051	84.94
283.282	79.94
283.513	90.94
283.745	78.94
283.976	78.94
284.207	81.94
284.439	93.94
284.67	91.94
284.901	87.94
285.132	82.94
285.364	79.94
285.595	84.94
285.826	101.94
286.057	94.94
286.288	83.94
286.52	90.94
286.751	88.94
286.982	90.94
287.213	92.94
287.444	91.94
287.675	86.94
287.906	92.94
288.138	77.94
288.369	90.94
288.6	89.94
288.831	88.94
289.062	98.94
289.293	94.94
289.524	73.94
289.755	81.94
289.986	82.94
290.217	94.94
290.448	93.94
290.679	103.94
290.91	73.94
291.141	94.94
291.371	81.94
291.602	101.94
291.833	80.94
292.064	83.94
292.295	74.94
292.526	93.94
292.757	94.94
292.987	92.94
293.218	86.94
293.449	80.94
293.68	92.94
293.91	86.94
294.141	84.94
294.372	92.94
294.603	92.94
294.833	76.94
295.064	94.94
295.295	81.94
295.525	72.94
295.756	90.94
295.987	92.94
296.217	85.94
296.448	90.94
296.679	94.94
296.909	98.94
297.14	83.94
297.37	92.94
297.601	83.94
297.831	88.94
298.062	85.94
298.292	80.94
298.523	87.94
298.753	76.94
298.984	85.94
299.214	90.94
299.445	100.94
299.675	85.94
299.905	90.94
300.136	92.94
300.366	85.94
300.597	97.94
300.827	82.94
301.057	90.94
301.288	87.94
301.518	79.94
301.748	99.94
301.979	85.94
302.209	81.94
302.439	81.94
302.669	97.94
302.9	85.94
303.13	98.94
303.36	75.94
303.59	73.94
303.82	84.94
304.051	82.94
304.281	88.94
304.511	95.94
304.741	94.94
304.971	76.94
305.201	89.94
305.431	82.94
305.661	85.94
305.891	95.94
306.121	91.94
306.352	79.94
306.582	85.94
306.812	86.94
307.042	76.94
307.272	87.94
307.502	82.94
307.731	96.94
307.961	99.94
308.191	85.94
308.421	101.94
308.651	83.94
308.881	77.94
309.111	78.94
309.341	99.94
309.571	79.94
309.8	85.94
310.03	89.94
310.26	97.94
310.49	99.94
310.72	68.94
310.949	74.94
311.179	97.94
311.409	85.94
311.639	91.94
311.868	76.94
312.098	79.94
312.328	91.94
312.557	85.94
312.787	80.94
313.017	94.94
313.246	82.94
313.476	89.94
313.706	85.94
313.935	98.94
314.165	86.94
314.394	94.94
314.624	87.94
314.853	94.94
315.083	82.94
315.312	83.94
315.542	94.94
315.771	80.94
316.001	93.94
316.23	79.94
316.46	77.94
316.689	98.94
316.919	101.94
317.148	97.94
317.377	96.94
317.607	86.94
317.836	97.94
318.065	87.94
318.295	102.94
318.524	85.94
318.753	77.94
318.983	85.94
319.212	91.94
319.441	90.94
319.67	73.94
319.9	63.94
320.129	97.94
320.358	78.94
320.587	86.94
320.816	79.94
321.046	84.94
321.275	82.94
321.504	89.94
321.733	90.94
321.962	85.94
322.191	79.94
322.42	82.94
322.649	84.94
322.878	89.94
323.108	79.94
323.337	89.94
323.566	99.94
323.795	84.94
324.024	97.94
324.253	88.94
324.482	98.94
324.71	91.94
324.939	96.94
325.168	85.94
325.397	89.94
325.626	80.94
325.855	87.94
326.084	85.94
326.313	87.94
326.542	84.94
326.77	79.94
326.999	86.94
327.228	83.94
327.457	79.94
327.686	83.94
327.914	86.94
328.143	93.94
328.372	82.94
328.6	72.94
328.829	84.94
329.058	80.94
329.287	97.94
329.515	90.94
329.744	87.94
329.972	82.94
330.201	84.94
330.43	86.94
330.658	88.94
330.887	82.94
331.115	67.94
331.344	84.94
331.572	95.94
331.801	99.94
332.03	95.94
332.258	104.94
332.486	97.94
332.715	92.94
332.943	84.94
333.172	86.94
333.4	82.94
333.629	89.94
333.857	96.94
334.085	82.94
334.314	101.94
334.542	87.94
334.771	92.94
334.999	90.94
335.227	94.94
335.455	93.94
335.684	89.94
335.912	81.94
336.14	80.94
336.369	97.94
336.597	91.94
336.825	76.94
337.053	88.94
337.281	92.94
337.51	85.94
337.738	97.94
337.966	80.94
338.194	89.94
338.422	85.94
338.65	86.94
338.878	93.94
339.106	93.94
339.334	91.94
339.562	77.94
339.79	86.94
340.018	86.94
340.246	97.94
340.474	89.94
340.702	92.94
340.93	93.94
341.158	79.94
341.386	100.94
341.614	95.94
341.842	93.94
342.07	89.94
342.298	74.94
342.526	92.94
342.754	85.94
342.981	89.94
343.209	89.94
343.437	78.94
343.665	86.94
343.893	97.94
344.12	87.94
344.348	88.94
344.576	84.94
344.804	78.94
345.031	80.94
345.259	91.94
345.487	94.94
345.714	83.94
345.942	78.94
346.17	82.94
346.397	97.94
346.625	83.94
346.853	86.94
347.08	79.94
347.308	96.94
347.535	89.94
347.763	100.94
347.99	86.94
348.218	97.94
348.445	97.94
348.673	76.94
348.9	93.94
349.128	83.94
349.355	89.94
349.583	90.94
349.81	81.94
350.037	82.94
350.265	91.94
350.492	94.94
350.72	85.94
350.947	78.94
351.174	73.94
351.402	78.94
351.629	87.94
351.856	83.94
352.083	77.94
352.311	85.94
352.538	100.94
352.765	95.94
352.992	93.94
353.22	97.94
353.447	79.94
353.674	90.94
353.901	84.94
354.128	81.94
354.355	83.94
354.583	99.94
354.81	89.94
355.037	88.94
355.264	94.94
355.491	87.94
355.718	90.94
355.945	79.94
356.172	81.94
356.399	91.94
356.626	79.94
356.853	92.94
357.08	87.94
357.307	91.94
357.534	87.94
357.761	76.94
357.988	86.94
358.215	100.94
358.441	72.94
358.668	91.94
358.895	89.94
359.122	75.94
359.349	83.94
359.576	92.94
359.802	92.94
360.029	87.94
360.256	90.94
360.483	71.94
360.709	84.94
360.936	103.94
361.163	109.94
361.39	86.94
361.616	99.94
361.843	87.94
362.07	85.94
362.296	87.94
362.523	74.94
362.749	82.94
362.976	81.94
363.203	97.94
363.429	101.94
363.656	99.94
363.882	87.94
364.109	95.94
364.335	87.94
364.562	85.94
364.788	87.94
365.015	85.94
365.241	89.94
365.468	78.94
365.694	89.94
365.92	96.94
366.147	88.94
366.373	98.94
366.599	80.94
366.826	80.94
367.052	67.94
367.278	94.94
367.505	89.94
367.731	103.94
367.957	98.94
368.184	95.94
368.41	79.94
368.636	103.94
368.862	94.94
369.089	92.94
369.315	98.94
369.541	86.94
369.767	93.94
369.993	96.94
370.219	106.94
370.445	102.94
370.672	82.94
370.898	91.94
371.124	89.94
371.35	109.94
371.576	107.94
371.802	77.94
372.028	97.94
372.254	96.94
372.48	90.94
372.706	81.94
372.932	114.94
373.158	102.94
373.384	91.94
373.61	79.94
373.835	90.94
374.061	94.94
374.287	89.94
374.513	109.94
374.739	100.94
374.965	85.94
375.191	96.94
375.416	110.94
375.642	95.94
375.868	90.94
376.094	87.94
376.319	99.94
376.545	93.94
376.771	102.94
376.997	108.94
377.222	92.94
377.448	105.94
377.674	100.94
377.899	107.94
378.125	101.94
378.35	108.94
378.576	83.94
378.802	102.94
379.027	116.94
379.253	95.94
379.478	99.94
379.704	108.94
379.929	98.94
380.155	103.94
380.38	95.94
380.606	97.94
380.831	93.94
381.057	105.94
381.282	118.94
381.507	110.94
381.733	104.94
381.958	102.94
382.184	104.94
382.409	96.94
382.634	98.94
382.86	100.94
383.085	95.94
383.31	97.94
383.535	99.94
383.761	101.94
383.986	98.94
384.211	101.94
384.436	100.94
384.662	98.94
384.887	98.94
385.112	97.94
385.337	97.94
385.562	92.94
385.787	110.94
386.013	117.94
386.238	113.94
386.463	89.94
386.688	92.94
386.913	99.94
387.138	106.94
387.363	90.94
387.588	85.94
387.813	121.94
388.038	105.94
388.263	107.94
388.488	94.94
388.713	100.94
388.938	102.94
389.163	111.94
389.387	103.94
389.612	99.94
389.837	109.94
390.062	101.94
390.287	110.94
390.512	106.94
390.736	125.94
390.961	119.94
391.186	107.94
391.411	103.94
391.636	85.94
391.86	108.94
392.085	118.94
392.31	115.94
392.534	101.94
392.759	118.94
392.984	109.94
393.208	105.94
393.433	114.94
393.658	113.94
393.882	106.94
394.107	114.94
394.331	106.94
394.556	110.94
394.78	119.94
395.005	107.94
395.229	116.94
395.454	113.94
395.678	113.94
395.903	125.94
396.127	117.94
396.352	111.94
396.576	104.94
396.801	97.94
397.025	121.94
397.249	118.94
397.474	114.94
397.698	118.94
397.922	109.94
398.147	109.94
398.371	118.94
398.595	113.94
398.82	115.94
399.044	115.94
399.268	116.94
399.492	121.94
399.717	115.94
399.941	130.94
400.165	126.94
400.389	114.94
400.613	120.94
400.837	119.94
401.062	108.94
401.286	105.94
401.51	122.94
401.734	121.94
401.958	101.94
402.182	108.94
402.406	126.94
402.63	109.94
402.854	120.94
403.078	121.94
403.302	120.94
403.526	112.94
403.75	125.94
403.974	123.94
404.198	130.94
404.422	135.94
404.645	118.94
404.869	124.94
405.093	122.94
405.317	127.94
405.541	123.94
405.765	124.94
405.988	121.94
406.212	128.94
406.436	133.94
406.66	128.94
406.883	134.94
407.107	122.94
407.331	125.94
407.555	125.94
407.778	119.94
408.002	121.94
408.226	132.94
408.449	119.94
408.673	117.94
408.896	134.94
409.12	112.94
409.344	113.94
409.567	127.94
409.791	123.94
410.014	124.94
410.238	126.94
410.461	123.94
410.685	126.94
410.908	131.94
411.132	131.94
411.355	124.94
411.578	126.94
411.802	115.94
412.025	121.94
412.249	113.94
412.472	119.94
412.695	107.94
412.919	121.94
413.142	134.94
413.365	129.94
413.589	115.94
413.812	130.94
414.035	126.94
414.258	120.94
414.482	126.94
414.705	130.94
414.928	135.94
415.151	131.94
415.374	129.94
415.597	109.94
415.821	131.94
416.044	126.94
416.267	127.94
416.49	119.94
416.713	139.94
416.936	136.94
417.159	149.94
417.382	121.94
417.605	136.94
417.828	116.94
418.051	144.94
418.274	138.94
418.497	138.94
418.72	133.94
418.943	130.94
419.166	153.94
419.389	159.94
419.611	129.94
419.834	135.94
420.057	139.94
420.28	140.94
420.503	131.94
420.726	138.94
420.948	141.94
421.171	145.94
421.394	145.94
421.617	142.94
421.839	141.94
422.062	133.94
422.285	143.94
422.507	147.94
422.73	155.94
422.953	138.94
423.175	135.94
423.398	135.94
423.621	137.94
423.843	142.94
424.066	137.94
424.288	142.94
424.511	147.94
424.733	163.94
424.956	145.94
425.178	141.94
425.401	155.94
425.623	157.94
425.846	147.94
426.068	153.94
426.291	123.94
426.513	143.94
426.735	140.94
426.958	151.94
427.18	135.94
427.402	148.94
427.625	143.94
427.847	133.94
428.069	134.94
428.292	141.94
428.514	123.94
428.736	133.94
428.958	132.94
429.181	132.94
429.403	134.94
429.625	131.94
429.847	134.94
430.069	141.94
430.292	146.94
430.514	140.94
430.736	141.94
430.958	143.94
431.18	133.94
431.402	141.94
431.624	134.94
431.846	112.94
432.068	104.94
432.29	106.94
432.512	116.94
432.734	145.94
432.956	142.94
433.178	142.94
433.4	143.94
433.622	146.94
433.844	137.94
434.066	116.94
434.287	108.94
434.509	94.94
434.731	101.94
434.953	106.94
435.175	120.94
435.397	134.94
435.618	123.94
435.84	123.94
436.062	115.94
436.284	119.94
436.505	139.94
436.727	136.94
436.949	158.94
437.17	143.94
437.392	159.94
437.614	137.94
437.835	117.94
438.057	115.94
438.278	105.94
438.5	117.94
438.721	130.94
438.943	153.94
439.165	142.94
439.386	144.94
439.608	161.94
439.829	146.94
440.05	140.94
440.272	139.94
440.493	151.94
440.715	151.94
440.936	152.94
441.158	142.94
441.379	154.94
441.6	142.94
441.822	149.94
442.043	136.94
442.264	142.94
442.486	156.94
442.707	132.94
442.928	148.94
443.149	150.94
443.371	151.94
443.592	135.94
443.813	155.94
444.034	149.94
444.255	154.94
444.476	152.94
444.698	141.94
444.919	163.94
445.14	284.94
445.361	187.94
445.582	172.94
445.803	149.94
446.024	159.94
446.245	154.94
446.466	162.94
446.687	170.94
446.908	166.94
447.129	160.94
447.35	170.94
447.571	162.94
447.792	151.94
448.013	158.94
448.234	147.94
448.455	156.94
448.675	158.94
448.896	142.94
449.117	138.94
449.338	144.94
449.559	140.94
449.779	146.94
450	147.94
450.221	131.94
450.442	130.94
450.662	143.94
450.883	138.94
451.104	138.94
451.324	123.94
451.545	147.94
451.766	125.94
451.986	125.94
452.207	136.94
452.428	119.94
452.648	131.94
452.869	135.94
453.089	114.94
453.31	118.94
453.53	117.94
453.751	123.94
453.971	117.94
454.192	116.94
454.412	109.94
454.633	133.94
454.853	109.94
455.073	130.94
455.294	118.94
455.514	129.94
455.734	116.94
455.955	134.94
456.175	130.94
456.395	110.94
456.616	116.94
456.836	110.94
457.056	115.94
457.276	108.94
457.497	122.94
457.717	102.94
457.937	118.94
458.157	113.94
458.377	108.94
458.598	99.94
458.818	103.94
459.038	103.94
459.258	98.94
459.478	85.94
459.698	89.94
459.918	100.94
460.138	116.94
460.358	121.94
460.578	121.94
460.798	117.94
461.018	121.94
461.238	124.94
461.458	142.94
461.678	129.94
461.898	122.94
462.118	119.94
462.338	119.94
462.558	129.94
462.777	129.94
462.997	120.94
463.217	109.94
463.437	133.94
463.657	109.94
463.876	116.94
464.096	119.94
464.316	115.94
464.536	135.94
464.755	99.94
464.975	109.94
465.195	118.94
465.414	117.94
465.634	116.94
465.854	126.94
466.073	125.94
466.293	132.94
466.512	140.94
466.732	144.94
466.951	145.94
467.171	135.94
467.391	146.94
467.61	147.94
467.829	147.94
468.049	138.94
468.268	124.94
468.488	151.94
468.707	143.94
468.927	135.94
469.146	150.94
469.365	153.94
469.585	146.94
469.804	148.94
470.023	148.94
470.243	143.94
470.462	149.94
470.681	145.94
470.901	150.94
471.12	165.94
471.339	151.94
471.558	149.94
471.777	148.94
471.997	140.94
472.216	146.94
472.435	125.94
472.654	117.94
472.873	127.94
473.092	115.94
473.311	113.94
473.53	125.94
473.749	134.94
473.968	142.94
474.187	144.94
474.406	126.94
474.625	141.94
474.844	133.94
475.063	127.94
475.282	132.94
475.501	123.94
475.72	124.94
475.939	125.94
476.158	135.94
476.377	138.94
476.596	133.94
476.814	127.94
477.033	118.94
477.252	117.94
477.471	123.94
477.69	127.94
477.908	147.94
478.127	158.94
478.346	144.94
478.564	136.94
478.783	149.94
479.002	151.94
479.22	154.94
479.439	138.94
479.658	123.94
479.876	110.94
480.095	117.94
480.313	131.94
480.532	127.94
480.751	108.94
480.969	89.94
481.188	104.94
481.406	120.94
481.624	105.94
481.843	86.94
482.061	109.94
482.28	108.94
482.498	125.94
482.717	125.94
482.935	137.94
483.153	154.94
483.372	160.94
483.59	165.94
483.808	151.94
484.027	144.94
484.245	149.94
484.463	166.94
484.681	169.94
484.9	168.94
485.118	160.94
485.336	139.94
485.554	110.94
485.772	101.94
485.99	113.94
486.209	120.94
486.427	126.94
486.645	137.94
486.863	147.94
487.081	141.94
487.299	139.94
487.517	153.94
487.735	170.94
487.953	189.94
488.171	190.94
488.389	193.94
488.607	164.94
488.825	160.94
489.043	132.94
489.261	150.94
489.479	147.94
489.696	150.94
489.914	150.94
490.132	158.94
490.35	167.94
490.568	160.94
490.786	179.94
491.003	177.94
491.221	178.94
491.439	193.94
491.657	193.94
491.874	204.94
492.092	247.94
492.31	245.94
492.527	237.94
492.745	209.94
492.963	211.94
493.18	195.94
493.398	200.94
493.615	182.94
493.833	195.94
494.05	192.94
494.268	188.94
494.485	190.94
494.703	189.94
494.92	189.94
495.138	164.94
495.355	190.94
495.573	199.94
495.79	186.94
496.008	181.94
496.225	179.94
496.442	163.94
496.66	186.94
496.877	165.94
497.094	172.94
497.312	170.94
497.529	166.94
497.746	174.94
497.963	144.94
498.181	138.94
498.398	140.94
498.615	124.94
498.832	122.94
499.049	123.94
499.267	139.94
499.484	123.94
499.701	150.94
499.918	146.94
500.135	149.94
500.352	161.94
500.569	157.94
500.786	151.94
501.003	136.94
501.22	145.94
501.437	135.94
501.654	134.94
501.871	136.94
502.088	129.94
502.305	130.94
502.522	137.94
502.739	153.94
502.956	142.94
503.172	131.94
503.389	149.94
503.606	123.94
503.823	132.94
504.04	130.94
504.256	127.94
504.473	127.94
504.69	122.94
504.907	136.94
505.123	125.94
505.34	123.94
505.557	115.94
505.773	127.94
505.99	122.94
506.207	142.94
506.423	134.94
506.64	136.94
506.856	129.94
507.073	127.94
507.289	127.94
507.506	132.94
507.722	131.94
507.939	129.94
508.155	113.94
508.372	128.94
508.588	117.94
508.805	128.94
509.021	129.94
509.238	107.94
509.454	106.94
509.67	98.94
509.887	89.94
510.103	86.94
510.319	87.94
510.536	105.94
510.752	86.94
510.968	95.94
