Data from Location6.07152019.Energy5.Lamp.07192019.3%Agarose_HRD10591_16-11-55-395.txt Node
Date: Fri Jul 19 16:11:55 EDT 2019
User: cochatt
Spectrometer: HR+D1059
Trigger mode: 1
Integration Time (sec): 1.000000E-1
Scans to average: 1
Electric dark correction enabled: true
Nonlinearity correction enabled: false
Boxcar width: 0
XAxis mode: Wavelengths
Number of Pixels in Spectrum: 2048
>>>>>Begin Spectral Data<<<<<
223.165	-4.75
223.4	-4.75
223.635	-4.75
223.869	-28.75
224.104	-8.75
224.338	-13.75
224.573	-11.75
224.808	-4.75
225.042	-27.75
225.277	-7.75
225.511	-8.75
225.746	11.25
225.98	6.25
226.215	-1.75
226.449	24.25
226.683	12.25
226.918	28.25
227.152	36.25
227.387	14.25
227.621	52.25
227.856	44.25
228.09	43.25
228.324	45.25
228.559	58.25
228.793	66.25
229.027	68.25
229.262	58.25
229.496	58.25
229.73	74.25
229.964	71.25
230.199	52.25
230.433	90.25
230.667	77.25
230.901	82.25
231.136	96.25
231.37	81.25
231.604	83.25
231.838	68.25
232.072	89.25
232.306	98.25
232.541	83.25
232.775	85.25
233.009	89.25
233.243	88.25
233.477	83.25
233.711	87.25
233.945	84.25
234.179	86.25
234.413	74.25
234.647	85.25
234.881	85.25
235.115	87.25
235.349	82.25
235.583	79.25
235.817	78.25
236.051	70.25
236.285	81.25
236.519	78.25
236.753	82.25
236.987	83.25
237.221	75.25
237.455	71.25
237.689	86.25
237.922	76.25
238.156	75.25
238.39	82.25
238.624	80.25
238.858	83.25
239.091	81.25
239.325	66.25
239.559	84.25
239.793	85.25
240.027	76.25
240.26	84.25
240.494	87.25
240.728	74.25
240.961	79.25
241.195	78.25
241.429	83.25
241.662	81.25
241.896	70.25
242.13	74.25
242.363	66.25
242.597	80.25
242.83	88.25
243.064	78.25
243.298	78.25
243.531	77.25
243.765	86.25
243.998	74.25
244.232	89.25
244.465	81.25
244.699	86.25
244.932	90.25
245.166	78.25
245.399	78.25
245.633	73.25
245.866	73.25
246.099	62.25
246.333	63.25
246.566	68.25
246.8	70.25
247.033	76.25
247.266	86.25
247.5	90.25
247.733	89.25
247.966	79.25
248.2	85.25
248.433	77.25
248.666	94.25
248.899	86.25
249.133	78.25
249.366	79.25
249.599	85.25
249.832	78.25
250.066	83.25
250.299	76.25
250.532	80.25
250.765	99.25
250.998	80.25
251.231	71.25
251.465	90.25
251.698	85.25
251.931	82.25
252.164	85.25
252.397	94.25
252.63	85.25
252.863	84.25
253.096	81.25
253.329	73.25
253.562	78.25
253.795	96.25
254.028	77.25
254.261	86.25
254.494	70.25
254.727	72.25
254.96	71.25
255.193	76.25
255.426	82.25
255.659	76.25
255.892	97.25
256.124	72.25
256.357	81.25
256.59	83.25
256.823	92.25
257.056	86.25
257.289	71.25
257.521	75.25
257.754	76.25
257.987	72.25
258.22	77.25
258.452	87.25
258.685	80.25
258.918	89.25
259.151	76.25
259.383	71.25
259.616	70.25
259.849	75.25
260.081	72.25
260.314	78.25
260.547	89.25
260.779	86.25
261.012	75.25
261.244	77.25
261.477	78.25
261.71	84.25
261.942	84.25
262.175	72.25
262.407	88.25
262.64	83.25
262.872	77.25
263.105	69.25
263.337	73.25
263.57	74.25
263.802	90.25
264.035	84.25
264.267	89.25
264.499	93.25
264.732	80.25
264.964	71.25
265.197	86.25
265.429	78.25
265.661	75.25
265.894	84.25
266.126	84.25
266.358	83.25
266.591	98.25
266.823	82.25
267.055	76.25
267.287	77.25
267.52	77.25
267.752	86.25
267.984	82.25
268.216	83.25
268.448	92.25
268.681	73.25
268.913	88.25
269.145	88.25
269.377	81.25
269.609	96.25
269.841	87.25
270.073	68.25
270.306	99.25
270.538	78.25
270.77	74.25
271.002	79.25
271.234	84.25
271.466	90.25
271.698	91.25
271.93	87.25
272.162	77.25
272.394	101.25
272.626	78.25
272.858	92.25
273.09	86.25
273.322	78.25
273.553	86.25
273.785	78.25
274.017	68.25
274.249	84.25
274.481	88.25
274.713	78.25
274.945	68.25
275.176	79.25
275.408	84.25
275.64	75.25
275.872	89.25
276.104	81.25
276.335	84.25
276.567	86.25
276.799	102.25
277.031	82.25
277.262	77.25
277.494	76.25
277.726	77.25
277.957	70.25
278.189	87.25
278.421	91.25
278.652	78.25
278.884	86.25
279.115	83.25
279.347	86.25
279.579	83.25
279.81	81.25
280.042	75.25
280.273	84.25
280.505	79.25
280.736	85.25
280.968	75.25
281.199	79.25
281.431	76.25
281.662	87.25
281.894	98.25
282.125	84.25
282.356	72.25
282.588	74.25
282.819	74.25
283.051	88.25
283.282	96.25
283.513	87.25
283.745	96.25
283.976	80.25
284.207	82.25
284.439	75.25
284.67	84.25
284.901	92.25
285.132	87.25
285.364	96.25
285.595	85.25
285.826	86.25
286.057	88.25
286.288	87.25
286.52	93.25
286.751	90.25
286.982	89.25
287.213	76.25
287.444	80.25
287.675	84.25
287.906	78.25
288.138	76.25
288.369	94.25
288.6	89.25
288.831	85.25
289.062	92.25
289.293	82.25
289.524	86.25
289.755	82.25
289.986	91.25
290.217	84.25
290.448	84.25
290.679	77.25
290.91	78.25
291.141	71.25
291.371	72.25
291.602	81.25
291.833	92.25
292.064	79.25
292.295	89.25
292.526	83.25
292.757	80.25
292.987	89.25
293.218	89.25
293.449	86.25
293.68	78.25
293.91	78.25
294.141	80.25
294.372	77.25
294.603	76.25
294.833	89.25
295.064	75.25
295.295	103.25
295.525	82.25
295.756	81.25
295.987	95.25
296.217	81.25
296.448	72.25
296.679	77.25
296.909	89.25
297.14	76.25
297.37	86.25
297.601	91.25
297.831	90.25
298.062	82.25
298.292	89.25
298.523	89.25
298.753	90.25
298.984	85.25
299.214	77.25
299.445	101.25
299.675	85.25
299.905	80.25
300.136	72.25
300.366	89.25
300.597	80.25
300.827	83.25
301.057	93.25
301.288	95.25
301.518	90.25
301.748	82.25
301.979	87.25
302.209	91.25
302.439	79.25
302.669	91.25
302.9	88.25
303.13	83.25
303.36	83.25
303.59	93.25
303.82	95.25
304.051	88.25
304.281	91.25
304.511	86.25
304.741	90.25
304.971	97.25
305.201	78.25
305.431	70.25
305.661	88.25
305.891	83.25
306.121	84.25
306.352	81.25
306.582	87.25
306.812	85.25
307.042	87.25
307.272	76.25
307.502	93.25
307.731	86.25
307.961	87.25
308.191	88.25
308.421	90.25
308.651	89.25
308.881	84.25
309.111	84.25
309.341	89.25
309.571	82.25
309.8	93.25
310.03	82.25
310.26	99.25
310.49	88.25
310.72	103.25
310.949	74.25
311.179	91.25
311.409	95.25
311.639	79.25
311.868	84.25
312.098	75.25
312.328	76.25
312.557	92.25
312.787	93.25
313.017	76.25
313.246	76.25
313.476	98.25
313.706	78.25
313.935	78.25
314.165	90.25
314.394	84.25
314.624	84.25
314.853	98.25
315.083	85.25
315.312	83.25
315.542	75.25
315.771	83.25
316.001	92.25
316.23	85.25
316.46	80.25
316.689	78.25
316.919	89.25
317.148	89.25
317.377	94.25
317.607	82.25
317.836	84.25
318.065	88.25
318.295	81.25
318.524	89.25
318.753	97.25
318.983	91.25
319.212	92.25
319.441	87.25
319.67	88.25
319.9	82.25
320.129	89.25
320.358	73.25
320.587	96.25
320.816	74.25
321.046	74.25
321.275	92.25
321.504	82.25
321.733	72.25
321.962	90.25
322.191	68.25
322.42	82.25
322.649	71.25
322.878	78.25
323.108	74.25
323.337	84.25
323.566	68.25
323.795	85.25
324.024	84.25
324.253	84.25
324.482	75.25
324.71	88.25
324.939	94.25
325.168	76.25
325.397	76.25
325.626	84.25
325.855	84.25
326.084	89.25
326.313	89.25
326.542	75.25
326.77	86.25
326.999	89.25
327.228	92.25
327.457	81.25
327.686	84.25
327.914	76.25
328.143	81.25
328.372	93.25
328.6	85.25
328.829	87.25
329.058	89.25
329.287	95.25
329.515	94.25
329.744	88.25
329.972	92.25
330.201	93.25
330.43	91.25
330.658	83.25
330.887	87.25
331.115	87.25
331.344	81.25
331.572	77.25
331.801	82.25
332.03	86.25
332.258	84.25
332.486	77.25
332.715	72.25
332.943	81.25
333.172	75.25
333.4	89.25
333.629	103.25
333.857	77.25
334.085	80.25
334.314	84.25
334.542	82.25
334.771	91.25
334.999	76.25
335.227	76.25
335.455	77.25
335.684	86.25
335.912	90.25
336.14	98.25
336.369	89.25
336.597	86.25
336.825	98.25
337.053	93.25
337.281	66.25
337.51	79.25
337.738	87.25
337.966	78.25
338.194	82.25
338.422	81.25
338.65	95.25
338.878	90.25
339.106	87.25
339.334	74.25
339.562	90.25
339.79	93.25
340.018	71.25
340.246	70.25
340.474	82.25
340.702	77.25
340.93	81.25
341.158	88.25
341.386	89.25
341.614	80.25
341.842	72.25
342.07	84.25
342.298	88.25
342.526	85.25
342.754	94.25
342.981	86.25
343.209	93.25
343.437	93.25
343.665	91.25
343.893	86.25
344.12	85.25
344.348	84.25
344.576	86.25
344.804	90.25
345.031	90.25
345.259	96.25
345.487	88.25
345.714	91.25
345.942	85.25
346.17	72.25
346.397	82.25
346.625	93.25
346.853	74.25
347.08	79.25
347.308	80.25
347.535	68.25
347.763	92.25
347.99	86.25
348.218	86.25
348.445	91.25
348.673	84.25
348.9	89.25
349.128	98.25
349.355	91.25
349.583	90.25
349.81	83.25
350.037	87.25
350.265	81.25
350.492	98.25
350.72	89.25
350.947	89.25
351.174	73.25
351.402	73.25
351.629	87.25
351.856	75.25
352.083	90.25
352.311	87.25
352.538	91.25
352.765	88.25
352.992	88.25
353.22	85.25
353.447	90.25
353.674	86.25
353.901	86.25
354.128	93.25
354.355	78.25
354.583	85.25
354.81	75.25
355.037	73.25
355.264	85.25
355.491	71.25
355.718	80.25
355.945	89.25
356.172	100.25
356.399	80.25
356.626	74.25
356.853	70.25
357.08	82.25
357.307	92.25
357.534	83.25
357.761	75.25
357.988	82.25
358.215	84.25
358.441	70.25
358.668	85.25
358.895	85.25
359.122	93.25
359.349	84.25
359.576	73.25
359.802	83.25
360.029	89.25
360.256	86.25
360.483	78.25
360.709	75.25
360.936	93.25
361.163	87.25
361.39	77.25
361.616	81.25
361.843	76.25
362.07	86.25
362.296	83.25
362.523	86.25
362.749	77.25
362.976	71.25
363.203	75.25
363.429	88.25
363.656	80.25
363.882	77.25
364.109	98.25
364.335	85.25
364.562	77.25
364.788	79.25
365.015	76.25
365.241	86.25
365.468	75.25
365.694	94.25
365.92	88.25
366.147	92.25
366.373	90.25
366.599	84.25
366.826	77.25
367.052	102.25
367.278	70.25
367.505	75.25
367.731	101.25
367.957	80.25
368.184	92.25
368.41	80.25
368.636	85.25
368.862	94.25
369.089	93.25
369.315	97.25
369.541	103.25
369.767	75.25
369.993	102.25
370.219	94.25
370.445	97.25
370.672	101.25
370.898	103.25
371.124	93.25
371.35	99.25
371.576	92.25
371.802	87.25
372.028	71.25
372.254	96.25
372.48	107.25
372.706	90.25
372.932	97.25
373.158	89.25
373.384	104.25
373.61	105.25
373.835	88.25
374.061	93.25
374.287	91.25
374.513	87.25
374.739	91.25
374.965	93.25
375.191	82.25
375.416	94.25
375.642	91.25
375.868	95.25
376.094	112.25
376.319	87.25
376.545	100.25
376.771	89.25
376.997	91.25
377.222	92.25
377.448	85.25
377.674	89.25
377.899	87.25
378.125	97.25
378.35	103.25
378.576	99.25
378.802	104.25
379.027	101.25
379.253	92.25
379.478	96.25
379.704	87.25
379.929	93.25
380.155	94.25
380.38	97.25
380.606	95.25
380.831	93.25
381.057	89.25
381.282	101.25
381.507	89.25
381.733	104.25
381.958	91.25
382.184	100.25
382.409	113.25
382.634	101.25
382.86	94.25
383.085	101.25
383.31	96.25
383.535	77.25
383.761	92.25
383.986	105.25
384.211	101.25
384.436	98.25
384.662	100.25
384.887	99.25
385.112	94.25
385.337	113.25
385.562	100.25
385.787	105.25
386.013	113.25
386.238	96.25
386.463	92.25
386.688	88.25
386.913	109.25
387.138	112.25
387.363	115.25
387.588	109.25
387.813	108.25
388.038	102.25
388.263	108.25
388.488	108.25
388.713	92.25
388.938	111.25
389.163	96.25
389.387	107.25
389.612	116.25
389.837	99.25
390.062	95.25
390.287	104.25
390.512	95.25
390.736	88.25
390.961	102.25
391.186	91.25
391.411	109.25
391.636	107.25
391.86	105.25
392.085	114.25
392.31	112.25
392.534	109.25
392.759	88.25
392.984	96.25
393.208	105.25
393.433	99.25
393.658	103.25
393.882	108.25
394.107	109.25
394.331	109.25
394.556	105.25
394.78	111.25
395.005	97.25
395.229	94.25
395.454	116.25
395.678	122.25
395.903	103.25
396.127	99.25
396.352	108.25
396.576	111.25
396.801	110.25
397.025	107.25
397.249	117.25
397.474	132.25
397.698	100.25
397.922	115.25
398.147	99.25
398.371	114.25
398.595	116.25
398.82	107.25
399.044	98.25
399.268	124.25
399.492	121.25
399.717	120.25
399.941	117.25
400.165	123.25
400.389	110.25
400.613	114.25
400.837	128.25
401.062	107.25
401.286	122.25
401.51	106.25
401.734	124.25
401.958	125.25
402.182	117.25
402.406	113.25
402.63	119.25
402.854	108.25
403.078	114.25
403.302	137.25
403.526	118.25
403.75	126.25
403.974	115.25
404.198	126.25
404.422	126.25
404.645	118.25
404.869	116.25
405.093	120.25
405.317	115.25
405.541	122.25
405.765	117.25
405.988	120.25
406.212	133.25
406.436	122.25
406.66	124.25
406.883	126.25
407.107	124.25
407.331	123.25
407.555	125.25
407.778	126.25
408.002	123.25
408.226	117.25
408.449	113.25
408.673	102.25
408.896	116.25
409.12	106.25
409.344	128.25
409.567	130.25
409.791	111.25
410.014	118.25
410.238	125.25
410.461	128.25
410.685	130.25
410.908	130.25
411.132	119.25
411.355	129.25
411.578	116.25
411.802	126.25
412.025	120.25
412.249	117.25
412.472	124.25
412.695	117.25
412.919	142.25
413.142	124.25
413.365	116.25
413.589	120.25
413.812	129.25
414.035	114.25
414.258	116.25
414.482	118.25
414.705	141.25
414.928	118.25
415.151	124.25
415.374	124.25
415.597	133.25
415.821	135.25
416.044	130.25
416.267	128.25
416.49	128.25
416.713	130.25
416.936	135.25
417.159	131.25
417.382	121.25
417.605	129.25
417.828	140.25
418.051	150.25
418.274	146.25
418.497	141.25
418.72	132.25
418.943	132.25
419.166	143.25
419.389	144.25
419.611	141.25
419.834	133.25
420.057	156.25
420.28	136.25
420.503	142.25
420.726	139.25
420.948	136.25
421.171	143.25
421.394	124.25
421.617	136.25
421.839	146.25
422.062	136.25
422.285	138.25
422.507	135.25
422.73	131.25
422.953	131.25
423.175	132.25
423.398	127.25
423.621	147.25
423.843	137.25
424.066	137.25
424.288	140.25
424.511	149.25
424.733	162.25
424.956	152.25
425.178	154.25
425.401	156.25
425.623	135.25
425.846	135.25
426.068	141.25
426.291	140.25
426.513	147.25
426.735	123.25
426.958	136.25
427.18	131.25
427.402	136.25
427.625	140.25
427.847	132.25
428.069	125.25
428.292	142.25
428.514	126.25
428.736	137.25
428.958	132.25
429.181	136.25
429.403	123.25
429.625	123.25
429.847	141.25
430.069	152.25
430.292	122.25
430.514	128.25
430.736	128.25
430.958	129.25
431.18	129.25
431.402	138.25
431.624	122.25
431.846	108.25
432.068	105.25
432.29	110.25
432.512	117.25
432.734	144.25
432.956	132.25
433.178	143.25
433.4	150.25
433.622	148.25
433.844	145.25
434.066	124.25
434.287	108.25
434.509	93.25
434.731	89.25
434.953	117.25
435.175	135.25
435.397	117.25
435.618	118.25
435.84	118.25
436.062	109.25
436.284	122.25
436.505	125.25
436.727	132.25
436.949	131.25
437.17	123.25
437.392	120.25
437.614	120.25
437.835	108.25
438.057	105.25
438.278	120.25
438.5	124.25
438.721	145.25
438.943	140.25
439.165	142.25
439.386	158.25
439.608	142.25
439.829	165.25
440.05	140.25
440.272	133.25
440.493	130.25
440.715	154.25
440.936	152.25
441.158	153.25
441.379	128.25
441.6	152.25
441.822	141.25
442.043	160.25
442.264	154.25
442.486	146.25
442.707	156.25
442.928	134.25
443.149	144.25
443.371	148.25
443.592	148.25
443.813	150.25
444.034	152.25
444.255	157.25
444.476	144.25
444.698	135.25
444.919	147.25
445.14	280.25
445.361	227.25
445.582	173.25
445.803	154.25
446.024	165.25
446.245	148.25
446.466	171.25
446.687	147.25
446.908	166.25
447.129	164.25
447.35	155.25
447.571	149.25
447.792	148.25
448.013	151.25
448.234	150.25
448.455	158.25
448.675	145.25
448.896	128.25
449.117	142.25
449.338	152.25
449.559	149.25
449.779	144.25
450	136.25
450.221	149.25
450.442	134.25
450.662	138.25
450.883	142.25
451.104	133.25
451.324	148.25
451.545	147.25
451.766	125.25
451.986	138.25
452.207	131.25
452.428	133.25
452.648	117.25
452.869	123.25
453.089	110.25
453.31	121.25
453.53	105.25
453.751	113.25
453.971	112.25
454.192	102.25
454.412	119.25
454.633	108.25
454.853	121.25
455.073	125.25
455.294	128.25
455.514	130.25
455.734	123.25
455.955	134.25
456.175	129.25
456.395	103.25
456.616	119.25
456.836	104.25
457.056	116.25
457.276	117.25
457.497	107.25
457.717	106.25
457.937	113.25
458.157	115.25
458.377	113.25
458.598	110.25
458.818	96.25
459.038	88.25
459.258	83.25
459.478	98.25
459.698	89.25
459.918	105.25
460.138	102.25
460.358	106.25
460.578	133.25
460.798	119.25
461.018	110.25
461.238	130.25
461.458	120.25
461.678	119.25
461.898	119.25
462.118	118.25
462.338	116.25
462.558	126.25
462.777	133.25
462.997	112.25
463.217	118.25
463.437	108.25
463.657	126.25
463.876	114.25
464.096	109.25
464.316	109.25
464.536	131.25
464.755	119.25
464.975	125.25
465.195	116.25
465.414	117.25
465.634	122.25
465.854	121.25
466.073	123.25
466.293	126.25
466.512	136.25
466.732	128.25
466.951	132.25
467.171	148.25
467.391	152.25
467.61	126.25
467.829	150.25
468.049	141.25
468.268	135.25
468.488	136.25
468.707	137.25
468.927	143.25
469.146	140.25
469.365	146.25
469.585	152.25
469.804	150.25
470.023	148.25
470.243	149.25
470.462	151.25
470.681	148.25
470.901	138.25
471.12	143.25
471.339	141.25
471.558	146.25
471.777	136.25
471.997	130.25
472.216	142.25
472.435	109.25
472.654	117.25
472.873	116.25
473.092	123.25
473.311	118.25
473.53	126.25
473.749	133.25
473.968	128.25
474.187	125.25
474.406	113.25
474.625	120.25
474.844	131.25
475.063	128.25
475.282	132.25
475.501	132.25
475.72	120.25
475.939	139.25
476.158	117.25
476.377	138.25
476.596	124.25
476.814	122.25
477.033	122.25
477.252	128.25
477.471	126.25
477.69	128.25
477.908	136.25
478.127	148.25
478.346	134.25
478.564	150.25
478.783	138.25
479.002	151.25
479.22	137.25
479.439	133.25
479.658	128.25
479.876	109.25
480.095	128.25
480.313	123.25
480.532	132.25
480.751	120.25
480.969	101.25
481.188	87.25
481.406	85.25
481.624	102.25
481.843	73.25
482.061	103.25
482.28	137.25
482.498	122.25
482.717	112.25
482.935	126.25
483.153	140.25
483.372	156.25
483.59	165.25
483.808	134.25
484.027	139.25
484.245	133.25
484.463	131.25
484.681	167.25
484.9	161.25
485.118	145.25
485.336	130.25
485.554	126.25
485.772	102.25
485.99	91.25
486.209	118.25
486.427	99.25
486.645	120.25
486.863	154.25
487.081	155.25
487.299	128.25
487.517	144.25
487.735	171.25
487.953	180.25
488.171	200.25
488.389	189.25
488.607	167.25
488.825	149.25
489.043	117.25
489.261	145.25
489.479	146.25
489.696	148.25
489.914	148.25
490.132	142.25
490.35	157.25
490.568	168.25
490.786	169.25
491.003	184.25
491.221	201.25
491.439	185.25
491.657	186.25
491.874	206.25
492.092	238.25
492.31	285.25
492.527	256.25
492.745	209.25
492.963	213.25
493.18	195.25
493.398	180.25
493.615	187.25
493.833	189.25
494.05	195.25
494.268	176.25
494.485	181.25
494.703	180.25
494.92	167.25
495.138	184.25
495.355	193.25
495.573	184.25
495.79	168.25
496.008	168.25
496.225	192.25
496.442	161.25
496.66	166.25
496.877	180.25
497.094	175.25
497.312	181.25
497.529	181.25
497.746	153.25
497.963	150.25
498.181	132.25
498.398	115.25
498.615	120.25
498.832	129.25
499.049	109.25
499.267	124.25
499.484	139.25
499.701	140.25
499.918	133.25
500.135	144.25
500.352	150.25
500.569	153.25
500.786	139.25
501.003	133.25
501.22	149.25
501.437	145.25
501.654	143.25
501.871	150.25
502.088	143.25
502.305	154.25
502.522	142.25
502.739	128.25
502.956	138.25
503.172	132.25
503.389	125.25
503.606	133.25
503.823	143.25
504.04	132.25
504.256	128.25
504.473	102.25
504.69	121.25
504.907	118.25
505.123	125.25
505.34	124.25
505.557	132.25
505.773	134.25
505.99	121.25
506.207	136.25
506.423	115.25
506.64	130.25
506.856	126.25
507.073	130.25
507.289	123.25
507.506	132.25
507.722	116.25
507.939	119.25
508.155	108.25
508.372	110.25
508.588	108.25
508.805	95.25
509.021	103.25
509.238	114.25
509.454	109.25
509.67	109.25
509.887	107.25
510.103	94.25
510.319	85.25
510.536	84.25
510.752	81.25
510.968	83.25
511.184	86.25
511.401	91.25
