Data from Location6.07152019.Energy5.Lamp.07192019.3%Agarose_HRD10591_16-12-16-395.txt Node
Date: Fri Jul 19 16:12:16 EDT 2019
User: cochatt
Spectrometer: HR+D1059
Trigger mode: 1
Integration Time (sec): 1.000000E-1
Scans to average: 1
Electric dark correction enabled: true
Nonlinearity correction enabled: false
Boxcar width: 0
XAxis mode: Wavelengths
Number of Pixels in Spectrum: 2048
>>>>>Begin Spectral Data<<<<<
223.165	-9.69
223.4	-9.69
223.635	-9.69
223.869	-22.69
224.104	-20.69
224.338	-19.69
224.573	-23.69
224.808	-15.69
225.042	-14.69
225.277	-5.69
225.511	-0.69
225.746	3.31
225.98	17.31
226.215	13.31
226.449	18.31
226.683	10.31
226.918	44.31
227.152	26.31
227.387	33.31
227.621	34.31
227.856	36.31
228.09	44.31
228.324	47.31
228.559	53.31
228.793	54.31
229.027	56.31
229.262	61.31
229.496	64.31
229.73	70.31
229.964	60.31
230.199	68.31
230.433	62.31
230.667	69.31
230.901	77.31
231.136	54.31
231.37	74.31
231.604	68.31
231.838	86.31
232.072	82.31
232.306	83.31
232.541	77.31
232.775	79.31
233.009	70.31
233.243	72.31
233.477	70.31
233.711	66.31
233.945	88.31
234.179	80.31
234.413	68.31
234.647	79.31
234.881	92.31
235.115	78.31
235.349	70.31
235.583	79.31
235.817	70.31
236.051	71.31
236.285	73.31
236.519	74.31
236.753	85.31
236.987	71.31
237.221	80.31
237.455	73.31
237.689	80.31
237.922	57.31
238.156	87.31
238.39	70.31
238.624	69.31
238.858	73.31
239.091	81.31
239.325	67.31
239.559	68.31
239.793	75.31
240.027	76.31
240.26	78.31
240.494	78.31
240.728	69.31
240.961	84.31
241.195	84.31
241.429	72.31
241.662	74.31
241.896	79.31
242.13	79.31
242.363	71.31
242.597	72.31
242.83	68.31
243.064	76.31
243.298	68.31
243.531	59.31
243.765	56.31
243.998	72.31
244.232	73.31
244.465	86.31
244.699	64.31
244.932	75.31
245.166	67.31
245.399	60.31
245.633	75.31
245.866	58.31
246.099	70.31
246.333	69.31
246.566	63.31
246.8	73.31
247.033	76.31
247.266	79.31
247.5	70.31
247.733	70.31
247.966	59.31
248.2	74.31
248.433	80.31
248.666	80.31
248.899	63.31
249.133	78.31
249.366	77.31
249.599	73.31
249.832	64.31
250.066	79.31
250.299	74.31
250.532	72.31
250.765	77.31
250.998	65.31
251.231	67.31
251.465	65.31
251.698	81.31
251.931	80.31
252.164	68.31
252.397	88.31
252.63	77.31
252.863	68.31
253.096	79.31
253.329	67.31
253.562	90.31
253.795	82.31
254.028	68.31
254.261	89.31
254.494	80.31
254.727	87.31
254.96	90.31
255.193	79.31
255.426	76.31
255.659	69.31
255.892	68.31
256.124	70.31
256.357	78.31
256.59	72.31
256.823	82.31
257.056	72.31
257.289	79.31
257.521	87.31
257.754	88.31
257.987	70.31
258.22	82.31
258.452	91.31
258.685	72.31
258.918	74.31
259.151	84.31
259.383	83.31
259.616	91.31
259.849	82.31
260.081	84.31
260.314	77.31
260.547	86.31
260.779	69.31
261.012	87.31
261.244	95.31
261.477	72.31
261.71	83.31
261.942	70.31
262.175	67.31
262.407	82.31
262.64	82.31
262.872	81.31
263.105	85.31
263.337	71.31
263.57	78.31
263.802	73.31
264.035	84.31
264.267	77.31
264.499	69.31
264.732	87.31
264.964	78.31
265.197	84.31
265.429	75.31
265.661	90.31
265.894	73.31
266.126	79.31
266.358	89.31
266.591	91.31
266.823	83.31
267.055	80.31
267.287	76.31
267.52	63.31
267.752	81.31
267.984	77.31
268.216	96.31
268.448	88.31
268.681	83.31
268.913	84.31
269.145	97.31
269.377	83.31
269.609	74.31
269.841	80.31
270.073	77.31
270.306	80.31
270.538	72.31
270.77	77.31
271.002	89.31
271.234	82.31
271.466	85.31
271.698	65.31
271.93	64.31
272.162	80.31
272.394	80.31
272.626	75.31
272.858	77.31
273.09	85.31
273.322	80.31
273.553	88.31
273.785	86.31
274.017	76.31
274.249	78.31
274.481	93.31
274.713	83.31
274.945	79.31
275.176	79.31
275.408	92.31
275.64	91.31
275.872	78.31
276.104	79.31
276.335	79.31
276.567	93.31
276.799	69.31
277.031	62.31
277.262	73.31
277.494	75.31
277.726	80.31
277.957	80.31
278.189	77.31
278.421	74.31
278.652	88.31
278.884	70.31
279.115	79.31
279.347	81.31
279.579	81.31
279.81	82.31
280.042	83.31
280.273	78.31
280.505	76.31
280.736	71.31
280.968	82.31
281.199	87.31
281.431	63.31
281.662	84.31
281.894	89.31
282.125	87.31
282.356	78.31
282.588	88.31
282.819	81.31
283.051	84.31
283.282	79.31
283.513	79.31
283.745	90.31
283.976	73.31
284.207	75.31
284.439	85.31
284.67	81.31
284.901	93.31
285.132	79.31
285.364	73.31
285.595	79.31
285.826	69.31
286.057	87.31
286.288	78.31
286.52	86.31
286.751	87.31
286.982	87.31
287.213	84.31
287.444	89.31
287.675	93.31
287.906	82.31
288.138	81.31
288.369	78.31
288.6	85.31
288.831	69.31
289.062	94.31
289.293	79.31
289.524	79.31
289.755	81.31
289.986	86.31
290.217	92.31
290.448	88.31
290.679	84.31
290.91	94.31
291.141	78.31
291.371	76.31
291.602	90.31
291.833	84.31
292.064	80.31
292.295	81.31
292.526	77.31
292.757	88.31
292.987	78.31
293.218	74.31
293.449	85.31
293.68	88.31
293.91	58.31
294.141	92.31
294.372	86.31
294.603	99.31
294.833	78.31
295.064	84.31
295.295	85.31
295.525	70.31
295.756	93.31
295.987	78.31
296.217	76.31
296.448	79.31
296.679	74.31
296.909	82.31
297.14	73.31
297.37	76.31
297.601	79.31
297.831	79.31
298.062	79.31
298.292	96.31
298.523	78.31
298.753	83.31
298.984	83.31
299.214	92.31
299.445	70.31
299.675	85.31
299.905	72.31
300.136	59.31
300.366	77.31
300.597	77.31
300.827	79.31
301.057	73.31
301.288	96.31
301.518	94.31
301.748	82.31
301.979	74.31
302.209	89.31
302.439	75.31
302.669	86.31
302.9	91.31
303.13	80.31
303.36	73.31
303.59	97.31
303.82	93.31
304.051	83.31
304.281	89.31
304.511	84.31
304.741	84.31
304.971	71.31
305.201	87.31
305.431	80.31
305.661	78.31
305.891	87.31
306.121	80.31
306.352	76.31
306.582	76.31
306.812	72.31
307.042	93.31
307.272	80.31
307.502	97.31
307.731	85.31
307.961	96.31
308.191	75.31
308.421	73.31
308.651	78.31
308.881	90.31
309.111	86.31
309.341	87.31
309.571	96.31
309.8	79.31
310.03	76.31
310.26	81.31
310.49	91.31
310.72	83.31
310.949	73.31
311.179	78.31
311.409	76.31
311.639	87.31
311.868	84.31
312.098	83.31
312.328	96.31
312.557	75.31
312.787	74.31
313.017	97.31
313.246	87.31
313.476	88.31
313.706	89.31
313.935	81.31
314.165	87.31
314.394	88.31
314.624	77.31
314.853	90.31
315.083	103.31
315.312	83.31
315.542	77.31
315.771	87.31
316.001	77.31
316.23	74.31
316.46	79.31
316.689	81.31
316.919	79.31
317.148	76.31
317.377	71.31
317.607	72.31
317.836	72.31
318.065	78.31
318.295	92.31
318.524	94.31
318.753	91.31
318.983	90.31
319.212	88.31
319.441	64.31
319.67	86.31
319.9	93.31
320.129	98.31
320.358	74.31
320.587	87.31
320.816	78.31
321.046	88.31
321.275	76.31
321.504	103.31
321.733	88.31
321.962	85.31
322.191	65.31
322.42	80.31
322.649	94.31
322.878	75.31
323.108	79.31
323.337	77.31
323.566	79.31
323.795	95.31
324.024	84.31
324.253	84.31
324.482	77.31
324.71	101.31
324.939	83.31
325.168	84.31
325.397	72.31
325.626	73.31
325.855	82.31
326.084	92.31
326.313	90.31
326.542	84.31
326.77	79.31
326.999	94.31
327.228	66.31
327.457	85.31
327.686	83.31
327.914	90.31
328.143	93.31
328.372	79.31
328.6	90.31
328.829	88.31
329.058	84.31
329.287	90.31
329.515	89.31
329.744	87.31
329.972	81.31
330.201	81.31
330.43	94.31
330.658	74.31
330.887	82.31
331.115	73.31
331.344	78.31
331.572	81.31
331.801	82.31
332.03	81.31
332.258	86.31
332.486	76.31
332.715	88.31
332.943	72.31
333.172	78.31
333.4	71.31
333.629	77.31
333.857	91.31
334.085	76.31
334.314	75.31
334.542	87.31
334.771	79.31
334.999	91.31
335.227	90.31
335.455	69.31
335.684	78.31
335.912	83.31
336.14	73.31
336.369	78.31
336.597	85.31
336.825	80.31
337.053	84.31
337.281	83.31
337.51	80.31
337.738	83.31
337.966	70.31
338.194	78.31
338.422	69.31
338.65	91.31
338.878	91.31
339.106	76.31
339.334	90.31
339.562	88.31
339.79	93.31
340.018	73.31
340.246	78.31
340.474	71.31
340.702	79.31
340.93	85.31
341.158	86.31
341.386	91.31
341.614	88.31
341.842	70.31
342.07	78.31
342.298	94.31
342.526	75.31
342.754	69.31
342.981	95.31
343.209	92.31
343.437	75.31
343.665	89.31
343.893	70.31
344.12	87.31
344.348	79.31
344.576	76.31
344.804	85.31
345.031	84.31
345.259	82.31
345.487	73.31
345.714	84.31
345.942	90.31
346.17	93.31
346.397	89.31
346.625	85.31
346.853	83.31
347.08	80.31
347.308	83.31
347.535	84.31
347.763	84.31
347.99	78.31
348.218	66.31
348.445	75.31
348.673	73.31
348.9	80.31
349.128	83.31
349.355	93.31
349.583	92.31
349.81	72.31
350.037	77.31
350.265	86.31
350.492	75.31
350.72	66.31
350.947	79.31
351.174	83.31
351.402	73.31
351.629	76.31
351.856	93.31
352.083	77.31
352.311	78.31
352.538	85.31
352.765	86.31
352.992	99.31
353.22	82.31
353.447	83.31
353.674	84.31
353.901	78.31
354.128	96.31
354.355	87.31
354.583	93.31
354.81	91.31
355.037	90.31
355.264	81.31
355.491	74.31
355.718	87.31
355.945	89.31
356.172	91.31
356.399	80.31
356.626	79.31
356.853	71.31
357.08	80.31
357.307	87.31
357.534	84.31
357.761	91.31
357.988	92.31
358.215	92.31
358.441	70.31
358.668	77.31
358.895	87.31
359.122	74.31
359.349	80.31
359.576	76.31
359.802	85.31
360.029	88.31
360.256	67.31
360.483	85.31
360.709	77.31
360.936	82.31
361.163	88.31
361.39	85.31
361.616	87.31
361.843	98.31
362.07	82.31
362.296	74.31
362.523	95.31
362.749	87.31
362.976	64.31
363.203	83.31
363.429	89.31
363.656	73.31
363.882	87.31
364.109	77.31
364.335	90.31
364.562	92.31
364.788	94.31
365.015	90.31
365.241	89.31
365.468	83.31
365.694	98.31
365.92	70.31
366.147	84.31
366.373	92.31
366.599	67.31
366.826	99.31
367.052	82.31
367.278	73.31
367.505	93.31
367.731	72.31
367.957	80.31
368.184	83.31
368.41	100.31
368.636	94.31
368.862	104.31
369.089	87.31
369.315	97.31
369.541	97.31
369.767	101.31
369.993	107.31
370.219	88.31
370.445	90.31
370.672	96.31
370.898	73.31
371.124	90.31
371.35	82.31
371.576	83.31
371.802	86.31
372.028	89.31
372.254	93.31
372.48	88.31
372.706	95.31
372.932	96.31
373.158	101.31
373.384	82.31
373.61	85.31
373.835	91.31
374.061	75.31
374.287	88.31
374.513	81.31
374.739	90.31
374.965	91.31
375.191	78.31
375.416	90.31
375.642	96.31
375.868	100.31
376.094	95.31
376.319	94.31
376.545	87.31
376.771	92.31
376.997	85.31
377.222	85.31
377.448	91.31
377.674	78.31
377.899	101.31
378.125	105.31
378.35	93.31
378.576	79.31
378.802	97.31
379.027	122.31
379.253	99.31
379.478	99.31
379.704	88.31
379.929	97.31
380.155	94.31
380.38	91.31
380.606	96.31
380.831	107.31
381.057	104.31
381.282	101.31
381.507	99.31
381.733	107.31
381.958	85.31
382.184	87.31
382.409	107.31
382.634	97.31
382.86	102.31
383.085	92.31
383.31	88.31
383.535	115.31
383.761	94.31
383.986	102.31
384.211	101.31
384.436	102.31
384.662	95.31
384.887	96.31
385.112	88.31
385.337	95.31
385.562	95.31
385.787	98.31
386.013	104.31
386.238	111.31
386.463	93.31
386.688	94.31
386.913	91.31
387.138	94.31
387.363	103.31
387.588	91.31
387.813	118.31
388.038	95.31
388.263	100.31
388.488	113.31
388.713	111.31
388.938	103.31
389.163	111.31
389.387	107.31
389.612	105.31
389.837	96.31
390.062	90.31
390.287	109.31
390.512	105.31
390.736	109.31
390.961	101.31
391.186	101.31
391.411	104.31
391.636	100.31
391.86	120.31
392.085	102.31
392.31	96.31
392.534	82.31
392.759	115.31
392.984	95.31
393.208	109.31
393.433	94.31
393.658	91.31
393.882	105.31
394.107	122.31
394.331	111.31
394.556	99.31
394.78	103.31
395.005	119.31
395.229	112.31
395.454	113.31
395.678	105.31
395.903	105.31
396.127	107.31
396.352	115.31
396.576	114.31
396.801	102.31
397.025	108.31
397.249	88.31
397.474	99.31
397.698	120.31
397.922	110.31
398.147	100.31
398.371	100.31
398.595	115.31
398.82	103.31
399.044	114.31
399.268	101.31
399.492	108.31
399.717	97.31
399.941	109.31
400.165	106.31
400.389	114.31
400.613	108.31
400.837	125.31
401.062	109.31
401.286	116.31
401.51	109.31
401.734	104.31
401.958	96.31
402.182	113.31
402.406	95.31
402.63	113.31
402.854	104.31
403.078	120.31
403.302	107.31
403.526	119.31
403.75	103.31
403.974	130.31
404.198	113.31
404.422	129.31
404.645	113.31
404.869	113.31
405.093	111.31
405.317	112.31
405.541	112.31
405.765	116.31
405.988	114.31
406.212	133.31
406.436	115.31
406.66	117.31
406.883	103.31
407.107	109.31
407.331	121.31
407.555	110.31
407.778	128.31
408.002	110.31
408.226	119.31
408.449	109.31
408.673	119.31
408.896	128.31
409.12	121.31
409.344	120.31
409.567	121.31
409.791	110.31
410.014	124.31
410.238	129.31
410.461	118.31
410.685	125.31
410.908	127.31
411.132	126.31
411.355	119.31
411.578	123.31
411.802	136.31
412.025	127.31
412.249	122.31
412.472	112.31
412.695	120.31
412.919	127.31
413.142	121.31
413.365	132.31
413.589	125.31
413.812	120.31
414.035	123.31
414.258	128.31
414.482	119.31
414.705	124.31
414.928	132.31
415.151	115.31
415.374	129.31
415.597	125.31
415.821	121.31
416.044	129.31
416.267	125.31
416.49	132.31
416.713	137.31
416.936	124.31
417.159	144.31
417.382	131.31
417.605	128.31
417.828	124.31
418.051	134.31
418.274	128.31
418.497	132.31
418.72	148.31
418.943	131.31
419.166	138.31
419.389	143.31
419.611	132.31
419.834	142.31
420.057	141.31
420.28	141.31
420.503	147.31
420.726	125.31
420.948	140.31
421.171	133.31
421.394	139.31
421.617	131.31
421.839	146.31
422.062	143.31
422.285	141.31
422.507	137.31
422.73	129.31
422.953	121.31
423.175	141.31
423.398	133.31
423.621	143.31
423.843	107.31
424.066	128.31
424.288	142.31
424.511	153.31
424.733	135.31
424.956	155.31
425.178	143.31
425.401	138.31
425.623	139.31
425.846	136.31
426.068	140.31
426.291	138.31
426.513	126.31
426.735	118.31
426.958	128.31
427.18	131.31
427.402	137.31
427.625	125.31
427.847	119.31
428.069	120.31
428.292	115.31
428.514	136.31
428.736	115.31
428.958	126.31
429.181	143.31
429.403	134.31
429.625	123.31
429.847	137.31
430.069	133.31
430.292	124.31
430.514	139.31
430.736	135.31
430.958	126.31
431.18	150.31
431.402	130.31
431.624	119.31
431.846	99.31
432.068	92.31
432.29	102.31
432.512	113.31
432.734	125.31
432.956	135.31
433.178	144.31
433.4	138.31
433.622	152.31
433.844	131.31
434.066	114.31
434.287	124.31
434.509	90.31
434.731	95.31
434.953	119.31
435.175	133.31
435.397	123.31
435.618	111.31
435.84	96.31
436.062	128.31
436.284	124.31
436.505	136.31
436.727	131.31
436.949	131.31
437.17	124.31
437.392	124.31
437.614	119.31
437.835	122.31
438.057	119.31
438.278	106.31
438.5	104.31
438.721	136.31
438.943	135.31
439.165	135.31
439.386	145.31
439.608	147.31
439.829	131.31
440.05	142.31
440.272	145.31
440.493	132.31
440.715	149.31
440.936	159.31
441.158	151.31
441.379	127.31
441.6	146.31
441.822	146.31
442.043	141.31
442.264	143.31
442.486	131.31
442.707	140.31
442.928	132.31
443.149	140.31
443.371	134.31
443.592	142.31
443.813	144.31
444.034	140.31
444.255	148.31
444.476	154.31
444.698	144.31
444.919	153.31
445.14	276.31
445.361	205.31
445.582	153.31
445.803	141.31
446.024	158.31
446.245	175.31
446.466	158.31
446.687	176.31
446.908	158.31
447.129	156.31
447.35	158.31
447.571	151.31
447.792	143.31
448.013	144.31
448.234	142.31
448.455	144.31
448.675	136.31
448.896	151.31
449.117	145.31
449.338	135.31
449.559	141.31
449.779	143.31
450	140.31
450.221	129.31
450.442	144.31
450.662	148.31
450.883	143.31
451.104	138.31
451.324	143.31
451.545	133.31
451.766	115.31
451.986	137.31
452.207	108.31
452.428	128.31
452.648	139.31
452.869	127.31
453.089	107.31
453.31	124.31
453.53	93.31
453.751	91.31
453.971	99.31
454.192	111.31
454.412	116.31
454.633	129.31
454.853	123.31
455.073	126.31
455.294	130.31
455.514	116.31
455.734	119.31
455.955	119.31
456.175	124.31
456.395	111.31
456.616	115.31
456.836	111.31
457.056	102.31
457.276	94.31
457.497	104.31
457.717	111.31
457.937	129.31
458.157	101.31
458.377	111.31
458.598	97.31
458.818	98.31
459.038	91.31
459.258	92.31
459.478	70.31
459.698	87.31
459.918	81.31
460.138	116.31
460.358	115.31
460.578	119.31
460.798	115.31
461.018	108.31
461.238	119.31
461.458	116.31
461.678	118.31
461.898	96.31
462.118	95.31
462.338	87.31
462.558	105.31
462.777	114.31
462.997	104.31
463.217	105.31
463.437	113.31
463.657	112.31
463.876	103.31
464.096	118.31
464.316	105.31
464.536	109.31
464.755	123.31
464.975	130.31
465.195	117.31
465.414	123.31
465.634	118.31
465.854	121.31
466.073	119.31
466.293	122.31
466.512	131.31
466.732	123.31
466.951	132.31
467.171	124.31
467.391	134.31
467.61	133.31
467.829	143.31
468.049	143.31
468.268	148.31
468.488	140.31
468.707	119.31
468.927	140.31
469.146	136.31
469.365	145.31
469.585	143.31
469.804	132.31
470.023	136.31
470.243	147.31
470.462	149.31
470.681	147.31
470.901	142.31
471.12	142.31
471.339	138.31
471.558	136.31
471.777	141.31
471.997	150.31
472.216	137.31
472.435	114.31
472.654	102.31
472.873	108.31
473.092	126.31
473.311	121.31
473.53	127.31
473.749	131.31
473.968	149.31
474.187	119.31
474.406	124.31
474.625	125.31
474.844	132.31
475.063	126.31
475.282	119.31
475.501	112.31
475.72	129.31
475.939	124.31
476.158	125.31
476.377	119.31
476.596	125.31
476.814	108.31
477.033	107.31
477.252	113.31
477.471	123.31
477.69	130.31
477.908	156.31
478.127	151.31
478.346	144.31
478.564	136.31
478.783	122.31
479.002	134.31
479.22	128.31
479.439	155.31
479.658	136.31
479.876	119.31
480.095	110.31
480.313	101.31
480.532	127.31
480.751	111.31
480.969	94.31
481.188	85.31
481.406	84.31
481.624	84.31
481.843	89.31
482.061	96.31
482.28	119.31
482.498	110.31
482.717	108.31
482.935	120.31
483.153	150.31
483.372	171.31
483.59	153.31
483.808	148.31
484.027	135.31
484.245	134.31
484.463	163.31
484.681	164.31
484.9	150.31
485.118	155.31
485.336	137.31
485.554	120.31
485.772	98.31
485.99	99.31
486.209	113.31
486.427	121.31
486.645	115.31
486.863	134.31
487.081	158.31
487.299	135.31
487.517	149.31
487.735	172.31
487.953	187.31
488.171	196.31
488.389	173.31
488.607	174.31
488.825	149.31
489.043	147.31
489.261	139.31
489.479	161.31
489.696	155.31
489.914	155.31
490.132	138.31
490.35	150.31
490.568	157.31
490.786	181.31
491.003	180.31
491.221	180.31
491.439	187.31
491.657	205.31
491.874	215.31
492.092	231.31
492.31	252.31
492.527	227.31
492.745	198.31
492.963	191.31
493.18	199.31
493.398	189.31
493.615	193.31
493.833	175.31
494.05	180.31
494.268	172.31
494.485	187.31
494.703	175.31
494.92	183.31
495.138	179.31
495.355	171.31
495.573	173.31
495.79	171.31
496.008	187.31
496.225	162.31
496.442	161.31
496.66	163.31
496.877	161.31
497.094	151.31
497.312	162.31
497.529	151.31
497.746	137.31
497.963	144.31
498.181	124.31
498.398	127.31
498.615	125.31
498.832	100.31
499.049	106.31
499.267	113.31
499.484	123.31
499.701	137.31
499.918	138.31
500.135	139.31
500.352	141.31
500.569	144.31
500.786	154.31
501.003	145.31
501.22	127.31
501.437	140.31
501.654	136.31
501.871	130.31
502.088	131.31
502.305	150.31
502.522	141.31
502.739	137.31
502.956	149.31
503.172	130.31
503.389	108.31
503.606	123.31
503.823	120.31
504.04	136.31
504.256	130.31
504.473	132.31
504.69	126.31
504.907	111.31
505.123	125.31
505.34	120.31
505.557	123.31
505.773	114.31
505.99	132.31
506.207	122.31
506.423	110.31
506.64	128.31
506.856	126.31
507.073	128.31
507.289	118.31
507.506	119.31
507.722	118.31
507.939	111.31
508.155	115.31
508.372	121.31
508.588	105.31
508.805	115.31
509.021	111.31
509.238	109.31
509.454	104.31
509.67	109.31
509.887	95.31
510.103	79.31
510.319	92.31
510.536	86.31
510.752	81.31
510.968	96.31
511.184	90.31
511.401	81.31
511.617	86.31
511.833	93.31
