Data from Location6.07152019.Energy5.Lamp.07192019.3%Agarose_HRD10591_16-11-56-395.txt Node
Date: Fri Jul 19 16:11:56 EDT 2019
User: cochatt
Spectrometer: HR+D1059
Trigger mode: 1
Integration Time (sec): 1.000000E-1
Scans to average: 1
Electric dark correction enabled: true
Nonlinearity correction enabled: false
Boxcar width: 0
XAxis mode: Wavelengths
Number of Pixels in Spectrum: 2048
>>>>>Begin Spectral Data<<<<<
223.165	-23.06
223.4	-23.06
223.635	-23.06
223.869	-26.06
224.104	-22.06
224.338	-4.06
224.573	-9.06
224.808	-14.06
225.042	-14.06
225.277	0.94
225.511	-13.06
225.746	1.94
225.98	9.94
226.215	13.94
226.449	16.94
226.683	5.94
226.918	25.94
227.152	49.94
227.387	21.94
227.621	22.94
227.856	30.94
228.09	57.94
228.324	43.94
228.559	61.94
228.793	65.94
229.027	65.94
229.262	70.94
229.496	58.94
229.73	70.94
229.964	68.94
230.199	74.94
230.433	79.94
230.667	76.94
230.901	76.94
231.136	75.94
231.37	93.94
231.604	92.94
231.838	67.94
232.072	89.94
232.306	85.94
232.541	85.94
232.775	71.94
233.009	72.94
233.243	75.94
233.477	94.94
233.711	91.94
233.945	80.94
234.179	85.94
234.413	90.94
234.647	87.94
234.881	85.94
235.115	77.94
235.349	85.94
235.583	78.94
235.817	79.94
236.051	70.94
236.285	95.94
236.519	75.94
236.753	89.94
236.987	78.94
237.221	68.94
237.455	84.94
237.689	83.94
237.922	81.94
238.156	67.94
238.39	74.94
238.624	67.94
238.858	85.94
239.091	71.94
239.325	74.94
239.559	81.94
239.793	79.94
240.027	87.94
240.26	67.94
240.494	66.94
240.728	80.94
240.961	82.94
241.195	74.94
241.429	78.94
241.662	85.94
241.896	64.94
242.13	68.94
242.363	79.94
242.597	67.94
242.83	75.94
243.064	82.94
243.298	64.94
243.531	81.94
243.765	77.94
243.998	79.94
244.232	85.94
244.465	69.94
244.699	93.94
244.932	81.94
245.166	69.94
245.399	69.94
245.633	82.94
245.866	71.94
246.099	65.94
246.333	74.94
246.566	68.94
246.8	86.94
247.033	73.94
247.266	84.94
247.5	75.94
247.733	94.94
247.966	59.94
248.2	84.94
248.433	84.94
248.666	72.94
248.899	84.94
249.133	81.94
249.366	78.94
249.599	76.94
249.832	68.94
250.066	97.94
250.299	79.94
250.532	69.94
250.765	86.94
250.998	77.94
251.231	89.94
251.465	88.94
251.698	86.94
251.931	82.94
252.164	73.94
252.397	75.94
252.63	83.94
252.863	84.94
253.096	81.94
253.329	88.94
253.562	86.94
253.795	89.94
254.028	86.94
254.261	82.94
254.494	85.94
254.727	91.94
254.96	77.94
255.193	72.94
255.426	70.94
255.659	86.94
255.892	82.94
256.124	85.94
256.357	78.94
256.59	90.94
256.823	83.94
257.056	93.94
257.289	84.94
257.521	81.94
257.754	86.94
257.987	73.94
258.22	96.94
258.452	78.94
258.685	91.94
258.918	87.94
259.151	82.94
259.383	85.94
259.616	79.94
259.849	77.94
260.081	87.94
260.314	89.94
260.547	81.94
260.779	85.94
261.012	78.94
261.244	80.94
261.477	100.94
261.71	88.94
261.942	76.94
262.175	75.94
262.407	85.94
262.64	72.94
262.872	78.94
263.105	87.94
263.337	93.94
263.57	79.94
263.802	90.94
264.035	93.94
264.267	80.94
264.499	71.94
264.732	83.94
264.964	85.94
265.197	78.94
265.429	76.94
265.661	89.94
265.894	86.94
266.126	73.94
266.358	85.94
266.591	66.94
266.823	77.94
267.055	71.94
267.287	69.94
267.52	100.94
267.752	88.94
267.984	102.94
268.216	70.94
268.448	88.94
268.681	85.94
268.913	92.94
269.145	75.94
269.377	75.94
269.609	89.94
269.841	74.94
270.073	88.94
270.306	88.94
270.538	75.94
270.77	70.94
271.002	65.94
271.234	90.94
271.466	90.94
271.698	67.94
271.93	87.94
272.162	84.94
272.394	97.94
272.626	84.94
272.858	74.94
273.09	91.94
273.322	72.94
273.553	84.94
273.785	79.94
274.017	73.94
274.249	90.94
274.481	92.94
274.713	93.94
274.945	94.94
275.176	82.94
275.408	78.94
275.64	84.94
275.872	84.94
276.104	67.94
276.335	81.94
276.567	86.94
276.799	85.94
277.031	98.94
277.262	78.94
277.494	77.94
277.726	88.94
277.957	78.94
278.189	88.94
278.421	73.94
278.652	79.94
278.884	72.94
279.115	101.94
279.347	80.94
279.579	86.94
279.81	89.94
280.042	89.94
280.273	83.94
280.505	84.94
280.736	98.94
280.968	89.94
281.199	91.94
281.431	89.94
281.662	89.94
281.894	76.94
282.125	89.94
282.356	84.94
282.588	85.94
282.819	74.94
283.051	69.94
283.282	82.94
283.513	83.94
283.745	68.94
283.976	80.94
284.207	72.94
284.439	82.94
284.67	88.94
284.901	93.94
285.132	77.94
285.364	75.94
285.595	82.94
285.826	82.94
286.057	99.94
286.288	86.94
286.52	77.94
286.751	91.94
286.982	89.94
287.213	88.94
287.444	95.94
287.675	83.94
287.906	97.94
288.138	93.94
288.369	83.94
288.6	85.94
288.831	93.94
289.062	86.94
289.293	85.94
289.524	96.94
289.755	84.94
289.986	88.94
290.217	84.94
290.448	79.94
290.679	88.94
290.91	91.94
291.141	95.94
291.371	83.94
291.602	94.94
291.833	81.94
292.064	79.94
292.295	82.94
292.526	77.94
292.757	100.94
292.987	88.94
293.218	86.94
293.449	84.94
293.68	82.94
293.91	64.94
294.141	85.94
294.372	80.94
294.603	77.94
294.833	88.94
295.064	73.94
295.295	84.94
295.525	89.94
295.756	81.94
295.987	83.94
296.217	92.94
296.448	82.94
296.679	72.94
296.909	89.94
297.14	92.94
297.37	99.94
297.601	100.94
297.831	78.94
298.062	81.94
298.292	85.94
298.523	100.94
298.753	97.94
298.984	85.94
299.214	85.94
299.445	88.94
299.675	87.94
299.905	86.94
300.136	76.94
300.366	79.94
300.597	82.94
300.827	97.94
301.057	85.94
301.288	83.94
301.518	78.94
301.748	77.94
301.979	85.94
302.209	92.94
302.439	84.94
302.669	92.94
302.9	97.94
303.13	76.94
303.36	81.94
303.59	96.94
303.82	77.94
304.051	96.94
304.281	89.94
304.511	88.94
304.741	77.94
304.971	97.94
305.201	82.94
305.431	84.94
305.661	82.94
305.891	77.94
306.121	76.94
306.352	83.94
306.582	96.94
306.812	88.94
307.042	80.94
307.272	95.94
307.502	97.94
307.731	84.94
307.961	98.94
308.191	86.94
308.421	85.94
308.651	97.94
308.881	93.94
309.111	83.94
309.341	95.94
309.571	76.94
309.8	86.94
310.03	80.94
310.26	78.94
310.49	88.94
310.72	85.94
310.949	88.94
311.179	78.94
311.409	81.94
311.639	86.94
311.868	81.94
312.098	84.94
312.328	78.94
312.557	89.94
312.787	74.94
313.017	88.94
313.246	94.94
313.476	95.94
313.706	84.94
313.935	91.94
314.165	85.94
314.394	79.94
314.624	86.94
314.853	87.94
315.083	74.94
315.312	97.94
315.542	82.94
315.771	83.94
316.001	85.94
316.23	72.94
316.46	90.94
316.689	77.94
316.919	82.94
317.148	79.94
317.377	89.94
317.607	91.94
317.836	88.94
318.065	72.94
318.295	91.94
318.524	88.94
318.753	94.94
318.983	86.94
319.212	73.94
319.441	88.94
319.67	86.94
319.9	82.94
320.129	80.94
320.358	69.94
320.587	77.94
320.816	89.94
321.046	92.94
321.275	86.94
321.504	74.94
321.733	97.94
321.962	95.94
322.191	96.94
322.42	87.94
322.649	88.94
322.878	91.94
323.108	90.94
323.337	71.94
323.566	98.94
323.795	93.94
324.024	81.94
324.253	83.94
324.482	90.94
324.71	78.94
324.939	90.94
325.168	94.94
325.397	86.94
325.626	85.94
325.855	68.94
326.084	85.94
326.313	92.94
326.542	88.94
326.77	92.94
326.999	87.94
327.228	97.94
327.457	91.94
327.686	89.94
327.914	86.94
328.143	88.94
328.372	84.94
328.6	97.94
328.829	78.94
329.058	86.94
329.287	94.94
329.515	83.94
329.744	118.94
329.972	82.94
330.201	82.94
330.43	109.94
330.658	86.94
330.887	87.94
331.115	99.94
331.344	90.94
331.572	89.94
331.801	85.94
332.03	83.94
332.258	71.94
332.486	83.94
332.715	85.94
332.943	96.94
333.172	82.94
333.4	78.94
333.629	94.94
333.857	92.94
334.085	80.94
334.314	79.94
334.542	84.94
334.771	84.94
334.999	82.94
335.227	74.94
335.455	75.94
335.684	91.94
335.912	74.94
336.14	90.94
336.369	90.94
336.597	80.94
336.825	87.94
337.053	78.94
337.281	76.94
337.51	88.94
337.738	87.94
337.966	82.94
338.194	88.94
338.422	87.94
338.65	85.94
338.878	88.94
339.106	85.94
339.334	71.94
339.562	87.94
339.79	76.94
340.018	88.94
340.246	85.94
340.474	76.94
340.702	85.94
340.93	82.94
341.158	77.94
341.386	89.94
341.614	72.94
341.842	100.94
342.07	93.94
342.298	88.94
342.526	84.94
342.754	85.94
342.981	76.94
343.209	86.94
343.437	79.94
343.665	82.94
343.893	80.94
344.12	92.94
344.348	88.94
344.576	80.94
344.804	80.94
345.031	94.94
345.259	87.94
345.487	97.94
345.714	83.94
345.942	94.94
346.17	81.94
346.397	81.94
346.625	96.94
346.853	84.94
347.08	98.94
347.308	77.94
347.535	105.94
347.763	82.94
347.99	91.94
348.218	78.94
348.445	98.94
348.673	86.94
348.9	78.94
349.128	92.94
349.355	87.94
349.583	89.94
349.81	73.94
350.037	88.94
350.265	93.94
350.492	70.94
350.72	80.94
350.947	79.94
351.174	88.94
351.402	105.94
351.629	94.94
351.856	78.94
352.083	74.94
352.311	96.94
352.538	90.94
352.765	81.94
352.992	88.94
353.22	82.94
353.447	73.94
353.674	89.94
353.901	83.94
354.128	81.94
354.355	94.94
354.583	92.94
354.81	82.94
355.037	71.94
355.264	84.94
355.491	90.94
355.718	77.94
355.945	86.94
356.172	98.94
356.399	83.94
356.626	73.94
356.853	80.94
357.08	86.94
357.307	85.94
357.534	76.94
357.761	103.94
357.988	76.94
358.215	81.94
358.441	94.94
358.668	74.94
358.895	89.94
359.122	82.94
359.349	100.94
359.576	82.94
359.802	96.94
360.029	82.94
360.256	80.94
360.483	85.94
360.709	85.94
360.936	100.94
361.163	86.94
361.39	95.94
361.616	82.94
361.843	81.94
362.07	94.94
362.296	92.94
362.523	77.94
362.749	89.94
362.976	85.94
363.203	79.94
363.429	76.94
363.656	88.94
363.882	82.94
364.109	84.94
364.335	82.94
364.562	87.94
364.788	96.94
365.015	83.94
365.241	91.94
365.468	103.94
365.694	100.94
365.92	91.94
366.147	83.94
366.373	91.94
366.599	104.94
366.826	99.94
367.052	88.94
367.278	94.94
367.505	86.94
367.731	102.94
367.957	91.94
368.184	83.94
368.41	96.94
368.636	101.94
368.862	99.94
369.089	104.94
369.315	100.94
369.541	97.94
369.767	99.94
369.993	102.94
370.219	114.94
370.445	84.94
370.672	99.94
370.898	98.94
371.124	91.94
371.35	87.94
371.576	92.94
371.802	92.94
372.028	86.94
372.254	85.94
372.48	84.94
372.706	104.94
372.932	99.94
373.158	98.94
373.384	101.94
373.61	98.94
373.835	92.94
374.061	88.94
374.287	85.94
374.513	104.94
374.739	105.94
374.965	93.94
375.191	107.94
375.416	103.94
375.642	92.94
375.868	107.94
376.094	102.94
376.319	100.94
376.545	96.94
376.771	89.94
376.997	95.94
377.222	99.94
377.448	85.94
377.674	86.94
377.899	84.94
378.125	95.94
378.35	112.94
378.576	115.94
378.802	107.94
379.027	88.94
379.253	98.94
379.478	99.94
379.704	83.94
379.929	98.94
380.155	97.94
380.38	111.94
380.606	96.94
380.831	107.94
381.057	107.94
381.282	89.94
381.507	113.94
381.733	96.94
381.958	101.94
382.184	104.94
382.409	88.94
382.634	94.94
382.86	110.94
383.085	106.94
383.31	107.94
383.535	105.94
383.761	103.94
383.986	94.94
384.211	97.94
384.436	92.94
384.662	103.94
384.887	101.94
385.112	100.94
385.337	91.94
385.562	89.94
385.787	89.94
386.013	106.94
386.238	97.94
386.463	104.94
386.688	81.94
386.913	95.94
387.138	98.94
387.363	104.94
387.588	107.94
387.813	95.94
388.038	100.94
388.263	101.94
388.488	103.94
388.713	114.94
388.938	123.94
389.163	112.94
389.387	113.94
389.612	94.94
389.837	110.94
390.062	126.94
390.287	113.94
390.512	101.94
390.736	103.94
390.961	103.94
391.186	101.94
391.411	106.94
391.636	116.94
391.86	105.94
392.085	90.94
392.31	109.94
392.534	112.94
392.759	95.94
392.984	103.94
393.208	101.94
393.433	99.94
393.658	105.94
393.882	106.94
394.107	119.94
394.331	112.94
394.556	107.94
394.78	110.94
395.005	108.94
395.229	115.94
395.454	102.94
395.678	94.94
395.903	116.94
396.127	100.94
396.352	113.94
396.576	110.94
396.801	122.94
397.025	106.94
397.249	109.94
397.474	112.94
397.698	94.94
397.922	96.94
398.147	103.94
398.371	113.94
398.595	113.94
398.82	115.94
399.044	122.94
399.268	122.94
399.492	120.94
399.717	100.94
399.941	123.94
400.165	132.94
400.389	117.94
400.613	107.94
400.837	126.94
401.062	114.94
401.286	103.94
401.51	124.94
401.734	117.94
401.958	115.94
402.182	112.94
402.406	119.94
402.63	113.94
402.854	112.94
403.078	125.94
403.302	120.94
403.526	110.94
403.75	114.94
403.974	133.94
404.198	125.94
404.422	127.94
404.645	114.94
404.869	122.94
405.093	112.94
405.317	132.94
405.541	136.94
405.765	121.94
405.988	113.94
406.212	122.94
406.436	127.94
406.66	116.94
406.883	125.94
407.107	126.94
407.331	146.94
407.555	130.94
407.778	123.94
408.002	124.94
408.226	117.94
408.449	131.94
408.673	132.94
408.896	125.94
409.12	112.94
409.344	121.94
409.567	108.94
409.791	122.94
410.014	120.94
410.238	105.94
410.461	124.94
410.685	120.94
410.908	128.94
411.132	122.94
411.355	123.94
411.578	134.94
411.802	132.94
412.025	128.94
412.249	118.94
412.472	132.94
412.695	116.94
412.919	120.94
413.142	129.94
413.365	125.94
413.589	118.94
413.812	141.94
414.035	130.94
414.258	128.94
414.482	148.94
414.705	129.94
414.928	123.94
415.151	142.94
415.374	125.94
415.597	130.94
415.821	112.94
416.044	122.94
416.267	128.94
416.49	146.94
416.713	142.94
416.936	134.94
417.159	130.94
417.382	135.94
417.605	121.94
417.828	144.94
418.051	140.94
418.274	153.94
418.497	135.94
418.72	141.94
418.943	125.94
419.166	148.94
419.389	154.94
419.611	140.94
419.834	130.94
420.057	130.94
420.28	133.94
420.503	133.94
420.726	151.94
420.948	146.94
421.171	153.94
421.394	140.94
421.617	148.94
421.839	139.94
422.062	147.94
422.285	134.94
422.507	137.94
422.73	128.94
422.953	140.94
423.175	137.94
423.398	136.94
423.621	133.94
423.843	137.94
424.066	149.94
424.288	164.94
424.511	138.94
424.733	148.94
424.956	150.94
425.178	152.94
425.401	131.94
425.623	151.94
425.846	142.94
426.068	140.94
426.291	126.94
426.513	124.94
426.735	132.94
426.958	141.94
427.18	138.94
427.402	131.94
427.625	130.94
427.847	138.94
428.069	132.94
428.292	130.94
428.514	134.94
428.736	132.94
428.958	128.94
429.181	140.94
429.403	132.94
429.625	138.94
429.847	122.94
430.069	135.94
430.292	140.94
430.514	143.94
430.736	139.94
430.958	144.94
431.18	129.94
431.402	138.94
431.624	119.94
431.846	119.94
432.068	112.94
432.29	98.94
432.512	105.94
432.734	121.94
432.956	131.94
433.178	137.94
433.4	142.94
433.622	126.94
433.844	143.94
434.066	140.94
434.287	101.94
434.509	118.94
434.731	100.94
434.953	136.94
435.175	133.94
435.397	136.94
435.618	122.94
435.84	117.94
436.062	121.94
436.284	125.94
436.505	130.94
436.727	136.94
436.949	152.94
437.17	137.94
437.392	132.94
437.614	108.94
437.835	112.94
438.057	122.94
438.278	115.94
438.5	107.94
438.721	124.94
438.943	147.94
439.165	150.94
439.386	152.94
439.608	159.94
439.829	144.94
440.05	148.94
440.272	149.94
440.493	140.94
440.715	143.94
440.936	157.94
441.158	154.94
441.379	150.94
441.6	155.94
441.822	148.94
442.043	152.94
442.264	155.94
442.486	142.94
442.707	152.94
442.928	141.94
443.149	149.94
443.371	161.94
443.592	151.94
443.813	133.94
444.034	154.94
444.255	140.94
444.476	134.94
444.698	159.94
444.919	146.94
445.14	252.94
445.361	199.94
445.582	157.94
445.803	161.94
446.024	146.94
446.245	164.94
446.466	164.94
446.687	159.94
446.908	166.94
447.129	166.94
447.35	167.94
447.571	155.94
447.792	157.94
448.013	143.94
448.234	148.94
448.455	145.94
448.675	151.94
448.896	148.94
449.117	141.94
449.338	130.94
449.559	135.94
449.779	148.94
450	144.94
450.221	130.94
450.442	148.94
450.662	133.94
450.883	148.94
451.104	141.94
451.324	132.94
451.545	153.94
451.766	128.94
451.986	129.94
452.207	128.94
452.428	147.94
452.648	132.94
452.869	101.94
453.089	109.94
453.31	118.94
453.53	102.94
453.751	100.94
453.971	103.94
454.192	105.94
454.412	110.94
454.633	128.94
454.853	106.94
455.073	130.94
455.294	129.94
455.514	127.94
455.734	143.94
455.955	134.94
456.175	124.94
456.395	130.94
456.616	118.94
456.836	118.94
457.056	109.94
457.276	120.94
457.497	103.94
457.717	114.94
457.937	109.94
458.157	116.94
458.377	100.94
458.598	103.94
458.818	90.94
459.038	91.94
459.258	90.94
459.478	78.94
459.698	94.94
459.918	108.94
460.138	120.94
460.358	122.94
460.578	117.94
460.798	118.94
461.018	121.94
461.238	114.94
461.458	133.94
461.678	124.94
461.898	122.94
462.118	120.94
462.338	120.94
462.558	116.94
462.777	122.94
462.997	123.94
463.217	120.94
463.437	116.94
463.657	122.94
463.876	122.94
464.096	128.94
464.316	120.94
464.536	101.94
464.755	121.94
464.975	123.94
465.195	110.94
465.414	121.94
465.634	128.94
465.854	123.94
466.073	126.94
466.293	114.94
466.512	117.94
466.732	150.94
466.951	135.94
467.171	142.94
467.391	123.94
467.61	148.94
467.829	140.94
468.049	133.94
468.268	124.94
468.488	143.94
468.707	137.94
468.927	136.94
469.146	139.94
469.365	148.94
469.585	135.94
469.804	121.94
470.023	139.94
470.243	162.94
470.462	168.94
470.681	139.94
470.901	139.94
471.12	149.94
471.339	139.94
471.558	160.94
471.777	156.94
471.997	138.94
472.216	148.94
472.435	129.94
472.654	128.94
472.873	119.94
473.092	131.94
473.311	132.94
473.53	127.94
473.749	135.94
473.968	133.94
474.187	141.94
474.406	125.94
474.625	120.94
474.844	143.94
475.063	137.94
475.282	132.94
475.501	128.94
475.72	137.94
475.939	136.94
476.158	134.94
476.377	134.94
476.596	142.94
476.814	122.94
477.033	110.94
477.252	108.94
477.471	124.94
477.69	128.94
477.908	149.94
478.127	154.94
478.346	148.94
478.564	137.94
478.783	132.94
479.002	135.94
479.22	128.94
479.439	141.94
479.658	123.94
479.876	107.94
480.095	123.94
480.313	132.94
480.532	114.94
480.751	122.94
480.969	86.94
481.188	114.94
481.406	85.94
481.624	88.94
481.843	96.94
482.061	96.94
482.28	124.94
482.498	124.94
482.717	119.94
482.935	130.94
483.153	170.94
483.372	154.94
483.59	155.94
483.808	150.94
484.027	134.94
484.245	146.94
484.463	154.94
484.681	171.94
484.9	163.94
485.118	142.94
485.336	124.94
485.554	123.94
485.772	102.94
485.99	90.94
486.209	117.94
486.427	121.94
486.645	137.94
486.863	141.94
487.081	143.94
487.299	135.94
487.517	153.94
487.735	163.94
487.953	204.94
488.171	202.94
488.389	179.94
488.607	188.94
488.825	169.94
489.043	149.94
489.261	140.94
489.479	152.94
489.696	152.94
489.914	147.94
490.132	146.94
490.35	156.94
490.568	168.94
490.786	170.94
491.003	190.94
491.221	179.94
491.439	201.94
491.657	190.94
491.874	219.94
492.092	234.94
492.31	247.94
492.527	229.94
492.745	224.94
492.963	206.94
493.18	204.94
493.398	202.94
493.615	193.94
493.833	186.94
494.05	172.94
494.268	173.94
494.485	196.94
494.703	181.94
494.92	182.94
495.138	157.94
495.355	175.94
495.573	177.94
495.79	186.94
496.008	170.94
496.225	169.94
496.442	181.94
496.66	176.94
496.877	176.94
497.094	168.94
497.312	179.94
497.529	178.94
497.746	165.94
497.963	143.94
498.181	135.94
498.398	119.94
498.615	122.94
498.832	128.94
499.049	133.94
499.267	131.94
499.484	125.94
499.701	132.94
499.918	143.94
500.135	132.94
500.352	158.94
500.569	141.94
500.786	130.94
501.003	146.94
501.22	145.94
501.437	148.94
501.654	141.94
501.871	142.94
502.088	115.94
502.305	129.94
502.522	128.94
502.739	140.94
502.956	134.94
503.172	133.94
503.389	115.94
503.606	116.94
503.823	125.94
504.04	126.94
504.256	142.94
504.473	129.94
504.69	130.94
504.907	124.94
505.123	124.94
505.34	126.94
505.557	121.94
505.773	122.94
505.99	124.94
506.207	112.94
506.423	124.94
506.64	119.94
506.856	121.94
507.073	110.94
507.289	117.94
507.506	132.94
507.722	129.94
507.939	120.94
508.155	119.94
508.372	121.94
508.588	122.94
508.805	122.94
509.021	103.94
509.238	134.94
509.454	122.94
509.67	102.94
509.887	99.94
510.103	97.94
510.319	101.94
510.536	97.94
510.752	83.94
510.968	94.94
