Data from Location6.07152019.Energy5.Lamp.07192019.3%Agarose_HRD10591_16-12-23-395.txt Node
Date: Fri Jul 19 16:12:23 EDT 2019
User: cochatt
Spectrometer: HR+D1059
Trigger mode: 1
Integration Time (sec): 1.000000E-1
Scans to average: 1
Electric dark correction enabled: true
Nonlinearity correction enabled: false
Boxcar width: 0
XAxis mode: Wavelengths
Number of Pixels in Spectrum: 2048
>>>>>Begin Spectral Data<<<<<
223.165	-6.5
223.4	-6.5
223.635	-6.5
223.869	-15.5
224.104	-25.5
224.338	-30.5
224.573	-20.5
224.808	-11.5
225.042	1.5
225.277	-7.5
225.511	3.5
225.746	-3.5
225.98	10.5
226.215	15.5
226.449	13.5
226.683	15.5
226.918	17.5
227.152	43.5
227.387	31.5
227.621	43.5
227.856	42.5
228.09	64.5
228.324	59.5
228.559	68.5
228.793	52.5
229.027	65.5
229.262	73.5
229.496	64.5
229.73	67.5
229.964	70.5
230.199	68.5
230.433	76.5
230.667	78.5
230.901	73.5
231.136	91.5
231.37	81.5
231.604	74.5
231.838	79.5
232.072	74.5
232.306	83.5
232.541	83.5
232.775	80.5
233.009	88.5
233.243	78.5
233.477	77.5
233.711	88.5
233.945	74.5
234.179	100.5
234.413	77.5
234.647	81.5
234.881	80.5
235.115	83.5
235.349	86.5
235.583	87.5
235.817	76.5
236.051	71.5
236.285	80.5
236.519	76.5
236.753	75.5
236.987	70.5
237.221	81.5
237.455	73.5
237.689	77.5
237.922	64.5
238.156	75.5
238.39	84.5
238.624	77.5
238.858	76.5
239.091	84.5
239.325	88.5
239.559	71.5
239.793	65.5
240.027	81.5
240.26	79.5
240.494	97.5
240.728	81.5
240.961	80.5
241.195	84.5
241.429	76.5
241.662	74.5
241.896	74.5
242.13	68.5
242.363	59.5
242.597	65.5
242.83	74.5
243.064	85.5
243.298	84.5
243.531	77.5
243.765	89.5
243.998	86.5
244.232	72.5
244.465	72.5
244.699	77.5
244.932	79.5
245.166	83.5
245.399	82.5
245.633	95.5
245.866	80.5
246.099	75.5
246.333	81.5
246.566	77.5
246.8	80.5
247.033	81.5
247.266	75.5
247.5	84.5
247.733	83.5
247.966	74.5
248.2	75.5
248.433	76.5
248.666	73.5
248.899	84.5
249.133	83.5
249.366	75.5
249.599	72.5
249.832	73.5
250.066	79.5
250.299	64.5
250.532	75.5
250.765	89.5
250.998	77.5
251.231	75.5
251.465	86.5
251.698	68.5
251.931	76.5
252.164	89.5
252.397	79.5
252.63	91.5
252.863	77.5
253.096	85.5
253.329	71.5
253.562	76.5
253.795	82.5
254.028	81.5
254.261	98.5
254.494	86.5
254.727	94.5
254.96	83.5
255.193	75.5
255.426	78.5
255.659	75.5
255.892	81.5
256.124	79.5
256.357	67.5
256.59	73.5
256.823	81.5
257.056	79.5
257.289	78.5
257.521	92.5
257.754	85.5
257.987	84.5
258.22	85.5
258.452	77.5
258.685	74.5
258.918	79.5
259.151	83.5
259.383	68.5
259.616	74.5
259.849	86.5
260.081	80.5
260.314	78.5
260.547	85.5
260.779	75.5
261.012	78.5
261.244	87.5
261.477	71.5
261.71	73.5
261.942	70.5
262.175	88.5
262.407	80.5
262.64	67.5
262.872	74.5
263.105	85.5
263.337	87.5
263.57	87.5
263.802	78.5
264.035	80.5
264.267	69.5
264.499	81.5
264.732	77.5
264.964	99.5
265.197	78.5
265.429	91.5
265.661	83.5
265.894	81.5
266.126	82.5
266.358	67.5
266.591	90.5
266.823	78.5
267.055	72.5
267.287	81.5
267.52	78.5
267.752	96.5
267.984	89.5
268.216	82.5
268.448	106.5
268.681	87.5
268.913	82.5
269.145	84.5
269.377	74.5
269.609	77.5
269.841	86.5
270.073	67.5
270.306	85.5
270.538	89.5
270.77	77.5
271.002	87.5
271.234	85.5
271.466	81.5
271.698	82.5
271.93	89.5
272.162	85.5
272.394	91.5
272.626	75.5
272.858	74.5
273.09	78.5
273.322	98.5
273.553	72.5
273.785	83.5
274.017	81.5
274.249	88.5
274.481	83.5
274.713	71.5
274.945	75.5
275.176	81.5
275.408	90.5
275.64	83.5
275.872	82.5
276.104	92.5
276.335	76.5
276.567	74.5
276.799	75.5
277.031	89.5
277.262	81.5
277.494	86.5
277.726	88.5
277.957	82.5
278.189	82.5
278.421	83.5
278.652	69.5
278.884	88.5
279.115	88.5
279.347	88.5
279.579	86.5
279.81	73.5
280.042	84.5
280.273	88.5
280.505	78.5
280.736	88.5
280.968	85.5
281.199	97.5
281.431	80.5
281.662	92.5
281.894	107.5
282.125	88.5
282.356	87.5
282.588	94.5
282.819	88.5
283.051	83.5
283.282	73.5
283.513	83.5
283.745	79.5
283.976	87.5
284.207	74.5
284.439	86.5
284.67	89.5
284.901	82.5
285.132	83.5
285.364	85.5
285.595	93.5
285.826	89.5
286.057	75.5
286.288	88.5
286.52	93.5
286.751	86.5
286.982	81.5
287.213	87.5
287.444	96.5
287.675	95.5
287.906	86.5
288.138	89.5
288.369	78.5
288.6	90.5
288.831	76.5
289.062	91.5
289.293	80.5
289.524	85.5
289.755	81.5
289.986	83.5
290.217	82.5
290.448	87.5
290.679	68.5
290.91	84.5
291.141	89.5
291.371	78.5
291.602	66.5
291.833	86.5
292.064	84.5
292.295	72.5
292.526	81.5
292.757	84.5
292.987	101.5
293.218	84.5
293.449	88.5
293.68	82.5
293.91	95.5
294.141	85.5
294.372	87.5
294.603	91.5
294.833	86.5
295.064	89.5
295.295	78.5
295.525	90.5
295.756	76.5
295.987	77.5
296.217	81.5
296.448	92.5
296.679	76.5
296.909	85.5
297.14	99.5
297.37	88.5
297.601	98.5
297.831	82.5
298.062	84.5
298.292	83.5
298.523	89.5
298.753	98.5
298.984	104.5
299.214	79.5
299.445	87.5
299.675	75.5
299.905	90.5
300.136	86.5
300.366	76.5
300.597	83.5
300.827	87.5
301.057	85.5
301.288	84.5
301.518	82.5
301.748	80.5
301.979	84.5
302.209	88.5
302.439	77.5
302.669	86.5
302.9	90.5
303.13	108.5
303.36	91.5
303.59	83.5
303.82	80.5
304.051	94.5
304.281	76.5
304.511	82.5
304.741	80.5
304.971	88.5
305.201	77.5
305.431	82.5
305.661	83.5
305.891	92.5
306.121	101.5
306.352	87.5
306.582	90.5
306.812	77.5
307.042	88.5
307.272	87.5
307.502	70.5
307.731	81.5
307.961	82.5
308.191	80.5
308.421	86.5
308.651	98.5
308.881	76.5
309.111	78.5
309.341	84.5
309.571	77.5
309.8	72.5
310.03	78.5
310.26	87.5
310.49	97.5
310.72	83.5
310.949	83.5
311.179	83.5
311.409	77.5
311.639	88.5
311.868	94.5
312.098	84.5
312.328	95.5
312.557	103.5
312.787	89.5
313.017	87.5
313.246	91.5
313.476	85.5
313.706	85.5
313.935	71.5
314.165	84.5
314.394	87.5
314.624	86.5
314.853	98.5
315.083	93.5
315.312	93.5
315.542	100.5
315.771	86.5
316.001	91.5
316.23	87.5
316.46	84.5
316.689	82.5
316.919	85.5
317.148	79.5
317.377	76.5
317.607	81.5
317.836	67.5
318.065	73.5
318.295	101.5
318.524	89.5
318.753	77.5
318.983	76.5
319.212	87.5
319.441	90.5
319.67	80.5
319.9	90.5
320.129	93.5
320.358	92.5
320.587	88.5
320.816	68.5
321.046	82.5
321.275	83.5
321.504	100.5
321.733	80.5
321.962	81.5
322.191	91.5
322.42	93.5
322.649	87.5
322.878	80.5
323.108	92.5
323.337	84.5
323.566	81.5
323.795	74.5
324.024	87.5
324.253	74.5
324.482	87.5
324.71	92.5
324.939	104.5
325.168	76.5
325.397	75.5
325.626	90.5
325.855	82.5
326.084	87.5
326.313	96.5
326.542	95.5
326.77	95.5
326.999	77.5
327.228	87.5
327.457	85.5
327.686	86.5
327.914	88.5
328.143	80.5
328.372	86.5
328.6	83.5
328.829	97.5
329.058	89.5
329.287	89.5
329.515	82.5
329.744	77.5
329.972	80.5
330.201	90.5
330.43	85.5
330.658	76.5
330.887	83.5
331.115	88.5
331.344	84.5
331.572	84.5
331.801	89.5
332.03	93.5
332.258	71.5
332.486	85.5
332.715	93.5
332.943	95.5
333.172	80.5
333.4	69.5
333.629	93.5
333.857	78.5
334.085	85.5
334.314	79.5
334.542	74.5
334.771	81.5
334.999	105.5
335.227	106.5
335.455	76.5
335.684	84.5
335.912	95.5
336.14	91.5
336.369	77.5
336.597	82.5
336.825	82.5
337.053	86.5
337.281	89.5
337.51	79.5
337.738	91.5
337.966	83.5
338.194	99.5
338.422	77.5
338.65	89.5
338.878	88.5
339.106	90.5
339.334	95.5
339.562	89.5
339.79	96.5
340.018	95.5
340.246	90.5
340.474	79.5
340.702	85.5
340.93	70.5
341.158	91.5
341.386	90.5
341.614	85.5
341.842	86.5
342.07	79.5
342.298	84.5
342.526	88.5
342.754	86.5
342.981	88.5
343.209	90.5
343.437	81.5
343.665	85.5
343.893	91.5
344.12	75.5
344.348	84.5
344.576	95.5
344.804	85.5
345.031	84.5
345.259	97.5
345.487	69.5
345.714	95.5
345.942	90.5
346.17	83.5
346.397	90.5
346.625	95.5
346.853	86.5
347.08	77.5
347.308	81.5
347.535	63.5
347.763	101.5
347.99	87.5
348.218	97.5
348.445	79.5
348.673	76.5
348.9	81.5
349.128	86.5
349.355	72.5
349.583	83.5
349.81	80.5
350.037	69.5
350.265	85.5
350.492	76.5
350.72	80.5
350.947	97.5
351.174	86.5
351.402	78.5
351.629	73.5
351.856	70.5
352.083	77.5
352.311	83.5
352.538	81.5
352.765	84.5
352.992	101.5
353.22	89.5
353.447	75.5
353.674	103.5
353.901	79.5
354.128	73.5
354.355	84.5
354.583	82.5
354.81	75.5
355.037	91.5
355.264	88.5
355.491	90.5
355.718	90.5
355.945	86.5
356.172	89.5
356.399	90.5
356.626	83.5
356.853	77.5
357.08	88.5
357.307	88.5
357.534	83.5
357.761	96.5
357.988	85.5
358.215	74.5
358.441	81.5
358.668	76.5
358.895	91.5
359.122	87.5
359.349	80.5
359.576	90.5
359.802	85.5
360.029	91.5
360.256	81.5
360.483	77.5
360.709	83.5
360.936	86.5
361.163	87.5
361.39	84.5
361.616	93.5
361.843	79.5
362.07	87.5
362.296	80.5
362.523	85.5
362.749	95.5
362.976	85.5
363.203	86.5
363.429	79.5
363.656	89.5
363.882	88.5
364.109	77.5
364.335	81.5
364.562	83.5
364.788	77.5
365.015	71.5
365.241	86.5
365.468	83.5
365.694	81.5
365.92	84.5
366.147	88.5
366.373	85.5
366.599	75.5
366.826	90.5
367.052	77.5
367.278	97.5
367.505	87.5
367.731	113.5
367.957	86.5
368.184	83.5
368.41	86.5
368.636	72.5
368.862	96.5
369.089	91.5
369.315	87.5
369.541	100.5
369.767	93.5
369.993	83.5
370.219	88.5
370.445	80.5
370.672	79.5
370.898	93.5
371.124	101.5
371.35	83.5
371.576	83.5
371.802	86.5
372.028	91.5
372.254	90.5
372.48	80.5
372.706	97.5
372.932	93.5
373.158	99.5
373.384	100.5
373.61	111.5
373.835	98.5
374.061	92.5
374.287	81.5
374.513	89.5
374.739	95.5
374.965	101.5
375.191	89.5
375.416	88.5
375.642	95.5
375.868	94.5
376.094	85.5
376.319	99.5
376.545	89.5
376.771	88.5
376.997	104.5
377.222	105.5
377.448	98.5
377.674	98.5
377.899	104.5
378.125	90.5
378.35	92.5
378.576	87.5
378.802	95.5
379.027	93.5
379.253	101.5
379.478	101.5
379.704	96.5
379.929	84.5
380.155	79.5
380.38	89.5
380.606	88.5
380.831	112.5
381.057	98.5
381.282	90.5
381.507	107.5
381.733	93.5
381.958	108.5
382.184	97.5
382.409	79.5
382.634	102.5
382.86	99.5
383.085	99.5
383.31	81.5
383.535	105.5
383.761	92.5
383.986	91.5
384.211	99.5
384.436	100.5
384.662	106.5
384.887	96.5
385.112	98.5
385.337	98.5
385.562	96.5
385.787	97.5
386.013	117.5
386.238	93.5
386.463	89.5
386.688	104.5
386.913	99.5
387.138	103.5
387.363	100.5
387.588	97.5
387.813	106.5
388.038	101.5
388.263	103.5
388.488	77.5
388.713	115.5
388.938	99.5
389.163	96.5
389.387	100.5
389.612	109.5
389.837	106.5
390.062	107.5
390.287	108.5
390.512	107.5
390.736	101.5
390.961	114.5
391.186	100.5
391.411	104.5
391.636	106.5
391.86	104.5
392.085	97.5
392.31	103.5
392.534	102.5
392.759	108.5
392.984	108.5
393.208	114.5
393.433	111.5
393.658	121.5
393.882	106.5
394.107	109.5
394.331	100.5
394.556	104.5
394.78	119.5
395.005	111.5
395.229	106.5
395.454	103.5
395.678	106.5
395.903	116.5
396.127	112.5
396.352	101.5
396.576	117.5
396.801	86.5
397.025	100.5
397.249	115.5
397.474	123.5
397.698	110.5
397.922	101.5
398.147	112.5
398.371	105.5
398.595	108.5
398.82	98.5
399.044	106.5
399.268	99.5
399.492	111.5
399.717	118.5
399.941	112.5
400.165	115.5
400.389	112.5
400.613	127.5
400.837	101.5
401.062	123.5
401.286	115.5
401.51	128.5
401.734	122.5
401.958	115.5
402.182	113.5
402.406	121.5
402.63	111.5
402.854	124.5
403.078	117.5
403.302	122.5
403.526	111.5
403.75	104.5
403.974	120.5
404.198	123.5
404.422	111.5
404.645	107.5
404.869	104.5
405.093	119.5
405.317	109.5
405.541	137.5
405.765	112.5
405.988	125.5
406.212	117.5
406.436	124.5
406.66	124.5
406.883	118.5
407.107	122.5
407.331	130.5
407.555	117.5
407.778	114.5
408.002	121.5
408.226	117.5
408.449	134.5
408.673	120.5
408.896	132.5
409.12	112.5
409.344	116.5
409.567	114.5
409.791	113.5
410.014	119.5
410.238	108.5
410.461	131.5
410.685	119.5
410.908	106.5
411.132	103.5
411.355	114.5
411.578	122.5
411.802	114.5
412.025	120.5
412.249	117.5
412.472	116.5
412.695	118.5
412.919	135.5
413.142	124.5
413.365	113.5
413.589	125.5
413.812	123.5
414.035	122.5
414.258	134.5
414.482	144.5
414.705	107.5
414.928	124.5
415.151	134.5
415.374	123.5
415.597	131.5
415.821	119.5
416.044	124.5
416.267	127.5
416.49	133.5
416.713	128.5
416.936	150.5
417.159	129.5
417.382	141.5
417.605	123.5
417.828	134.5
418.051	131.5
418.274	136.5
418.497	128.5
418.72	129.5
418.943	147.5
419.166	121.5
419.389	147.5
419.611	135.5
419.834	140.5
420.057	155.5
420.28	140.5
420.503	134.5
420.726	136.5
420.948	144.5
421.171	139.5
421.394	139.5
421.617	150.5
421.839	149.5
422.062	137.5
422.285	125.5
422.507	130.5
422.73	131.5
422.953	127.5
423.175	145.5
423.398	125.5
423.621	138.5
423.843	131.5
424.066	140.5
424.288	144.5
424.511	161.5
424.733	153.5
424.956	150.5
425.178	142.5
425.401	143.5
425.623	134.5
425.846	142.5
426.068	131.5
426.291	135.5
426.513	137.5
426.735	136.5
426.958	134.5
427.18	125.5
427.402	137.5
427.625	129.5
427.847	143.5
428.069	127.5
428.292	117.5
428.514	134.5
428.736	131.5
428.958	134.5
429.181	132.5
429.403	129.5
429.625	136.5
429.847	136.5
430.069	130.5
430.292	150.5
430.514	143.5
430.736	133.5
430.958	117.5
431.18	132.5
431.402	139.5
431.624	131.5
431.846	112.5
432.068	105.5
432.29	100.5
432.512	108.5
432.734	122.5
432.956	123.5
433.178	144.5
433.4	143.5
433.622	155.5
433.844	131.5
434.066	116.5
434.287	114.5
434.509	95.5
434.731	103.5
434.953	117.5
435.175	128.5
435.397	127.5
435.618	118.5
435.84	120.5
436.062	105.5
436.284	134.5
436.505	127.5
436.727	153.5
436.949	125.5
437.17	137.5
437.392	154.5
437.614	139.5
437.835	113.5
438.057	124.5
438.278	119.5
438.5	109.5
438.721	141.5
438.943	133.5
439.165	141.5
439.386	151.5
439.608	156.5
439.829	161.5
440.05	145.5
440.272	148.5
440.493	148.5
440.715	151.5
440.936	134.5
441.158	147.5
441.379	161.5
441.6	142.5
441.822	149.5
442.043	141.5
442.264	149.5
442.486	134.5
442.707	129.5
442.928	156.5
443.149	136.5
443.371	145.5
443.592	142.5
443.813	139.5
444.034	131.5
444.255	139.5
444.476	147.5
444.698	147.5
444.919	160.5
445.14	275.5
445.361	208.5
445.582	168.5
445.803	158.5
446.024	141.5
446.245	162.5
446.466	157.5
446.687	170.5
446.908	159.5
447.129	175.5
447.35	159.5
447.571	164.5
447.792	149.5
448.013	143.5
448.234	137.5
448.455	140.5
448.675	165.5
448.896	135.5
449.117	148.5
449.338	154.5
449.559	146.5
449.779	157.5
450	141.5
450.221	144.5
450.442	139.5
450.662	164.5
450.883	157.5
451.104	148.5
451.324	135.5
451.545	145.5
451.766	114.5
451.986	132.5
452.207	128.5
452.428	126.5
452.648	126.5
452.869	116.5
453.089	111.5
453.31	108.5
453.53	109.5
453.751	105.5
453.971	108.5
454.192	102.5
454.412	117.5
454.633	123.5
454.853	123.5
455.073	141.5
455.294	124.5
455.514	118.5
455.734	130.5
455.955	138.5
456.175	115.5
456.395	101.5
456.616	127.5
456.836	104.5
457.056	104.5
457.276	115.5
457.497	104.5
457.717	119.5
457.937	113.5
458.157	115.5
458.377	99.5
458.598	95.5
458.818	96.5
459.038	89.5
459.258	79.5
459.478	73.5
459.698	92.5
459.918	95.5
460.138	105.5
460.358	117.5
460.578	113.5
460.798	123.5
461.018	107.5
461.238	131.5
461.458	123.5
461.678	120.5
461.898	120.5
462.118	119.5
462.338	118.5
462.558	111.5
462.777	113.5
462.997	112.5
463.217	107.5
463.437	115.5
463.657	108.5
463.876	122.5
464.096	114.5
464.316	114.5
464.536	122.5
464.755	128.5
464.975	128.5
465.195	124.5
465.414	122.5
465.634	127.5
465.854	129.5
466.073	128.5
466.293	123.5
466.512	153.5
466.732	123.5
466.951	125.5
467.171	144.5
467.391	133.5
467.61	123.5
467.829	137.5
468.049	129.5
468.268	138.5
468.488	141.5
468.707	126.5
468.927	161.5
469.146	165.5
469.365	141.5
469.585	131.5
469.804	132.5
470.023	135.5
470.243	139.5
470.462	146.5
470.681	143.5
470.901	141.5
471.12	149.5
471.339	153.5
471.558	159.5
471.777	143.5
471.997	124.5
472.216	132.5
472.435	126.5
472.654	121.5
472.873	123.5
473.092	135.5
473.311	147.5
473.53	130.5
473.749	120.5
473.968	139.5
474.187	142.5
474.406	123.5
474.625	139.5
474.844	139.5
475.063	133.5
475.282	143.5
475.501	128.5
475.72	117.5
475.939	139.5
476.158	140.5
476.377	135.5
476.596	138.5
476.814	108.5
477.033	113.5
477.252	136.5
477.471	119.5
477.69	141.5
477.908	140.5
478.127	153.5
478.346	146.5
478.564	125.5
478.783	157.5
479.002	141.5
479.22	137.5
479.439	148.5
479.658	135.5
479.876	124.5
480.095	118.5
480.313	124.5
480.532	138.5
480.751	108.5
480.969	108.5
481.188	84.5
481.406	88.5
481.624	91.5
481.843	78.5
482.061	120.5
482.28	127.5
482.498	116.5
482.717	118.5
482.935	133.5
483.153	143.5
483.372	166.5
483.59	167.5
483.808	160.5
484.027	139.5
484.245	144.5
484.463	155.5
484.681	179.5
484.9	163.5
485.118	140.5
485.336	138.5
485.554	113.5
485.772	108.5
485.99	115.5
486.209	99.5
486.427	113.5
486.645	133.5
486.863	150.5
487.081	158.5
487.299	145.5
487.517	135.5
487.735	180.5
487.953	195.5
488.171	184.5
488.389	185.5
488.607	173.5
488.825	156.5
489.043	125.5
489.261	139.5
489.479	128.5
489.696	150.5
489.914	146.5
490.132	158.5
490.35	166.5
490.568	171.5
490.786	178.5
491.003	179.5
491.221	197.5
491.439	202.5
491.657	205.5
491.874	221.5
492.092	226.5
492.31	279.5
492.527	256.5
492.745	216.5
492.963	210.5
493.18	168.5
493.398	195.5
493.615	194.5
493.833	192.5
494.05	197.5
494.268	170.5
494.485	175.5
494.703	192.5
494.92	184.5
495.138	184.5
495.355	184.5
495.573	166.5
495.79	175.5
496.008	194.5
496.225	174.5
496.442	176.5
496.66	181.5
496.877	169.5
497.094	172.5
497.312	170.5
497.529	171.5
497.746	162.5
497.963	139.5
498.181	149.5
498.398	127.5
498.615	133.5
498.832	121.5
499.049	122.5
499.267	124.5
499.484	133.5
499.701	140.5
499.918	148.5
500.135	136.5
500.352	135.5
500.569	140.5
500.786	136.5
501.003	143.5
501.22	164.5
501.437	148.5
501.654	140.5
501.871	135.5
502.088	116.5
502.305	143.5
502.522	145.5
502.739	128.5
502.956	137.5
503.172	123.5
503.389	123.5
503.606	125.5
503.823	118.5
504.04	127.5
504.256	138.5
504.473	118.5
504.69	129.5
504.907	122.5
505.123	118.5
505.34	117.5
505.557	138.5
505.773	126.5
505.99	136.5
506.207	124.5
506.423	128.5
506.64	124.5
506.856	142.5
507.073	119.5
507.289	131.5
507.506	125.5
507.722	123.5
507.939	120.5
508.155	122.5
508.372	127.5
508.588	127.5
508.805	123.5
509.021	127.5
509.238	118.5
509.454	99.5
509.67	118.5
509.887	96.5
510.103	98.5
510.319	109.5
510.536	85.5
510.752	91.5
510.968	92.5
511.184	91.5
511.401	97.5
511.617	95.5
511.833	94.5
512.049	102.5
512.265	103.5
512.481	93.5
512.698	107.5
512.914	91.5
513.13	101.5
513.346	85.5
513.562	100.5
513.778	101.5
513.994	102.5
514.21	104.5
514.426	92.5
514.642	103.5
514.858	88.5
515.074	89.5
515.29	97.5
515.506	100.5
515.721	102.5
515.937	97.5
516.153	99.5
516.369	85.5
516.585	97.5
516.801	96.5
517.016	97.5
517.232	92.5
517.448	82.5
517.664	102.5
517.879	92.5
518.095	89.5
518.311	85.5
518.527	104.5
518.742	96.5
518.958	98.5
519.173	108.5
519.389	100.5
519.605	95.5
519.82	104.5
520.036	106.5
520.251	108.5
520.467	116.5
520.682	101.5
520.898	77.5
521.113	97.5
521.329	101.5
521.544	116.5
521.76	96.5
521.975	95.5
522.19	96.5
522.406	114.5
522.621	117.5
522.836	100.5
523.052	90.5
523.267	106.5
523.482	120.5
523.698	115.5
523.913	115.5
524.128	120.5
524.343	127.5
524.559	128.5
524.774	137.5
524.989	123.5
525.204	128.5
525.419	123.5
525.634	116.5
525.849	125.5
526.064	110.5
526.28	123.5
526.495	89.5
526.71	91.5
526.925	93.5
527.14	90.5
527.355	91.5
527.57	93.5
527.785	87.5
527.999	95.5
528.214	119.5
528.429	136.5
528.644	136.5
528.859	136.5
529.074	145.5
529.289	180.5
529.503	188.5
529.718	153.5
529.933	136.5
530.148	116.5
530.363	101.5
