Data from Location6.07152019.Energy5.Lamp.07192019.3%Agarose_HRD10591_16-11-54-395.txt Node
Date: Fri Jul 19 16:11:54 EDT 2019
User: cochatt
Spectrometer: HR+D1059
Trigger mode: 1
Integration Time (sec): 1.000000E-1
Scans to average: 1
Electric dark correction enabled: true
Nonlinearity correction enabled: false
Boxcar width: 0
XAxis mode: Wavelengths
Number of Pixels in Spectrum: 2048
>>>>>Begin Spectral Data<<<<<
223.165	-14.19
223.4	-14.19
223.635	-14.19
223.869	-14.19
224.104	-10.19
224.338	-12.19
224.573	-5.19
224.808	-18.19
225.042	-21.19
225.277	6.81
225.511	-4.19
225.746	-0.19
225.98	1.81
226.215	4.81
226.449	14.81
226.683	25.81
226.918	22.81
227.152	22.81
227.387	26.81
227.621	39.81
227.856	45.81
228.09	45.81
228.324	46.81
228.559	48.81
228.793	61.81
229.027	45.81
229.262	61.81
229.496	65.81
229.73	40.81
229.964	63.81
230.199	68.81
230.433	76.81
230.667	73.81
230.901	66.81
231.136	90.81
231.37	77.81
231.604	61.81
231.838	74.81
232.072	66.81
232.306	82.81
232.541	86.81
232.775	86.81
233.009	82.81
233.243	80.81
233.477	91.81
233.711	97.81
233.945	74.81
234.179	70.81
234.413	71.81
234.647	89.81
234.881	74.81
235.115	80.81
235.349	81.81
235.583	87.81
235.817	58.81
236.051	73.81
236.285	81.81
236.519	76.81
236.753	73.81
236.987	86.81
237.221	77.81
237.455	72.81
237.689	72.81
237.922	85.81
238.156	83.81
238.39	71.81
238.624	75.81
238.858	71.81
239.091	72.81
239.325	71.81
239.559	73.81
239.793	72.81
240.027	65.81
240.26	72.81
240.494	83.81
240.728	87.81
240.961	90.81
241.195	82.81
241.429	79.81
241.662	62.81
241.896	77.81
242.13	67.81
242.363	63.81
242.597	71.81
242.83	73.81
243.064	78.81
243.298	87.81
243.531	84.81
243.765	81.81
243.998	88.81
244.232	67.81
244.465	76.81
244.699	76.81
244.932	85.81
245.166	87.81
245.399	70.81
245.633	79.81
245.866	74.81
246.099	75.81
246.333	83.81
246.566	82.81
246.8	69.81
247.033	81.81
247.266	68.81
247.5	85.81
247.733	83.81
247.966	73.81
248.2	85.81
248.433	91.81
248.666	69.81
248.899	90.81
249.133	79.81
249.366	76.81
249.599	70.81
249.832	85.81
250.066	62.81
250.299	80.81
250.532	59.81
250.765	78.81
250.998	56.81
251.231	65.81
251.465	74.81
251.698	80.81
251.931	72.81
252.164	81.81
252.397	69.81
252.63	76.81
252.863	86.81
253.096	78.81
253.329	86.81
253.562	64.81
253.795	91.81
254.028	83.81
254.261	86.81
254.494	79.81
254.727	77.81
254.96	86.81
255.193	87.81
255.426	80.81
255.659	78.81
255.892	77.81
256.124	73.81
256.357	77.81
256.59	74.81
256.823	73.81
257.056	84.81
257.289	64.81
257.521	76.81
257.754	89.81
257.987	88.81
258.22	86.81
258.452	74.81
258.685	80.81
258.918	82.81
259.151	82.81
259.383	79.81
259.616	79.81
259.849	83.81
260.081	85.81
260.314	75.81
260.547	74.81
260.779	91.81
261.012	87.81
261.244	89.81
261.477	91.81
261.71	77.81
261.942	81.81
262.175	79.81
262.407	83.81
262.64	81.81
262.872	82.81
263.105	84.81
263.337	83.81
263.57	85.81
263.802	91.81
264.035	93.81
264.267	78.81
264.499	72.81
264.732	81.81
264.964	81.81
265.197	76.81
265.429	82.81
265.661	79.81
265.894	77.81
266.126	75.81
266.358	70.81
266.591	79.81
266.823	92.81
267.055	76.81
267.287	83.81
267.52	82.81
267.752	80.81
267.984	85.81
268.216	89.81
268.448	81.81
268.681	77.81
268.913	86.81
269.145	87.81
269.377	80.81
269.609	75.81
269.841	84.81
270.073	89.81
270.306	73.81
270.538	70.81
270.77	77.81
271.002	75.81
271.234	82.81
271.466	78.81
271.698	86.81
271.93	79.81
272.162	90.81
272.394	88.81
272.626	83.81
272.858	97.81
273.09	76.81
273.322	82.81
273.553	86.81
273.785	81.81
274.017	81.81
274.249	71.81
274.481	96.81
274.713	81.81
274.945	92.81
275.176	83.81
275.408	76.81
275.64	71.81
275.872	75.81
276.104	76.81
276.335	77.81
276.567	81.81
276.799	80.81
277.031	81.81
277.262	89.81
277.494	79.81
277.726	87.81
277.957	81.81
278.189	85.81
278.421	67.81
278.652	77.81
278.884	87.81
279.115	82.81
279.347	73.81
279.579	74.81
279.81	72.81
280.042	84.81
280.273	80.81
280.505	93.81
280.736	75.81
280.968	78.81
281.199	77.81
281.431	76.81
281.662	83.81
281.894	84.81
282.125	69.81
282.356	78.81
282.588	102.81
282.819	71.81
283.051	93.81
283.282	76.81
283.513	93.81
283.745	83.81
283.976	70.81
284.207	89.81
284.439	97.81
284.67	82.81
284.901	84.81
285.132	89.81
285.364	83.81
285.595	71.81
285.826	90.81
286.057	93.81
286.288	82.81
286.52	88.81
286.751	80.81
286.982	88.81
287.213	93.81
287.444	73.81
287.675	76.81
287.906	90.81
288.138	85.81
288.369	79.81
288.6	95.81
288.831	78.81
289.062	90.81
289.293	85.81
289.524	73.81
289.755	87.81
289.986	75.81
290.217	100.81
290.448	79.81
290.679	84.81
290.91	75.81
291.141	88.81
291.371	85.81
291.602	75.81
291.833	88.81
292.064	91.81
292.295	88.81
292.526	76.81
292.757	75.81
292.987	96.81
293.218	60.81
293.449	67.81
293.68	90.81
293.91	86.81
294.141	81.81
294.372	89.81
294.603	76.81
294.833	97.81
295.064	84.81
295.295	77.81
295.525	88.81
295.756	78.81
295.987	77.81
296.217	77.81
296.448	79.81
296.679	82.81
296.909	85.81
297.14	93.81
297.37	97.81
297.601	82.81
297.831	87.81
298.062	76.81
298.292	85.81
298.523	80.81
298.753	81.81
298.984	75.81
299.214	92.81
299.445	102.81
299.675	83.81
299.905	78.81
300.136	76.81
300.366	75.81
300.597	79.81
300.827	96.81
301.057	62.81
301.288	78.81
301.518	80.81
301.748	91.81
301.979	76.81
302.209	85.81
302.439	87.81
302.669	86.81
302.9	78.81
303.13	87.81
303.36	79.81
303.59	63.81
303.82	78.81
304.051	76.81
304.281	82.81
304.511	102.81
304.741	93.81
304.971	89.81
305.201	88.81
305.431	103.81
305.661	87.81
305.891	88.81
306.121	86.81
306.352	81.81
306.582	93.81
306.812	86.81
307.042	76.81
307.272	86.81
307.502	75.81
307.731	86.81
307.961	85.81
308.191	89.81
308.421	86.81
308.651	86.81
308.881	80.81
309.111	80.81
309.341	93.81
309.571	80.81
309.8	80.81
310.03	68.81
310.26	81.81
310.49	83.81
310.72	90.81
310.949	93.81
311.179	80.81
311.409	80.81
311.639	86.81
311.868	80.81
312.098	88.81
312.328	87.81
312.557	85.81
312.787	101.81
313.017	86.81
313.246	91.81
313.476	98.81
313.706	81.81
313.935	69.81
314.165	83.81
314.394	75.81
314.624	88.81
314.853	81.81
315.083	107.81
315.312	92.81
315.542	81.81
315.771	91.81
316.001	80.81
316.23	81.81
316.46	87.81
316.689	87.81
316.919	82.81
317.148	72.81
317.377	93.81
317.607	81.81
317.836	78.81
318.065	89.81
318.295	84.81
318.524	90.81
318.753	87.81
318.983	76.81
319.212	90.81
319.441	82.81
319.67	80.81
319.9	76.81
320.129	83.81
320.358	81.81
320.587	98.81
320.816	77.81
321.046	92.81
321.275	87.81
321.504	87.81
321.733	82.81
321.962	75.81
322.191	70.81
322.42	77.81
322.649	98.81
322.878	85.81
323.108	95.81
323.337	83.81
323.566	68.81
323.795	81.81
324.024	83.81
324.253	74.81
324.482	70.81
324.71	82.81
324.939	74.81
325.168	82.81
325.397	91.81
325.626	83.81
325.855	83.81
326.084	75.81
326.313	78.81
326.542	80.81
326.77	84.81
326.999	70.81
327.228	85.81
327.457	84.81
327.686	101.81
327.914	97.81
328.143	88.81
328.372	78.81
328.6	82.81
328.829	75.81
329.058	81.81
329.287	84.81
329.515	74.81
329.744	81.81
329.972	84.81
330.201	90.81
330.43	85.81
330.658	88.81
330.887	81.81
331.115	95.81
331.344	88.81
331.572	89.81
331.801	97.81
332.03	100.81
332.258	74.81
332.486	71.81
332.715	81.81
332.943	76.81
333.172	82.81
333.4	87.81
333.629	78.81
333.857	93.81
334.085	74.81
334.314	84.81
334.542	80.81
334.771	81.81
334.999	88.81
335.227	72.81
335.455	89.81
335.684	98.81
335.912	90.81
336.14	83.81
336.369	87.81
336.597	91.81
336.825	73.81
337.053	73.81
337.281	74.81
337.51	72.81
337.738	89.81
337.966	90.81
338.194	89.81
338.422	88.81
338.65	79.81
338.878	100.81
339.106	83.81
339.334	84.81
339.562	84.81
339.79	70.81
340.018	85.81
340.246	79.81
340.474	71.81
340.702	68.81
340.93	84.81
341.158	87.81
341.386	71.81
341.614	96.81
341.842	76.81
342.07	88.81
342.298	95.81
342.526	84.81
342.754	86.81
342.981	89.81
343.209	81.81
343.437	85.81
343.665	75.81
343.893	83.81
344.12	84.81
344.348	88.81
344.576	81.81
344.804	68.81
345.031	72.81
345.259	78.81
345.487	101.81
345.714	70.81
345.942	79.81
346.17	83.81
346.397	83.81
346.625	80.81
346.853	73.81
347.08	87.81
347.308	94.81
347.535	87.81
347.763	75.81
347.99	88.81
348.218	71.81
348.445	90.81
348.673	71.81
348.9	76.81
349.128	73.81
349.355	76.81
349.583	80.81
349.81	75.81
350.037	87.81
350.265	76.81
350.492	86.81
350.72	85.81
350.947	90.81
351.174	82.81
351.402	80.81
351.629	73.81
351.856	72.81
352.083	69.81
352.311	77.81
352.538	73.81
352.765	91.81
352.992	78.81
353.22	84.81
353.447	78.81
353.674	78.81
353.901	89.81
354.128	81.81
354.355	94.81
354.583	88.81
354.81	75.81
355.037	83.81
355.264	78.81
355.491	84.81
355.718	78.81
355.945	88.81
356.172	79.81
356.399	88.81
356.626	74.81
356.853	77.81
357.08	72.81
357.307	84.81
357.534	73.81
357.761	86.81
357.988	80.81
358.215	76.81
358.441	94.81
358.668	79.81
358.895	94.81
359.122	89.81
359.349	71.81
359.576	92.81
359.802	82.81
360.029	73.81
360.256	82.81
360.483	84.81
360.709	93.81
360.936	83.81
361.163	89.81
361.39	70.81
361.616	83.81
361.843	83.81
362.07	80.81
362.296	76.81
362.523	77.81
362.749	70.81
362.976	98.81
363.203	91.81
363.429	78.81
363.656	65.81
363.882	88.81
364.109	83.81
364.335	87.81
364.562	90.81
364.788	80.81
365.015	78.81
365.241	87.81
365.468	89.81
365.694	74.81
365.92	91.81
366.147	86.81
366.373	86.81
366.599	60.81
366.826	69.81
367.052	85.81
367.278	73.81
367.505	85.81
367.731	86.81
367.957	91.81
368.184	96.81
368.41	81.81
368.636	63.81
368.862	76.81
369.089	93.81
369.315	83.81
369.541	92.81
369.767	72.81
369.993	90.81
370.219	82.81
370.445	78.81
370.672	87.81
370.898	88.81
371.124	93.81
371.35	91.81
371.576	94.81
371.802	91.81
372.028	101.81
372.254	86.81
372.48	91.81
372.706	91.81
372.932	98.81
373.158	90.81
373.384	110.81
373.61	91.81
373.835	102.81
374.061	90.81
374.287	89.81
374.513	95.81
374.739	88.81
374.965	93.81
375.191	82.81
375.416	87.81
375.642	94.81
375.868	84.81
376.094	94.81
376.319	97.81
376.545	86.81
376.771	85.81
376.997	91.81
377.222	98.81
377.448	87.81
377.674	73.81
377.899	87.81
378.125	86.81
378.35	97.81
378.576	89.81
378.802	90.81
379.027	79.81
379.253	104.81
379.478	103.81
379.704	92.81
379.929	93.81
380.155	87.81
380.38	99.81
380.606	105.81
380.831	91.81
381.057	102.81
381.282	104.81
381.507	98.81
381.733	99.81
381.958	94.81
382.184	108.81
382.409	115.81
382.634	93.81
382.86	107.81
383.085	110.81
383.31	97.81
383.535	89.81
383.761	104.81
383.986	91.81
384.211	91.81
384.436	91.81
384.662	107.81
384.887	104.81
385.112	94.81
385.337	100.81
385.562	106.81
385.787	98.81
386.013	88.81
386.238	102.81
386.463	105.81
386.688	100.81
386.913	104.81
387.138	97.81
387.363	89.81
387.588	100.81
387.813	114.81
388.038	88.81
388.263	112.81
388.488	113.81
388.713	98.81
388.938	92.81
389.163	103.81
389.387	111.81
389.612	100.81
389.837	98.81
390.062	112.81
390.287	101.81
390.512	108.81
390.736	93.81
390.961	111.81
391.186	94.81
391.411	88.81
391.636	88.81
391.86	105.81
392.085	109.81
392.31	106.81
392.534	119.81
392.759	104.81
392.984	104.81
393.208	94.81
393.433	102.81
393.658	105.81
393.882	104.81
394.107	114.81
394.331	96.81
394.556	103.81
394.78	114.81
395.005	106.81
395.229	105.81
395.454	117.81
395.678	91.81
395.903	110.81
396.127	117.81
396.352	99.81
396.576	113.81
396.801	103.81
397.025	113.81
397.249	110.81
397.474	102.81
397.698	99.81
397.922	118.81
398.147	119.81
398.371	120.81
398.595	113.81
398.82	99.81
399.044	119.81
399.268	113.81
399.492	119.81
399.717	108.81
399.941	105.81
400.165	98.81
400.389	107.81
400.613	126.81
400.837	105.81
401.062	117.81
401.286	113.81
401.51	121.81
401.734	121.81
401.958	115.81
402.182	112.81
402.406	112.81
402.63	118.81
402.854	123.81
403.078	120.81
403.302	127.81
403.526	130.81
403.75	112.81
403.974	125.81
404.198	113.81
404.422	122.81
404.645	130.81
404.869	115.81
405.093	131.81
405.317	125.81
405.541	127.81
405.765	129.81
405.988	113.81
406.212	131.81
406.436	121.81
406.66	123.81
406.883	118.81
407.107	127.81
407.331	137.81
407.555	131.81
407.778	121.81
408.002	118.81
408.226	117.81
408.449	120.81
408.673	115.81
408.896	119.81
409.12	136.81
409.344	122.81
409.567	126.81
409.791	131.81
410.014	121.81
410.238	125.81
410.461	107.81
410.685	109.81
410.908	122.81
411.132	126.81
411.355	129.81
411.578	119.81
411.802	121.81
412.025	114.81
412.249	121.81
412.472	118.81
412.695	122.81
412.919	125.81
413.142	121.81
413.365	113.81
413.589	119.81
413.812	120.81
414.035	109.81
414.258	121.81
414.482	103.81
414.705	131.81
414.928	125.81
415.151	139.81
415.374	130.81
415.597	109.81
415.821	124.81
416.044	111.81
416.267	142.81
416.49	127.81
416.713	133.81
416.936	137.81
417.159	130.81
417.382	130.81
417.605	125.81
417.828	116.81
418.051	138.81
418.274	131.81
418.497	127.81
418.72	134.81
418.943	130.81
419.166	131.81
419.389	142.81
419.611	136.81
419.834	129.81
420.057	126.81
420.28	141.81
420.503	134.81
420.726	133.81
420.948	120.81
421.171	145.81
421.394	130.81
421.617	142.81
421.839	138.81
422.062	146.81
422.285	137.81
422.507	136.81
422.73	140.81
422.953	135.81
423.175	129.81
423.398	137.81
423.621	151.81
423.843	130.81
424.066	134.81
424.288	134.81
424.511	130.81
424.733	161.81
424.956	152.81
425.178	129.81
425.401	144.81
425.623	139.81
425.846	125.81
426.068	120.81
426.291	131.81
426.513	115.81
426.735	138.81
426.958	135.81
427.18	130.81
427.402	151.81
427.625	121.81
427.847	130.81
428.069	137.81
428.292	127.81
428.514	152.81
428.736	143.81
428.958	138.81
429.181	136.81
429.403	136.81
429.625	126.81
429.847	125.81
430.069	122.81
430.292	125.81
430.514	131.81
430.736	123.81
430.958	138.81
431.18	143.81
431.402	129.81
431.624	120.81
431.846	97.81
432.068	84.81
432.29	90.81
432.512	104.81
432.734	128.81
432.956	128.81
433.178	136.81
433.4	147.81
433.622	135.81
433.844	137.81
434.066	122.81
434.287	118.81
434.509	100.81
434.731	105.81
434.953	128.81
435.175	130.81
435.397	120.81
435.618	127.81
435.84	121.81
436.062	109.81
436.284	107.81
436.505	127.81
436.727	123.81
436.949	130.81
437.17	139.81
437.392	132.81
437.614	115.81
437.835	127.81
438.057	112.81
438.278	128.81
438.5	116.81
438.721	136.81
438.943	137.81
439.165	121.81
439.386	141.81
439.608	152.81
439.829	144.81
440.05	157.81
440.272	146.81
440.493	151.81
440.715	147.81
440.936	151.81
441.158	138.81
441.379	165.81
441.6	149.81
441.822	153.81
442.043	146.81
442.264	130.81
442.486	145.81
442.707	155.81
442.928	149.81
443.149	127.81
443.371	130.81
443.592	137.81
443.813	139.81
444.034	133.81
444.255	137.81
444.476	148.81
444.698	147.81
444.919	127.81
445.14	276.81
445.361	205.81
445.582	162.81
445.803	140.81
446.024	142.81
446.245	175.81
446.466	150.81
446.687	174.81
446.908	165.81
447.129	155.81
447.35	160.81
447.571	152.81
447.792	165.81
448.013	160.81
448.234	149.81
448.455	141.81
448.675	140.81
448.896	133.81
449.117	143.81
449.338	142.81
449.559	144.81
449.779	138.81
450	143.81
450.221	136.81
450.442	145.81
450.662	126.81
450.883	145.81
451.104	158.81
451.324	134.81
451.545	134.81
451.766	128.81
451.986	127.81
452.207	147.81
452.428	133.81
452.648	141.81
452.869	140.81
453.089	118.81
453.31	105.81
453.53	97.81
453.751	106.81
453.971	115.81
454.192	110.81
454.412	104.81
454.633	113.81
454.853	133.81
455.073	119.81
455.294	125.81
455.514	113.81
455.734	123.81
455.955	120.81
456.175	131.81
456.395	115.81
456.616	117.81
456.836	126.81
457.056	118.81
457.276	102.81
457.497	112.81
457.717	110.81
457.937	127.81
458.157	109.81
458.377	111.81
458.598	110.81
458.818	90.81
459.038	86.81
459.258	83.81
459.478	97.81
459.698	104.81
459.918	114.81
460.138	113.81
460.358	107.81
460.578	113.81
460.798	126.81
461.018	127.81
461.238	120.81
461.458	118.81
461.678	119.81
461.898	110.81
462.118	114.81
462.338	114.81
462.558	121.81
462.777	101.81
462.997	111.81
463.217	108.81
463.437	123.81
463.657	116.81
463.876	113.81
464.096	114.81
464.316	111.81
464.536	107.81
464.755	115.81
464.975	105.81
465.195	121.81
465.414	113.81
465.634	104.81
465.854	114.81
466.073	106.81
466.293	120.81
466.512	149.81
466.732	145.81
466.951	137.81
467.171	132.81
467.391	139.81
467.61	142.81
467.829	123.81
468.049	129.81
468.268	136.81
468.488	138.81
468.707	139.81
468.927	123.81
469.146	138.81
469.365	140.81
469.585	145.81
469.804	133.81
470.023	140.81
470.243	125.81
470.462	125.81
470.681	153.81
470.901	151.81
471.12	153.81
471.339	138.81
471.558	145.81
471.777	146.81
471.997	147.81
472.216	130.81
472.435	113.81
472.654	112.81
472.873	105.81
473.092	123.81
473.311	131.81
473.53	125.81
473.749	137.81
473.968	116.81
474.187	136.81
474.406	137.81
474.625	126.81
474.844	145.81
475.063	126.81
475.282	129.81
475.501	137.81
475.72	120.81
475.939	126.81
476.158	136.81
476.377	126.81
476.596	132.81
476.814	121.81
477.033	117.81
477.252	119.81
477.471	137.81
477.69	143.81
477.908	130.81
478.127	149.81
478.346	147.81
478.564	137.81
478.783	131.81
479.002	150.81
479.22	143.81
479.439	143.81
479.658	134.81
479.876	101.81
480.095	105.81
480.313	125.81
480.532	106.81
480.751	103.81
480.969	81.81
481.188	99.81
481.406	88.81
481.624	93.81
481.843	90.81
482.061	109.81
482.28	113.81
482.498	120.81
482.717	106.81
482.935	123.81
483.153	135.81
483.372	143.81
483.59	160.81
483.808	143.81
484.027	116.81
484.245	134.81
484.463	147.81
484.681	175.81
484.9	144.81
485.118	160.81
485.336	116.81
485.554	94.81
485.772	102.81
485.99	119.81
486.209	125.81
486.427	110.81
486.645	138.81
486.863	127.81
487.081	149.81
487.299	140.81
487.517	143.81
487.735	189.81
487.953	197.81
488.171	173.81
488.389	177.81
488.607	171.81
488.825	149.81
489.043	138.81
489.261	149.81
489.479	150.81
489.696	137.81
489.914	155.81
490.132	155.81
490.35	155.81
490.568	179.81
490.786	185.81
491.003	182.81
491.221	191.81
491.439	189.81
491.657	189.81
491.874	206.81
492.092	228.81
492.31	262.81
492.527	254.81
492.745	238.81
492.963	195.81
493.18	192.81
493.398	193.81
493.615	186.81
493.833	198.81
494.05	175.81
494.268	185.81
494.485	169.81
494.703	178.81
494.92	167.81
495.138	179.81
495.355	175.81
495.573	191.81
495.79	177.81
496.008	177.81
496.225	158.81
496.442	162.81
496.66	175.81
496.877	170.81
497.094	165.81
497.312	170.81
497.529	167.81
497.746	159.81
497.963	140.81
498.181	129.81
498.398	123.81
498.615	125.81
498.832	116.81
499.049	119.81
499.267	137.81
499.484	117.81
499.701	126.81
499.918	155.81
500.135	151.81
500.352	155.81
500.569	153.81
500.786	141.81
501.003	142.81
501.22	131.81
501.437	144.81
501.654	137.81
501.871	127.81
502.088	132.81
502.305	132.81
502.522	143.81
502.739	125.81
502.956	131.81
503.172	121.81
503.389	120.81
503.606	108.81
503.823	141.81
504.04	119.81
504.256	121.81
504.473	132.81
504.69	129.81
504.907	126.81
505.123	110.81
505.34	108.81
505.557	117.81
505.773	121.81
505.99	132.81
506.207	128.81
506.423	127.81
506.64	133.81
506.856	127.81
507.073	116.81
507.289	123.81
507.506	125.81
507.722	122.81
507.939	117.81
508.155	122.81
508.372	123.81
508.588	121.81
508.805	117.81
509.021	100.81
509.238	93.81
509.454	92.81
509.67	86.81
509.887	79.81
510.103	93.81
510.319	97.81
510.536	87.81
510.752	93.81
510.968	80.81
511.184	87.81
511.401	82.81
511.617	99.81
