Data from Location6.07152019.Energy5.Lamp.07192019.3%Agarose_HRD10591_16-13-01-395.txt Node
Date: Fri Jul 19 16:13:01 EDT 2019
User: cochatt
Spectrometer: HR+D1059
Trigger mode: 1
Integration Time (sec): 1.000000E-1
Scans to average: 1
Electric dark correction enabled: true
Nonlinearity correction enabled: false
Boxcar width: 0
XAxis mode: Wavelengths
Number of Pixels in Spectrum: 2048
>>>>>Begin Spectral Data<<<<<
223.165	-14.06
223.4	-14.06
223.635	-14.06
223.869	-7.06
224.104	-19.06
224.338	-25.06
224.573	-26.06
224.808	-10.06
225.042	-14.06
225.277	2.94
225.511	-5.06
225.746	11.94
225.98	3.94
226.215	4.94
226.449	5.94
226.683	22.94
226.918	29.94
227.152	37.94
227.387	38.94
227.621	35.94
227.856	54.94
228.09	48.94
228.324	55.94
228.559	58.94
228.793	58.94
229.027	64.94
229.262	59.94
229.496	60.94
229.73	72.94
229.964	78.94
230.199	73.94
230.433	73.94
230.667	78.94
230.901	84.94
231.136	71.94
231.37	83.94
231.604	71.94
231.838	85.94
232.072	70.94
232.306	86.94
232.541	81.94
232.775	79.94
233.009	85.94
233.243	75.94
233.477	92.94
233.711	75.94
233.945	93.94
234.179	75.94
234.413	90.94
234.647	88.94
234.881	91.94
235.115	100.94
235.349	79.94
235.583	81.94
235.817	73.94
236.051	80.94
236.285	86.94
236.519	82.94
236.753	91.94
236.987	74.94
237.221	82.94
237.455	77.94
237.689	72.94
237.922	74.94
238.156	79.94
238.39	86.94
238.624	71.94
238.858	85.94
239.091	75.94
239.325	84.94
239.559	78.94
239.793	73.94
240.027	74.94
240.26	75.94
240.494	70.94
240.728	84.94
240.961	70.94
241.195	79.94
241.429	85.94
241.662	78.94
241.896	79.94
242.13	72.94
242.363	64.94
242.597	71.94
242.83	81.94
243.064	82.94
243.298	72.94
243.531	73.94
243.765	83.94
243.998	77.94
244.232	73.94
244.465	83.94
244.699	77.94
244.932	86.94
245.166	80.94
245.399	78.94
245.633	83.94
245.866	68.94
246.099	79.94
246.333	84.94
246.566	81.94
246.8	85.94
247.033	81.94
247.266	68.94
247.5	83.94
247.733	67.94
247.966	77.94
248.2	85.94
248.433	88.94
248.666	90.94
248.899	74.94
249.133	87.94
249.366	90.94
249.599	71.94
249.832	73.94
250.066	74.94
250.299	78.94
250.532	78.94
250.765	89.94
250.998	67.94
251.231	72.94
251.465	83.94
251.698	80.94
251.931	86.94
252.164	77.94
252.397	86.94
252.63	71.94
252.863	89.94
253.096	79.94
253.329	85.94
253.562	73.94
253.795	83.94
254.028	80.94
254.261	65.94
254.494	71.94
254.727	80.94
254.96	83.94
255.193	72.94
255.426	75.94
255.659	77.94
255.892	91.94
256.124	88.94
256.357	79.94
256.59	87.94
256.823	97.94
257.056	92.94
257.289	87.94
257.521	81.94
257.754	77.94
257.987	85.94
258.22	82.94
258.452	73.94
258.685	83.94
258.918	84.94
259.151	72.94
259.383	87.94
259.616	84.94
259.849	78.94
260.081	94.94
260.314	93.94
260.547	79.94
260.779	77.94
261.012	65.94
261.244	76.94
261.477	98.94
261.71	82.94
261.942	71.94
262.175	86.94
262.407	84.94
262.64	84.94
262.872	79.94
263.105	69.94
263.337	78.94
263.57	94.94
263.802	80.94
264.035	70.94
264.267	77.94
264.499	80.94
264.732	78.94
264.964	64.94
265.197	81.94
265.429	80.94
265.661	84.94
265.894	82.94
266.126	70.94
266.358	68.94
266.591	91.94
266.823	98.94
267.055	79.94
267.287	72.94
267.52	95.94
267.752	89.94
267.984	73.94
268.216	88.94
268.448	70.94
268.681	91.94
268.913	74.94
269.145	97.94
269.377	73.94
269.609	85.94
269.841	78.94
270.073	85.94
270.306	89.94
270.538	86.94
270.77	85.94
271.002	72.94
271.234	94.94
271.466	83.94
271.698	85.94
271.93	80.94
272.162	84.94
272.394	94.94
272.626	77.94
272.858	89.94
273.09	94.94
273.322	73.94
273.553	82.94
273.785	90.94
274.017	88.94
274.249	90.94
274.481	87.94
274.713	66.94
274.945	86.94
275.176	83.94
275.408	91.94
275.64	97.94
275.872	85.94
276.104	74.94
276.335	88.94
276.567	84.94
276.799	91.94
277.031	79.94
277.262	68.94
277.494	83.94
277.726	87.94
277.957	79.94
278.189	82.94
278.421	97.94
278.652	75.94
278.884	85.94
279.115	84.94
279.347	89.94
279.579	75.94
279.81	83.94
280.042	86.94
280.273	95.94
280.505	84.94
280.736	85.94
280.968	86.94
281.199	71.94
281.431	80.94
281.662	84.94
281.894	75.94
282.125	78.94
282.356	80.94
282.588	90.94
282.819	90.94
283.051	81.94
283.282	80.94
283.513	71.94
283.745	65.94
283.976	90.94
284.207	99.94
284.439	89.94
284.67	91.94
284.901	98.94
285.132	86.94
285.364	88.94
285.595	79.94
285.826	85.94
286.057	84.94
286.288	89.94
286.52	84.94
286.751	100.94
286.982	75.94
287.213	85.94
287.444	89.94
287.675	82.94
287.906	79.94
288.138	92.94
288.369	92.94
288.6	79.94
288.831	104.94
289.062	75.94
289.293	89.94
289.524	92.94
289.755	78.94
289.986	86.94
290.217	73.94
290.448	85.94
290.679	81.94
290.91	74.94
291.141	83.94
291.371	97.94
291.602	75.94
291.833	76.94
292.064	88.94
292.295	84.94
292.526	78.94
292.757	91.94
292.987	92.94
293.218	87.94
293.449	88.94
293.68	83.94
293.91	74.94
294.141	102.94
294.372	101.94
294.603	85.94
294.833	87.94
295.064	97.94
295.295	75.94
295.525	82.94
295.756	79.94
295.987	96.94
296.217	86.94
296.448	94.94
296.679	86.94
296.909	98.94
297.14	87.94
297.37	100.94
297.601	79.94
297.831	90.94
298.062	86.94
298.292	79.94
298.523	76.94
298.753	80.94
298.984	79.94
299.214	86.94
299.445	79.94
299.675	87.94
299.905	85.94
300.136	94.94
300.366	81.94
300.597	86.94
300.827	83.94
301.057	82.94
301.288	84.94
301.518	91.94
301.748	94.94
301.979	89.94
302.209	93.94
302.439	94.94
302.669	97.94
302.9	103.94
303.13	86.94
303.36	103.94
303.59	90.94
303.82	88.94
304.051	84.94
304.281	93.94
304.511	103.94
304.741	92.94
304.971	85.94
305.201	88.94
305.431	94.94
305.661	101.94
305.891	84.94
306.121	83.94
306.352	90.94
306.582	83.94
306.812	81.94
307.042	82.94
307.272	71.94
307.502	77.94
307.731	99.94
307.961	81.94
308.191	90.94
308.421	86.94
308.651	79.94
308.881	87.94
309.111	79.94
309.341	88.94
309.571	89.94
309.8	84.94
310.03	76.94
310.26	88.94
310.49	86.94
310.72	84.94
310.949	87.94
311.179	91.94
311.409	79.94
311.639	90.94
311.868	79.94
312.098	98.94
312.328	89.94
312.557	89.94
312.787	93.94
313.017	96.94
313.246	87.94
313.476	84.94
313.706	85.94
313.935	81.94
314.165	86.94
314.394	75.94
314.624	91.94
314.853	77.94
315.083	90.94
315.312	91.94
315.542	86.94
315.771	95.94
316.001	87.94
316.23	88.94
316.46	94.94
316.689	94.94
316.919	90.94
317.148	99.94
317.377	91.94
317.607	77.94
317.836	85.94
318.065	95.94
318.295	88.94
318.524	82.94
318.753	85.94
318.983	79.94
319.212	85.94
319.441	95.94
319.67	92.94
319.9	95.94
320.129	79.94
320.358	83.94
320.587	77.94
320.816	88.94
321.046	93.94
321.275	87.94
321.504	97.94
321.733	94.94
321.962	94.94
322.191	87.94
322.42	79.94
322.649	89.94
322.878	71.94
323.108	92.94
323.337	95.94
323.566	92.94
323.795	78.94
324.024	94.94
324.253	84.94
324.482	87.94
324.71	84.94
324.939	72.94
325.168	85.94
325.397	91.94
325.626	76.94
325.855	87.94
326.084	92.94
326.313	75.94
326.542	73.94
326.77	88.94
326.999	87.94
327.228	85.94
327.457	87.94
327.686	82.94
327.914	102.94
328.143	85.94
328.372	66.94
328.6	90.94
328.829	87.94
329.058	83.94
329.287	89.94
329.515	87.94
329.744	87.94
329.972	90.94
330.201	79.94
330.43	89.94
330.658	93.94
330.887	95.94
331.115	93.94
331.344	78.94
331.572	93.94
331.801	88.94
332.03	73.94
332.258	89.94
332.486	79.94
332.715	94.94
332.943	81.94
333.172	99.94
333.4	93.94
333.629	93.94
333.857	86.94
334.085	71.94
334.314	96.94
334.542	67.94
334.771	94.94
334.999	84.94
335.227	76.94
335.455	94.94
335.684	95.94
335.912	69.94
336.14	77.94
336.369	77.94
336.597	84.94
336.825	97.94
337.053	85.94
337.281	88.94
337.51	74.94
337.738	78.94
337.966	77.94
338.194	85.94
338.422	78.94
338.65	83.94
338.878	91.94
339.106	82.94
339.334	91.94
339.562	86.94
339.79	89.94
340.018	92.94
340.246	82.94
340.474	104.94
340.702	81.94
340.93	91.94
341.158	80.94
341.386	96.94
341.614	89.94
341.842	95.94
342.07	80.94
342.298	93.94
342.526	86.94
342.754	73.94
342.981	84.94
343.209	87.94
343.437	88.94
343.665	83.94
343.893	89.94
344.12	106.94
344.348	85.94
344.576	81.94
344.804	88.94
345.031	85.94
345.259	90.94
345.487	95.94
345.714	90.94
345.942	78.94
346.17	86.94
346.397	83.94
346.625	73.94
346.853	100.94
347.08	90.94
347.308	94.94
347.535	91.94
347.763	77.94
347.99	84.94
348.218	89.94
348.445	85.94
348.673	78.94
348.9	75.94
349.128	82.94
349.355	78.94
349.583	87.94
349.81	81.94
350.037	92.94
350.265	80.94
350.492	87.94
350.72	102.94
350.947	89.94
351.174	79.94
351.402	85.94
351.629	90.94
351.856	87.94
352.083	84.94
352.311	102.94
352.538	94.94
352.765	82.94
352.992	73.94
353.22	83.94
353.447	88.94
353.674	90.94
353.901	93.94
354.128	74.94
354.355	71.94
354.583	77.94
354.81	86.94
355.037	91.94
355.264	83.94
355.491	102.94
355.718	81.94
355.945	88.94
356.172	85.94
356.399	72.94
356.626	81.94
356.853	86.94
357.08	87.94
357.307	83.94
357.534	76.94
357.761	86.94
357.988	87.94
358.215	79.94
358.441	74.94
358.668	89.94
358.895	107.94
359.122	91.94
359.349	94.94
359.576	87.94
359.802	93.94
360.029	92.94
360.256	86.94
360.483	77.94
360.709	81.94
360.936	70.94
361.163	95.94
361.39	104.94
361.616	88.94
361.843	90.94
362.07	82.94
362.296	84.94
362.523	81.94
362.749	80.94
362.976	99.94
363.203	94.94
363.429	72.94
363.656	98.94
363.882	86.94
364.109	102.94
364.335	86.94
364.562	97.94
364.788	85.94
365.015	83.94
365.241	90.94
365.468	98.94
365.694	85.94
365.92	85.94
366.147	93.94
366.373	90.94
366.599	83.94
366.826	88.94
367.052	89.94
367.278	92.94
367.505	91.94
367.731	99.94
367.957	80.94
368.184	86.94
368.41	97.94
368.636	86.94
368.862	86.94
369.089	86.94
369.315	95.94
369.541	80.94
369.767	89.94
369.993	86.94
370.219	105.94
370.445	85.94
370.672	86.94
370.898	93.94
371.124	96.94
371.35	89.94
371.576	103.94
371.802	95.94
372.028	90.94
372.254	94.94
372.48	86.94
372.706	86.94
372.932	78.94
373.158	99.94
373.384	98.94
373.61	99.94
373.835	86.94
374.061	98.94
374.287	101.94
374.513	93.94
374.739	88.94
374.965	89.94
375.191	91.94
375.416	98.94
375.642	104.94
375.868	87.94
376.094	98.94
376.319	80.94
376.545	86.94
376.771	107.94
376.997	95.94
377.222	92.94
377.448	95.94
377.674	98.94
377.899	91.94
378.125	106.94
378.35	99.94
378.576	98.94
378.802	100.94
379.027	90.94
379.253	79.94
379.478	112.94
379.704	98.94
379.929	108.94
380.155	116.94
380.38	99.94
380.606	94.94
380.831	97.94
381.057	96.94
381.282	103.94
381.507	89.94
381.733	102.94
381.958	102.94
382.184	101.94
382.409	92.94
382.634	97.94
382.86	89.94
383.085	98.94
383.31	103.94
383.535	108.94
383.761	94.94
383.986	103.94
384.211	97.94
384.436	88.94
384.662	103.94
384.887	109.94
385.112	104.94
385.337	93.94
385.562	91.94
385.787	93.94
386.013	105.94
386.238	115.94
386.463	103.94
386.688	95.94
386.913	108.94
387.138	112.94
387.363	102.94
387.588	102.94
387.813	89.94
388.038	87.94
388.263	107.94
388.488	95.94
388.713	106.94
388.938	104.94
389.163	98.94
389.387	100.94
389.612	119.94
389.837	113.94
390.062	104.94
390.287	94.94
390.512	109.94
390.736	117.94
390.961	105.94
391.186	111.94
391.411	105.94
391.636	113.94
391.86	121.94
392.085	88.94
392.31	107.94
392.534	116.94
392.759	113.94
392.984	102.94
393.208	102.94
393.433	115.94
393.658	108.94
393.882	126.94
394.107	110.94
394.331	111.94
394.556	108.94
394.78	118.94
395.005	121.94
395.229	108.94
395.454	117.94
395.678	125.94
395.903	116.94
396.127	111.94
396.352	123.94
396.576	114.94
396.801	113.94
397.025	98.94
397.249	121.94
397.474	110.94
397.698	108.94
397.922	138.94
398.147	116.94
398.371	101.94
398.595	113.94
398.82	110.94
399.044	124.94
399.268	108.94
399.492	115.94
399.717	119.94
399.941	122.94
400.165	120.94
400.389	121.94
400.613	102.94
400.837	111.94
401.062	108.94
401.286	109.94
401.51	122.94
401.734	109.94
401.958	101.94
402.182	115.94
402.406	108.94
402.63	113.94
402.854	117.94
403.078	120.94
403.302	95.94
403.526	113.94
403.75	129.94
403.974	118.94
404.198	121.94
404.422	123.94
404.645	124.94
404.869	129.94
405.093	115.94
405.317	117.94
405.541	105.94
405.765	122.94
405.988	115.94
406.212	117.94
406.436	123.94
406.66	138.94
406.883	133.94
407.107	121.94
407.331	117.94
407.555	111.94
407.778	123.94
408.002	124.94
408.226	132.94
408.449	131.94
408.673	118.94
408.896	126.94
409.12	132.94
409.344	141.94
409.567	114.94
409.791	122.94
410.014	128.94
410.238	118.94
410.461	121.94
410.685	125.94
410.908	133.94
411.132	136.94
411.355	115.94
411.578	123.94
411.802	123.94
412.025	132.94
412.249	123.94
412.472	131.94
412.695	114.94
412.919	138.94
413.142	128.94
413.365	123.94
413.589	133.94
413.812	140.94
414.035	132.94
414.258	126.94
414.482	130.94
414.705	127.94
414.928	139.94
415.151	131.94
415.374	137.94
415.597	128.94
415.821	141.94
416.044	137.94
416.267	127.94
416.49	122.94
416.713	142.94
416.936	126.94
417.159	122.94
417.382	127.94
417.605	134.94
417.828	117.94
418.051	125.94
418.274	137.94
418.497	128.94
418.72	127.94
418.943	124.94
419.166	141.94
419.389	144.94
419.611	131.94
419.834	131.94
420.057	131.94
420.28	149.94
420.503	154.94
420.726	143.94
420.948	132.94
421.171	154.94
421.394	132.94
421.617	157.94
421.839	143.94
422.062	143.94
422.285	146.94
422.507	131.94
422.73	129.94
422.953	133.94
423.175	126.94
423.398	148.94
423.621	147.94
423.843	132.94
424.066	151.94
424.288	146.94
424.511	149.94
424.733	148.94
424.956	139.94
425.178	135.94
425.401	138.94
425.623	148.94
425.846	135.94
426.068	138.94
426.291	133.94
426.513	123.94
426.735	135.94
426.958	141.94
427.18	147.94
427.402	131.94
427.625	127.94
427.847	135.94
428.069	141.94
428.292	127.94
428.514	137.94
428.736	138.94
428.958	153.94
429.181	135.94
429.403	141.94
429.625	139.94
429.847	127.94
430.069	142.94
430.292	135.94
430.514	147.94
430.736	142.94
430.958	137.94
431.18	129.94
431.402	125.94
431.624	129.94
431.846	105.94
432.068	99.94
432.29	91.94
432.512	124.94
432.734	132.94
432.956	131.94
433.178	144.94
433.4	155.94
433.622	150.94
433.844	123.94
434.066	117.94
434.287	116.94
434.509	104.94
434.731	109.94
434.953	114.94
435.175	117.94
435.397	127.94
435.618	115.94
435.84	124.94
436.062	125.94
436.284	136.94
436.505	134.94
436.727	141.94
436.949	154.94
437.17	147.94
437.392	138.94
437.614	131.94
437.835	119.94
438.057	110.94
438.278	121.94
438.5	125.94
438.721	133.94
438.943	151.94
439.165	145.94
439.386	154.94
439.608	157.94
439.829	162.94
440.05	160.94
440.272	150.94
440.493	159.94
440.715	133.94
440.936	144.94
441.158	158.94
441.379	150.94
441.6	163.94
441.822	170.94
442.043	136.94
442.264	161.94
442.486	149.94
442.707	155.94
442.928	135.94
443.149	134.94
443.371	143.94
443.592	147.94
443.813	149.94
444.034	156.94
444.255	142.94
444.476	151.94
444.698	152.94
444.919	143.94
445.14	277.94
445.361	220.94
445.582	170.94
445.803	135.94
446.024	153.94
446.245	150.94
446.466	164.94
446.687	172.94
446.908	155.94
447.129	172.94
447.35	161.94
447.571	142.94
447.792	163.94
448.013	155.94
448.234	158.94
448.455	165.94
448.675	149.94
448.896	149.94
449.117	149.94
449.338	141.94
449.559	161.94
449.779	141.94
450	139.94
450.221	150.94
450.442	157.94
450.662	139.94
450.883	147.94
451.104	145.94
451.324	143.94
451.545	131.94
451.766	141.94
451.986	139.94
452.207	125.94
452.428	142.94
452.648	136.94
452.869	124.94
453.089	128.94
453.31	121.94
453.53	107.94
453.751	108.94
453.971	117.94
454.192	106.94
454.412	112.94
454.633	118.94
454.853	119.94
455.073	135.94
455.294	132.94
455.514	128.94
455.734	122.94
455.955	123.94
456.175	118.94
456.395	108.94
456.616	110.94
456.836	102.94
457.056	111.94
457.276	106.94
457.497	125.94
457.717	113.94
457.937	118.94
458.157	102.94
458.377	121.94
458.598	108.94
458.818	106.94
459.038	84.94
459.258	90.94
459.478	98.94
459.698	92.94
459.918	110.94
460.138	105.94
460.358	114.94
460.578	129.94
460.798	117.94
461.018	123.94
461.238	123.94
461.458	121.94
461.678	116.94
461.898	115.94
462.118	113.94
462.338	110.94
462.558	115.94
462.777	120.94
462.997	111.94
463.217	122.94
463.437	121.94
463.657	129.94
463.876	109.94
464.096	119.94
464.316	107.94
464.536	121.94
464.755	99.94
464.975	122.94
465.195	131.94
465.414	130.94
465.634	122.94
465.854	117.94
466.073	123.94
466.293	127.94
466.512	145.94
466.732	149.94
466.951	141.94
467.171	135.94
467.391	137.94
467.61	128.94
467.829	153.94
468.049	137.94
468.268	136.94
468.488	146.94
468.707	136.94
468.927	151.94
469.146	137.94
469.365	153.94
469.585	147.94
469.804	144.94
470.023	155.94
470.243	152.94
470.462	154.94
470.681	140.94
470.901	157.94
471.12	139.94
471.339	142.94
471.558	150.94
471.777	140.94
471.997	150.94
472.216	133.94
472.435	124.94
472.654	108.94
472.873	106.94
473.092	117.94
473.311	137.94
473.53	134.94
473.749	141.94
473.968	130.94
474.187	119.94
474.406	128.94
474.625	129.94
474.844	124.94
475.063	139.94
475.282	144.94
475.501	123.94
475.72	126.94
475.939	116.94
476.158	130.94
476.377	134.94
476.596	119.94
476.814	127.94
477.033	108.94
477.252	113.94
477.471	123.94
477.69	128.94
477.908	139.94
478.127	146.94
478.346	133.94
478.564	137.94
478.783	161.94
479.002	147.94
479.22	139.94
479.439	149.94
479.658	114.94
479.876	132.94
480.095	110.94
480.313	125.94
480.532	125.94
480.751	122.94
480.969	100.94
481.188	91.94
481.406	92.94
481.624	84.94
481.843	97.94
482.061	106.94
482.28	100.94
482.498	113.94
482.717	116.94
482.935	129.94
483.153	162.94
483.372	154.94
483.59	151.94
483.808	151.94
484.027	146.94
484.245	141.94
484.463	161.94
484.681	159.94
484.9	155.94
485.118	149.94
485.336	141.94
485.554	122.94
485.772	100.94
485.99	113.94
486.209	107.94
486.427	105.94
486.645	142.94
486.863	161.94
487.081	160.94
487.299	134.94
487.517	147.94
487.735	159.94
487.953	193.94
488.171	196.94
488.389	174.94
488.607	167.94
488.825	133.94
489.043	146.94
489.261	129.94
489.479	144.94
489.696	146.94
489.914	150.94
490.132	147.94
490.35	170.94
490.568	176.94
490.786	182.94
491.003	193.94
491.221	190.94
491.439	197.94
491.657	200.94
491.874	217.94
492.092	238.94
492.31	260.94
492.527	238.94
492.745	217.94
492.963	197.94
493.18	206.94
493.398	197.94
493.615	198.94
493.833	190.94
494.05	189.94
494.268	188.94
494.485	190.94
494.703	179.94
494.92	195.94
495.138	184.94
495.355	172.94
495.573	184.94
495.79	172.94
496.008	181.94
496.225	169.94
496.442	179.94
496.66	181.94
496.877	183.94
497.094	179.94
497.312	166.94
497.529	169.94
497.746	150.94
497.963	143.94
498.181	149.94
498.398	123.94
498.615	129.94
498.832	121.94
499.049	114.94
499.267	120.94
499.484	135.94
499.701	149.94
499.918	152.94
500.135	146.94
500.352	138.94
500.569	149.94
500.786	154.94
501.003	142.94
501.22	135.94
501.437	137.94
501.654	137.94
501.871	132.94
502.088	158.94
502.305	147.94
502.522	138.94
502.739	147.94
502.956	139.94
503.172	127.94
503.389	126.94
503.606	134.94
503.823	118.94
504.04	137.94
504.256	131.94
504.473	131.94
504.69	135.94
504.907	120.94
505.123	125.94
505.34	119.94
505.557	133.94
505.773	131.94
505.99	113.94
506.207	129.94
506.423	125.94
506.64	132.94
506.856	129.94
507.073	125.94
507.289	129.94
507.506	126.94
507.722	127.94
507.939	113.94
508.155	118.94
508.372	116.94
508.588	120.94
508.805	113.94
509.021	108.94
509.238	109.94
509.454	122.94
509.67	97.94
509.887	101.94
510.103	92.94
510.319	99.94
510.536	100.94
510.752	89.94
510.968	85.94
511.184	100.94
