Data from Location6.07152019.Energy5.Lamp.07192019.3%Agarose_HRD10591_16-12-12-395.txt Node
Date: Fri Jul 19 16:12:12 EDT 2019
User: cochatt
Spectrometer: HR+D1059
Trigger mode: 1
Integration Time (sec): 1.000000E-1
Scans to average: 1
Electric dark correction enabled: true
Nonlinearity correction enabled: false
Boxcar width: 0
XAxis mode: Wavelengths
Number of Pixels in Spectrum: 2048
>>>>>Begin Spectral Data<<<<<
223.165	-23.69
223.4	-23.69
223.635	-23.69
223.869	-19.69
224.104	-6.69
224.338	-17.69
224.573	1.31
224.808	-14.69
225.042	-9.69
225.277	-1.69
225.511	4.31
225.746	-6.69
225.98	7.31
226.215	5.31
226.449	11.31
226.683	13.31
226.918	30.31
227.152	27.31
227.387	30.31
227.621	40.31
227.856	27.31
228.09	43.31
228.324	51.31
228.559	54.31
228.793	63.31
229.027	69.31
229.262	75.31
229.496	70.31
229.73	84.31
229.964	68.31
230.199	82.31
230.433	77.31
230.667	79.31
230.901	82.31
231.136	83.31
231.37	89.31
231.604	85.31
231.838	78.31
232.072	78.31
232.306	85.31
232.541	83.31
232.775	85.31
233.009	75.31
233.243	79.31
233.477	74.31
233.711	80.31
233.945	77.31
234.179	91.31
234.413	77.31
234.647	85.31
234.881	73.31
235.115	87.31
235.349	82.31
235.583	82.31
235.817	78.31
236.051	81.31
236.285	77.31
236.519	78.31
236.753	87.31
236.987	79.31
237.221	84.31
237.455	87.31
237.689	80.31
237.922	78.31
238.156	80.31
238.39	84.31
238.624	84.31
238.858	69.31
239.091	94.31
239.325	84.31
239.559	93.31
239.793	85.31
240.027	76.31
240.26	90.31
240.494	80.31
240.728	73.31
240.961	75.31
241.195	86.31
241.429	80.31
241.662	65.31
241.896	92.31
242.13	87.31
242.363	93.31
242.597	78.31
242.83	84.31
243.064	73.31
243.298	79.31
243.531	84.31
243.765	85.31
243.998	86.31
244.232	87.31
244.465	80.31
244.699	78.31
244.932	85.31
245.166	64.31
245.399	80.31
245.633	82.31
245.866	83.31
246.099	83.31
246.333	82.31
246.566	81.31
246.8	78.31
247.033	95.31
247.266	97.31
247.5	74.31
247.733	78.31
247.966	84.31
248.2	81.31
248.433	78.31
248.666	81.31
248.899	85.31
249.133	76.31
249.366	81.31
249.599	86.31
249.832	102.31
250.066	94.31
250.299	106.31
250.532	89.31
250.765	80.31
250.998	85.31
251.231	79.31
251.465	94.31
251.698	89.31
251.931	83.31
252.164	80.31
252.397	61.31
252.63	74.31
252.863	85.31
253.096	94.31
253.329	83.31
253.562	81.31
253.795	82.31
254.028	81.31
254.261	85.31
254.494	69.31
254.727	92.31
254.96	88.31
255.193	74.31
255.426	75.31
255.659	89.31
255.892	87.31
256.124	87.31
256.357	91.31
256.59	84.31
256.823	83.31
257.056	79.31
257.289	72.31
257.521	87.31
257.754	76.31
257.987	89.31
258.22	88.31
258.452	83.31
258.685	86.31
258.918	83.31
259.151	73.31
259.383	71.31
259.616	78.31
259.849	79.31
260.081	89.31
260.314	75.31
260.547	86.31
260.779	81.31
261.012	76.31
261.244	89.31
261.477	78.31
261.71	84.31
261.942	81.31
262.175	83.31
262.407	85.31
262.64	81.31
262.872	83.31
263.105	71.31
263.337	79.31
263.57	80.31
263.802	78.31
264.035	75.31
264.267	81.31
264.499	67.31
264.732	81.31
264.964	70.31
265.197	95.31
265.429	82.31
265.661	98.31
265.894	85.31
266.126	93.31
266.358	82.31
266.591	83.31
266.823	74.31
267.055	87.31
267.287	87.31
267.52	83.31
267.752	105.31
267.984	82.31
268.216	78.31
268.448	77.31
268.681	72.31
268.913	90.31
269.145	80.31
269.377	73.31
269.609	80.31
269.841	91.31
270.073	93.31
270.306	76.31
270.538	89.31
270.77	91.31
271.002	91.31
271.234	88.31
271.466	89.31
271.698	90.31
271.93	80.31
272.162	76.31
272.394	85.31
272.626	82.31
272.858	88.31
273.09	89.31
273.322	84.31
273.553	89.31
273.785	76.31
274.017	89.31
274.249	101.31
274.481	75.31
274.713	86.31
274.945	85.31
275.176	84.31
275.408	89.31
275.64	81.31
275.872	83.31
276.104	86.31
276.335	89.31
276.567	83.31
276.799	87.31
277.031	94.31
277.262	81.31
277.494	74.31
277.726	75.31
277.957	82.31
278.189	83.31
278.421	88.31
278.652	78.31
278.884	89.31
279.115	83.31
279.347	85.31
279.579	89.31
279.81	95.31
280.042	73.31
280.273	79.31
280.505	86.31
280.736	86.31
280.968	82.31
281.199	71.31
281.431	83.31
281.662	82.31
281.894	81.31
282.125	67.31
282.356	76.31
282.588	89.31
282.819	86.31
283.051	89.31
283.282	94.31
283.513	102.31
283.745	93.31
283.976	84.31
284.207	80.31
284.439	80.31
284.67	79.31
284.901	87.31
285.132	99.31
285.364	82.31
285.595	89.31
285.826	85.31
286.057	96.31
286.288	90.31
286.52	89.31
286.751	86.31
286.982	89.31
287.213	87.31
287.444	80.31
287.675	83.31
287.906	99.31
288.138	90.31
288.369	88.31
288.6	90.31
288.831	86.31
289.062	93.31
289.293	88.31
289.524	78.31
289.755	83.31
289.986	89.31
290.217	85.31
290.448	84.31
290.679	82.31
290.91	95.31
291.141	84.31
291.371	90.31
291.602	92.31
291.833	86.31
292.064	82.31
292.295	95.31
292.526	84.31
292.757	98.31
292.987	87.31
293.218	80.31
293.449	95.31
293.68	91.31
293.91	96.31
294.141	95.31
294.372	88.31
294.603	76.31
294.833	78.31
295.064	91.31
295.295	61.31
295.525	72.31
295.756	97.31
295.987	99.31
296.217	96.31
296.448	82.31
296.679	86.31
296.909	98.31
297.14	85.31
297.37	81.31
297.601	83.31
297.831	87.31
298.062	94.31
298.292	82.31
298.523	86.31
298.753	82.31
298.984	83.31
299.214	100.31
299.445	96.31
299.675	76.31
299.905	79.31
300.136	77.31
300.366	92.31
300.597	75.31
300.827	89.31
301.057	97.31
301.288	81.31
301.518	99.31
301.748	78.31
301.979	91.31
302.209	87.31
302.439	71.31
302.669	81.31
302.9	85.31
303.13	85.31
303.36	90.31
303.59	95.31
303.82	85.31
304.051	88.31
304.281	106.31
304.511	77.31
304.741	85.31
304.971	95.31
305.201	80.31
305.431	87.31
305.661	73.31
305.891	96.31
306.121	91.31
306.352	83.31
306.582	79.31
306.812	71.31
307.042	86.31
307.272	74.31
307.502	90.31
307.731	94.31
307.961	85.31
308.191	84.31
308.421	93.31
308.651	100.31
308.881	90.31
309.111	84.31
309.341	82.31
309.571	79.31
309.8	91.31
310.03	83.31
310.26	82.31
310.49	76.31
310.72	97.31
310.949	97.31
311.179	85.31
311.409	82.31
311.639	81.31
311.868	75.31
312.098	89.31
312.328	84.31
312.557	81.31
312.787	82.31
313.017	77.31
313.246	87.31
313.476	97.31
313.706	84.31
313.935	92.31
314.165	99.31
314.394	81.31
314.624	83.31
314.853	91.31
315.083	94.31
315.312	77.31
315.542	74.31
315.771	98.31
316.001	101.31
316.23	100.31
316.46	83.31
316.689	98.31
316.919	78.31
317.148	81.31
317.377	69.31
317.607	89.31
317.836	84.31
318.065	93.31
318.295	99.31
318.524	91.31
318.753	101.31
318.983	84.31
319.212	93.31
319.441	91.31
319.67	96.31
319.9	91.31
320.129	89.31
320.358	82.31
320.587	86.31
320.816	79.31
321.046	104.31
321.275	98.31
321.504	81.31
321.733	101.31
321.962	90.31
322.191	77.31
322.42	89.31
322.649	75.31
322.878	84.31
323.108	95.31
323.337	90.31
323.566	80.31
323.795	90.31
324.024	83.31
324.253	88.31
324.482	94.31
324.71	87.31
324.939	87.31
325.168	99.31
325.397	88.31
325.626	87.31
325.855	78.31
326.084	76.31
326.313	91.31
326.542	85.31
326.77	94.31
326.999	84.31
327.228	77.31
327.457	78.31
327.686	79.31
327.914	87.31
328.143	93.31
328.372	80.31
328.6	83.31
328.829	79.31
329.058	85.31
329.287	100.31
329.515	80.31
329.744	84.31
329.972	85.31
330.201	77.31
330.43	80.31
330.658	71.31
330.887	77.31
331.115	91.31
331.344	89.31
331.572	89.31
331.801	87.31
332.03	81.31
332.258	62.31
332.486	79.31
332.715	84.31
332.943	91.31
333.172	87.31
333.4	81.31
333.629	89.31
333.857	90.31
334.085	95.31
334.314	90.31
334.542	85.31
334.771	85.31
334.999	91.31
335.227	87.31
335.455	84.31
335.684	106.31
335.912	77.31
336.14	82.31
336.369	85.31
336.597	95.31
336.825	87.31
337.053	84.31
337.281	98.31
337.51	91.31
337.738	90.31
337.966	81.31
338.194	80.31
338.422	91.31
338.65	98.31
338.878	89.31
339.106	73.31
339.334	70.31
339.562	75.31
339.79	79.31
340.018	90.31
340.246	92.31
340.474	89.31
340.702	76.31
340.93	84.31
341.158	93.31
341.386	88.31
341.614	92.31
341.842	100.31
342.07	92.31
342.298	89.31
342.526	89.31
342.754	86.31
342.981	92.31
343.209	93.31
343.437	81.31
343.665	75.31
343.893	86.31
344.12	93.31
344.348	88.31
344.576	86.31
344.804	73.31
345.031	73.31
345.259	86.31
345.487	72.31
345.714	81.31
345.942	78.31
346.17	95.31
346.397	98.31
346.625	90.31
346.853	96.31
347.08	99.31
347.308	95.31
347.535	80.31
347.763	73.31
347.99	83.31
348.218	81.31
348.445	87.31
348.673	85.31
348.9	87.31
349.128	85.31
349.355	89.31
349.583	90.31
349.81	92.31
350.037	79.31
350.265	97.31
350.492	86.31
350.72	98.31
350.947	99.31
351.174	81.31
351.402	83.31
351.629	85.31
351.856	83.31
352.083	82.31
352.311	83.31
352.538	78.31
352.765	95.31
352.992	82.31
353.22	94.31
353.447	92.31
353.674	88.31
353.901	88.31
354.128	82.31
354.355	83.31
354.583	70.31
354.81	89.31
355.037	85.31
355.264	92.31
355.491	81.31
355.718	88.31
355.945	82.31
356.172	90.31
356.399	79.31
356.626	91.31
356.853	79.31
357.08	82.31
357.307	92.31
357.534	91.31
357.761	85.31
357.988	77.31
358.215	86.31
358.441	87.31
358.668	81.31
358.895	86.31
359.122	94.31
359.349	85.31
359.576	88.31
359.802	89.31
360.029	92.31
360.256	86.31
360.483	91.31
360.709	85.31
360.936	79.31
361.163	106.31
361.39	79.31
361.616	84.31
361.843	81.31
362.07	78.31
362.296	85.31
362.523	94.31
362.749	105.31
362.976	92.31
363.203	92.31
363.429	92.31
363.656	80.31
363.882	87.31
364.109	73.31
364.335	88.31
364.562	91.31
364.788	85.31
365.015	84.31
365.241	88.31
365.468	79.31
365.694	86.31
365.92	76.31
366.147	96.31
366.373	78.31
366.599	88.31
366.826	84.31
367.052	90.31
367.278	94.31
367.505	95.31
367.731	83.31
367.957	91.31
368.184	74.31
368.41	89.31
368.636	93.31
368.862	95.31
369.089	87.31
369.315	95.31
369.541	102.31
369.767	76.31
369.993	90.31
370.219	98.31
370.445	99.31
370.672	90.31
370.898	86.31
371.124	98.31
371.35	96.31
371.576	81.31
371.802	94.31
372.028	92.31
372.254	103.31
372.48	105.31
372.706	91.31
372.932	93.31
373.158	100.31
373.384	96.31
373.61	89.31
373.835	100.31
374.061	95.31
374.287	87.31
374.513	91.31
374.739	79.31
374.965	97.31
375.191	99.31
375.416	108.31
375.642	84.31
375.868	92.31
376.094	96.31
376.319	93.31
376.545	107.31
376.771	85.31
376.997	86.31
377.222	94.31
377.448	92.31
377.674	102.31
377.899	102.31
378.125	92.31
378.35	95.31
378.576	94.31
378.802	97.31
379.027	91.31
379.253	93.31
379.478	95.31
379.704	86.31
379.929	97.31
380.155	99.31
380.38	96.31
380.606	109.31
380.831	88.31
381.057	102.31
381.282	106.31
381.507	110.31
381.733	101.31
381.958	107.31
382.184	87.31
382.409	99.31
382.634	107.31
382.86	98.31
383.085	103.31
383.31	100.31
383.535	88.31
383.761	90.31
383.986	105.31
384.211	102.31
384.436	90.31
384.662	93.31
384.887	98.31
385.112	81.31
385.337	84.31
385.562	93.31
385.787	105.31
386.013	95.31
386.238	93.31
386.463	95.31
386.688	92.31
386.913	106.31
387.138	108.31
387.363	107.31
387.588	101.31
387.813	111.31
388.038	99.31
388.263	94.31
388.488	110.31
388.713	106.31
388.938	95.31
389.163	93.31
389.387	106.31
389.612	107.31
389.837	119.31
390.062	108.31
390.287	110.31
390.512	119.31
390.736	114.31
390.961	108.31
391.186	107.31
391.411	103.31
391.636	90.31
391.86	106.31
392.085	108.31
392.31	122.31
392.534	106.31
392.759	111.31
392.984	88.31
393.208	108.31
393.433	116.31
393.658	108.31
393.882	103.31
394.107	103.31
394.331	127.31
394.556	96.31
394.78	103.31
395.005	116.31
395.229	111.31
395.454	115.31
395.678	122.31
395.903	117.31
396.127	95.31
396.352	114.31
396.576	123.31
396.801	115.31
397.025	102.31
397.249	103.31
397.474	109.31
397.698	115.31
397.922	123.31
398.147	105.31
398.371	100.31
398.595	104.31
398.82	104.31
399.044	109.31
399.268	111.31
399.492	105.31
399.717	108.31
399.941	118.31
400.165	109.31
400.389	108.31
400.613	111.31
400.837	121.31
401.062	121.31
401.286	123.31
401.51	119.31
401.734	121.31
401.958	113.31
402.182	114.31
402.406	117.31
402.63	117.31
402.854	111.31
403.078	112.31
403.302	122.31
403.526	110.31
403.75	123.31
403.974	121.31
404.198	110.31
404.422	125.31
404.645	109.31
404.869	129.31
405.093	122.31
405.317	121.31
405.541	122.31
405.765	114.31
405.988	127.31
406.212	124.31
406.436	108.31
406.66	113.31
406.883	119.31
407.107	127.31
407.331	122.31
407.555	121.31
407.778	123.31
408.002	111.31
408.226	127.31
408.449	120.31
408.673	133.31
408.896	115.31
409.12	125.31
409.344	120.31
409.567	113.31
409.791	137.31
410.014	130.31
410.238	122.31
410.461	120.31
410.685	127.31
410.908	123.31
411.132	116.31
411.355	126.31
411.578	120.31
411.802	110.31
412.025	128.31
412.249	121.31
412.472	125.31
412.695	132.31
412.919	124.31
413.142	134.31
413.365	126.31
413.589	124.31
413.812	135.31
414.035	115.31
414.258	135.31
414.482	121.31
414.705	127.31
414.928	125.31
415.151	131.31
415.374	130.31
415.597	131.31
415.821	132.31
416.044	121.31
416.267	126.31
416.49	125.31
416.713	125.31
416.936	128.31
417.159	125.31
417.382	131.31
417.605	130.31
417.828	125.31
418.051	134.31
418.274	138.31
418.497	139.31
418.72	132.31
418.943	141.31
419.166	124.31
419.389	124.31
419.611	125.31
419.834	142.31
420.057	147.31
420.28	141.31
420.503	139.31
420.726	134.31
420.948	135.31
421.171	151.31
421.394	148.31
421.617	143.31
421.839	144.31
422.062	144.31
422.285	125.31
422.507	137.31
422.73	140.31
422.953	125.31
423.175	134.31
423.398	128.31
423.621	138.31
423.843	135.31
424.066	139.31
424.288	153.31
424.511	136.31
424.733	148.31
424.956	146.31
425.178	138.31
425.401	141.31
425.623	119.31
425.846	139.31
426.068	139.31
426.291	134.31
426.513	138.31
426.735	134.31
426.958	140.31
427.18	153.31
427.402	147.31
427.625	139.31
427.847	133.31
428.069	123.31
428.292	123.31
428.514	127.31
428.736	119.31
428.958	133.31
429.181	132.31
429.403	131.31
429.625	127.31
429.847	126.31
430.069	133.31
430.292	144.31
430.514	137.31
430.736	143.31
430.958	137.31
431.18	129.31
431.402	129.31
431.624	123.31
431.846	107.31
432.068	101.31
432.29	101.31
432.512	122.31
432.734	127.31
432.956	136.31
433.178	134.31
433.4	125.31
433.622	141.31
433.844	132.31
434.066	124.31
434.287	109.31
434.509	101.31
434.731	103.31
434.953	118.31
435.175	129.31
435.397	131.31
435.618	118.31
435.84	107.31
436.062	125.31
436.284	135.31
436.505	135.31
436.727	133.31
436.949	131.31
437.17	141.31
437.392	131.31
437.614	131.31
437.835	114.31
438.057	121.31
438.278	121.31
438.5	122.31
438.721	134.31
438.943	133.31
439.165	153.31
439.386	155.31
439.608	161.31
439.829	133.31
440.05	152.31
440.272	165.31
440.493	148.31
440.715	151.31
440.936	146.31
441.158	134.31
441.379	161.31
441.6	145.31
441.822	131.31
442.043	157.31
442.264	150.31
442.486	134.31
442.707	140.31
442.928	152.31
443.149	140.31
443.371	141.31
443.592	141.31
443.813	139.31
444.034	144.31
444.255	144.31
444.476	142.31
444.698	157.31
444.919	137.31
445.14	277.31
445.361	211.31
445.582	161.31
445.803	136.31
446.024	147.31
446.245	159.31
446.466	152.31
446.687	149.31
446.908	151.31
447.129	157.31
447.35	164.31
447.571	151.31
447.792	161.31
448.013	146.31
448.234	164.31
448.455	154.31
448.675	156.31
448.896	150.31
449.117	139.31
449.338	133.31
449.559	144.31
449.779	140.31
450	140.31
450.221	130.31
450.442	142.31
450.662	130.31
450.883	134.31
451.104	141.31
451.324	124.31
451.545	135.31
451.766	141.31
451.986	121.31
452.207	137.31
452.428	118.31
452.648	121.31
452.869	121.31
453.089	116.31
453.31	128.31
453.53	116.31
453.751	101.31
453.971	103.31
454.192	131.31
454.412	116.31
454.633	114.31
454.853	125.31
455.073	129.31
455.294	136.31
455.514	140.31
455.734	138.31
455.955	124.31
456.175	127.31
456.395	118.31
456.616	99.31
456.836	113.31
457.056	103.31
457.276	111.31
457.497	101.31
457.717	100.31
457.937	124.31
458.157	117.31
458.377	108.31
458.598	92.31
458.818	99.31
459.038	84.31
459.258	96.31
459.478	89.31
459.698	96.31
459.918	110.31
460.138	105.31
460.358	115.31
460.578	127.31
460.798	120.31
461.018	113.31
461.238	126.31
461.458	121.31
461.678	118.31
461.898	126.31
462.118	125.31
462.338	114.31
462.558	115.31
462.777	101.31
462.997	102.31
463.217	113.31
463.437	122.31
463.657	114.31
463.876	113.31
464.096	113.31
464.316	131.31
464.536	127.31
464.755	129.31
464.975	116.31
465.195	121.31
465.414	129.31
465.634	113.31
465.854	118.31
466.073	129.31
466.293	139.31
466.512	119.31
466.732	127.31
466.951	142.31
467.171	132.31
467.391	135.31
467.61	145.31
467.829	148.31
468.049	136.31
468.268	143.31
468.488	140.31
468.707	135.31
468.927	147.31
469.146	155.31
469.365	133.31
469.585	140.31
469.804	129.31
470.023	150.31
470.243	147.31
470.462	135.31
470.681	150.31
470.901	149.31
471.12	153.31
471.339	139.31
471.558	143.31
471.777	145.31
471.997	143.31
472.216	143.31
472.435	116.31
472.654	133.31
472.873	103.31
473.092	124.31
473.311	129.31
473.53	134.31
473.749	127.31
473.968	129.31
474.187	133.31
474.406	121.31
474.625	117.31
474.844	129.31
475.063	125.31
475.282	119.31
475.501	120.31
475.72	108.31
475.939	129.31
476.158	124.31
476.377	129.31
476.596	114.31
476.814	118.31
477.033	122.31
477.252	115.31
477.471	150.31
477.69	133.31
477.908	151.31
478.127	161.31
478.346	149.31
478.564	143.31
478.783	137.31
479.002	149.31
479.22	138.31
479.439	149.31
479.658	124.31
479.876	122.31
480.095	115.31
480.313	111.31
480.532	123.31
480.751	121.31
480.969	88.31
481.188	95.31
481.406	99.31
481.624	94.31
481.843	90.31
482.061	105.31
482.28	109.31
482.498	127.31
482.717	107.31
482.935	107.31
483.153	151.31
483.372	154.31
483.59	148.31
483.808	149.31
484.027	126.31
484.245	147.31
484.463	158.31
484.681	181.31
484.9	153.31
485.118	152.31
485.336	141.31
485.554	125.31
485.772	101.31
485.99	107.31
486.209	119.31
486.427	112.31
486.645	139.31
486.863	125.31
487.081	144.31
487.299	141.31
487.517	153.31
487.735	175.31
487.953	200.31
488.171	186.31
488.389	190.31
488.607	156.31
488.825	158.31
489.043	127.31
489.261	135.31
489.479	145.31
489.696	147.31
489.914	158.31
490.132	143.31
490.35	164.31
490.568	153.31
490.786	179.31
491.003	189.31
491.221	202.31
491.439	199.31
491.657	199.31
491.874	211.31
492.092	219.31
492.31	245.31
492.527	227.31
492.745	232.31
492.963	201.31
493.18	206.31
493.398	186.31
493.615	180.31
493.833	188.31
494.05	193.31
494.268	181.31
494.485	180.31
494.703	199.31
494.92	180.31
495.138	185.31
495.355	181.31
495.573	158.31
495.79	175.31
496.008	190.31
496.225	174.31
496.442	177.31
496.66	184.31
496.877	165.31
497.094	189.31
497.312	172.31
497.529	166.31
497.746	155.31
497.963	155.31
498.181	134.31
498.398	120.31
498.615	131.31
498.832	122.31
499.049	123.31
499.267	122.31
499.484	126.31
499.701	132.31
499.918	141.31
500.135	146.31
500.352	156.31
500.569	164.31
500.786	146.31
501.003	144.31
501.22	150.31
501.437	151.31
501.654	126.31
501.871	132.31
502.088	131.31
502.305	134.31
502.522	131.31
502.739	135.31
502.956	133.31
503.172	127.31
503.389	127.31
503.606	132.31
503.823	121.31
504.04	118.31
504.256	123.31
504.473	137.31
504.69	131.31
504.907	116.31
505.123	133.31
505.34	131.31
505.557	122.31
505.773	140.31
505.99	133.31
506.207	124.31
506.423	137.31
506.64	121.31
506.856	137.31
507.073	120.31
507.289	114.31
507.506	142.31
507.722	118.31
507.939	133.31
508.155	124.31
508.372	114.31
508.588	130.31
508.805	125.31
509.021	107.31
509.238	109.31
509.454	122.31
509.67	103.31
509.887	101.31
510.103	100.31
510.319	105.31
510.536	91.31
510.752	90.31
510.968	84.31
511.184	91.31
