Data from Location6.07152019.Energy5.Lamp.07192019.3%Agarose_HRD10591_16-12-08-394.txt Node
Date: Fri Jul 19 16:12:08 EDT 2019
User: cochatt
Spectrometer: HR+D1059
Trigger mode: 1
Integration Time (sec): 1.000000E-1
Scans to average: 1
Electric dark correction enabled: true
Nonlinearity correction enabled: false
Boxcar width: 0
XAxis mode: Wavelengths
Number of Pixels in Spectrum: 2048
>>>>>Begin Spectral Data<<<<<
223.165	-14.12
223.4	-14.12
223.635	-14.12
223.869	-18.12
224.104	-16.12
224.338	-8.12
224.573	-18.12
224.808	-19.12
225.042	-15.12
225.277	-10.12
225.511	5.88
225.746	6.88
225.98	7.88
226.215	3.88
226.449	14.88
226.683	15.88
226.918	37.88
227.152	25.88
227.387	28.88
227.621	37.88
227.856	43.88
228.09	51.88
228.324	57.88
228.559	47.88
228.793	56.88
229.027	63.88
229.262	67.88
229.496	70.88
229.73	67.88
229.964	78.88
230.199	79.88
230.433	77.88
230.667	74.88
230.901	81.88
231.136	73.88
231.37	65.88
231.604	80.88
231.838	88.88
232.072	99.88
232.306	75.88
232.541	101.88
232.775	91.88
233.009	92.88
233.243	74.88
233.477	89.88
233.711	89.88
233.945	78.88
234.179	75.88
234.413	89.88
234.647	80.88
234.881	85.88
235.115	91.88
235.349	79.88
235.583	64.88
235.817	74.88
236.051	76.88
236.285	85.88
236.519	85.88
236.753	77.88
236.987	80.88
237.221	71.88
237.455	72.88
237.689	86.88
237.922	78.88
238.156	73.88
238.39	83.88
238.624	76.88
238.858	60.88
239.091	83.88
239.325	82.88
239.559	72.88
239.793	89.88
240.027	81.88
240.26	86.88
240.494	70.88
240.728	66.88
240.961	76.88
241.195	89.88
241.429	89.88
241.662	76.88
241.896	75.88
242.13	89.88
242.363	80.88
242.597	85.88
242.83	81.88
243.064	72.88
243.298	74.88
243.531	82.88
243.765	89.88
243.998	76.88
244.232	78.88
244.465	82.88
244.699	81.88
244.932	77.88
245.166	72.88
245.399	78.88
245.633	83.88
245.866	97.88
246.099	78.88
246.333	77.88
246.566	79.88
246.8	71.88
247.033	79.88
247.266	69.88
247.5	75.88
247.733	95.88
247.966	69.88
248.2	80.88
248.433	88.88
248.666	91.88
248.899	70.88
249.133	81.88
249.366	86.88
249.599	64.88
249.832	75.88
250.066	76.88
250.299	81.88
250.532	74.88
250.765	85.88
250.998	85.88
251.231	75.88
251.465	71.88
251.698	73.88
251.931	81.88
252.164	83.88
252.397	89.88
252.63	78.88
252.863	88.88
253.096	76.88
253.329	89.88
253.562	77.88
253.795	75.88
254.028	96.88
254.261	76.88
254.494	96.88
254.727	80.88
254.96	77.88
255.193	91.88
255.426	86.88
255.659	87.88
255.892	87.88
256.124	72.88
256.357	82.88
256.59	96.88
256.823	73.88
257.056	81.88
257.289	90.88
257.521	74.88
257.754	88.88
257.987	87.88
258.22	71.88
258.452	83.88
258.685	84.88
258.918	81.88
259.151	83.88
259.383	69.88
259.616	77.88
259.849	89.88
260.081	84.88
260.314	76.88
260.547	66.88
260.779	76.88
261.012	76.88
261.244	84.88
261.477	88.88
261.71	74.88
261.942	70.88
262.175	80.88
262.407	69.88
262.64	86.88
262.872	77.88
263.105	81.88
263.337	68.88
263.57	83.88
263.802	99.88
264.035	80.88
264.267	82.88
264.499	81.88
264.732	97.88
264.964	83.88
265.197	68.88
265.429	89.88
265.661	83.88
265.894	80.88
266.126	88.88
266.358	84.88
266.591	80.88
266.823	74.88
267.055	84.88
267.287	82.88
267.52	61.88
267.752	94.88
267.984	92.88
268.216	89.88
268.448	81.88
268.681	92.88
268.913	84.88
269.145	82.88
269.377	87.88
269.609	77.88
269.841	82.88
270.073	83.88
270.306	76.88
270.538	83.88
270.77	81.88
271.002	89.88
271.234	83.88
271.466	92.88
271.698	83.88
271.93	81.88
272.162	77.88
272.394	91.88
272.626	76.88
272.858	69.88
273.09	82.88
273.322	83.88
273.553	87.88
273.785	106.88
274.017	80.88
274.249	89.88
274.481	77.88
274.713	79.88
274.945	69.88
275.176	62.88
275.408	67.88
275.64	78.88
275.872	77.88
276.104	79.88
276.335	78.88
276.567	96.88
276.799	76.88
277.031	88.88
277.262	84.88
277.494	91.88
277.726	90.88
277.957	81.88
278.189	77.88
278.421	85.88
278.652	86.88
278.884	76.88
279.115	87.88
279.347	92.88
279.579	85.88
279.81	76.88
280.042	83.88
280.273	80.88
280.505	101.88
280.736	99.88
280.968	93.88
281.199	80.88
281.431	77.88
281.662	84.88
281.894	93.88
282.125	60.88
282.356	83.88
282.588	84.88
282.819	92.88
283.051	102.88
283.282	95.88
283.513	69.88
283.745	83.88
283.976	88.88
284.207	67.88
284.439	83.88
284.67	88.88
284.901	87.88
285.132	90.88
285.364	85.88
285.595	79.88
285.826	88.88
286.057	90.88
286.288	76.88
286.52	84.88
286.751	89.88
286.982	81.88
287.213	86.88
287.444	89.88
287.675	85.88
287.906	84.88
288.138	80.88
288.369	84.88
288.6	97.88
288.831	91.88
289.062	90.88
289.293	77.88
289.524	86.88
289.755	76.88
289.986	89.88
290.217	71.88
290.448	93.88
290.679	89.88
290.91	85.88
291.141	91.88
291.371	80.88
291.602	76.88
291.833	89.88
292.064	83.88
292.295	96.88
292.526	86.88
292.757	81.88
292.987	81.88
293.218	96.88
293.449	90.88
293.68	85.88
293.91	101.88
294.141	79.88
294.372	88.88
294.603	84.88
294.833	78.88
295.064	83.88
295.295	76.88
295.525	65.88
295.756	86.88
295.987	63.88
296.217	92.88
296.448	92.88
296.679	67.88
296.909	84.88
297.14	77.88
297.37	88.88
297.601	74.88
297.831	86.88
298.062	92.88
298.292	91.88
298.523	85.88
298.753	83.88
298.984	82.88
299.214	85.88
299.445	79.88
299.675	74.88
299.905	91.88
300.136	80.88
300.366	83.88
300.597	90.88
300.827	67.88
301.057	83.88
301.288	84.88
301.518	83.88
301.748	77.88
301.979	79.88
302.209	83.88
302.439	81.88
302.669	81.88
302.9	76.88
303.13	88.88
303.36	89.88
303.59	90.88
303.82	85.88
304.051	87.88
304.281	78.88
304.511	100.88
304.741	82.88
304.971	85.88
305.201	75.88
305.431	81.88
305.661	81.88
305.891	76.88
306.121	74.88
306.352	85.88
306.582	87.88
306.812	78.88
307.042	83.88
307.272	62.88
307.502	85.88
307.731	84.88
307.961	75.88
308.191	87.88
308.421	91.88
308.651	84.88
308.881	82.88
309.111	85.88
309.341	79.88
309.571	81.88
309.8	80.88
310.03	86.88
310.26	90.88
310.49	85.88
310.72	85.88
310.949	75.88
311.179	81.88
311.409	70.88
311.639	75.88
311.868	96.88
312.098	82.88
312.328	86.88
312.557	88.88
312.787	85.88
313.017	83.88
313.246	85.88
313.476	84.88
313.706	77.88
313.935	81.88
314.165	78.88
314.394	85.88
314.624	73.88
314.853	92.88
315.083	83.88
315.312	84.88
315.542	98.88
315.771	78.88
316.001	85.88
316.23	83.88
316.46	93.88
316.689	97.88
316.919	94.88
317.148	85.88
317.377	96.88
317.607	86.88
317.836	76.88
318.065	99.88
318.295	91.88
318.524	93.88
318.753	87.88
318.983	98.88
319.212	97.88
319.441	92.88
319.67	81.88
319.9	95.88
320.129	84.88
320.358	90.88
320.587	88.88
320.816	85.88
321.046	84.88
321.275	97.88
321.504	75.88
321.733	84.88
321.962	87.88
322.191	86.88
322.42	80.88
322.649	83.88
322.878	88.88
323.108	83.88
323.337	67.88
323.566	90.88
323.795	97.88
324.024	102.88
324.253	82.88
324.482	80.88
324.71	90.88
324.939	85.88
325.168	90.88
325.397	80.88
325.626	86.88
325.855	86.88
326.084	89.88
326.313	76.88
326.542	72.88
326.77	92.88
326.999	73.88
327.228	81.88
327.457	84.88
327.686	78.88
327.914	84.88
328.143	97.88
328.372	86.88
328.6	86.88
328.829	78.88
329.058	86.88
329.287	91.88
329.515	100.88
329.744	87.88
329.972	89.88
330.201	98.88
330.43	99.88
330.658	83.88
330.887	81.88
331.115	72.88
331.344	84.88
331.572	84.88
331.801	76.88
332.03	81.88
332.258	83.88
332.486	72.88
332.715	76.88
332.943	78.88
333.172	72.88
333.4	95.88
333.629	58.88
333.857	95.88
334.085	77.88
334.314	94.88
334.542	78.88
334.771	82.88
334.999	75.88
335.227	89.88
335.455	88.88
335.684	98.88
335.912	93.88
336.14	82.88
336.369	78.88
336.597	76.88
336.825	87.88
337.053	89.88
337.281	86.88
337.51	91.88
337.738	89.88
337.966	83.88
338.194	87.88
338.422	89.88
338.65	86.88
338.878	93.88
339.106	99.88
339.334	86.88
339.562	85.88
339.79	95.88
340.018	81.88
340.246	76.88
340.474	65.88
340.702	81.88
340.93	96.88
341.158	91.88
341.386	87.88
341.614	82.88
341.842	82.88
342.07	82.88
342.298	88.88
342.526	89.88
342.754	85.88
342.981	87.88
343.209	87.88
343.437	102.88
343.665	88.88
343.893	76.88
344.12	79.88
344.348	84.88
344.576	94.88
344.804	68.88
345.031	75.88
345.259	91.88
345.487	91.88
345.714	80.88
345.942	82.88
346.17	97.88
346.397	81.88
346.625	77.88
346.853	100.88
347.08	73.88
347.308	88.88
347.535	89.88
347.763	92.88
347.99	90.88
348.218	83.88
348.445	80.88
348.673	85.88
348.9	75.88
349.128	96.88
349.355	79.88
349.583	81.88
349.81	81.88
350.037	93.88
350.265	82.88
350.492	81.88
350.72	89.88
350.947	94.88
351.174	100.88
351.402	82.88
351.629	77.88
351.856	88.88
352.083	71.88
352.311	82.88
352.538	92.88
352.765	89.88
352.992	83.88
353.22	89.88
353.447	78.88
353.674	85.88
353.901	101.88
354.128	84.88
354.355	71.88
354.583	77.88
354.81	87.88
355.037	82.88
355.264	91.88
355.491	94.88
355.718	81.88
355.945	77.88
356.172	93.88
356.399	84.88
356.626	93.88
356.853	86.88
357.08	84.88
357.307	75.88
357.534	81.88
357.761	73.88
357.988	75.88
358.215	106.88
358.441	71.88
358.668	90.88
358.895	72.88
359.122	81.88
359.349	95.88
359.576	96.88
359.802	80.88
360.029	95.88
360.256	77.88
360.483	84.88
360.709	91.88
360.936	75.88
361.163	89.88
361.39	86.88
361.616	77.88
361.843	80.88
362.07	95.88
362.296	88.88
362.523	85.88
362.749	90.88
362.976	81.88
363.203	87.88
363.429	82.88
363.656	81.88
363.882	89.88
364.109	88.88
364.335	67.88
364.562	84.88
364.788	80.88
365.015	88.88
365.241	74.88
365.468	68.88
365.694	96.88
365.92	83.88
366.147	85.88
366.373	77.88
366.599	87.88
366.826	97.88
367.052	88.88
367.278	85.88
367.505	95.88
367.731	97.88
367.957	92.88
368.184	99.88
368.41	95.88
368.636	88.88
368.862	96.88
369.089	96.88
369.315	97.88
369.541	101.88
369.767	94.88
369.993	87.88
370.219	84.88
370.445	107.88
370.672	75.88
370.898	87.88
371.124	84.88
371.35	96.88
371.576	87.88
371.802	95.88
372.028	86.88
372.254	87.88
372.48	104.88
372.706	92.88
372.932	108.88
373.158	114.88
373.384	102.88
373.61	87.88
373.835	97.88
374.061	88.88
374.287	101.88
374.513	93.88
374.739	99.88
374.965	96.88
375.191	92.88
375.416	95.88
375.642	94.88
375.868	93.88
376.094	99.88
376.319	96.88
376.545	94.88
376.771	88.88
376.997	95.88
377.222	109.88
377.448	113.88
377.674	97.88
377.899	100.88
378.125	100.88
378.35	104.88
378.576	108.88
378.802	91.88
379.027	84.88
379.253	91.88
379.478	106.88
379.704	98.88
379.929	97.88
380.155	93.88
380.38	85.88
380.606	87.88
380.831	105.88
381.057	108.88
381.282	104.88
381.507	102.88
381.733	115.88
381.958	83.88
382.184	94.88
382.409	99.88
382.634	100.88
382.86	100.88
383.085	101.88
383.31	93.88
383.535	96.88
383.761	113.88
383.986	103.88
384.211	99.88
384.436	111.88
384.662	107.88
384.887	94.88
385.112	81.88
385.337	101.88
385.562	99.88
385.787	99.88
386.013	96.88
386.238	91.88
386.463	105.88
386.688	103.88
386.913	91.88
387.138	103.88
387.363	104.88
387.588	98.88
387.813	98.88
388.038	107.88
388.263	111.88
388.488	101.88
388.713	90.88
388.938	96.88
389.163	104.88
389.387	94.88
389.612	101.88
389.837	94.88
390.062	97.88
390.287	105.88
390.512	108.88
390.736	104.88
390.961	125.88
391.186	98.88
391.411	99.88
391.636	106.88
391.86	111.88
392.085	104.88
392.31	88.88
392.534	106.88
392.759	114.88
392.984	102.88
393.208	99.88
393.433	117.88
393.658	111.88
393.882	114.88
394.107	108.88
394.331	110.88
394.556	108.88
394.78	116.88
395.005	118.88
395.229	115.88
395.454	112.88
395.678	104.88
395.903	110.88
396.127	107.88
396.352	118.88
396.576	108.88
396.801	113.88
397.025	93.88
397.249	106.88
397.474	106.88
397.698	112.88
397.922	96.88
398.147	108.88
398.371	112.88
398.595	112.88
398.82	111.88
399.044	107.88
399.268	106.88
399.492	100.88
399.717	123.88
399.941	119.88
400.165	115.88
400.389	113.88
400.613	118.88
400.837	123.88
401.062	101.88
401.286	120.88
401.51	117.88
401.734	111.88
401.958	120.88
402.182	119.88
402.406	111.88
402.63	122.88
402.854	117.88
403.078	115.88
403.302	120.88
403.526	123.88
403.75	127.88
403.974	119.88
404.198	116.88
404.422	119.88
404.645	132.88
404.869	127.88
405.093	117.88
405.317	120.88
405.541	123.88
405.765	108.88
405.988	120.88
406.212	102.88
406.436	124.88
406.66	126.88
406.883	118.88
407.107	123.88
407.331	115.88
407.555	132.88
407.778	122.88
408.002	119.88
408.226	119.88
408.449	132.88
408.673	122.88
408.896	129.88
409.12	118.88
409.344	122.88
409.567	129.88
409.791	108.88
410.014	117.88
410.238	119.88
410.461	127.88
410.685	122.88
410.908	121.88
411.132	129.88
411.355	112.88
411.578	132.88
411.802	123.88
412.025	122.88
412.249	131.88
412.472	130.88
412.695	113.88
412.919	123.88
413.142	131.88
413.365	142.88
413.589	131.88
413.812	114.88
414.035	119.88
414.258	106.88
414.482	123.88
414.705	127.88
414.928	123.88
415.151	132.88
415.374	122.88
415.597	127.88
415.821	122.88
416.044	119.88
416.267	145.88
416.49	131.88
416.713	135.88
416.936	133.88
417.159	134.88
417.382	143.88
417.605	139.88
417.828	122.88
418.051	130.88
418.274	123.88
418.497	138.88
418.72	147.88
418.943	144.88
419.166	130.88
419.389	131.88
419.611	133.88
419.834	154.88
420.057	140.88
420.28	121.88
420.503	135.88
420.726	130.88
420.948	125.88
421.171	159.88
421.394	145.88
421.617	147.88
421.839	140.88
422.062	139.88
422.285	139.88
422.507	120.88
422.73	135.88
422.953	125.88
423.175	119.88
423.398	140.88
423.621	135.88
423.843	131.88
424.066	139.88
424.288	152.88
424.511	159.88
424.733	147.88
424.956	154.88
425.178	139.88
425.401	137.88
425.623	145.88
425.846	138.88
426.068	124.88
426.291	138.88
426.513	133.88
426.735	151.88
426.958	134.88
427.18	133.88
427.402	139.88
427.625	145.88
427.847	135.88
428.069	125.88
428.292	123.88
428.514	139.88
428.736	126.88
428.958	122.88
429.181	136.88
429.403	135.88
429.625	137.88
429.847	119.88
430.069	141.88
430.292	151.88
430.514	139.88
430.736	131.88
430.958	142.88
431.18	136.88
431.402	121.88
431.624	120.88
431.846	114.88
432.068	93.88
432.29	104.88
432.512	104.88
432.734	137.88
432.956	147.88
433.178	165.88
433.4	139.88
433.622	138.88
433.844	140.88
434.066	130.88
434.287	119.88
434.509	109.88
434.731	93.88
434.953	115.88
435.175	118.88
435.397	138.88
435.618	104.88
435.84	125.88
436.062	121.88
436.284	133.88
436.505	149.88
436.727	135.88
436.949	140.88
437.17	138.88
437.392	124.88
437.614	131.88
437.835	117.88
438.057	102.88
438.278	114.88
438.5	120.88
438.721	136.88
438.943	153.88
439.165	135.88
439.386	142.88
439.608	144.88
439.829	149.88
440.05	147.88
440.272	134.88
440.493	145.88
440.715	137.88
440.936	139.88
441.158	143.88
441.379	144.88
441.6	151.88
441.822	163.88
442.043	130.88
442.264	132.88
442.486	153.88
442.707	158.88
442.928	134.88
443.149	154.88
443.371	156.88
443.592	160.88
443.813	145.88
444.034	137.88
444.255	151.88
444.476	145.88
444.698	144.88
444.919	132.88
445.14	280.88
445.361	213.88
445.582	160.88
445.803	144.88
446.024	160.88
446.245	160.88
446.466	148.88
446.687	154.88
446.908	155.88
447.129	168.88
447.35	148.88
447.571	177.88
447.792	176.88
448.013	155.88
448.234	156.88
448.455	137.88
448.675	145.88
448.896	129.88
449.117	146.88
449.338	139.88
449.559	155.88
449.779	139.88
450	152.88
450.221	141.88
450.442	145.88
450.662	148.88
450.883	139.88
451.104	140.88
451.324	141.88
451.545	152.88
451.766	132.88
451.986	142.88
452.207	146.88
452.428	137.88
452.648	137.88
452.869	125.88
453.089	130.88
453.31	112.88
453.53	108.88
453.751	110.88
453.971	100.88
454.192	112.88
454.412	121.88
454.633	130.88
454.853	117.88
455.073	130.88
455.294	127.88
455.514	127.88
455.734	125.88
455.955	130.88
456.175	106.88
456.395	113.88
456.616	125.88
456.836	115.88
457.056	116.88
457.276	114.88
457.497	101.88
457.717	118.88
457.937	103.88
458.157	111.88
458.377	113.88
458.598	102.88
458.818	106.88
459.038	92.88
459.258	91.88
459.478	77.88
459.698	90.88
459.918	104.88
460.138	112.88
460.358	126.88
460.578	122.88
460.798	120.88
461.018	122.88
461.238	120.88
461.458	130.88
461.678	115.88
461.898	119.88
462.118	126.88
462.338	116.88
462.558	124.88
462.777	125.88
462.997	121.88
463.217	110.88
463.437	108.88
463.657	116.88
463.876	120.88
464.096	93.88
464.316	103.88
464.536	115.88
464.755	122.88
464.975	123.88
465.195	118.88
465.414	121.88
465.634	132.88
465.854	117.88
466.073	130.88
466.293	122.88
466.512	135.88
466.732	127.88
466.951	135.88
467.171	137.88
467.391	150.88
467.61	142.88
467.829	148.88
468.049	156.88
468.268	141.88
468.488	138.88
468.707	137.88
468.927	148.88
469.146	147.88
469.365	131.88
469.585	119.88
469.804	145.88
470.023	147.88
470.243	142.88
470.462	150.88
470.681	149.88
470.901	151.88
471.12	142.88
471.339	146.88
471.558	149.88
471.777	155.88
471.997	146.88
472.216	140.88
472.435	120.88
472.654	118.88
472.873	115.88
473.092	130.88
473.311	111.88
473.53	125.88
473.749	140.88
473.968	127.88
474.187	141.88
474.406	123.88
474.625	138.88
474.844	129.88
475.063	141.88
475.282	130.88
475.501	117.88
475.72	139.88
475.939	127.88
476.158	135.88
476.377	127.88
476.596	118.88
476.814	125.88
477.033	118.88
477.252	118.88
477.471	125.88
477.69	131.88
477.908	141.88
478.127	151.88
478.346	160.88
478.564	142.88
478.783	147.88
479.002	150.88
479.22	145.88
479.439	133.88
479.658	142.88
479.876	115.88
480.095	107.88
480.313	120.88
480.532	118.88
480.751	115.88
480.969	99.88
481.188	90.88
481.406	100.88
481.624	81.88
481.843	78.88
482.061	105.88
482.28	108.88
482.498	120.88
482.717	133.88
482.935	127.88
483.153	147.88
483.372	168.88
483.59	155.88
483.808	151.88
484.027	148.88
484.245	150.88
484.463	164.88
484.681	183.88
484.9	155.88
485.118	147.88
485.336	140.88
485.554	123.88
485.772	105.88
485.99	114.88
486.209	97.88
486.427	119.88
486.645	125.88
486.863	148.88
487.081	147.88
487.299	133.88
487.517	142.88
487.735	180.88
487.953	202.88
488.171	194.88
488.389	168.88
488.607	173.88
488.825	145.88
489.043	136.88
489.261	140.88
489.479	156.88
489.696	142.88
489.914	153.88
490.132	140.88
490.35	147.88
490.568	158.88
490.786	165.88
491.003	183.88
491.221	192.88
491.439	209.88
491.657	196.88
491.874	224.88
492.092	236.88
492.31	262.88
492.527	255.88
492.745	234.88
492.963	213.88
493.18	194.88
493.398	185.88
493.615	199.88
493.833	173.88
494.05	187.88
494.268	186.88
494.485	175.88
494.703	187.88
494.92	166.88
495.138	175.88
495.355	184.88
495.573	173.88
495.79	186.88
496.008	198.88
496.225	181.88
496.442	187.88
496.66	194.88
496.877	167.88
497.094	169.88
497.312	172.88
497.529	158.88
497.746	157.88
497.963	127.88
498.181	148.88
498.398	120.88
498.615	136.88
498.832	116.88
499.049	129.88
499.267	138.88
499.484	138.88
499.701	139.88
499.918	123.88
500.135	149.88
500.352	155.88
500.569	149.88
500.786	145.88
501.003	148.88
501.22	134.88
501.437	136.88
501.654	147.88
501.871	132.88
502.088	135.88
502.305	135.88
502.522	147.88
502.739	129.88
502.956	121.88
503.172	134.88
503.389	135.88
503.606	127.88
503.823	137.88
504.04	128.88
504.256	120.88
504.473	119.88
504.69	136.88
504.907	136.88
505.123	129.88
505.34	130.88
505.557	121.88
505.773	128.88
505.99	124.88
506.207	124.88
506.423	128.88
506.64	119.88
506.856	118.88
507.073	117.88
507.289	131.88
507.506	118.88
507.722	125.88
507.939	119.88
508.155	120.88
508.372	107.88
508.588	119.88
508.805	123.88
509.021	133.88
509.238	133.88
509.454	105.88
509.67	113.88
509.887	108.88
510.103	92.88
510.319	91.88
510.536	102.88
510.752	87.88
510.968	81.88
511.184	91.88
