Data from Location6.07152019.Energy5.Lamp.07192019.3%Agarose_HRD10591_16-10-50-394.txt Node
Date: Fri Jul 19 16:10:50 EDT 2019
User: cochatt
Spectrometer: HR+D1059
Trigger mode: 1
Integration Time (sec): 1.000000E-1
Scans to average: 1
Electric dark correction enabled: true
Nonlinearity correction enabled: false
Boxcar width: 0
XAxis mode: Wavelengths
Number of Pixels in Spectrum: 2048
>>>>>Begin Spectral Data<<<<<
223.165	-13.31
223.4	-13.31
223.635	-13.31
223.869	-28.31
224.104	-15.31
224.338	-18.31
224.573	-8.31
224.808	-14.31
225.042	-8.31
225.277	1.69
225.511	-7.31
225.746	0.69
225.98	1.69
226.215	10.69
226.449	8.69
226.683	20.69
226.918	36.69
227.152	32.69
227.387	24.69
227.621	24.69
227.856	28.69
228.09	51.69
228.324	42.69
228.559	56.69
228.793	68.69
229.027	52.69
229.262	49.69
229.496	60.69
229.73	71.69
229.964	70.69
230.199	75.69
230.433	70.69
230.667	63.69
230.901	80.69
231.136	83.69
231.37	72.69
231.604	64.69
231.838	65.69
232.072	77.69
232.306	81.69
232.541	68.69
232.775	84.69
233.009	62.69
233.243	72.69
233.477	88.69
233.711	87.69
233.945	75.69
234.179	81.69
234.413	76.69
234.647	70.69
234.881	82.69
235.115	81.69
235.349	73.69
235.583	73.69
235.817	78.69
236.051	69.69
236.285	69.69
236.519	73.69
236.753	77.69
236.987	67.69
237.221	78.69
237.455	70.69
237.689	68.69
237.922	64.69
238.156	78.69
238.39	72.69
238.624	81.69
238.858	61.69
239.091	71.69
239.325	67.69
239.559	83.69
239.793	62.69
240.027	78.69
240.26	77.69
240.494	69.69
240.728	72.69
240.961	72.69
241.195	69.69
241.429	96.69
241.662	83.69
241.896	65.69
242.13	100.69
242.363	88.69
242.597	78.69
242.83	90.69
243.064	69.69
243.298	62.69
243.531	72.69
243.765	83.69
243.998	76.69
244.232	78.69
244.465	83.69
244.699	79.69
244.932	79.69
245.166	74.69
245.399	96.69
245.633	75.69
245.866	68.69
246.099	75.69
246.333	83.69
246.566	62.69
246.8	75.69
247.033	58.69
247.266	68.69
247.5	72.69
247.733	72.69
247.966	83.69
248.2	56.69
248.433	62.69
248.666	78.69
248.899	71.69
249.133	82.69
249.366	68.69
249.599	76.69
249.832	70.69
250.066	92.69
250.299	83.69
250.532	84.69
250.765	86.69
250.998	80.69
251.231	72.69
251.465	77.69
251.698	75.69
251.931	65.69
252.164	83.69
252.397	83.69
252.63	69.69
252.863	96.69
253.096	77.69
253.329	66.69
253.562	83.69
253.795	87.69
254.028	68.69
254.261	77.69
254.494	87.69
254.727	78.69
254.96	67.69
255.193	78.69
255.426	86.69
255.659	83.69
255.892	79.69
256.124	82.69
256.357	78.69
256.59	80.69
256.823	64.69
257.056	92.69
257.289	75.69
257.521	87.69
257.754	74.69
257.987	82.69
258.22	84.69
258.452	85.69
258.685	91.69
258.918	72.69
259.151	76.69
259.383	73.69
259.616	77.69
259.849	74.69
260.081	84.69
260.314	69.69
260.547	78.69
260.779	72.69
261.012	91.69
261.244	78.69
261.477	84.69
261.71	79.69
261.942	83.69
262.175	78.69
262.407	85.69
262.64	73.69
262.872	96.69
263.105	95.69
263.337	79.69
263.57	73.69
263.802	72.69
264.035	79.69
264.267	67.69
264.499	76.69
264.732	74.69
264.964	70.69
265.197	89.69
265.429	81.69
265.661	80.69
265.894	67.69
266.126	64.69
266.358	73.69
266.591	78.69
266.823	68.69
267.055	72.69
267.287	67.69
267.52	71.69
267.752	85.69
267.984	73.69
268.216	65.69
268.448	93.69
268.681	87.69
268.913	77.69
269.145	75.69
269.377	68.69
269.609	88.69
269.841	80.69
270.073	89.69
270.306	79.69
270.538	89.69
270.77	74.69
271.002	81.69
271.234	77.69
271.466	92.69
271.698	75.69
271.93	77.69
272.162	78.69
272.394	79.69
272.626	87.69
272.858	73.69
273.09	76.69
273.322	62.69
273.553	84.69
273.785	82.69
274.017	79.69
274.249	79.69
274.481	75.69
274.713	81.69
274.945	61.69
275.176	88.69
275.408	77.69
275.64	79.69
275.872	88.69
276.104	82.69
276.335	70.69
276.567	68.69
276.799	74.69
277.031	67.69
277.262	82.69
277.494	86.69
277.726	78.69
277.957	72.69
278.189	84.69
278.421	72.69
278.652	81.69
278.884	101.69
279.115	82.69
279.347	72.69
279.579	88.69
279.81	77.69
280.042	91.69
280.273	73.69
280.505	76.69
280.736	79.69
280.968	82.69
281.199	74.69
281.431	78.69
281.662	92.69
281.894	94.69
282.125	83.69
282.356	74.69
282.588	66.69
282.819	77.69
283.051	93.69
283.282	87.69
283.513	83.69
283.745	82.69
283.976	80.69
284.207	77.69
284.439	80.69
284.67	92.69
284.901	82.69
285.132	75.69
285.364	79.69
285.595	79.69
285.826	80.69
286.057	78.69
286.288	83.69
286.52	72.69
286.751	81.69
286.982	82.69
287.213	78.69
287.444	79.69
287.675	67.69
287.906	83.69
288.138	75.69
288.369	72.69
288.6	85.69
288.831	85.69
289.062	82.69
289.293	79.69
289.524	72.69
289.755	68.69
289.986	99.69
290.217	78.69
290.448	86.69
290.679	82.69
290.91	73.69
291.141	78.69
291.371	86.69
291.602	79.69
291.833	71.69
292.064	85.69
292.295	80.69
292.526	73.69
292.757	66.69
292.987	85.69
293.218	76.69
293.449	89.69
293.68	82.69
293.91	72.69
294.141	72.69
294.372	83.69
294.603	85.69
294.833	83.69
295.064	88.69
295.295	88.69
295.525	102.69
295.756	69.69
295.987	83.69
296.217	92.69
296.448	81.69
296.679	78.69
296.909	81.69
297.14	76.69
297.37	75.69
297.601	82.69
297.831	83.69
298.062	72.69
298.292	82.69
298.523	72.69
298.753	71.69
298.984	72.69
299.214	85.69
299.445	78.69
299.675	87.69
299.905	79.69
300.136	86.69
300.366	80.69
300.597	83.69
300.827	95.69
301.057	89.69
301.288	93.69
301.518	78.69
301.748	77.69
301.979	80.69
302.209	80.69
302.439	78.69
302.669	80.69
302.9	82.69
303.13	70.69
303.36	80.69
303.59	75.69
303.82	80.69
304.051	98.69
304.281	93.69
304.511	86.69
304.741	82.69
304.971	78.69
305.201	79.69
305.431	75.69
305.661	89.69
305.891	94.69
306.121	82.69
306.352	78.69
306.582	71.69
306.812	84.69
307.042	79.69
307.272	83.69
307.502	80.69
307.731	67.69
307.961	91.69
308.191	66.69
308.421	82.69
308.651	86.69
308.881	93.69
309.111	76.69
309.341	93.69
309.571	80.69
309.8	67.69
310.03	68.69
310.26	72.69
310.49	76.69
310.72	94.69
310.949	79.69
311.179	98.69
311.409	90.69
311.639	92.69
311.868	86.69
312.098	79.69
312.328	82.69
312.557	97.69
312.787	64.69
313.017	71.69
313.246	81.69
313.476	82.69
313.706	80.69
313.935	73.69
314.165	74.69
314.394	88.69
314.624	81.69
314.853	72.69
315.083	90.69
315.312	82.69
315.542	78.69
315.771	76.69
316.001	62.69
316.23	69.69
316.46	68.69
316.689	78.69
316.919	71.69
317.148	87.69
317.377	83.69
317.607	102.69
317.836	75.69
318.065	78.69
318.295	92.69
318.524	89.69
318.753	69.69
318.983	88.69
319.212	84.69
319.441	75.69
319.67	66.69
319.9	82.69
320.129	83.69
320.358	90.69
320.587	79.69
320.816	78.69
321.046	76.69
321.275	85.69
321.504	86.69
321.733	72.69
321.962	86.69
322.191	85.69
322.42	70.69
322.649	81.69
322.878	78.69
323.108	79.69
323.337	94.69
323.566	76.69
323.795	85.69
324.024	85.69
324.253	67.69
324.482	72.69
324.71	68.69
324.939	77.69
325.168	80.69
325.397	93.69
325.626	78.69
325.855	79.69
326.084	96.69
326.313	80.69
326.542	85.69
326.77	90.69
326.999	91.69
327.228	80.69
327.457	74.69
327.686	71.69
327.914	83.69
328.143	85.69
328.372	76.69
328.6	85.69
328.829	75.69
329.058	82.69
329.287	79.69
329.515	81.69
329.744	86.69
329.972	67.69
330.201	66.69
330.43	85.69
330.658	72.69
330.887	92.69
331.115	79.69
331.344	89.69
331.572	78.69
331.801	76.69
332.03	65.69
332.258	85.69
332.486	83.69
332.715	75.69
332.943	76.69
333.172	77.69
333.4	80.69
333.629	87.69
333.857	92.69
334.085	80.69
334.314	75.69
334.542	75.69
334.771	77.69
334.999	73.69
335.227	65.69
335.455	63.69
335.684	79.69
335.912	80.69
336.14	86.69
336.369	83.69
336.597	97.69
336.825	77.69
337.053	77.69
337.281	72.69
337.51	83.69
337.738	74.69
337.966	72.69
338.194	69.69
338.422	81.69
338.65	87.69
338.878	87.69
339.106	79.69
339.334	98.69
339.562	82.69
339.79	84.69
340.018	82.69
340.246	80.69
340.474	84.69
340.702	80.69
340.93	69.69
341.158	86.69
341.386	82.69
341.614	90.69
341.842	93.69
342.07	75.69
342.298	80.69
342.526	84.69
342.754	89.69
342.981	94.69
343.209	68.69
343.437	76.69
343.665	76.69
343.893	75.69
344.12	94.69
344.348	86.69
344.576	84.69
344.804	74.69
345.031	93.69
345.259	75.69
345.487	93.69
345.714	72.69
345.942	76.69
346.17	84.69
346.397	76.69
346.625	93.69
346.853	84.69
347.08	84.69
347.308	77.69
347.535	77.69
347.763	87.69
347.99	76.69
348.218	87.69
348.445	79.69
348.673	88.69
348.9	71.69
349.128	70.69
349.355	77.69
349.583	73.69
349.81	85.69
350.037	72.69
350.265	68.69
350.492	97.69
350.72	82.69
350.947	93.69
351.174	74.69
351.402	86.69
351.629	79.69
351.856	73.69
352.083	71.69
352.311	79.69
352.538	67.69
352.765	91.69
352.992	87.69
353.22	82.69
353.447	75.69
353.674	78.69
353.901	81.69
354.128	93.69
354.355	77.69
354.583	78.69
354.81	82.69
355.037	73.69
355.264	81.69
355.491	85.69
355.718	98.69
355.945	89.69
356.172	76.69
356.399	64.69
356.626	80.69
356.853	82.69
357.08	77.69
357.307	92.69
357.534	66.69
357.761	78.69
357.988	85.69
358.215	79.69
358.441	92.69
358.668	78.69
358.895	72.69
359.122	93.69
359.349	91.69
359.576	87.69
359.802	86.69
360.029	79.69
360.256	74.69
360.483	72.69
360.709	74.69
360.936	88.69
361.163	93.69
361.39	93.69
361.616	79.69
361.843	95.69
362.07	81.69
362.296	66.69
362.523	81.69
362.749	82.69
362.976	88.69
363.203	80.69
363.429	81.69
363.656	90.69
363.882	77.69
364.109	85.69
364.335	84.69
364.562	78.69
364.788	68.69
365.015	92.69
365.241	76.69
365.468	84.69
365.694	72.69
365.92	79.69
366.147	72.69
366.373	84.69
366.599	84.69
366.826	87.69
367.052	72.69
367.278	77.69
367.505	82.69
367.731	95.69
367.957	95.69
368.184	86.69
368.41	91.69
368.636	91.69
368.862	100.69
369.089	76.69
369.315	91.69
369.541	95.69
369.767	95.69
369.993	87.69
370.219	82.69
370.445	88.69
370.672	85.69
370.898	84.69
371.124	94.69
371.35	85.69
371.576	83.69
371.802	76.69
372.028	94.69
372.254	90.69
372.48	102.69
372.706	94.69
372.932	86.69
373.158	70.69
373.384	102.69
373.61	83.69
373.835	87.69
374.061	90.69
374.287	75.69
374.513	90.69
374.739	75.69
374.965	89.69
375.191	99.69
375.416	77.69
375.642	95.69
375.868	74.69
376.094	94.69
376.319	87.69
376.545	90.69
376.771	81.69
376.997	92.69
377.222	71.69
377.448	87.69
377.674	75.69
377.899	90.69
378.125	88.69
378.35	96.69
378.576	94.69
378.802	93.69
379.027	87.69
379.253	91.69
379.478	98.69
379.704	80.69
379.929	89.69
380.155	80.69
380.38	100.69
380.606	92.69
380.831	100.69
381.057	101.69
381.282	90.69
381.507	98.69
381.733	87.69
381.958	101.69
382.184	78.69
382.409	97.69
382.634	97.69
382.86	83.69
383.085	106.69
383.31	101.69
383.535	98.69
383.761	97.69
383.986	104.69
384.211	89.69
384.436	101.69
384.662	84.69
384.887	95.69
385.112	115.69
385.337	106.69
385.562	99.69
385.787	110.69
386.013	98.69
386.238	95.69
386.463	94.69
386.688	93.69
386.913	97.69
387.138	92.69
387.363	97.69
387.588	102.69
387.813	109.69
388.038	103.69
388.263	91.69
388.488	103.69
388.713	85.69
388.938	97.69
389.163	106.69
389.387	94.69
389.612	89.69
389.837	101.69
390.062	114.69
390.287	105.69
390.512	97.69
390.736	86.69
390.961	107.69
391.186	93.69
391.411	107.69
391.636	93.69
391.86	101.69
392.085	98.69
392.31	118.69
392.534	101.69
392.759	110.69
392.984	92.69
393.208	89.69
393.433	94.69
393.658	107.69
393.882	112.69
394.107	98.69
394.331	109.69
394.556	99.69
394.78	98.69
395.005	99.69
395.229	112.69
395.454	103.69
395.678	114.69
395.903	116.69
396.127	103.69
396.352	100.69
396.576	115.69
396.801	114.69
397.025	116.69
397.249	107.69
397.474	96.69
397.698	103.69
397.922	107.69
398.147	102.69
398.371	107.69
398.595	114.69
398.82	111.69
399.044	104.69
399.268	124.69
399.492	120.69
399.717	109.69
399.941	118.69
400.165	112.69
400.389	114.69
400.613	90.69
400.837	106.69
401.062	110.69
401.286	106.69
401.51	97.69
401.734	121.69
401.958	108.69
402.182	117.69
402.406	113.69
402.63	99.69
402.854	114.69
403.078	101.69
403.302	114.69
403.526	126.69
403.75	122.69
403.974	110.69
404.198	104.69
404.422	101.69
404.645	108.69
404.869	112.69
405.093	119.69
405.317	112.69
405.541	112.69
405.765	122.69
405.988	120.69
406.212	117.69
406.436	116.69
406.66	102.69
406.883	114.69
407.107	106.69
407.331	110.69
407.555	109.69
407.778	114.69
408.002	109.69
408.226	122.69
408.449	110.69
408.673	117.69
408.896	112.69
409.12	126.69
409.344	109.69
409.567	122.69
409.791	124.69
410.014	130.69
410.238	115.69
410.461	129.69
410.685	128.69
410.908	117.69
411.132	122.69
411.355	122.69
411.578	124.69
411.802	127.69
412.025	118.69
412.249	112.69
412.472	108.69
412.695	109.69
412.919	115.69
413.142	116.69
413.365	119.69
413.589	120.69
413.812	123.69
414.035	120.69
414.258	133.69
414.482	112.69
414.705	126.69
414.928	128.69
415.151	100.69
415.374	122.69
415.597	128.69
415.821	119.69
416.044	113.69
416.267	130.69
416.49	119.69
416.713	114.69
416.936	116.69
417.159	126.69
417.382	148.69
417.605	124.69
417.828	117.69
418.051	133.69
418.274	134.69
418.497	138.69
418.72	127.69
418.943	140.69
419.166	119.69
419.389	148.69
419.611	145.69
419.834	113.69
420.057	149.69
420.28	140.69
420.503	122.69
420.726	137.69
420.948	127.69
421.171	138.69
421.394	122.69
421.617	142.69
421.839	138.69
422.062	134.69
422.285	123.69
422.507	127.69
422.73	130.69
422.953	111.69
423.175	124.69
423.398	116.69
423.621	130.69
423.843	121.69
424.066	137.69
424.288	139.69
424.511	146.69
424.733	153.69
424.956	148.69
425.178	136.69
425.401	141.69
425.623	126.69
425.846	126.69
426.068	112.69
426.291	123.69
426.513	127.69
426.735	136.69
426.958	155.69
427.18	135.69
427.402	133.69
427.625	133.69
427.847	129.69
428.069	130.69
428.292	145.69
428.514	125.69
428.736	118.69
428.958	135.69
429.181	134.69
429.403	134.69
429.625	132.69
429.847	121.69
430.069	132.69
430.292	121.69
430.514	141.69
430.736	124.69
430.958	128.69
431.18	119.69
431.402	123.69
431.624	117.69
431.846	100.69
432.068	80.69
432.29	93.69
432.512	100.69
432.734	103.69
432.956	121.69
433.178	128.69
433.4	139.69
433.622	135.69
433.844	112.69
434.066	110.69
434.287	109.69
434.509	102.69
434.731	112.69
434.953	110.69
435.175	127.69
435.397	121.69
435.618	119.69
435.84	120.69
436.062	109.69
436.284	132.69
436.505	114.69
436.727	132.69
436.949	135.69
437.17	124.69
437.392	127.69
437.614	125.69
437.835	104.69
438.057	101.69
438.278	127.69
438.5	128.69
438.721	133.69
438.943	142.69
439.165	134.69
439.386	134.69
439.608	155.69
439.829	128.69
440.05	153.69
440.272	146.69
440.493	142.69
440.715	148.69
440.936	146.69
441.158	136.69
441.379	147.69
441.6	165.69
441.822	144.69
442.043	137.69
442.264	141.69
442.486	140.69
442.707	142.69
442.928	123.69
443.149	148.69
443.371	150.69
443.592	153.69
443.813	138.69
444.034	130.69
444.255	142.69
444.476	133.69
444.698	146.69
444.919	147.69
445.14	270.69
445.361	197.69
445.582	154.69
445.803	146.69
446.024	143.69
446.245	141.69
446.466	155.69
446.687	130.69
446.908	167.69
447.129	146.69
447.35	153.69
447.571	147.69
447.792	145.69
448.013	150.69
448.234	143.69
448.455	158.69
448.675	142.69
448.896	141.69
449.117	142.69
449.338	128.69
449.559	156.69
449.779	142.69
450	127.69
450.221	132.69
450.442	121.69
450.662	141.69
450.883	130.69
451.104	133.69
451.324	130.69
451.545	133.69
451.766	143.69
451.986	135.69
452.207	131.69
452.428	128.69
452.648	133.69
452.869	122.69
453.089	128.69
453.31	120.69
453.53	122.69
453.751	106.69
453.971	110.69
454.192	116.69
454.412	115.69
454.633	118.69
454.853	126.69
455.073	128.69
455.294	125.69
455.514	133.69
455.734	131.69
455.955	137.69
456.175	125.69
456.395	116.69
456.616	119.69
456.836	117.69
457.056	114.69
457.276	112.69
457.497	111.69
457.717	112.69
457.937	115.69
458.157	108.69
458.377	102.69
458.598	116.69
458.818	95.69
459.038	76.69
459.258	88.69
459.478	82.69
459.698	75.69
459.918	88.69
460.138	102.69
460.358	102.69
460.578	124.69
460.798	127.69
461.018	122.69
461.238	123.69
461.458	117.69
461.678	107.69
461.898	119.69
462.118	107.69
462.338	108.69
462.558	102.69
462.777	114.69
462.997	99.69
463.217	111.69
463.437	108.69
463.657	113.69
463.876	108.69
464.096	120.69
464.316	109.69
464.536	119.69
464.755	101.69
464.975	109.69
465.195	112.69
465.414	109.69
465.634	109.69
465.854	120.69
466.073	137.69
466.293	125.69
466.512	140.69
466.732	123.69
466.951	135.69
467.171	141.69
467.391	140.69
467.61	136.69
467.829	137.69
468.049	148.69
468.268	130.69
468.488	141.69
468.707	156.69
468.927	132.69
469.146	143.69
469.365	154.69
469.585	138.69
469.804	162.69
470.023	134.69
470.243	133.69
470.462	145.69
470.681	139.69
470.901	145.69
471.12	148.69
471.339	139.69
471.558	130.69
471.777	128.69
471.997	134.69
472.216	139.69
472.435	117.69
472.654	112.69
472.873	119.69
473.092	132.69
473.311	133.69
473.53	118.69
473.749	116.69
473.968	117.69
474.187	119.69
474.406	120.69
474.625	125.69
474.844	129.69
475.063	127.69
475.282	128.69
475.501	109.69
475.72	120.69
475.939	114.69
476.158	131.69
476.377	122.69
476.596	108.69
476.814	115.69
477.033	94.69
477.252	116.69
477.471	118.69
477.69	126.69
477.908	146.69
478.127	137.69
478.346	139.69
478.564	140.69
478.783	142.69
479.002	144.69
479.22	131.69
479.439	133.69
479.658	110.69
479.876	98.69
480.095	108.69
480.313	114.69
480.532	111.69
480.751	119.69
480.969	90.69
481.188	86.69
481.406	94.69
481.624	86.69
481.843	102.69
482.061	100.69
482.28	102.69
482.498	114.69
482.717	115.69
482.935	136.69
483.153	148.69
483.372	143.69
483.59	145.69
483.808	150.69
484.027	131.69
484.245	153.69
484.463	154.69
484.681	168.69
484.9	152.69
485.118	133.69
485.336	124.69
485.554	110.69
485.772	90.69
485.99	87.69
486.209	126.69
486.427	114.69
486.645	111.69
486.863	138.69
487.081	139.69
487.299	136.69
487.517	132.69
487.735	163.69
487.953	196.69
488.171	203.69
488.389	189.69
488.607	165.69
488.825	157.69
489.043	125.69
489.261	144.69
489.479	140.69
489.696	132.69
489.914	140.69
490.132	152.69
490.35	151.69
490.568	175.69
490.786	174.69
491.003	172.69
491.221	187.69
491.439	163.69
491.657	191.69
491.874	202.69
492.092	231.69
492.31	249.69
492.527	258.69
492.745	212.69
492.963	210.69
493.18	189.69
493.398	188.69
493.615	186.69
493.833	181.69
494.05	187.69
494.268	183.69
494.485	173.69
494.703	189.69
494.92	160.69
495.138	180.69
495.355	170.69
495.573	175.69
495.79	172.69
496.008	180.69
496.225	168.69
496.442	178.69
496.66	179.69
496.877	167.69
497.094	159.69
497.312	156.69
497.529	162.69
497.746	150.69
497.963	142.69
498.181	114.69
498.398	128.69
498.615	135.69
498.832	123.69
499.049	115.69
499.267	118.69
499.484	133.69
499.701	135.69
499.918	136.69
500.135	134.69
500.352	132.69
500.569	141.69
500.786	136.69
501.003	137.69
501.22	134.69
501.437	146.69
501.654	135.69
501.871	115.69
502.088	124.69
502.305	134.69
502.522	136.69
502.739	130.69
502.956	115.69
503.172	118.69
503.389	121.69
503.606	116.69
503.823	133.69
504.04	116.69
504.256	121.69
504.473	119.69
504.69	104.69
504.907	111.69
505.123	116.69
505.34	126.69
505.557	112.69
505.773	118.69
505.99	126.69
506.207	115.69
506.423	121.69
506.64	122.69
506.856	128.69
507.073	115.69
507.289	101.69
507.506	116.69
507.722	119.69
507.939	119.69
508.155	126.69
508.372	128.69
508.588	108.69
508.805	103.69
509.021	111.69
509.238	106.69
509.454	108.69
509.67	109.69
509.887	100.69
510.103	77.69
510.319	86.69
510.536	92.69
510.752	76.69
510.968	80.69
511.184	92.69
511.401	85.69
511.617	88.69
511.833	99.69
