Data from Location6.07152019.Energy5.Lamp.07192019.3%Agarose_HRD10591_16-12-27-396.txt Node
Date: Fri Jul 19 16:12:27 EDT 2019
User: cochatt
Spectrometer: HR+D1059
Trigger mode: 1
Integration Time (sec): 1.000000E-1
Scans to average: 1
Electric dark correction enabled: true
Nonlinearity correction enabled: false
Boxcar width: 0
XAxis mode: Wavelengths
Number of Pixels in Spectrum: 2048
>>>>>Begin Spectral Data<<<<<
223.165	-23.31
223.4	-23.31
223.635	-23.31
223.869	-20.31
224.104	-21.31
224.338	-12.31
224.573	-23.31
224.808	-17.31
225.042	-12.31
225.277	-1.31
225.511	6.69
225.746	2.69
225.98	17.69
226.215	4.69
226.449	20.69
226.683	28.69
226.918	18.69
227.152	31.69
227.387	39.69
227.621	32.69
227.856	42.69
228.09	37.69
228.324	41.69
228.559	57.69
228.793	58.69
229.027	49.69
229.262	57.69
229.496	77.69
229.73	74.69
229.964	81.69
230.199	72.69
230.433	79.69
230.667	69.69
230.901	71.69
231.136	73.69
231.37	65.69
231.604	71.69
231.838	75.69
232.072	81.69
232.306	69.69
232.541	97.69
232.775	88.69
233.009	89.69
233.243	81.69
233.477	80.69
233.711	64.69
233.945	85.69
234.179	77.69
234.413	79.69
234.647	95.69
234.881	82.69
235.115	79.69
235.349	87.69
235.583	75.69
235.817	67.69
236.051	90.69
236.285	79.69
236.519	88.69
236.753	78.69
236.987	72.69
237.221	67.69
237.455	87.69
237.689	72.69
237.922	89.69
238.156	75.69
238.39	62.69
238.624	77.69
238.858	87.69
239.091	83.69
239.325	80.69
239.559	77.69
239.793	70.69
240.027	84.69
240.26	79.69
240.494	75.69
240.728	67.69
240.961	63.69
241.195	87.69
241.429	93.69
241.662	79.69
241.896	76.69
242.13	78.69
242.363	87.69
242.597	80.69
242.83	100.69
243.064	86.69
243.298	96.69
243.531	83.69
243.765	87.69
243.998	86.69
244.232	87.69
244.465	62.69
244.699	81.69
244.932	77.69
245.166	67.69
245.399	70.69
245.633	78.69
245.866	83.69
246.099	69.69
246.333	87.69
246.566	75.69
246.8	78.69
247.033	78.69
247.266	70.69
247.5	73.69
247.733	67.69
247.966	84.69
248.2	85.69
248.433	76.69
248.666	69.69
248.899	80.69
249.133	85.69
249.366	70.69
249.599	58.69
249.832	68.69
250.066	73.69
250.299	76.69
250.532	79.69
250.765	70.69
250.998	76.69
251.231	76.69
251.465	80.69
251.698	76.69
251.931	82.69
252.164	60.69
252.397	81.69
252.63	81.69
252.863	83.69
253.096	76.69
253.329	70.69
253.562	87.69
253.795	87.69
254.028	74.69
254.261	82.69
254.494	87.69
254.727	86.69
254.96	83.69
255.193	86.69
255.426	90.69
255.659	101.69
255.892	86.69
256.124	76.69
256.357	82.69
256.59	84.69
256.823	75.69
257.056	73.69
257.289	75.69
257.521	74.69
257.754	77.69
257.987	73.69
258.22	76.69
258.452	71.69
258.685	80.69
258.918	93.69
259.151	85.69
259.383	90.69
259.616	63.69
259.849	88.69
260.081	93.69
260.314	85.69
260.547	72.69
260.779	77.69
261.012	76.69
261.244	86.69
261.477	103.69
261.71	79.69
261.942	77.69
262.175	80.69
262.407	79.69
262.64	74.69
262.872	81.69
263.105	86.69
263.337	92.69
263.57	86.69
263.802	94.69
264.035	82.69
264.267	77.69
264.499	69.69
264.732	74.69
264.964	83.69
265.197	90.69
265.429	82.69
265.661	80.69
265.894	68.69
266.126	89.69
266.358	84.69
266.591	79.69
266.823	78.69
267.055	76.69
267.287	85.69
267.52	100.69
267.752	86.69
267.984	84.69
268.216	87.69
268.448	89.69
268.681	85.69
268.913	89.69
269.145	89.69
269.377	89.69
269.609	88.69
269.841	85.69
270.073	86.69
270.306	75.69
270.538	88.69
270.77	86.69
271.002	103.69
271.234	75.69
271.466	79.69
271.698	79.69
271.93	78.69
272.162	93.69
272.394	96.69
272.626	82.69
272.858	86.69
273.09	81.69
273.322	89.69
273.553	96.69
273.785	93.69
274.017	80.69
274.249	84.69
274.481	94.69
274.713	94.69
274.945	91.69
275.176	80.69
275.408	79.69
275.64	83.69
275.872	71.69
276.104	76.69
276.335	84.69
276.567	87.69
276.799	82.69
277.031	73.69
277.262	94.69
277.494	85.69
277.726	73.69
277.957	85.69
278.189	89.69
278.421	95.69
278.652	100.69
278.884	75.69
279.115	84.69
279.347	69.69
279.579	78.69
279.81	90.69
280.042	83.69
280.273	75.69
280.505	99.69
280.736	88.69
280.968	86.69
281.199	83.69
281.431	76.69
281.662	80.69
281.894	82.69
282.125	94.69
282.356	86.69
282.588	80.69
282.819	97.69
283.051	82.69
283.282	78.69
283.513	87.69
283.745	87.69
283.976	80.69
284.207	82.69
284.439	89.69
284.67	87.69
284.901	92.69
285.132	88.69
285.364	81.69
285.595	80.69
285.826	73.69
286.057	84.69
286.288	88.69
286.52	75.69
286.751	63.69
286.982	89.69
287.213	86.69
287.444	83.69
287.675	86.69
287.906	86.69
288.138	92.69
288.369	83.69
288.6	81.69
288.831	66.69
289.062	75.69
289.293	81.69
289.524	79.69
289.755	94.69
289.986	87.69
290.217	83.69
290.448	85.69
290.679	83.69
290.91	89.69
291.141	78.69
291.371	82.69
291.602	84.69
291.833	96.69
292.064	99.69
292.295	86.69
292.526	84.69
292.757	92.69
292.987	100.69
293.218	69.69
293.449	84.69
293.68	79.69
293.91	75.69
294.141	76.69
294.372	73.69
294.603	73.69
294.833	87.69
295.064	87.69
295.295	74.69
295.525	82.69
295.756	83.69
295.987	82.69
296.217	79.69
296.448	88.69
296.679	80.69
296.909	86.69
297.14	87.69
297.37	89.69
297.601	88.69
297.831	76.69
298.062	98.69
298.292	82.69
298.523	76.69
298.753	80.69
298.984	90.69
299.214	90.69
299.445	86.69
299.675	71.69
299.905	87.69
300.136	84.69
300.366	90.69
300.597	84.69
300.827	94.69
301.057	83.69
301.288	86.69
301.518	90.69
301.748	89.69
301.979	79.69
302.209	86.69
302.439	91.69
302.669	89.69
302.9	74.69
303.13	72.69
303.36	74.69
303.59	83.69
303.82	92.69
304.051	86.69
304.281	94.69
304.511	83.69
304.741	82.69
304.971	88.69
305.201	82.69
305.431	88.69
305.661	94.69
305.891	72.69
306.121	77.69
306.352	78.69
306.582	84.69
306.812	94.69
307.042	70.69
307.272	74.69
307.502	80.69
307.731	91.69
307.961	86.69
308.191	84.69
308.421	92.69
308.651	72.69
308.881	78.69
309.111	74.69
309.341	93.69
309.571	77.69
309.8	87.69
310.03	97.69
310.26	83.69
310.49	87.69
310.72	91.69
310.949	78.69
311.179	83.69
311.409	76.69
311.639	84.69
311.868	76.69
312.098	77.69
312.328	95.69
312.557	83.69
312.787	81.69
313.017	83.69
313.246	97.69
313.476	86.69
313.706	84.69
313.935	74.69
314.165	75.69
314.394	71.69
314.624	87.69
314.853	93.69
315.083	80.69
315.312	80.69
315.542	80.69
315.771	102.69
316.001	84.69
316.23	74.69
316.46	74.69
316.689	85.69
316.919	91.69
317.148	83.69
317.377	101.69
317.607	88.69
317.836	79.69
318.065	74.69
318.295	83.69
318.524	99.69
318.753	73.69
318.983	86.69
319.212	82.69
319.441	88.69
319.67	97.69
319.9	94.69
320.129	85.69
320.358	64.69
320.587	94.69
320.816	84.69
321.046	84.69
321.275	86.69
321.504	88.69
321.733	73.69
321.962	82.69
322.191	90.69
322.42	81.69
322.649	100.69
322.878	80.69
323.108	86.69
323.337	91.69
323.566	88.69
323.795	92.69
324.024	77.69
324.253	77.69
324.482	82.69
324.71	96.69
324.939	83.69
325.168	83.69
325.397	88.69
325.626	88.69
325.855	87.69
326.084	79.69
326.313	69.69
326.542	90.69
326.77	85.69
326.999	72.69
327.228	88.69
327.457	65.69
327.686	86.69
327.914	83.69
328.143	98.69
328.372	91.69
328.6	87.69
328.829	88.69
329.058	85.69
329.287	86.69
329.515	86.69
329.744	74.69
329.972	85.69
330.201	88.69
330.43	83.69
330.658	72.69
330.887	85.69
331.115	90.69
331.344	84.69
331.572	85.69
331.801	65.69
332.03	97.69
332.258	77.69
332.486	85.69
332.715	81.69
332.943	93.69
333.172	87.69
333.4	73.69
333.629	82.69
333.857	86.69
334.085	86.69
334.314	86.69
334.542	91.69
334.771	70.69
334.999	87.69
335.227	94.69
335.455	78.69
335.684	90.69
335.912	82.69
336.14	83.69
336.369	80.69
336.597	86.69
336.825	96.69
337.053	83.69
337.281	82.69
337.51	87.69
337.738	82.69
337.966	91.69
338.194	84.69
338.422	80.69
338.65	86.69
338.878	82.69
339.106	85.69
339.334	81.69
339.562	92.69
339.79	95.69
340.018	83.69
340.246	91.69
340.474	81.69
340.702	83.69
340.93	91.69
341.158	91.69
341.386	80.69
341.614	99.69
341.842	76.69
342.07	84.69
342.298	95.69
342.526	70.69
342.754	87.69
342.981	86.69
343.209	78.69
343.437	99.69
343.665	82.69
343.893	79.69
344.12	81.69
344.348	86.69
344.576	80.69
344.804	69.69
345.031	84.69
345.259	72.69
345.487	74.69
345.714	85.69
345.942	90.69
346.17	92.69
346.397	87.69
346.625	86.69
346.853	90.69
347.08	86.69
347.308	87.69
347.535	81.69
347.763	89.69
347.99	82.69
348.218	80.69
348.445	87.69
348.673	80.69
348.9	92.69
349.128	76.69
349.355	85.69
349.583	82.69
349.81	71.69
350.037	80.69
350.265	90.69
350.492	83.69
350.72	89.69
350.947	89.69
351.174	81.69
351.402	78.69
351.629	79.69
351.856	81.69
352.083	79.69
352.311	80.69
352.538	83.69
352.765	84.69
352.992	96.69
353.22	80.69
353.447	80.69
353.674	79.69
353.901	58.69
354.128	84.69
354.355	94.69
354.583	75.69
354.81	94.69
355.037	98.69
355.264	86.69
355.491	80.69
355.718	77.69
355.945	73.69
356.172	89.69
356.399	71.69
356.626	76.69
356.853	79.69
357.08	88.69
357.307	88.69
357.534	71.69
357.761	86.69
357.988	95.69
358.215	73.69
358.441	96.69
358.668	94.69
358.895	78.69
359.122	86.69
359.349	86.69
359.576	70.69
359.802	86.69
360.029	74.69
360.256	94.69
360.483	80.69
360.709	86.69
360.936	83.69
361.163	85.69
361.39	94.69
361.616	86.69
361.843	86.69
362.07	84.69
362.296	72.69
362.523	75.69
362.749	80.69
362.976	87.69
363.203	89.69
363.429	86.69
363.656	82.69
363.882	84.69
364.109	79.69
364.335	83.69
364.562	88.69
364.788	84.69
365.015	91.69
365.241	84.69
365.468	85.69
365.694	73.69
365.92	89.69
366.147	82.69
366.373	87.69
366.599	88.69
366.826	89.69
367.052	94.69
367.278	101.69
367.505	83.69
367.731	88.69
367.957	91.69
368.184	105.69
368.41	105.69
368.636	95.69
368.862	80.69
369.089	97.69
369.315	82.69
369.541	103.69
369.767	95.69
369.993	94.69
370.219	91.69
370.445	96.69
370.672	87.69
370.898	89.69
371.124	81.69
371.35	98.69
371.576	90.69
371.802	72.69
372.028	91.69
372.254	97.69
372.48	94.69
372.706	104.69
372.932	77.69
373.158	97.69
373.384	97.69
373.61	97.69
373.835	88.69
374.061	94.69
374.287	103.69
374.513	95.69
374.739	99.69
374.965	95.69
375.191	92.69
375.416	95.69
375.642	90.69
375.868	86.69
376.094	88.69
376.319	93.69
376.545	85.69
376.771	91.69
376.997	91.69
377.222	94.69
377.448	96.69
377.674	94.69
377.899	90.69
378.125	101.69
378.35	118.69
378.576	89.69
378.802	93.69
379.027	98.69
379.253	98.69
379.478	97.69
379.704	91.69
379.929	99.69
380.155	96.69
380.38	92.69
380.606	89.69
380.831	100.69
381.057	108.69
381.282	110.69
381.507	120.69
381.733	103.69
381.958	116.69
382.184	89.69
382.409	106.69
382.634	125.69
382.86	106.69
383.085	96.69
383.31	96.69
383.535	96.69
383.761	93.69
383.986	92.69
384.211	105.69
384.436	97.69
384.662	97.69
384.887	99.69
385.112	97.69
385.337	102.69
385.562	98.69
385.787	93.69
386.013	90.69
386.238	97.69
386.463	93.69
386.688	106.69
386.913	96.69
387.138	108.69
387.363	107.69
387.588	106.69
387.813	108.69
388.038	114.69
388.263	101.69
388.488	110.69
388.713	98.69
388.938	99.69
389.163	101.69
389.387	84.69
389.612	106.69
389.837	105.69
390.062	93.69
390.287	100.69
390.512	108.69
390.736	111.69
390.961	105.69
391.186	114.69
391.411	99.69
391.636	107.69
391.86	107.69
392.085	113.69
392.31	105.69
392.534	98.69
392.759	116.69
392.984	100.69
393.208	112.69
393.433	107.69
393.658	104.69
393.882	100.69
394.107	117.69
394.331	113.69
394.556	94.69
394.78	96.69
395.005	108.69
395.229	112.69
395.454	111.69
395.678	101.69
395.903	102.69
396.127	115.69
396.352	97.69
396.576	102.69
396.801	113.69
397.025	114.69
397.249	102.69
397.474	112.69
397.698	125.69
397.922	116.69
398.147	120.69
398.371	115.69
398.595	105.69
398.82	122.69
399.044	100.69
399.268	92.69
399.492	118.69
399.717	108.69
399.941	102.69
400.165	129.69
400.389	110.69
400.613	112.69
400.837	116.69
401.062	122.69
401.286	98.69
401.51	118.69
401.734	115.69
401.958	114.69
402.182	114.69
402.406	105.69
402.63	119.69
402.854	114.69
403.078	119.69
403.302	112.69
403.526	115.69
403.75	109.69
403.974	118.69
404.198	120.69
404.422	128.69
404.645	128.69
404.869	119.69
405.093	122.69
405.317	115.69
405.541	116.69
405.765	120.69
405.988	119.69
406.212	118.69
406.436	118.69
406.66	130.69
406.883	105.69
407.107	121.69
407.331	113.69
407.555	107.69
407.778	105.69
408.002	126.69
408.226	112.69
408.449	129.69
408.673	112.69
408.896	122.69
409.12	103.69
409.344	122.69
409.567	113.69
409.791	125.69
410.014	124.69
410.238	119.69
410.461	118.69
410.685	135.69
410.908	118.69
411.132	122.69
411.355	139.69
411.578	129.69
411.802	118.69
412.025	120.69
412.249	138.69
412.472	122.69
412.695	120.69
412.919	118.69
413.142	116.69
413.365	121.69
413.589	137.69
413.812	121.69
414.035	112.69
414.258	118.69
414.482	123.69
414.705	117.69
414.928	122.69
415.151	109.69
415.374	124.69
415.597	128.69
415.821	124.69
416.044	124.69
416.267	125.69
416.49	133.69
416.713	126.69
416.936	121.69
417.159	119.69
417.382	121.69
417.605	139.69
417.828	118.69
418.051	122.69
418.274	136.69
418.497	144.69
418.72	126.69
418.943	130.69
419.166	144.69
419.389	138.69
419.611	139.69
419.834	128.69
420.057	138.69
420.28	128.69
420.503	139.69
420.726	134.69
420.948	135.69
421.171	150.69
421.394	130.69
421.617	146.69
421.839	158.69
422.062	139.69
422.285	128.69
422.507	129.69
422.73	138.69
422.953	129.69
423.175	138.69
423.398	136.69
423.621	143.69
423.843	143.69
424.066	125.69
424.288	144.69
424.511	148.69
424.733	124.69
424.956	148.69
425.178	144.69
425.401	137.69
425.623	144.69
425.846	129.69
426.068	138.69
426.291	145.69
426.513	138.69
426.735	135.69
426.958	149.69
427.18	138.69
427.402	128.69
427.625	118.69
427.847	120.69
428.069	135.69
428.292	131.69
428.514	140.69
428.736	126.69
428.958	133.69
429.181	127.69
429.403	139.69
429.625	129.69
429.847	130.69
430.069	123.69
430.292	122.69
430.514	130.69
430.736	134.69
430.958	123.69
431.18	128.69
431.402	127.69
431.624	110.69
431.846	100.69
432.068	88.69
432.29	104.69
432.512	115.69
432.734	121.69
432.956	131.69
433.178	133.69
433.4	130.69
433.622	136.69
433.844	130.69
434.066	118.69
434.287	113.69
434.509	110.69
434.731	97.69
434.953	105.69
435.175	127.69
435.397	120.69
435.618	128.69
435.84	121.69
436.062	119.69
436.284	143.69
436.505	136.69
436.727	129.69
436.949	120.69
437.17	142.69
437.392	135.69
437.614	118.69
437.835	126.69
438.057	114.69
438.278	87.69
438.5	132.69
438.721	125.69
438.943	136.69
439.165	151.69
439.386	148.69
439.608	141.69
439.829	150.69
440.05	148.69
440.272	140.69
440.493	145.69
440.715	142.69
440.936	155.69
441.158	128.69
441.379	132.69
441.6	156.69
441.822	159.69
442.043	163.69
442.264	146.69
442.486	141.69
442.707	141.69
442.928	145.69
443.149	135.69
443.371	146.69
443.592	140.69
443.813	148.69
444.034	154.69
444.255	143.69
444.476	142.69
444.698	150.69
444.919	157.69
445.14	264.69
445.361	208.69
445.582	156.69
445.803	164.69
446.024	141.69
446.245	162.69
446.466	166.69
446.687	172.69
446.908	167.69
447.129	165.69
447.35	162.69
447.571	152.69
447.792	158.69
448.013	152.69
448.234	161.69
448.455	154.69
448.675	146.69
448.896	148.69
449.117	143.69
449.338	145.69
449.559	138.69
449.779	142.69
450	144.69
450.221	136.69
450.442	130.69
450.662	143.69
450.883	131.69
451.104	126.69
451.324	133.69
451.545	127.69
451.766	130.69
451.986	128.69
452.207	135.69
452.428	137.69
452.648	129.69
452.869	127.69
453.089	122.69
453.31	110.69
453.53	107.69
453.751	100.69
453.971	103.69
454.192	100.69
454.412	131.69
454.633	118.69
454.853	120.69
455.073	111.69
455.294	123.69
455.514	121.69
455.734	119.69
455.955	105.69
456.175	105.69
456.395	104.69
456.616	107.69
456.836	119.69
457.056	123.69
457.276	108.69
457.497	116.69
457.717	110.69
457.937	127.69
458.157	108.69
458.377	103.69
458.598	96.69
458.818	87.69
459.038	82.69
459.258	85.69
459.478	100.69
459.698	97.69
459.918	89.69
460.138	113.69
460.358	109.69
460.578	129.69
460.798	124.69
461.018	121.69
461.238	130.69
461.458	140.69
461.678	121.69
461.898	119.69
462.118	123.69
462.338	118.69
462.558	126.69
462.777	114.69
462.997	111.69
463.217	104.69
463.437	112.69
463.657	105.69
463.876	110.69
464.096	107.69
464.316	107.69
464.536	113.69
464.755	107.69
464.975	114.69
465.195	117.69
465.414	138.69
465.634	118.69
465.854	119.69
466.073	126.69
466.293	130.69
466.512	117.69
466.732	110.69
466.951	143.69
467.171	119.69
467.391	138.69
467.61	144.69
467.829	148.69
468.049	138.69
468.268	140.69
468.488	139.69
468.707	145.69
468.927	134.69
469.146	146.69
469.365	136.69
469.585	149.69
469.804	146.69
470.023	140.69
470.243	133.69
470.462	146.69
470.681	147.69
470.901	141.69
471.12	148.69
471.339	139.69
471.558	155.69
471.777	144.69
471.997	134.69
472.216	127.69
472.435	112.69
472.654	102.69
472.873	116.69
473.092	110.69
473.311	134.69
473.53	143.69
473.749	150.69
473.968	121.69
474.187	120.69
474.406	130.69
474.625	132.69
474.844	137.69
475.063	145.69
475.282	126.69
475.501	115.69
475.72	132.69
475.939	125.69
476.158	126.69
476.377	147.69
476.596	119.69
476.814	119.69
477.033	112.69
477.252	116.69
477.471	124.69
477.69	141.69
477.908	136.69
478.127	128.69
478.346	149.69
478.564	135.69
478.783	139.69
479.002	138.69
479.22	149.69
479.439	146.69
479.658	134.69
479.876	100.69
480.095	100.69
480.313	116.69
480.532	118.69
480.751	118.69
480.969	93.69
481.188	90.69
481.406	99.69
481.624	102.69
481.843	86.69
482.061	103.69
482.28	112.69
482.498	111.69
482.717	116.69
482.935	122.69
483.153	150.69
483.372	163.69
483.59	149.69
483.808	139.69
484.027	139.69
484.245	137.69
484.463	175.69
484.681	152.69
484.9	151.69
485.118	147.69
485.336	128.69
485.554	132.69
485.772	123.69
485.99	105.69
486.209	112.69
486.427	114.69
486.645	131.69
486.863	166.69
487.081	151.69
487.299	133.69
487.517	151.69
487.735	170.69
487.953	180.69
488.171	184.69
488.389	170.69
488.607	171.69
488.825	145.69
489.043	140.69
489.261	156.69
489.479	137.69
489.696	138.69
489.914	150.69
490.132	153.69
490.35	150.69
490.568	154.69
490.786	169.69
491.003	166.69
491.221	172.69
491.439	193.69
491.657	202.69
491.874	213.69
492.092	234.69
492.31	254.69
492.527	239.69
492.745	239.69
492.963	192.69
493.18	196.69
493.398	189.69
493.615	196.69
493.833	190.69
494.05	181.69
494.268	169.69
494.485	171.69
494.703	180.69
494.92	169.69
495.138	176.69
495.355	194.69
495.573	187.69
495.79	185.69
496.008	176.69
496.225	175.69
496.442	174.69
496.66	168.69
496.877	186.69
497.094	163.69
497.312	170.69
497.529	152.69
497.746	153.69
497.963	142.69
498.181	146.69
498.398	127.69
498.615	126.69
498.832	108.69
499.049	126.69
499.267	118.69
499.484	126.69
499.701	142.69
499.918	142.69
500.135	136.69
500.352	146.69
500.569	140.69
500.786	145.69
501.003	159.69
501.22	135.69
501.437	145.69
501.654	137.69
501.871	142.69
502.088	140.69
502.305	134.69
502.522	132.69
502.739	136.69
502.956	128.69
503.172	130.69
503.389	118.69
503.606	126.69
503.823	129.69
504.04	124.69
504.256	114.69
504.473	127.69
504.69	129.69
504.907	123.69
505.123	124.69
505.34	127.69
505.557	136.69
505.773	131.69
505.99	115.69
506.207	119.69
506.423	123.69
506.64	124.69
506.856	114.69
507.073	126.69
507.289	111.69
507.506	123.69
507.722	132.69
507.939	119.69
508.155	114.69
508.372	125.69
508.588	122.69
508.805	103.69
509.021	118.69
509.238	111.69
509.454	118.69
509.67	110.69
509.887	89.69
510.103	110.69
510.319	95.69
510.536	86.69
510.752	97.69
510.968	82.69
511.184	85.69
511.401	84.69
