Data from Location6.07152019.Energy5.Lamp.07192019.3%Agarose_HRD10591_16-13-05-395.txt Node
Date: Fri Jul 19 16:13:05 EDT 2019
User: cochatt
Spectrometer: HR+D1059
Trigger mode: 1
Integration Time (sec): 1.000000E-1
Scans to average: 1
Electric dark correction enabled: true
Nonlinearity correction enabled: false
Boxcar width: 0
XAxis mode: Wavelengths
Number of Pixels in Spectrum: 2048
>>>>>Begin Spectral Data<<<<<
223.165	-2.5
223.4	-2.5
223.635	-2.5
223.869	-3.5
224.104	-19.5
224.338	-23.5
224.573	-1.5
224.808	-4.5
225.042	-21.5
225.277	-12.5
225.511	-7.5
225.746	3.5
225.98	4.5
226.215	6.5
226.449	7.5
226.683	19.5
226.918	22.5
227.152	32.5
227.387	40.5
227.621	33.5
227.856	35.5
228.09	42.5
228.324	47.5
228.559	63.5
228.793	60.5
229.027	55.5
229.262	64.5
229.496	65.5
229.73	55.5
229.964	77.5
230.199	79.5
230.433	68.5
230.667	76.5
230.901	60.5
231.136	72.5
231.37	73.5
231.604	82.5
231.838	75.5
232.072	77.5
232.306	61.5
232.541	73.5
232.775	72.5
233.009	80.5
233.243	76.5
233.477	71.5
233.711	83.5
233.945	81.5
234.179	78.5
234.413	73.5
234.647	70.5
234.881	84.5
235.115	79.5
235.349	78.5
235.583	71.5
235.817	80.5
236.051	88.5
236.285	77.5
236.519	96.5
236.753	74.5
236.987	69.5
237.221	77.5
237.455	83.5
237.689	76.5
237.922	82.5
238.156	68.5
238.39	80.5
238.624	79.5
238.858	72.5
239.091	62.5
239.325	72.5
239.559	74.5
239.793	67.5
240.027	72.5
240.26	72.5
240.494	75.5
240.728	83.5
240.961	81.5
241.195	84.5
241.429	70.5
241.662	65.5
241.896	85.5
242.13	76.5
242.363	48.5
242.597	72.5
242.83	69.5
243.064	75.5
243.298	78.5
243.531	81.5
243.765	70.5
243.998	68.5
244.232	69.5
244.465	80.5
244.699	74.5
244.932	73.5
245.166	74.5
245.399	56.5
245.633	64.5
245.866	62.5
246.099	81.5
246.333	74.5
246.566	87.5
246.8	80.5
247.033	81.5
247.266	70.5
247.5	77.5
247.733	68.5
247.966	81.5
248.2	85.5
248.433	59.5
248.666	72.5
248.899	71.5
249.133	65.5
249.366	82.5
249.599	68.5
249.832	65.5
250.066	88.5
250.299	83.5
250.532	82.5
250.765	67.5
250.998	74.5
251.231	80.5
251.465	65.5
251.698	74.5
251.931	80.5
252.164	67.5
252.397	76.5
252.63	88.5
252.863	64.5
253.096	75.5
253.329	71.5
253.562	90.5
253.795	85.5
254.028	86.5
254.261	70.5
254.494	74.5
254.727	85.5
254.96	78.5
255.193	78.5
255.426	70.5
255.659	69.5
255.892	69.5
256.124	81.5
256.357	81.5
256.59	53.5
256.823	79.5
257.056	82.5
257.289	77.5
257.521	71.5
257.754	68.5
257.987	77.5
258.22	70.5
258.452	70.5
258.685	82.5
258.918	75.5
259.151	75.5
259.383	88.5
259.616	73.5
259.849	73.5
260.081	74.5
260.314	86.5
260.547	88.5
260.779	84.5
261.012	73.5
261.244	73.5
261.477	81.5
261.71	76.5
261.942	79.5
262.175	79.5
262.407	69.5
262.64	69.5
262.872	84.5
263.105	80.5
263.337	85.5
263.57	81.5
263.802	78.5
264.035	79.5
264.267	85.5
264.499	78.5
264.732	70.5
264.964	74.5
265.197	80.5
265.429	80.5
265.661	90.5
265.894	77.5
266.126	79.5
266.358	72.5
266.591	81.5
266.823	99.5
267.055	72.5
267.287	87.5
267.52	77.5
267.752	87.5
267.984	74.5
268.216	76.5
268.448	78.5
268.681	68.5
268.913	88.5
269.145	84.5
269.377	84.5
269.609	79.5
269.841	79.5
270.073	89.5
270.306	75.5
270.538	72.5
270.77	74.5
271.002	83.5
271.234	93.5
271.466	74.5
271.698	83.5
271.93	82.5
272.162	78.5
272.394	80.5
272.626	90.5
272.858	85.5
273.09	55.5
273.322	84.5
273.553	87.5
273.785	71.5
274.017	89.5
274.249	82.5
274.481	85.5
274.713	74.5
274.945	71.5
275.176	87.5
275.408	88.5
275.64	88.5
275.872	79.5
276.104	70.5
276.335	78.5
276.567	82.5
276.799	79.5
277.031	90.5
277.262	85.5
277.494	79.5
277.726	84.5
277.957	76.5
278.189	93.5
278.421	75.5
278.652	78.5
278.884	89.5
279.115	74.5
279.347	87.5
279.579	85.5
279.81	76.5
280.042	84.5
280.273	74.5
280.505	85.5
280.736	87.5
280.968	95.5
281.199	76.5
281.431	89.5
281.662	75.5
281.894	83.5
282.125	77.5
282.356	88.5
282.588	66.5
282.819	79.5
283.051	72.5
283.282	87.5
283.513	77.5
283.745	70.5
283.976	83.5
284.207	89.5
284.439	82.5
284.67	83.5
284.901	72.5
285.132	85.5
285.364	91.5
285.595	87.5
285.826	70.5
286.057	97.5
286.288	77.5
286.52	78.5
286.751	84.5
286.982	87.5
287.213	86.5
287.444	84.5
287.675	71.5
287.906	71.5
288.138	82.5
288.369	78.5
288.6	72.5
288.831	90.5
289.062	78.5
289.293	88.5
289.524	80.5
289.755	73.5
289.986	77.5
290.217	89.5
290.448	86.5
290.679	92.5
290.91	86.5
291.141	84.5
291.371	80.5
291.602	82.5
291.833	77.5
292.064	83.5
292.295	71.5
292.526	83.5
292.757	78.5
292.987	85.5
293.218	78.5
293.449	69.5
293.68	76.5
293.91	81.5
294.141	77.5
294.372	77.5
294.603	76.5
294.833	82.5
295.064	80.5
295.295	71.5
295.525	86.5
295.756	86.5
295.987	71.5
296.217	93.5
296.448	72.5
296.679	81.5
296.909	84.5
297.14	87.5
297.37	87.5
297.601	76.5
297.831	80.5
298.062	87.5
298.292	70.5
298.523	82.5
298.753	84.5
298.984	61.5
299.214	70.5
299.445	79.5
299.675	82.5
299.905	85.5
300.136	74.5
300.366	82.5
300.597	74.5
300.827	92.5
301.057	88.5
301.288	83.5
301.518	78.5
301.748	87.5
301.979	84.5
302.209	87.5
302.439	82.5
302.669	84.5
302.9	80.5
303.13	79.5
303.36	67.5
303.59	84.5
303.82	84.5
304.051	86.5
304.281	75.5
304.511	77.5
304.741	93.5
304.971	76.5
305.201	70.5
305.431	93.5
305.661	75.5
305.891	75.5
306.121	69.5
306.352	68.5
306.582	82.5
306.812	79.5
307.042	86.5
307.272	75.5
307.502	81.5
307.731	86.5
307.961	79.5
308.191	86.5
308.421	89.5
308.651	71.5
308.881	85.5
309.111	85.5
309.341	86.5
309.571	79.5
309.8	82.5
310.03	83.5
310.26	86.5
310.49	91.5
310.72	97.5
310.949	89.5
311.179	83.5
311.409	70.5
311.639	94.5
311.868	73.5
312.098	81.5
312.328	69.5
312.557	80.5
312.787	71.5
313.017	69.5
313.246	95.5
313.476	93.5
313.706	84.5
313.935	90.5
314.165	86.5
314.394	90.5
314.624	80.5
314.853	88.5
315.083	82.5
315.312	62.5
315.542	76.5
315.771	87.5
316.001	83.5
316.23	91.5
316.46	70.5
316.689	73.5
316.919	73.5
317.148	83.5
317.377	73.5
317.607	76.5
317.836	80.5
318.065	88.5
318.295	82.5
318.524	73.5
318.753	78.5
318.983	77.5
319.212	85.5
319.441	83.5
319.67	101.5
319.9	82.5
320.129	81.5
320.358	85.5
320.587	74.5
320.816	88.5
321.046	89.5
321.275	84.5
321.504	80.5
321.733	83.5
321.962	71.5
322.191	80.5
322.42	67.5
322.649	73.5
322.878	84.5
323.108	80.5
323.337	72.5
323.566	81.5
323.795	81.5
324.024	77.5
324.253	74.5
324.482	81.5
324.71	84.5
324.939	85.5
325.168	92.5
325.397	85.5
325.626	70.5
325.855	82.5
326.084	66.5
326.313	83.5
326.542	83.5
326.77	77.5
326.999	89.5
327.228	79.5
327.457	83.5
327.686	83.5
327.914	74.5
328.143	83.5
328.372	93.5
328.6	66.5
328.829	88.5
329.058	72.5
329.287	89.5
329.515	81.5
329.744	81.5
329.972	78.5
330.201	87.5
330.43	77.5
330.658	73.5
330.887	81.5
331.115	91.5
331.344	85.5
331.572	86.5
331.801	74.5
332.03	74.5
332.258	83.5
332.486	90.5
332.715	70.5
332.943	75.5
333.172	77.5
333.4	81.5
333.629	91.5
333.857	86.5
334.085	86.5
334.314	96.5
334.542	78.5
334.771	88.5
334.999	89.5
335.227	89.5
335.455	91.5
335.684	84.5
335.912	66.5
336.14	79.5
336.369	83.5
336.597	78.5
336.825	85.5
337.053	79.5
337.281	65.5
337.51	76.5
337.738	77.5
337.966	86.5
338.194	84.5
338.422	89.5
338.65	89.5
338.878	89.5
339.106	83.5
339.334	84.5
339.562	86.5
339.79	80.5
340.018	89.5
340.246	83.5
340.474	91.5
340.702	80.5
340.93	85.5
341.158	71.5
341.386	79.5
341.614	84.5
341.842	81.5
342.07	69.5
342.298	89.5
342.526	79.5
342.754	85.5
342.981	81.5
343.209	81.5
343.437	83.5
343.665	61.5
343.893	82.5
344.12	78.5
344.348	68.5
344.576	78.5
344.804	79.5
345.031	73.5
345.259	76.5
345.487	92.5
345.714	69.5
345.942	92.5
346.17	70.5
346.397	81.5
346.625	85.5
346.853	78.5
347.08	84.5
347.308	96.5
347.535	64.5
347.763	85.5
347.99	76.5
348.218	95.5
348.445	90.5
348.673	79.5
348.9	65.5
349.128	72.5
349.355	74.5
349.583	85.5
349.81	87.5
350.037	104.5
350.265	77.5
350.492	76.5
350.72	92.5
350.947	78.5
351.174	91.5
351.402	75.5
351.629	76.5
351.856	73.5
352.083	82.5
352.311	86.5
352.538	75.5
352.765	87.5
352.992	89.5
353.22	87.5
353.447	59.5
353.674	82.5
353.901	95.5
354.128	84.5
354.355	84.5
354.583	91.5
354.81	91.5
355.037	81.5
355.264	91.5
355.491	71.5
355.718	78.5
355.945	88.5
356.172	86.5
356.399	85.5
356.626	86.5
356.853	80.5
357.08	79.5
357.307	80.5
357.534	87.5
357.761	90.5
357.988	80.5
358.215	72.5
358.441	79.5
358.668	68.5
358.895	74.5
359.122	83.5
359.349	68.5
359.576	74.5
359.802	74.5
360.029	81.5
360.256	80.5
360.483	93.5
360.709	86.5
360.936	85.5
361.163	78.5
361.39	87.5
361.616	84.5
361.843	81.5
362.07	72.5
362.296	90.5
362.523	79.5
362.749	71.5
362.976	81.5
363.203	70.5
363.429	86.5
363.656	90.5
363.882	73.5
364.109	84.5
364.335	87.5
364.562	85.5
364.788	78.5
365.015	76.5
365.241	81.5
365.468	88.5
365.694	86.5
365.92	89.5
366.147	84.5
366.373	74.5
366.599	78.5
366.826	92.5
367.052	74.5
367.278	84.5
367.505	98.5
367.731	81.5
367.957	90.5
368.184	92.5
368.41	76.5
368.636	83.5
368.862	91.5
369.089	79.5
369.315	95.5
369.541	90.5
369.767	100.5
369.993	95.5
370.219	90.5
370.445	90.5
370.672	93.5
370.898	82.5
371.124	86.5
371.35	90.5
371.576	83.5
371.802	84.5
372.028	83.5
372.254	88.5
372.48	82.5
372.706	85.5
372.932	88.5
373.158	85.5
373.384	108.5
373.61	83.5
373.835	86.5
374.061	94.5
374.287	79.5
374.513	82.5
374.739	88.5
374.965	80.5
375.191	97.5
375.416	93.5
375.642	97.5
375.868	99.5
376.094	105.5
376.319	106.5
376.545	95.5
376.771	84.5
376.997	91.5
377.222	83.5
377.448	85.5
377.674	86.5
377.899	87.5
378.125	88.5
378.35	106.5
378.576	90.5
378.802	92.5
379.027	88.5
379.253	73.5
379.478	89.5
379.704	85.5
379.929	90.5
380.155	89.5
380.38	92.5
380.606	92.5
380.831	100.5
381.057	99.5
381.282	83.5
381.507	97.5
381.733	91.5
381.958	97.5
382.184	79.5
382.409	89.5
382.634	91.5
382.86	90.5
383.085	105.5
383.31	97.5
383.535	89.5
383.761	111.5
383.986	104.5
384.211	84.5
384.436	93.5
384.662	87.5
384.887	104.5
385.112	84.5
385.337	89.5
385.562	88.5
385.787	92.5
386.013	104.5
386.238	97.5
386.463	87.5
386.688	99.5
386.913	102.5
387.138	86.5
387.363	96.5
387.588	101.5
387.813	108.5
388.038	100.5
388.263	118.5
388.488	84.5
388.713	93.5
388.938	105.5
389.163	110.5
389.387	104.5
389.612	105.5
389.837	104.5
390.062	109.5
390.287	101.5
390.512	96.5
390.736	105.5
390.961	95.5
391.186	118.5
391.411	89.5
391.636	105.5
391.86	105.5
392.085	107.5
392.31	99.5
392.534	92.5
392.759	108.5
392.984	105.5
393.208	98.5
393.433	114.5
393.658	113.5
393.882	95.5
394.107	116.5
394.331	97.5
394.556	92.5
394.78	99.5
395.005	109.5
395.229	109.5
395.454	112.5
395.678	94.5
395.903	105.5
396.127	92.5
396.352	111.5
396.576	97.5
396.801	110.5
397.025	108.5
397.249	105.5
397.474	108.5
397.698	118.5
397.922	112.5
398.147	108.5
398.371	118.5
398.595	126.5
398.82	92.5
399.044	118.5
399.268	122.5
399.492	114.5
399.717	89.5
399.941	109.5
400.165	119.5
400.389	112.5
400.613	118.5
400.837	110.5
401.062	109.5
401.286	112.5
401.51	119.5
401.734	122.5
401.958	102.5
402.182	90.5
402.406	109.5
402.63	118.5
402.854	112.5
403.078	114.5
403.302	112.5
403.526	118.5
403.75	117.5
403.974	112.5
404.198	114.5
404.422	128.5
404.645	128.5
404.869	122.5
405.093	113.5
405.317	114.5
405.541	106.5
405.765	112.5
405.988	124.5
406.212	129.5
406.436	114.5
406.66	120.5
406.883	119.5
407.107	132.5
407.331	111.5
407.555	116.5
407.778	102.5
408.002	119.5
408.226	120.5
408.449	124.5
408.673	116.5
408.896	117.5
409.12	112.5
409.344	130.5
409.567	109.5
409.791	118.5
410.014	128.5
410.238	119.5
410.461	128.5
410.685	118.5
410.908	126.5
411.132	116.5
411.355	113.5
411.578	126.5
411.802	143.5
412.025	107.5
412.249	116.5
412.472	119.5
412.695	129.5
412.919	124.5
413.142	125.5
413.365	113.5
413.589	146.5
413.812	119.5
414.035	140.5
414.258	126.5
414.482	120.5
414.705	121.5
414.928	123.5
415.151	126.5
415.374	130.5
415.597	123.5
415.821	129.5
416.044	134.5
416.267	116.5
416.49	121.5
416.713	121.5
416.936	120.5
417.159	131.5
417.382	126.5
417.605	115.5
417.828	127.5
418.051	128.5
418.274	142.5
418.497	139.5
418.72	140.5
418.943	141.5
419.166	150.5
419.389	133.5
419.611	129.5
419.834	137.5
420.057	131.5
420.28	135.5
420.503	124.5
420.726	129.5
420.948	142.5
421.171	147.5
421.394	131.5
421.617	138.5
421.839	132.5
422.062	148.5
422.285	154.5
422.507	148.5
422.73	118.5
422.953	129.5
423.175	142.5
423.398	134.5
423.621	153.5
423.843	146.5
424.066	145.5
424.288	138.5
424.511	151.5
424.733	149.5
424.956	158.5
425.178	138.5
425.401	132.5
425.623	145.5
425.846	140.5
426.068	136.5
426.291	146.5
426.513	127.5
426.735	130.5
426.958	117.5
427.18	126.5
427.402	131.5
427.625	154.5
427.847	128.5
428.069	146.5
428.292	136.5
428.514	132.5
428.736	131.5
428.958	132.5
429.181	131.5
429.403	114.5
429.625	132.5
429.847	140.5
430.069	119.5
430.292	139.5
430.514	134.5
430.736	141.5
430.958	125.5
431.18	120.5
431.402	124.5
431.624	128.5
431.846	111.5
432.068	94.5
432.29	104.5
432.512	105.5
432.734	118.5
432.956	126.5
433.178	133.5
433.4	134.5
433.622	148.5
433.844	143.5
434.066	138.5
434.287	124.5
434.509	97.5
434.731	111.5
434.953	97.5
435.175	120.5
435.397	117.5
435.618	124.5
435.84	124.5
436.062	121.5
436.284	117.5
436.505	128.5
436.727	145.5
436.949	135.5
437.17	147.5
437.392	123.5
437.614	141.5
437.835	122.5
438.057	116.5
438.278	106.5
438.5	128.5
438.721	144.5
438.943	136.5
439.165	139.5
439.386	138.5
439.608	147.5
439.829	151.5
440.05	142.5
440.272	162.5
440.493	146.5
440.715	131.5
440.936	146.5
441.158	145.5
441.379	152.5
441.6	153.5
441.822	156.5
442.043	151.5
442.264	148.5
442.486	134.5
442.707	150.5
442.928	133.5
443.149	134.5
443.371	144.5
443.592	140.5
443.813	132.5
444.034	138.5
444.255	135.5
444.476	148.5
444.698	137.5
444.919	138.5
445.14	276.5
445.361	206.5
445.582	143.5
445.803	143.5
446.024	137.5
446.245	161.5
446.466	166.5
446.687	156.5
446.908	160.5
447.129	150.5
447.35	173.5
447.571	150.5
447.792	154.5
448.013	147.5
448.234	159.5
448.455	140.5
448.675	153.5
448.896	144.5
449.117	150.5
449.338	132.5
449.559	148.5
449.779	127.5
450	134.5
450.221	126.5
450.442	122.5
450.662	122.5
450.883	133.5
451.104	145.5
451.324	146.5
451.545	120.5
451.766	123.5
451.986	112.5
452.207	126.5
452.428	124.5
452.648	138.5
452.869	128.5
453.089	123.5
453.31	108.5
453.53	110.5
453.751	103.5
453.971	109.5
454.192	105.5
454.412	105.5
454.633	113.5
454.853	125.5
455.073	131.5
455.294	114.5
455.514	114.5
455.734	120.5
455.955	101.5
456.175	116.5
456.395	116.5
456.616	110.5
456.836	125.5
457.056	99.5
457.276	108.5
457.497	106.5
457.717	112.5
457.937	91.5
458.157	114.5
458.377	108.5
458.598	104.5
458.818	95.5
459.038	85.5
459.258	79.5
459.478	112.5
459.698	92.5
459.918	100.5
460.138	98.5
460.358	122.5
460.578	113.5
460.798	129.5
461.018	108.5
461.238	122.5
461.458	102.5
461.678	110.5
461.898	109.5
462.118	131.5
462.338	124.5
462.558	115.5
462.777	124.5
462.997	106.5
463.217	99.5
463.437	105.5
463.657	117.5
463.876	115.5
464.096	95.5
464.316	103.5
464.536	105.5
464.755	125.5
464.975	132.5
465.195	132.5
465.414	131.5
465.634	127.5
465.854	115.5
466.073	144.5
466.293	118.5
466.512	122.5
466.732	130.5
466.951	137.5
467.171	120.5
467.391	132.5
467.61	132.5
467.829	156.5
468.049	141.5
468.268	136.5
468.488	128.5
468.707	126.5
468.927	129.5
469.146	142.5
469.365	145.5
469.585	144.5
469.804	137.5
470.023	143.5
470.243	142.5
470.462	158.5
470.681	153.5
470.901	138.5
471.12	150.5
471.339	151.5
471.558	149.5
471.777	138.5
471.997	143.5
472.216	129.5
472.435	121.5
472.654	116.5
472.873	112.5
473.092	110.5
473.311	138.5
473.53	143.5
473.749	122.5
473.968	133.5
474.187	138.5
474.406	132.5
474.625	117.5
474.844	119.5
475.063	121.5
475.282	123.5
475.501	108.5
475.72	124.5
475.939	110.5
476.158	114.5
476.377	135.5
476.596	123.5
476.814	108.5
477.033	103.5
477.252	119.5
477.471	134.5
477.69	159.5
477.908	136.5
478.127	150.5
478.346	130.5
478.564	128.5
478.783	133.5
479.002	154.5
479.22	148.5
479.439	136.5
479.658	124.5
479.876	117.5
480.095	97.5
480.313	132.5
480.532	126.5
480.751	109.5
480.969	75.5
481.188	83.5
481.406	84.5
481.624	87.5
481.843	85.5
482.061	90.5
482.28	105.5
482.498	115.5
482.717	98.5
482.935	128.5
483.153	149.5
483.372	153.5
483.59	169.5
483.808	147.5
484.027	134.5
484.245	141.5
484.463	164.5
484.681	163.5
484.9	157.5
485.118	148.5
485.336	134.5
485.554	117.5
485.772	102.5
485.99	102.5
486.209	103.5
486.427	119.5
486.645	133.5
486.863	141.5
487.081	144.5
487.299	154.5
487.517	147.5
487.735	161.5
487.953	188.5
488.171	179.5
488.389	188.5
488.607	191.5
488.825	134.5
489.043	141.5
489.261	127.5
489.479	144.5
489.696	153.5
489.914	147.5
490.132	135.5
490.35	152.5
490.568	183.5
490.786	177.5
491.003	159.5
491.221	169.5
491.439	200.5
491.657	194.5
491.874	214.5
492.092	249.5
492.31	253.5
492.527	247.5
492.745	210.5
492.963	208.5
493.18	209.5
493.398	199.5
493.615	189.5
493.833	184.5
494.05	182.5
494.268	165.5
494.485	189.5
494.703	172.5
494.92	176.5
495.138	184.5
495.355	174.5
495.573	165.5
495.79	177.5
496.008	161.5
496.225	172.5
496.442	168.5
496.66	184.5
496.877	164.5
497.094	164.5
497.312	161.5
497.529	156.5
497.746	136.5
497.963	138.5
498.181	133.5
498.398	127.5
498.615	135.5
498.832	117.5
499.049	110.5
499.267	114.5
499.484	130.5
499.701	136.5
499.918	136.5
500.135	149.5
500.352	126.5
500.569	156.5
500.786	162.5
501.003	142.5
501.22	143.5
501.437	144.5
501.654	132.5
501.871	141.5
502.088	126.5
502.305	120.5
502.522	143.5
502.739	122.5
502.956	128.5
503.172	125.5
503.389	131.5
503.606	125.5
503.823	115.5
504.04	115.5
504.256	123.5
504.473	115.5
504.69	99.5
504.907	136.5
505.123	111.5
505.34	119.5
505.557	141.5
505.773	123.5
505.99	116.5
506.207	132.5
506.423	116.5
506.64	121.5
506.856	112.5
507.073	128.5
507.289	127.5
507.506	116.5
507.722	120.5
507.939	117.5
508.155	124.5
508.372	126.5
508.588	111.5
508.805	95.5
509.021	103.5
509.238	113.5
509.454	114.5
509.67	103.5
509.887	116.5
510.103	92.5
510.319	85.5
510.536	94.5
510.752	94.5
510.968	78.5
511.184	78.5
511.401	69.5
511.617	85.5
511.833	86.5
512.049	91.5
512.265	92.5
512.481	117.5
512.698	113.5
512.914	109.5
513.13	102.5
513.346	81.5
513.562	85.5
513.778	87.5
513.994	100.5
514.21	92.5
514.426	95.5
514.642	86.5
514.858	89.5
515.074	81.5
515.29	91.5
515.506	87.5
515.721	89.5
515.937	94.5
516.153	92.5
516.369	84.5
516.585	81.5
516.801	92.5
517.016	101.5
517.232	80.5
517.448	99.5
517.664	93.5
517.879	95.5
518.095	114.5
518.311	97.5
518.527	104.5
518.742	108.5
518.958	111.5
519.173	99.5
519.389	111.5
519.605	85.5
519.82	116.5
520.036	107.5
520.251	90.5
520.467	102.5
520.682	97.5
520.898	90.5
521.113	100.5
521.329	91.5
521.544	81.5
521.76	89.5
521.975	79.5
522.19	110.5
522.406	100.5
522.621	102.5
522.836	122.5
523.052	113.5
523.267	103.5
523.482	116.5
523.698	101.5
523.913	115.5
524.128	122.5
524.343	146.5
524.559	116.5
524.774	128.5
524.989	122.5
525.204	129.5
525.419	117.5
525.634	118.5
525.849	112.5
526.064	98.5
526.28	110.5
526.495	101.5
526.71	98.5
526.925	74.5
527.14	93.5
527.355	84.5
527.57	80.5
527.785	96.5
527.999	109.5
528.214	106.5
528.429	110.5
528.644	137.5
528.859	150.5
529.074	154.5
529.289	160.5
529.503	173.5
529.718	148.5
529.933	129.5
530.148	112.5
530.363	104.5
530.577	101.5
530.792	62.5
531.007	77.5
