Data from Location6.07152019.Energy5.Lamp.07192019.3%Agarose_HRD10591_16-11-31-394.txt Node
Date: Fri Jul 19 16:11:31 EDT 2019
User: cochatt
Spectrometer: HR+D1059
Trigger mode: 1
Integration Time (sec): 1.000000E-1
Scans to average: 1
Electric dark correction enabled: true
Nonlinearity correction enabled: false
Boxcar width: 0
XAxis mode: Wavelengths
Number of Pixels in Spectrum: 2048
>>>>>Begin Spectral Data<<<<<
223.165	-23.94
223.4	-23.94
223.635	-23.94
223.869	-21.94
224.104	-17.94
224.338	-5.94
224.573	-20.94
224.808	-12.94
225.042	-0.94
225.277	-7.94
225.511	-10.94
225.746	4.06
225.98	4.06
226.215	1.06
226.449	37.06
226.683	35.06
226.918	14.06
227.152	28.06
227.387	51.06
227.621	43.06
227.856	32.06
228.09	34.06
228.324	61.06
228.559	65.06
228.793	43.06
229.027	51.06
229.262	69.06
229.496	81.06
229.73	55.06
229.964	71.06
230.199	79.06
230.433	64.06
230.667	81.06
230.901	70.06
231.136	70.06
231.37	79.06
231.604	80.06
231.838	74.06
232.072	68.06
232.306	88.06
232.541	82.06
232.775	70.06
233.009	87.06
233.243	89.06
233.477	87.06
233.711	88.06
233.945	67.06
234.179	73.06
234.413	98.06
234.647	71.06
234.881	77.06
235.115	78.06
235.349	86.06
235.583	75.06
235.817	78.06
236.051	73.06
236.285	83.06
236.519	88.06
236.753	90.06
236.987	63.06
237.221	70.06
237.455	74.06
237.689	71.06
237.922	76.06
238.156	77.06
238.39	69.06
238.624	89.06
238.858	74.06
239.091	78.06
239.325	78.06
239.559	82.06
239.793	72.06
240.027	75.06
240.26	71.06
240.494	82.06
240.728	80.06
240.961	60.06
241.195	79.06
241.429	88.06
241.662	73.06
241.896	70.06
242.13	94.06
242.363	86.06
242.597	73.06
242.83	78.06
243.064	88.06
243.298	58.06
243.531	71.06
243.765	80.06
243.998	68.06
244.232	89.06
244.465	72.06
244.699	64.06
244.932	79.06
245.166	68.06
245.399	78.06
245.633	85.06
245.866	91.06
246.099	85.06
246.333	80.06
246.566	79.06
246.8	83.06
247.033	61.06
247.266	65.06
247.5	82.06
247.733	78.06
247.966	79.06
248.2	83.06
248.433	71.06
248.666	67.06
248.899	80.06
249.133	67.06
249.366	83.06
249.599	70.06
249.832	78.06
250.066	70.06
250.299	76.06
250.532	74.06
250.765	87.06
250.998	70.06
251.231	78.06
251.465	70.06
251.698	89.06
251.931	89.06
252.164	82.06
252.397	71.06
252.63	64.06
252.863	75.06
253.096	88.06
253.329	83.06
253.562	73.06
253.795	73.06
254.028	75.06
254.261	83.06
254.494	69.06
254.727	90.06
254.96	74.06
255.193	86.06
255.426	78.06
255.659	94.06
255.892	92.06
256.124	85.06
256.357	73.06
256.59	86.06
256.823	82.06
257.056	82.06
257.289	88.06
257.521	90.06
257.754	98.06
257.987	76.06
258.22	80.06
258.452	92.06
258.685	85.06
258.918	68.06
259.151	73.06
259.383	81.06
259.616	67.06
259.849	81.06
260.081	76.06
260.314	81.06
260.547	86.06
260.779	81.06
261.012	76.06
261.244	73.06
261.477	94.06
261.71	71.06
261.942	78.06
262.175	71.06
262.407	88.06
262.64	75.06
262.872	72.06
263.105	75.06
263.337	79.06
263.57	85.06
263.802	72.06
264.035	80.06
264.267	79.06
264.499	79.06
264.732	83.06
264.964	75.06
265.197	84.06
265.429	80.06
265.661	70.06
265.894	88.06
266.126	84.06
266.358	83.06
266.591	74.06
266.823	84.06
267.055	88.06
267.287	84.06
267.52	80.06
267.752	83.06
267.984	66.06
268.216	68.06
268.448	91.06
268.681	82.06
268.913	76.06
269.145	91.06
269.377	88.06
269.609	85.06
269.841	89.06
270.073	74.06
270.306	85.06
270.538	78.06
270.77	83.06
271.002	76.06
271.234	82.06
271.466	78.06
271.698	89.06
271.93	72.06
272.162	87.06
272.394	84.06
272.626	75.06
272.858	84.06
273.09	81.06
273.322	83.06
273.553	80.06
273.785	92.06
274.017	79.06
274.249	90.06
274.481	87.06
274.713	86.06
274.945	85.06
275.176	69.06
275.408	67.06
275.64	89.06
275.872	78.06
276.104	68.06
276.335	72.06
276.567	81.06
276.799	72.06
277.031	91.06
277.262	79.06
277.494	85.06
277.726	78.06
277.957	94.06
278.189	82.06
278.421	68.06
278.652	88.06
278.884	98.06
279.115	100.06
279.347	91.06
279.579	82.06
279.81	67.06
280.042	89.06
280.273	87.06
280.505	72.06
280.736	78.06
280.968	81.06
281.199	80.06
281.431	88.06
281.662	87.06
281.894	79.06
282.125	74.06
282.356	72.06
282.588	85.06
282.819	80.06
283.051	91.06
283.282	82.06
283.513	86.06
283.745	90.06
283.976	96.06
284.207	80.06
284.439	67.06
284.67	89.06
284.901	76.06
285.132	89.06
285.364	86.06
285.595	92.06
285.826	91.06
286.057	85.06
286.288	87.06
286.52	84.06
286.751	87.06
286.982	79.06
287.213	81.06
287.444	76.06
287.675	77.06
287.906	91.06
288.138	81.06
288.369	91.06
288.6	83.06
288.831	72.06
289.062	80.06
289.293	91.06
289.524	84.06
289.755	78.06
289.986	65.06
290.217	78.06
290.448	86.06
290.679	82.06
290.91	79.06
291.141	79.06
291.371	98.06
291.602	89.06
291.833	72.06
292.064	74.06
292.295	90.06
292.526	75.06
292.757	81.06
292.987	80.06
293.218	87.06
293.449	88.06
293.68	89.06
293.91	90.06
294.141	66.06
294.372	87.06
294.603	90.06
294.833	90.06
295.064	85.06
295.295	90.06
295.525	81.06
295.756	84.06
295.987	73.06
296.217	84.06
296.448	73.06
296.679	94.06
296.909	79.06
297.14	88.06
297.37	81.06
297.601	86.06
297.831	80.06
298.062	93.06
298.292	93.06
298.523	85.06
298.753	82.06
298.984	64.06
299.214	81.06
299.445	80.06
299.675	62.06
299.905	77.06
300.136	92.06
300.366	83.06
300.597	85.06
300.827	82.06
301.057	90.06
301.288	84.06
301.518	80.06
301.748	83.06
301.979	74.06
302.209	80.06
302.439	85.06
302.669	84.06
302.9	73.06
303.13	79.06
303.36	91.06
303.59	95.06
303.82	102.06
304.051	74.06
304.281	83.06
304.511	82.06
304.741	90.06
304.971	79.06
305.201	104.06
305.431	81.06
305.661	95.06
305.891	98.06
306.121	83.06
306.352	83.06
306.582	81.06
306.812	75.06
307.042	83.06
307.272	98.06
307.502	75.06
307.731	102.06
307.961	86.06
308.191	76.06
308.421	75.06
308.651	82.06
308.881	85.06
309.111	72.06
309.341	83.06
309.571	78.06
309.8	73.06
310.03	81.06
310.26	93.06
310.49	79.06
310.72	71.06
310.949	80.06
311.179	100.06
311.409	76.06
311.639	75.06
311.868	85.06
312.098	79.06
312.328	85.06
312.557	83.06
312.787	84.06
313.017	100.06
313.246	68.06
313.476	77.06
313.706	76.06
313.935	80.06
314.165	76.06
314.394	92.06
314.624	83.06
314.853	82.06
315.083	82.06
315.312	91.06
315.542	80.06
315.771	79.06
316.001	83.06
316.23	89.06
316.46	85.06
316.689	76.06
316.919	79.06
317.148	85.06
317.377	82.06
317.607	75.06
317.836	90.06
318.065	81.06
318.295	88.06
318.524	83.06
318.753	90.06
318.983	75.06
319.212	76.06
319.441	76.06
319.67	83.06
319.9	84.06
320.129	74.06
320.358	88.06
320.587	90.06
320.816	81.06
321.046	73.06
321.275	81.06
321.504	86.06
321.733	82.06
321.962	73.06
322.191	95.06
322.42	75.06
322.649	86.06
322.878	72.06
323.108	65.06
323.337	94.06
323.566	83.06
323.795	94.06
324.024	88.06
324.253	83.06
324.482	95.06
324.71	93.06
324.939	84.06
325.168	86.06
325.397	83.06
325.626	77.06
325.855	74.06
326.084	88.06
326.313	76.06
326.542	87.06
326.77	87.06
326.999	93.06
327.228	86.06
327.457	92.06
327.686	81.06
327.914	66.06
328.143	92.06
328.372	86.06
328.6	80.06
328.829	74.06
329.058	87.06
329.287	81.06
329.515	91.06
329.744	89.06
329.972	94.06
330.201	84.06
330.43	85.06
330.658	90.06
330.887	78.06
331.115	94.06
331.344	71.06
331.572	89.06
331.801	70.06
332.03	83.06
332.258	78.06
332.486	81.06
332.715	75.06
332.943	92.06
333.172	95.06
333.4	80.06
333.629	70.06
333.857	87.06
334.085	82.06
334.314	80.06
334.542	82.06
334.771	82.06
334.999	73.06
335.227	97.06
335.455	84.06
335.684	87.06
335.912	89.06
336.14	87.06
336.369	87.06
336.597	93.06
336.825	77.06
337.053	72.06
337.281	78.06
337.51	80.06
337.738	81.06
337.966	84.06
338.194	80.06
338.422	77.06
338.65	79.06
338.878	98.06
339.106	71.06
339.334	86.06
339.562	91.06
339.79	82.06
340.018	93.06
340.246	86.06
340.474	86.06
340.702	101.06
340.93	84.06
341.158	87.06
341.386	93.06
341.614	82.06
341.842	82.06
342.07	71.06
342.298	86.06
342.526	77.06
342.754	70.06
342.981	90.06
343.209	91.06
343.437	85.06
343.665	71.06
343.893	75.06
344.12	83.06
344.348	90.06
344.576	88.06
344.804	82.06
345.031	87.06
345.259	87.06
345.487	87.06
345.714	73.06
345.942	81.06
346.17	79.06
346.397	76.06
346.625	84.06
346.853	87.06
347.08	94.06
347.308	73.06
347.535	94.06
347.763	79.06
347.99	89.06
348.218	91.06
348.445	87.06
348.673	82.06
348.9	85.06
349.128	88.06
349.355	76.06
349.583	88.06
349.81	82.06
350.037	86.06
350.265	94.06
350.492	76.06
350.72	82.06
350.947	95.06
351.174	83.06
351.402	83.06
351.629	73.06
351.856	79.06
352.083	86.06
352.311	76.06
352.538	76.06
352.765	70.06
352.992	86.06
353.22	93.06
353.447	87.06
353.674	92.06
353.901	75.06
354.128	101.06
354.355	67.06
354.583	82.06
354.81	82.06
355.037	95.06
355.264	76.06
355.491	78.06
355.718	84.06
355.945	79.06
356.172	84.06
356.399	77.06
356.626	74.06
356.853	86.06
357.08	89.06
357.307	72.06
357.534	70.06
357.761	72.06
357.988	83.06
358.215	81.06
358.441	81.06
358.668	87.06
358.895	71.06
359.122	68.06
359.349	80.06
359.576	88.06
359.802	76.06
360.029	75.06
360.256	83.06
360.483	71.06
360.709	83.06
360.936	77.06
361.163	97.06
361.39	91.06
361.616	79.06
361.843	75.06
362.07	76.06
362.296	83.06
362.523	92.06
362.749	81.06
362.976	74.06
363.203	83.06
363.429	83.06
363.656	90.06
363.882	70.06
364.109	86.06
364.335	80.06
364.562	89.06
364.788	94.06
365.015	84.06
365.241	81.06
365.468	90.06
365.694	71.06
365.92	76.06
366.147	95.06
366.373	82.06
366.599	91.06
366.826	86.06
367.052	84.06
367.278	74.06
367.505	85.06
367.731	83.06
367.957	104.06
368.184	91.06
368.41	79.06
368.636	82.06
368.862	88.06
369.089	91.06
369.315	92.06
369.541	96.06
369.767	91.06
369.993	98.06
370.219	88.06
370.445	83.06
370.672	94.06
370.898	89.06
371.124	87.06
371.35	94.06
371.576	90.06
371.802	99.06
372.028	98.06
372.254	86.06
372.48	81.06
372.706	92.06
372.932	94.06
373.158	94.06
373.384	90.06
373.61	90.06
373.835	100.06
374.061	90.06
374.287	85.06
374.513	91.06
374.739	92.06
374.965	100.06
375.191	105.06
375.416	95.06
375.642	101.06
375.868	93.06
376.094	89.06
376.319	94.06
376.545	98.06
376.771	94.06
376.997	94.06
377.222	105.06
377.448	81.06
377.674	99.06
377.899	87.06
378.125	111.06
378.35	98.06
378.576	104.06
378.802	96.06
379.027	94.06
379.253	102.06
379.478	92.06
379.704	81.06
379.929	92.06
380.155	87.06
380.38	91.06
380.606	94.06
380.831	98.06
381.057	97.06
381.282	91.06
381.507	110.06
381.733	92.06
381.958	91.06
382.184	90.06
382.409	91.06
382.634	99.06
382.86	88.06
383.085	94.06
383.31	95.06
383.535	111.06
383.761	102.06
383.986	88.06
384.211	86.06
384.436	113.06
384.662	91.06
384.887	87.06
385.112	100.06
385.337	96.06
385.562	96.06
385.787	91.06
386.013	95.06
386.238	103.06
386.463	100.06
386.688	97.06
386.913	106.06
387.138	106.06
387.363	113.06
387.588	108.06
387.813	90.06
388.038	92.06
388.263	122.06
388.488	97.06
388.713	110.06
388.938	103.06
389.163	98.06
389.387	102.06
389.612	95.06
389.837	103.06
390.062	108.06
390.287	104.06
390.512	122.06
390.736	101.06
390.961	97.06
391.186	102.06
391.411	113.06
391.636	108.06
391.86	83.06
392.085	110.06
392.31	101.06
392.534	104.06
392.759	105.06
392.984	81.06
393.208	107.06
393.433	99.06
393.658	111.06
393.882	120.06
394.107	117.06
394.331	112.06
394.556	107.06
394.78	117.06
395.005	104.06
395.229	109.06
395.454	106.06
395.678	110.06
395.903	110.06
396.127	113.06
396.352	118.06
396.576	112.06
396.801	114.06
397.025	95.06
397.249	110.06
397.474	111.06
397.698	120.06
397.922	107.06
398.147	111.06
398.371	112.06
398.595	114.06
398.82	90.06
399.044	105.06
399.268	107.06
399.492	118.06
399.717	116.06
399.941	98.06
400.165	111.06
400.389	104.06
400.613	110.06
400.837	112.06
401.062	112.06
401.286	106.06
401.51	118.06
401.734	118.06
401.958	118.06
402.182	103.06
402.406	105.06
402.63	116.06
402.854	116.06
403.078	99.06
403.302	107.06
403.526	110.06
403.75	117.06
403.974	117.06
404.198	132.06
404.422	127.06
404.645	122.06
404.869	123.06
405.093	114.06
405.317	111.06
405.541	123.06
405.765	118.06
405.988	115.06
406.212	124.06
406.436	118.06
406.66	120.06
406.883	127.06
407.107	115.06
407.331	104.06
407.555	126.06
407.778	136.06
408.002	132.06
408.226	126.06
408.449	113.06
408.673	108.06
408.896	121.06
409.12	134.06
409.344	114.06
409.567	114.06
409.791	122.06
410.014	125.06
410.238	128.06
410.461	134.06
410.685	119.06
410.908	108.06
411.132	99.06
411.355	120.06
411.578	117.06
411.802	146.06
412.025	132.06
412.249	129.06
412.472	118.06
412.695	121.06
412.919	122.06
413.142	123.06
413.365	126.06
413.589	107.06
413.812	136.06
414.035	124.06
414.258	117.06
414.482	124.06
414.705	114.06
414.928	123.06
415.151	130.06
415.374	133.06
415.597	136.06
415.821	117.06
416.044	128.06
416.267	140.06
416.49	124.06
416.713	132.06
416.936	125.06
417.159	124.06
417.382	115.06
417.605	136.06
417.828	139.06
418.051	145.06
418.274	134.06
418.497	126.06
418.72	133.06
418.943	143.06
419.166	140.06
419.389	159.06
419.611	145.06
419.834	132.06
420.057	126.06
420.28	134.06
420.503	149.06
420.726	138.06
420.948	152.06
421.171	130.06
421.394	146.06
421.617	152.06
421.839	144.06
422.062	137.06
422.285	132.06
422.507	138.06
422.73	135.06
422.953	139.06
423.175	151.06
423.398	124.06
423.621	139.06
423.843	134.06
424.066	134.06
424.288	145.06
424.511	159.06
424.733	147.06
424.956	149.06
425.178	148.06
425.401	131.06
425.623	138.06
425.846	131.06
426.068	147.06
426.291	134.06
426.513	139.06
426.735	126.06
426.958	126.06
427.18	130.06
427.402	136.06
427.625	129.06
427.847	136.06
428.069	132.06
428.292	131.06
428.514	119.06
428.736	136.06
428.958	129.06
429.181	137.06
429.403	139.06
429.625	147.06
429.847	128.06
430.069	141.06
430.292	120.06
430.514	130.06
430.736	118.06
430.958	126.06
431.18	128.06
431.402	132.06
431.624	132.06
431.846	113.06
432.068	103.06
432.29	94.06
432.512	113.06
432.734	126.06
432.956	134.06
433.178	151.06
433.4	146.06
433.622	132.06
433.844	134.06
434.066	128.06
434.287	104.06
434.509	106.06
434.731	104.06
434.953	113.06
435.175	107.06
435.397	130.06
435.618	130.06
435.84	123.06
436.062	108.06
436.284	124.06
436.505	126.06
436.727	132.06
436.949	146.06
437.17	136.06
437.392	129.06
437.614	117.06
437.835	120.06
438.057	118.06
438.278	116.06
438.5	132.06
438.721	139.06
438.943	142.06
439.165	136.06
439.386	142.06
439.608	148.06
439.829	143.06
440.05	155.06
440.272	161.06
440.493	154.06
440.715	146.06
440.936	159.06
441.158	150.06
441.379	142.06
441.6	148.06
441.822	150.06
442.043	139.06
442.264	144.06
442.486	152.06
442.707	128.06
442.928	143.06
443.149	164.06
443.371	158.06
443.592	150.06
443.813	138.06
444.034	135.06
444.255	150.06
444.476	146.06
444.698	150.06
444.919	152.06
445.14	282.06
445.361	213.06
445.582	160.06
445.803	152.06
446.024	160.06
446.245	162.06
446.466	156.06
446.687	148.06
446.908	161.06
447.129	166.06
447.35	171.06
447.571	170.06
447.792	148.06
448.013	140.06
448.234	136.06
448.455	158.06
448.675	146.06
448.896	148.06
449.117	132.06
449.338	140.06
449.559	141.06
449.779	131.06
450	147.06
450.221	136.06
450.442	132.06
450.662	140.06
450.883	137.06
451.104	142.06
451.324	132.06
451.545	136.06
451.766	143.06
451.986	137.06
452.207	137.06
452.428	128.06
452.648	127.06
452.869	137.06
453.089	114.06
453.31	118.06
453.53	113.06
453.751	106.06
453.971	100.06
454.192	104.06
454.412	99.06
454.633	116.06
454.853	130.06
455.073	120.06
455.294	124.06
455.514	124.06
455.734	133.06
455.955	115.06
456.175	122.06
456.395	125.06
456.616	116.06
456.836	114.06
457.056	104.06
457.276	102.06
457.497	104.06
457.717	110.06
457.937	104.06
458.157	116.06
458.377	100.06
458.598	117.06
458.818	96.06
459.038	94.06
459.258	75.06
459.478	90.06
459.698	81.06
459.918	111.06
460.138	106.06
460.358	122.06
460.578	108.06
460.798	126.06
461.018	118.06
461.238	112.06
461.458	106.06
461.678	124.06
461.898	118.06
462.118	123.06
462.338	128.06
462.558	122.06
462.777	118.06
462.997	115.06
463.217	120.06
463.437	110.06
463.657	103.06
463.876	93.06
464.096	116.06
464.316	105.06
464.536	117.06
464.755	119.06
464.975	132.06
465.195	122.06
465.414	126.06
465.634	100.06
465.854	135.06
466.073	112.06
466.293	128.06
466.512	144.06
466.732	142.06
466.951	106.06
467.171	136.06
467.391	135.06
467.61	140.06
467.829	127.06
468.049	134.06
468.268	149.06
468.488	140.06
468.707	150.06
468.927	147.06
469.146	131.06
469.365	154.06
469.585	138.06
469.804	152.06
470.023	133.06
470.243	158.06
470.462	128.06
470.681	130.06
470.901	149.06
471.12	146.06
471.339	149.06
471.558	162.06
471.777	151.06
471.997	141.06
472.216	136.06
472.435	110.06
472.654	108.06
472.873	119.06
473.092	112.06
473.311	121.06
473.53	127.06
473.749	151.06
473.968	140.06
474.187	140.06
474.406	128.06
474.625	133.06
474.844	131.06
475.063	123.06
475.282	114.06
475.501	127.06
475.72	125.06
475.939	123.06
476.158	130.06
476.377	123.06
476.596	134.06
476.814	119.06
477.033	113.06
477.252	121.06
477.471	125.06
477.69	131.06
477.908	130.06
478.127	130.06
478.346	137.06
478.564	141.06
478.783	132.06
479.002	140.06
479.22	136.06
479.439	140.06
479.658	126.06
479.876	114.06
480.095	116.06
480.313	123.06
480.532	112.06
480.751	95.06
480.969	93.06
481.188	101.06
481.406	84.06
481.624	97.06
481.843	98.06
482.061	105.06
482.28	117.06
482.498	113.06
482.717	104.06
482.935	122.06
483.153	151.06
483.372	150.06
483.59	164.06
483.808	147.06
484.027	139.06
484.245	142.06
484.463	161.06
484.681	178.06
484.9	144.06
485.118	148.06
485.336	123.06
485.554	120.06
485.772	110.06
485.99	116.06
486.209	107.06
486.427	110.06
486.645	122.06
486.863	138.06
487.081	140.06
487.299	131.06
487.517	146.06
487.735	180.06
487.953	193.06
488.171	199.06
488.389	202.06
488.607	183.06
488.825	150.06
489.043	150.06
489.261	136.06
489.479	139.06
489.696	148.06
489.914	156.06
490.132	136.06
490.35	156.06
490.568	164.06
490.786	169.06
491.003	171.06
491.221	203.06
491.439	201.06
491.657	197.06
491.874	228.06
492.092	236.06
492.31	260.06
492.527	229.06
492.745	219.06
492.963	200.06
493.18	190.06
493.398	194.06
493.615	188.06
493.833	174.06
494.05	186.06
494.268	187.06
494.485	182.06
494.703	174.06
494.92	174.06
495.138	166.06
495.355	176.06
495.573	180.06
495.79	155.06
496.008	167.06
496.225	175.06
496.442	165.06
496.66	182.06
496.877	172.06
497.094	165.06
497.312	171.06
497.529	191.06
497.746	162.06
497.963	144.06
498.181	132.06
498.398	121.06
498.615	127.06
498.832	129.06
499.049	127.06
499.267	128.06
499.484	133.06
499.701	123.06
499.918	139.06
500.135	136.06
500.352	156.06
500.569	148.06
500.786	162.06
501.003	143.06
501.22	138.06
501.437	129.06
501.654	154.06
501.871	137.06
502.088	138.06
502.305	128.06
502.522	133.06
502.739	130.06
502.956	139.06
503.172	123.06
503.389	132.06
503.606	133.06
503.823	132.06
504.04	116.06
504.256	134.06
504.473	126.06
504.69	122.06
504.907	117.06
505.123	120.06
505.34	124.06
505.557	129.06
505.773	124.06
505.99	120.06
506.207	118.06
506.423	127.06
506.64	116.06
506.856	126.06
507.073	120.06
507.289	116.06
507.506	126.06
507.722	116.06
507.939	130.06
508.155	135.06
508.372	106.06
508.588	114.06
508.805	116.06
509.021	102.06
509.238	114.06
509.454	124.06
509.67	102.06
509.887	100.06
510.103	100.06
510.319	98.06
510.536	92.06
510.752	76.06
510.968	89.06
511.184	87.06
511.401	82.06
