Data from Location6.07152019.Energy5.Lamp.07192019.3%Agarose_HRD10591_16-12-41-416.txt Node
Date: Fri Jul 19 16:12:41 EDT 2019
User: cochatt
Spectrometer: HR+D1059
Trigger mode: 1
Integration Time (sec): 1.000000E-1
Scans to average: 1
Electric dark correction enabled: true
Nonlinearity correction enabled: false
Boxcar width: 0
XAxis mode: Wavelengths
Number of Pixels in Spectrum: 2048
>>>>>Begin Spectral Data<<<<<
223.165	-15.56
223.4	-15.56
223.635	-15.56
223.869	-17.56
224.104	-22.56
224.338	-1.56
224.573	-13.56
224.808	6.44
225.042	-9.56
225.277	-8.56
225.511	6.44
225.746	-4.56
225.98	6.44
226.215	10.44
226.449	19.44
226.683	-0.56
226.918	18.44
227.152	26.44
227.387	19.44
227.621	33.44
227.856	46.44
228.09	43.44
228.324	42.44
228.559	41.44
228.793	62.44
229.027	55.44
229.262	86.44
229.496	65.44
229.73	59.44
229.964	79.44
230.199	70.44
230.433	73.44
230.667	89.44
230.901	88.44
231.136	88.44
231.37	70.44
231.604	80.44
231.838	82.44
232.072	73.44
232.306	79.44
232.541	77.44
232.775	79.44
233.009	81.44
233.243	78.44
233.477	80.44
233.711	84.44
233.945	76.44
234.179	94.44
234.413	66.44
234.647	76.44
234.881	82.44
235.115	97.44
235.349	77.44
235.583	75.44
235.817	76.44
236.051	81.44
236.285	86.44
236.519	77.44
236.753	74.44
236.987	75.44
237.221	70.44
237.455	85.44
237.689	82.44
237.922	78.44
238.156	95.44
238.39	79.44
238.624	72.44
238.858	68.44
239.091	88.44
239.325	64.44
239.559	81.44
239.793	59.44
240.027	91.44
240.26	72.44
240.494	83.44
240.728	76.44
240.961	71.44
241.195	78.44
241.429	62.44
241.662	78.44
241.896	70.44
242.13	67.44
242.363	80.44
242.597	82.44
242.83	77.44
243.064	83.44
243.298	67.44
243.531	87.44
243.765	73.44
243.998	74.44
244.232	77.44
244.465	65.44
244.699	81.44
244.932	77.44
245.166	75.44
245.399	89.44
245.633	75.44
245.866	83.44
246.099	82.44
246.333	75.44
246.566	69.44
246.8	68.44
247.033	60.44
247.266	74.44
247.5	69.44
247.733	76.44
247.966	87.44
248.2	66.44
248.433	77.44
248.666	81.44
248.899	72.44
249.133	66.44
249.366	89.44
249.599	80.44
249.832	79.44
250.066	82.44
250.299	76.44
250.532	74.44
250.765	81.44
250.998	74.44
251.231	83.44
251.465	88.44
251.698	84.44
251.931	83.44
252.164	75.44
252.397	78.44
252.63	71.44
252.863	66.44
253.096	102.44
253.329	82.44
253.562	73.44
253.795	75.44
254.028	89.44
254.261	69.44
254.494	73.44
254.727	65.44
254.96	77.44
255.193	69.44
255.426	93.44
255.659	80.44
255.892	70.44
256.124	72.44
256.357	71.44
256.59	75.44
256.823	88.44
257.056	73.44
257.289	87.44
257.521	81.44
257.754	82.44
257.987	66.44
258.22	86.44
258.452	88.44
258.685	89.44
258.918	101.44
259.151	66.44
259.383	83.44
259.616	70.44
259.849	87.44
260.081	80.44
260.314	80.44
260.547	78.44
260.779	87.44
261.012	90.44
261.244	84.44
261.477	89.44
261.71	86.44
261.942	75.44
262.175	82.44
262.407	90.44
262.64	79.44
262.872	76.44
263.105	102.44
263.337	90.44
263.57	88.44
263.802	68.44
264.035	87.44
264.267	79.44
264.499	75.44
264.732	92.44
264.964	79.44
265.197	82.44
265.429	79.44
265.661	90.44
265.894	80.44
266.126	84.44
266.358	77.44
266.591	91.44
266.823	69.44
267.055	79.44
267.287	89.44
267.52	85.44
267.752	67.44
267.984	80.44
268.216	92.44
268.448	89.44
268.681	81.44
268.913	85.44
269.145	73.44
269.377	66.44
269.609	73.44
269.841	80.44
270.073	86.44
270.306	66.44
270.538	76.44
270.77	81.44
271.002	83.44
271.234	84.44
271.466	84.44
271.698	84.44
271.93	72.44
272.162	74.44
272.394	93.44
272.626	78.44
272.858	92.44
273.09	83.44
273.322	87.44
273.553	76.44
273.785	98.44
274.017	80.44
274.249	84.44
274.481	90.44
274.713	87.44
274.945	85.44
275.176	75.44
275.408	89.44
275.64	81.44
275.872	86.44
276.104	93.44
276.335	94.44
276.567	104.44
276.799	97.44
277.031	86.44
277.262	80.44
277.494	80.44
277.726	85.44
277.957	89.44
278.189	92.44
278.421	84.44
278.652	89.44
278.884	82.44
279.115	86.44
279.347	70.44
279.579	71.44
279.81	76.44
280.042	91.44
280.273	99.44
280.505	99.44
280.736	95.44
280.968	86.44
281.199	84.44
281.431	97.44
281.662	86.44
281.894	89.44
282.125	99.44
282.356	77.44
282.588	86.44
282.819	84.44
283.051	90.44
283.282	74.44
283.513	87.44
283.745	79.44
283.976	86.44
284.207	82.44
284.439	73.44
284.67	99.44
284.901	84.44
285.132	81.44
285.364	104.44
285.595	94.44
285.826	85.44
286.057	87.44
286.288	77.44
286.52	88.44
286.751	70.44
286.982	83.44
287.213	90.44
287.444	72.44
287.675	70.44
287.906	87.44
288.138	89.44
288.369	67.44
288.6	89.44
288.831	82.44
289.062	83.44
289.293	79.44
289.524	92.44
289.755	92.44
289.986	82.44
290.217	81.44
290.448	83.44
290.679	96.44
290.91	81.44
291.141	73.44
291.371	88.44
291.602	74.44
291.833	75.44
292.064	94.44
292.295	83.44
292.526	79.44
292.757	104.44
292.987	96.44
293.218	74.44
293.449	75.44
293.68	92.44
293.91	87.44
294.141	98.44
294.372	86.44
294.603	75.44
294.833	87.44
295.064	77.44
295.295	91.44
295.525	85.44
295.756	81.44
295.987	83.44
296.217	78.44
296.448	74.44
296.679	94.44
296.909	76.44
297.14	87.44
297.37	83.44
297.601	95.44
297.831	91.44
298.062	68.44
298.292	73.44
298.523	83.44
298.753	87.44
298.984	75.44
299.214	88.44
299.445	90.44
299.675	87.44
299.905	78.44
300.136	88.44
300.366	89.44
300.597	95.44
300.827	82.44
301.057	81.44
301.288	88.44
301.518	89.44
301.748	93.44
301.979	95.44
302.209	91.44
302.439	86.44
302.669	91.44
302.9	81.44
303.13	88.44
303.36	82.44
303.59	84.44
303.82	91.44
304.051	87.44
304.281	87.44
304.511	89.44
304.741	94.44
304.971	91.44
305.201	91.44
305.431	92.44
305.661	92.44
305.891	84.44
306.121	94.44
306.352	88.44
306.582	92.44
306.812	81.44
307.042	66.44
307.272	91.44
307.502	83.44
307.731	79.44
307.961	70.44
308.191	94.44
308.421	86.44
308.651	85.44
308.881	84.44
309.111	80.44
309.341	88.44
309.571	90.44
309.8	94.44
310.03	89.44
310.26	89.44
310.49	87.44
310.72	85.44
310.949	81.44
311.179	83.44
311.409	111.44
311.639	82.44
311.868	82.44
312.098	94.44
312.328	81.44
312.557	78.44
312.787	79.44
313.017	65.44
313.246	93.44
313.476	91.44
313.706	83.44
313.935	81.44
314.165	75.44
314.394	91.44
314.624	84.44
314.853	92.44
315.083	84.44
315.312	94.44
315.542	82.44
315.771	82.44
316.001	70.44
316.23	78.44
316.46	82.44
316.689	82.44
316.919	73.44
317.148	93.44
317.377	84.44
317.607	97.44
317.836	86.44
318.065	73.44
318.295	82.44
318.524	89.44
318.753	83.44
318.983	72.44
319.212	99.44
319.441	74.44
319.67	94.44
319.9	84.44
320.129	82.44
320.358	75.44
320.587	81.44
320.816	82.44
321.046	78.44
321.275	94.44
321.504	100.44
321.733	82.44
321.962	88.44
322.191	91.44
322.42	76.44
322.649	92.44
322.878	93.44
323.108	80.44
323.337	86.44
323.566	79.44
323.795	78.44
324.024	78.44
324.253	83.44
324.482	97.44
324.71	82.44
324.939	92.44
325.168	74.44
325.397	82.44
325.626	98.44
325.855	82.44
326.084	74.44
326.313	87.44
326.542	96.44
326.77	95.44
326.999	89.44
327.228	84.44
327.457	86.44
327.686	98.44
327.914	86.44
328.143	87.44
328.372	71.44
328.6	80.44
328.829	79.44
329.058	82.44
329.287	82.44
329.515	93.44
329.744	78.44
329.972	84.44
330.201	98.44
330.43	84.44
330.658	89.44
330.887	86.44
331.115	93.44
331.344	81.44
331.572	88.44
331.801	75.44
332.03	89.44
332.258	94.44
332.486	87.44
332.715	77.44
332.943	82.44
333.172	88.44
333.4	85.44
333.629	83.44
333.857	80.44
334.085	91.44
334.314	73.44
334.542	85.44
334.771	70.44
334.999	76.44
335.227	84.44
335.455	96.44
335.684	92.44
335.912	79.44
336.14	92.44
336.369	79.44
336.597	75.44
336.825	90.44
337.053	93.44
337.281	83.44
337.51	80.44
337.738	89.44
337.966	77.44
338.194	83.44
338.422	83.44
338.65	84.44
338.878	95.44
339.106	85.44
339.334	88.44
339.562	95.44
339.79	87.44
340.018	82.44
340.246	76.44
340.474	88.44
340.702	75.44
340.93	89.44
341.158	81.44
341.386	74.44
341.614	82.44
341.842	72.44
342.07	101.44
342.298	98.44
342.526	86.44
342.754	81.44
342.981	84.44
343.209	94.44
343.437	94.44
343.665	90.44
343.893	98.44
344.12	84.44
344.348	82.44
344.576	77.44
344.804	85.44
345.031	71.44
345.259	82.44
345.487	90.44
345.714	98.44
345.942	81.44
346.17	89.44
346.397	85.44
346.625	80.44
346.853	94.44
347.08	87.44
347.308	98.44
347.535	83.44
347.763	74.44
347.99	83.44
348.218	94.44
348.445	76.44
348.673	92.44
348.9	95.44
349.128	77.44
349.355	73.44
349.583	72.44
349.81	77.44
350.037	91.44
350.265	91.44
350.492	94.44
350.72	84.44
350.947	90.44
351.174	90.44
351.402	89.44
351.629	94.44
351.856	99.44
352.083	74.44
352.311	90.44
352.538	72.44
352.765	88.44
352.992	82.44
353.22	93.44
353.447	94.44
353.674	94.44
353.901	95.44
354.128	74.44
354.355	81.44
354.583	85.44
354.81	86.44
355.037	91.44
355.264	82.44
355.491	90.44
355.718	77.44
355.945	98.44
356.172	82.44
356.399	69.44
356.626	93.44
356.853	95.44
357.08	86.44
357.307	90.44
357.534	91.44
357.761	69.44
357.988	100.44
358.215	85.44
358.441	87.44
358.668	72.44
358.895	73.44
359.122	77.44
359.349	99.44
359.576	78.44
359.802	74.44
360.029	89.44
360.256	91.44
360.483	87.44
360.709	79.44
360.936	94.44
361.163	95.44
361.39	66.44
361.616	93.44
361.843	85.44
362.07	95.44
362.296	91.44
362.523	89.44
362.749	86.44
362.976	80.44
363.203	88.44
363.429	88.44
363.656	83.44
363.882	90.44
364.109	104.44
364.335	84.44
364.562	89.44
364.788	73.44
365.015	96.44
365.241	79.44
365.468	89.44
365.694	85.44
365.92	70.44
366.147	87.44
366.373	77.44
366.599	72.44
366.826	82.44
367.052	96.44
367.278	87.44
367.505	103.44
367.731	99.44
367.957	99.44
368.184	78.44
368.41	90.44
368.636	100.44
368.862	86.44
369.089	80.44
369.315	88.44
369.541	102.44
369.767	88.44
369.993	90.44
370.219	89.44
370.445	72.44
370.672	96.44
370.898	91.44
371.124	91.44
371.35	93.44
371.576	94.44
371.802	84.44
372.028	107.44
372.254	91.44
372.48	92.44
372.706	78.44
372.932	73.44
373.158	94.44
373.384	98.44
373.61	86.44
373.835	94.44
374.061	92.44
374.287	88.44
374.513	98.44
374.739	87.44
374.965	113.44
375.191	92.44
375.416	90.44
375.642	87.44
375.868	100.44
376.094	104.44
376.319	106.44
376.545	88.44
376.771	82.44
376.997	101.44
377.222	88.44
377.448	104.44
377.674	94.44
377.899	93.44
378.125	92.44
378.35	90.44
378.576	105.44
378.802	99.44
379.027	94.44
379.253	106.44
379.478	88.44
379.704	94.44
379.929	85.44
380.155	99.44
380.38	101.44
380.606	99.44
380.831	79.44
381.057	106.44
381.282	105.44
381.507	99.44
381.733	103.44
381.958	100.44
382.184	110.44
382.409	103.44
382.634	108.44
382.86	81.44
383.085	102.44
383.31	83.44
383.535	94.44
383.761	91.44
383.986	106.44
384.211	105.44
384.436	101.44
384.662	97.44
384.887	88.44
385.112	91.44
385.337	98.44
385.562	98.44
385.787	95.44
386.013	99.44
386.238	117.44
386.463	89.44
386.688	106.44
386.913	99.44
387.138	97.44
387.363	104.44
387.588	95.44
387.813	97.44
388.038	92.44
388.263	90.44
388.488	107.44
388.713	107.44
388.938	95.44
389.163	94.44
389.387	100.44
389.612	102.44
389.837	98.44
390.062	91.44
390.287	91.44
390.512	99.44
390.736	96.44
390.961	94.44
391.186	107.44
391.411	110.44
391.636	110.44
391.86	104.44
392.085	114.44
392.31	110.44
392.534	98.44
392.759	111.44
392.984	101.44
393.208	101.44
393.433	102.44
393.658	99.44
393.882	95.44
394.107	119.44
394.331	116.44
394.556	104.44
394.78	114.44
395.005	94.44
395.229	98.44
395.454	122.44
395.678	118.44
395.903	121.44
396.127	98.44
396.352	108.44
396.576	113.44
396.801	114.44
397.025	114.44
397.249	127.44
397.474	126.44
397.698	120.44
397.922	119.44
398.147	115.44
398.371	115.44
398.595	119.44
398.82	98.44
399.044	98.44
399.268	106.44
399.492	112.44
399.717	116.44
399.941	120.44
400.165	115.44
400.389	117.44
400.613	112.44
400.837	117.44
401.062	118.44
401.286	123.44
401.51	123.44
401.734	130.44
401.958	111.44
402.182	128.44
402.406	114.44
402.63	115.44
402.854	119.44
403.078	113.44
403.302	110.44
403.526	126.44
403.75	126.44
403.974	106.44
404.198	105.44
404.422	117.44
404.645	116.44
404.869	144.44
405.093	118.44
405.317	114.44
405.541	126.44
405.765	114.44
405.988	122.44
406.212	130.44
406.436	126.44
406.66	123.44
406.883	126.44
407.107	122.44
407.331	129.44
407.555	128.44
407.778	122.44
408.002	122.44
408.226	114.44
408.449	115.44
408.673	119.44
408.896	119.44
409.12	129.44
409.344	121.44
409.567	112.44
409.791	122.44
410.014	123.44
410.238	105.44
410.461	120.44
410.685	120.44
410.908	108.44
411.132	121.44
411.355	130.44
411.578	111.44
411.802	119.44
412.025	102.44
412.249	123.44
412.472	120.44
412.695	120.44
412.919	122.44
413.142	131.44
413.365	140.44
413.589	127.44
413.812	138.44
414.035	130.44
414.258	132.44
414.482	111.44
414.705	116.44
414.928	115.44
415.151	129.44
415.374	130.44
415.597	114.44
415.821	104.44
416.044	124.44
416.267	137.44
416.49	126.44
416.713	119.44
416.936	122.44
417.159	134.44
417.382	119.44
417.605	125.44
417.828	126.44
418.051	116.44
418.274	118.44
418.497	140.44
418.72	160.44
418.943	129.44
419.166	150.44
419.389	138.44
419.611	123.44
419.834	130.44
420.057	144.44
420.28	147.44
420.503	134.44
420.726	130.44
420.948	139.44
421.171	136.44
421.394	148.44
421.617	142.44
421.839	156.44
422.062	136.44
422.285	152.44
422.507	135.44
422.73	140.44
422.953	125.44
423.175	124.44
423.398	130.44
423.621	134.44
423.843	125.44
424.066	154.44
424.288	144.44
424.511	144.44
424.733	148.44
424.956	153.44
425.178	142.44
425.401	156.44
425.623	140.44
425.846	124.44
426.068	129.44
426.291	146.44
426.513	146.44
426.735	136.44
426.958	130.44
427.18	122.44
427.402	124.44
427.625	135.44
427.847	121.44
428.069	136.44
428.292	127.44
428.514	128.44
428.736	131.44
428.958	144.44
429.181	127.44
429.403	127.44
429.625	124.44
429.847	148.44
430.069	137.44
430.292	128.44
430.514	127.44
430.736	128.44
430.958	141.44
431.18	126.44
431.402	136.44
431.624	125.44
431.846	114.44
432.068	115.44
432.29	102.44
432.512	126.44
432.734	112.44
432.956	122.44
433.178	140.44
433.4	140.44
433.622	134.44
433.844	130.44
434.066	123.44
434.287	112.44
434.509	87.44
434.731	101.44
434.953	114.44
435.175	124.44
435.397	119.44
435.618	123.44
435.84	123.44
436.062	121.44
436.284	139.44
436.505	129.44
436.727	143.44
436.949	138.44
437.17	125.44
437.392	123.44
437.614	125.44
437.835	119.44
438.057	99.44
438.278	118.44
438.5	115.44
438.721	119.44
438.943	125.44
439.165	140.44
439.386	144.44
439.608	150.44
439.829	140.44
440.05	144.44
440.272	166.44
440.493	146.44
440.715	150.44
440.936	142.44
441.158	144.44
441.379	153.44
441.6	146.44
441.822	139.44
442.043	162.44
442.264	140.44
442.486	143.44
442.707	139.44
442.928	150.44
443.149	151.44
443.371	138.44
443.592	132.44
443.813	141.44
444.034	145.44
444.255	144.44
444.476	134.44
444.698	153.44
444.919	152.44
445.14	272.44
445.361	218.44
445.582	168.44
445.803	144.44
446.024	158.44
446.245	142.44
446.466	151.44
446.687	161.44
446.908	155.44
447.129	168.44
447.35	161.44
447.571	159.44
447.792	148.44
448.013	157.44
448.234	140.44
448.455	155.44
448.675	144.44
448.896	155.44
449.117	147.44
449.338	151.44
449.559	145.44
449.779	134.44
450	134.44
450.221	146.44
450.442	148.44
450.662	139.44
450.883	132.44
451.104	134.44
451.324	144.44
451.545	119.44
451.766	136.44
451.986	123.44
452.207	120.44
452.428	132.44
452.648	126.44
452.869	119.44
453.089	122.44
453.31	117.44
453.53	100.44
453.751	116.44
453.971	117.44
454.192	100.44
454.412	113.44
454.633	122.44
454.853	129.44
455.073	124.44
455.294	139.44
455.514	125.44
455.734	131.44
455.955	117.44
456.175	103.44
456.395	124.44
456.616	108.44
456.836	105.44
457.056	109.44
457.276	109.44
457.497	116.44
457.717	102.44
457.937	119.44
458.157	106.44
458.377	108.44
458.598	105.44
458.818	84.44
459.038	96.44
459.258	91.44
459.478	96.44
459.698	103.44
459.918	87.44
460.138	100.44
460.358	107.44
460.578	112.44
460.798	95.44
461.018	114.44
461.238	106.44
461.458	113.44
461.678	118.44
461.898	110.44
462.118	126.44
462.338	130.44
462.558	109.44
462.777	121.44
462.997	107.44
463.217	107.44
463.437	118.44
463.657	122.44
463.876	118.44
464.096	110.44
464.316	120.44
464.536	132.44
464.755	135.44
464.975	113.44
465.195	119.44
465.414	116.44
465.634	130.44
465.854	123.44
466.073	155.44
466.293	138.44
466.512	125.44
466.732	140.44
466.951	121.44
467.171	148.44
467.391	139.44
467.61	143.44
467.829	139.44
468.049	143.44
468.268	138.44
468.488	145.44
468.707	134.44
468.927	130.44
469.146	153.44
469.365	133.44
469.585	136.44
469.804	136.44
470.023	131.44
470.243	146.44
470.462	154.44
470.681	158.44
470.901	152.44
471.12	143.44
471.339	154.44
471.558	138.44
471.777	140.44
471.997	133.44
472.216	128.44
472.435	120.44
472.654	114.44
472.873	113.44
473.092	122.44
473.311	128.44
473.53	121.44
473.749	135.44
473.968	115.44
474.187	126.44
474.406	128.44
474.625	139.44
474.844	134.44
475.063	132.44
475.282	146.44
475.501	131.44
475.72	116.44
475.939	126.44
476.158	145.44
476.377	128.44
476.596	122.44
476.814	115.44
477.033	110.44
477.252	114.44
477.471	117.44
477.69	134.44
477.908	147.44
478.127	150.44
478.346	134.44
478.564	149.44
478.783	150.44
479.002	138.44
479.22	124.44
479.439	127.44
479.658	124.44
479.876	127.44
480.095	117.44
480.313	128.44
480.532	141.44
480.751	128.44
480.969	101.44
481.188	89.44
481.406	83.44
481.624	88.44
481.843	94.44
482.061	86.44
482.28	120.44
482.498	115.44
482.717	121.44
482.935	111.44
483.153	132.44
483.372	150.44
483.59	168.44
483.808	150.44
484.027	146.44
484.245	152.44
484.463	159.44
484.681	168.44
484.9	157.44
485.118	149.44
485.336	129.44
485.554	130.44
485.772	111.44
485.99	118.44
486.209	110.44
486.427	128.44
486.645	114.44
486.863	135.44
487.081	145.44
487.299	150.44
487.517	154.44
487.735	170.44
487.953	176.44
488.171	182.44
488.389	191.44
488.607	161.44
488.825	136.44
489.043	129.44
489.261	157.44
489.479	151.44
489.696	138.44
489.914	142.44
490.132	138.44
490.35	165.44
490.568	151.44
490.786	183.44
491.003	175.44
491.221	184.44
491.439	190.44
491.657	184.44
491.874	223.44
492.092	236.44
492.31	246.44
492.527	259.44
492.745	203.44
492.963	210.44
493.18	185.44
493.398	182.44
493.615	192.44
493.833	175.44
494.05	177.44
494.268	174.44
494.485	179.44
494.703	188.44
494.92	184.44
495.138	197.44
495.355	171.44
495.573	165.44
495.79	171.44
496.008	176.44
496.225	178.44
496.442	181.44
496.66	171.44
496.877	185.44
497.094	161.44
497.312	170.44
497.529	159.44
497.746	161.44
497.963	152.44
498.181	126.44
498.398	128.44
498.615	120.44
498.832	129.44
499.049	134.44
499.267	141.44
499.484	134.44
499.701	148.44
499.918	153.44
500.135	132.44
500.352	161.44
500.569	133.44
500.786	161.44
501.003	162.44
501.22	152.44
501.437	147.44
501.654	138.44
501.871	134.44
502.088	138.44
502.305	143.44
502.522	135.44
502.739	131.44
502.956	132.44
503.172	125.44
503.389	129.44
503.606	118.44
503.823	122.44
504.04	120.44
504.256	130.44
504.473	135.44
504.69	122.44
504.907	138.44
505.123	130.44
505.34	127.44
505.557	126.44
505.773	117.44
505.99	133.44
506.207	123.44
506.423	115.44
506.64	121.44
506.856	122.44
507.073	135.44
507.289	131.44
507.506	129.44
507.722	114.44
507.939	111.44
508.155	120.44
508.372	121.44
508.588	113.44
508.805	114.44
509.021	107.44
509.238	105.44
509.454	97.44
509.67	99.44
509.887	92.44
510.103	101.44
510.319	81.44
510.536	90.44
510.752	101.44
510.968	83.44
511.184	94.44
511.401	84.44
