Data from Location6.07152019.Energy5.Lamp.07192019.3%Agarose_HRD10591_16-11-44-395.txt Node
Date: Fri Jul 19 16:11:44 EDT 2019
User: cochatt
Spectrometer: HR+D1059
Trigger mode: 1
Integration Time (sec): 1.000000E-1
Scans to average: 1
Electric dark correction enabled: true
Nonlinearity correction enabled: false
Boxcar width: 0
XAxis mode: Wavelengths
Number of Pixels in Spectrum: 2048
>>>>>Begin Spectral Data<<<<<
223.165	-14.31
223.4	-14.31
223.635	-14.31
223.869	-11.31
224.104	-14.31
224.338	-9.31
224.573	-16.31
224.808	-19.31
225.042	-6.31
225.277	-8.31
225.511	0.69
225.746	-4.31
225.98	23.69
226.215	11.69
226.449	17.69
226.683	1.69
226.918	26.69
227.152	21.69
227.387	40.69
227.621	41.69
227.856	36.69
228.09	57.69
228.324	48.69
228.559	64.69
228.793	63.69
229.027	64.69
229.262	48.69
229.496	67.69
229.73	55.69
229.964	75.69
230.199	69.69
230.433	76.69
230.667	56.69
230.901	70.69
231.136	64.69
231.37	78.69
231.604	73.69
231.838	68.69
232.072	73.69
232.306	82.69
232.541	88.69
232.775	76.69
233.009	82.69
233.243	84.69
233.477	80.69
233.711	74.69
233.945	80.69
234.179	80.69
234.413	79.69
234.647	76.69
234.881	70.69
235.115	74.69
235.349	80.69
235.583	80.69
235.817	74.69
236.051	80.69
236.285	80.69
236.519	71.69
236.753	74.69
236.987	69.69
237.221	63.69
237.455	83.69
237.689	77.69
237.922	79.69
238.156	73.69
238.39	75.69
238.624	72.69
238.858	78.69
239.091	80.69
239.325	86.69
239.559	76.69
239.793	71.69
240.027	78.69
240.26	92.69
240.494	62.69
240.728	70.69
240.961	69.69
241.195	74.69
241.429	74.69
241.662	66.69
241.896	69.69
242.13	74.69
242.363	76.69
242.597	72.69
242.83	80.69
243.064	72.69
243.298	70.69
243.531	79.69
243.765	76.69
243.998	71.69
244.232	78.69
244.465	84.69
244.699	68.69
244.932	88.69
245.166	80.69
245.399	77.69
245.633	62.69
245.866	74.69
246.099	81.69
246.333	66.69
246.566	69.69
246.8	81.69
247.033	81.69
247.266	74.69
247.5	70.69
247.733	65.69
247.966	63.69
248.2	94.69
248.433	76.69
248.666	67.69
248.899	76.69
249.133	74.69
249.366	95.69
249.599	85.69
249.832	76.69
250.066	82.69
250.299	75.69
250.532	79.69
250.765	71.69
250.998	74.69
251.231	73.69
251.465	74.69
251.698	74.69
251.931	72.69
252.164	82.69
252.397	76.69
252.63	81.69
252.863	87.69
253.096	83.69
253.329	72.69
253.562	65.69
253.795	68.69
254.028	80.69
254.261	87.69
254.494	81.69
254.727	79.69
254.96	75.69
255.193	84.69
255.426	84.69
255.659	70.69
255.892	85.69
256.124	72.69
256.357	72.69
256.59	83.69
256.823	85.69
257.056	75.69
257.289	71.69
257.521	71.69
257.754	78.69
257.987	72.69
258.22	65.69
258.452	82.69
258.685	80.69
258.918	79.69
259.151	89.69
259.383	82.69
259.616	86.69
259.849	87.69
260.081	77.69
260.314	76.69
260.547	80.69
260.779	69.69
261.012	93.69
261.244	70.69
261.477	80.69
261.71	68.69
261.942	81.69
262.175	80.69
262.407	80.69
262.64	62.69
262.872	82.69
263.105	80.69
263.337	72.69
263.57	72.69
263.802	65.69
264.035	81.69
264.267	86.69
264.499	98.69
264.732	79.69
264.964	92.69
265.197	68.69
265.429	71.69
265.661	78.69
265.894	81.69
266.126	78.69
266.358	74.69
266.591	72.69
266.823	77.69
267.055	88.69
267.287	81.69
267.52	83.69
267.752	84.69
267.984	93.69
268.216	68.69
268.448	72.69
268.681	66.69
268.913	78.69
269.145	73.69
269.377	74.69
269.609	79.69
269.841	91.69
270.073	75.69
270.306	68.69
270.538	81.69
270.77	80.69
271.002	84.69
271.234	71.69
271.466	85.69
271.698	68.69
271.93	60.69
272.162	85.69
272.394	92.69
272.626	73.69
272.858	91.69
273.09	86.69
273.322	93.69
273.553	86.69
273.785	94.69
274.017	87.69
274.249	81.69
274.481	78.69
274.713	71.69
274.945	88.69
275.176	87.69
275.408	89.69
275.64	71.69
275.872	76.69
276.104	74.69
276.335	81.69
276.567	72.69
276.799	86.69
277.031	74.69
277.262	82.69
277.494	90.69
277.726	86.69
277.957	93.69
278.189	85.69
278.421	82.69
278.652	71.69
278.884	82.69
279.115	86.69
279.347	83.69
279.579	97.69
279.81	92.69
280.042	86.69
280.273	86.69
280.505	78.69
280.736	70.69
280.968	77.69
281.199	72.69
281.431	76.69
281.662	78.69
281.894	87.69
282.125	88.69
282.356	97.69
282.588	79.69
282.819	73.69
283.051	69.69
283.282	75.69
283.513	87.69
283.745	79.69
283.976	91.69
284.207	91.69
284.439	79.69
284.67	89.69
284.901	90.69
285.132	67.69
285.364	74.69
285.595	82.69
285.826	93.69
286.057	79.69
286.288	80.69
286.52	72.69
286.751	76.69
286.982	83.69
287.213	90.69
287.444	79.69
287.675	66.69
287.906	73.69
288.138	78.69
288.369	79.69
288.6	82.69
288.831	74.69
289.062	89.69
289.293	65.69
289.524	72.69
289.755	84.69
289.986	71.69
290.217	82.69
290.448	80.69
290.679	81.69
290.91	82.69
291.141	73.69
291.371	78.69
291.602	76.69
291.833	81.69
292.064	83.69
292.295	96.69
292.526	88.69
292.757	72.69
292.987	87.69
293.218	81.69
293.449	87.69
293.68	84.69
293.91	85.69
294.141	95.69
294.372	78.69
294.603	60.69
294.833	83.69
295.064	80.69
295.295	75.69
295.525	70.69
295.756	79.69
295.987	80.69
296.217	92.69
296.448	84.69
296.679	74.69
296.909	87.69
297.14	89.69
297.37	80.69
297.601	84.69
297.831	98.69
298.062	75.69
298.292	88.69
298.523	67.69
298.753	77.69
298.984	80.69
299.214	78.69
299.445	78.69
299.675	95.69
299.905	80.69
300.136	93.69
300.366	65.69
300.597	88.69
300.827	92.69
301.057	72.69
301.288	71.69
301.518	81.69
301.748	64.69
301.979	74.69
302.209	80.69
302.439	88.69
302.669	75.69
302.9	77.69
303.13	84.69
303.36	74.69
303.59	74.69
303.82	85.69
304.051	90.69
304.281	93.69
304.511	80.69
304.741	76.69
304.971	90.69
305.201	80.69
305.431	87.69
305.661	81.69
305.891	86.69
306.121	81.69
306.352	86.69
306.582	76.69
306.812	64.69
307.042	73.69
307.272	76.69
307.502	72.69
307.731	75.69
307.961	83.69
308.191	78.69
308.421	75.69
308.651	76.69
308.881	77.69
309.111	104.69
309.341	70.69
309.571	85.69
309.8	80.69
310.03	68.69
310.26	86.69
310.49	72.69
310.72	69.69
310.949	74.69
311.179	76.69
311.409	81.69
311.639	86.69
311.868	81.69
312.098	86.69
312.328	89.69
312.557	79.69
312.787	79.69
313.017	76.69
313.246	89.69
313.476	82.69
313.706	86.69
313.935	77.69
314.165	82.69
314.394	69.69
314.624	78.69
314.853	80.69
315.083	87.69
315.312	81.69
315.542	77.69
315.771	73.69
316.001	67.69
316.23	68.69
316.46	81.69
316.689	81.69
316.919	82.69
317.148	64.69
317.377	83.69
317.607	80.69
317.836	93.69
318.065	82.69
318.295	80.69
318.524	78.69
318.753	78.69
318.983	81.69
319.212	81.69
319.441	85.69
319.67	48.69
319.9	85.69
320.129	80.69
320.358	85.69
320.587	78.69
320.816	79.69
321.046	94.69
321.275	84.69
321.504	73.69
321.733	93.69
321.962	78.69
322.191	73.69
322.42	76.69
322.649	86.69
322.878	88.69
323.108	77.69
323.337	78.69
323.566	75.69
323.795	90.69
324.024	84.69
324.253	89.69
324.482	87.69
324.71	86.69
324.939	76.69
325.168	92.69
325.397	85.69
325.626	84.69
325.855	84.69
326.084	92.69
326.313	87.69
326.542	84.69
326.77	80.69
326.999	81.69
327.228	75.69
327.457	73.69
327.686	80.69
327.914	76.69
328.143	73.69
328.372	84.69
328.6	80.69
328.829	65.69
329.058	77.69
329.287	87.69
329.515	83.69
329.744	86.69
329.972	74.69
330.201	79.69
330.43	78.69
330.658	68.69
330.887	79.69
331.115	86.69
331.344	86.69
331.572	91.69
331.801	78.69
332.03	72.69
332.258	86.69
332.486	74.69
332.715	71.69
332.943	75.69
333.172	84.69
333.4	80.69
333.629	85.69
333.857	81.69
334.085	80.69
334.314	83.69
334.542	86.69
334.771	78.69
334.999	75.69
335.227	69.69
335.455	83.69
335.684	78.69
335.912	81.69
336.14	79.69
336.369	76.69
336.597	83.69
336.825	83.69
337.053	79.69
337.281	82.69
337.51	83.69
337.738	74.69
337.966	82.69
338.194	82.69
338.422	80.69
338.65	94.69
338.878	68.69
339.106	92.69
339.334	86.69
339.562	90.69
339.79	75.69
340.018	82.69
340.246	76.69
340.474	80.69
340.702	71.69
340.93	69.69
341.158	70.69
341.386	87.69
341.614	70.69
341.842	76.69
342.07	77.69
342.298	89.69
342.526	84.69
342.754	74.69
342.981	75.69
343.209	88.69
343.437	78.69
343.665	77.69
343.893	91.69
344.12	65.69
344.348	77.69
344.576	81.69
344.804	76.69
345.031	80.69
345.259	78.69
345.487	92.69
345.714	93.69
345.942	89.69
346.17	79.69
346.397	76.69
346.625	84.69
346.853	73.69
347.08	75.69
347.308	77.69
347.535	81.69
347.763	95.69
347.99	93.69
348.218	82.69
348.445	75.69
348.673	77.69
348.9	81.69
349.128	83.69
349.355	73.69
349.583	88.69
349.81	85.69
350.037	88.69
350.265	87.69
350.492	72.69
350.72	79.69
350.947	72.69
351.174	73.69
351.402	77.69
351.629	79.69
351.856	76.69
352.083	82.69
352.311	81.69
352.538	80.69
352.765	85.69
352.992	80.69
353.22	76.69
353.447	77.69
353.674	65.69
353.901	79.69
354.128	69.69
354.355	65.69
354.583	95.69
354.81	74.69
355.037	87.69
355.264	79.69
355.491	78.69
355.718	72.69
355.945	70.69
356.172	76.69
356.399	74.69
356.626	84.69
356.853	80.69
357.08	84.69
357.307	83.69
357.534	77.69
357.761	79.69
357.988	77.69
358.215	92.69
358.441	90.69
358.668	89.69
358.895	89.69
359.122	80.69
359.349	84.69
359.576	87.69
359.802	78.69
360.029	84.69
360.256	79.69
360.483	72.69
360.709	80.69
360.936	85.69
361.163	71.69
361.39	78.69
361.616	79.69
361.843	66.69
362.07	79.69
362.296	93.69
362.523	64.69
362.749	82.69
362.976	64.69
363.203	94.69
363.429	80.69
363.656	80.69
363.882	73.69
364.109	92.69
364.335	87.69
364.562	79.69
364.788	83.69
365.015	78.69
365.241	95.69
365.468	83.69
365.694	82.69
365.92	80.69
366.147	64.69
366.373	87.69
366.599	81.69
366.826	84.69
367.052	78.69
367.278	89.69
367.505	88.69
367.731	97.69
367.957	90.69
368.184	85.69
368.41	92.69
368.636	94.69
368.862	90.69
369.089	93.69
369.315	78.69
369.541	84.69
369.767	91.69
369.993	86.69
370.219	104.69
370.445	93.69
370.672	86.69
370.898	79.69
371.124	84.69
371.35	87.69
371.576	85.69
371.802	81.69
372.028	85.69
372.254	88.69
372.48	92.69
372.706	92.69
372.932	86.69
373.158	65.69
373.384	87.69
373.61	81.69
373.835	90.69
374.061	97.69
374.287	77.69
374.513	72.69
374.739	82.69
374.965	86.69
375.191	95.69
375.416	92.69
375.642	89.69
375.868	81.69
376.094	88.69
376.319	85.69
376.545	96.69
376.771	85.69
376.997	91.69
377.222	82.69
377.448	72.69
377.674	96.69
377.899	86.69
378.125	90.69
378.35	87.69
378.576	95.69
378.802	100.69
379.027	108.69
379.253	104.69
379.478	89.69
379.704	93.69
379.929	89.69
380.155	93.69
380.38	111.69
380.606	104.69
380.831	83.69
381.057	98.69
381.282	101.69
381.507	99.69
381.733	102.69
381.958	85.69
382.184	94.69
382.409	97.69
382.634	89.69
382.86	90.69
383.085	108.69
383.31	101.69
383.535	88.69
383.761	76.69
383.986	89.69
384.211	105.69
384.436	112.69
384.662	87.69
384.887	79.69
385.112	95.69
385.337	82.69
385.562	86.69
385.787	110.69
386.013	116.69
386.238	103.69
386.463	100.69
386.688	85.69
386.913	91.69
387.138	100.69
387.363	91.69
387.588	98.69
387.813	101.69
388.038	90.69
388.263	94.69
388.488	105.69
388.713	95.69
388.938	109.69
389.163	104.69
389.387	91.69
389.612	110.69
389.837	108.69
390.062	104.69
390.287	102.69
390.512	104.69
390.736	94.69
390.961	102.69
391.186	92.69
391.411	118.69
391.636	114.69
391.86	105.69
392.085	92.69
392.31	108.69
392.534	103.69
392.759	92.69
392.984	100.69
393.208	105.69
393.433	114.69
393.658	108.69
393.882	88.69
394.107	99.69
394.331	103.69
394.556	91.69
394.78	134.69
395.005	114.69
395.229	120.69
395.454	113.69
395.678	110.69
395.903	117.69
396.127	99.69
396.352	97.69
396.576	110.69
396.801	94.69
397.025	94.69
397.249	95.69
397.474	99.69
397.698	97.69
397.922	110.69
398.147	99.69
398.371	116.69
398.595	132.69
398.82	118.69
399.044	114.69
399.268	104.69
399.492	100.69
399.717	112.69
399.941	115.69
400.165	124.69
400.389	100.69
400.613	108.69
400.837	105.69
401.062	103.69
401.286	114.69
401.51	114.69
401.734	101.69
401.958	122.69
402.182	111.69
402.406	102.69
402.63	109.69
402.854	116.69
403.078	100.69
403.302	112.69
403.526	115.69
403.75	111.69
403.974	109.69
404.198	120.69
404.422	109.69
404.645	124.69
404.869	109.69
405.093	104.69
405.317	120.69
405.541	111.69
405.765	114.69
405.988	119.69
406.212	102.69
406.436	105.69
406.66	124.69
406.883	120.69
407.107	111.69
407.331	118.69
407.555	119.69
407.778	112.69
408.002	122.69
408.226	114.69
408.449	113.69
408.673	113.69
408.896	120.69
409.12	126.69
409.344	118.69
409.567	115.69
409.791	111.69
410.014	118.69
410.238	127.69
410.461	126.69
410.685	120.69
410.908	126.69
411.132	126.69
411.355	122.69
411.578	114.69
411.802	110.69
412.025	116.69
412.249	118.69
412.472	108.69
412.695	137.69
412.919	122.69
413.142	116.69
413.365	126.69
413.589	123.69
413.812	112.69
414.035	121.69
414.258	128.69
414.482	120.69
414.705	132.69
414.928	127.69
415.151	116.69
415.374	139.69
415.597	115.69
415.821	119.69
416.044	117.69
416.267	122.69
416.49	132.69
416.713	124.69
416.936	133.69
417.159	133.69
417.382	120.69
417.605	132.69
417.828	132.69
418.051	145.69
418.274	132.69
418.497	133.69
418.72	130.69
418.943	130.69
419.166	137.69
419.389	143.69
419.611	134.69
419.834	133.69
420.057	132.69
420.28	152.69
420.503	142.69
420.726	139.69
420.948	132.69
421.171	136.69
421.394	135.69
421.617	142.69
421.839	148.69
422.062	155.69
422.285	128.69
422.507	126.69
422.73	114.69
422.953	130.69
423.175	119.69
423.398	128.69
423.621	131.69
423.843	120.69
424.066	156.69
424.288	136.69
424.511	150.69
424.733	130.69
424.956	149.69
425.178	138.69
425.401	142.69
425.623	134.69
425.846	121.69
426.068	130.69
426.291	135.69
426.513	126.69
426.735	128.69
426.958	136.69
427.18	130.69
427.402	128.69
427.625	115.69
427.847	124.69
428.069	133.69
428.292	145.69
428.514	129.69
428.736	130.69
428.958	131.69
429.181	131.69
429.403	130.69
429.625	138.69
429.847	153.69
430.069	128.69
430.292	150.69
430.514	146.69
430.736	121.69
430.958	144.69
431.18	121.69
431.402	128.69
431.624	124.69
431.846	120.69
432.068	111.69
432.29	100.69
432.512	100.69
432.734	123.69
432.956	126.69
433.178	136.69
433.4	134.69
433.622	134.69
433.844	130.69
434.066	126.69
434.287	117.69
434.509	101.69
434.731	85.69
434.953	112.69
435.175	112.69
435.397	129.69
435.618	123.69
435.84	125.69
436.062	120.69
436.284	106.69
436.505	120.69
436.727	129.69
436.949	140.69
437.17	132.69
437.392	135.69
437.614	118.69
437.835	106.69
438.057	104.69
438.278	127.69
438.5	119.69
438.721	125.69
438.943	130.69
439.165	141.69
439.386	136.69
439.608	146.69
439.829	140.69
440.05	156.69
440.272	161.69
440.493	153.69
440.715	124.69
440.936	156.69
441.158	150.69
441.379	156.69
441.6	136.69
441.822	144.69
442.043	156.69
442.264	150.69
442.486	126.69
442.707	134.69
442.928	146.69
443.149	135.69
443.371	140.69
443.592	150.69
443.813	152.69
444.034	142.69
444.255	133.69
444.476	128.69
444.698	134.69
444.919	162.69
445.14	276.69
445.361	216.69
445.582	154.69
445.803	150.69
446.024	156.69
446.245	148.69
446.466	152.69
446.687	152.69
446.908	148.69
447.129	164.69
447.35	176.69
447.571	154.69
447.792	144.69
448.013	139.69
448.234	167.69
448.455	137.69
448.675	134.69
448.896	117.69
449.117	135.69
449.338	149.69
449.559	136.69
449.779	146.69
450	139.69
450.221	108.69
450.442	146.69
450.662	135.69
450.883	138.69
451.104	135.69
451.324	129.69
451.545	122.69
451.766	128.69
451.986	122.69
452.207	133.69
452.428	135.69
452.648	137.69
452.869	121.69
453.089	121.69
453.31	117.69
453.53	115.69
453.751	111.69
453.971	97.69
454.192	90.69
454.412	110.69
454.633	124.69
454.853	124.69
455.073	132.69
455.294	130.69
455.514	119.69
455.734	120.69
455.955	120.69
456.175	134.69
456.395	99.69
456.616	110.69
456.836	110.69
457.056	109.69
457.276	107.69
457.497	124.69
457.717	97.69
457.937	113.69
458.157	93.69
458.377	101.69
458.598	101.69
458.818	100.69
459.038	88.69
459.258	87.69
459.478	93.69
459.698	102.69
459.918	110.69
460.138	116.69
460.358	115.69
460.578	134.69
460.798	112.69
461.018	118.69
461.238	121.69
461.458	105.69
461.678	120.69
461.898	108.69
462.118	122.69
462.338	125.69
462.558	105.69
462.777	119.69
462.997	113.69
463.217	121.69
463.437	119.69
463.657	121.69
463.876	110.69
464.096	102.69
464.316	91.69
464.536	103.69
464.755	131.69
464.975	126.69
465.195	120.69
465.414	120.69
465.634	120.69
465.854	127.69
466.073	130.69
466.293	122.69
466.512	121.69
466.732	128.69
466.951	132.69
467.171	135.69
467.391	147.69
467.61	134.69
467.829	128.69
468.049	142.69
468.268	120.69
468.488	124.69
468.707	127.69
468.927	132.69
469.146	136.69
469.365	136.69
469.585	135.69
469.804	136.69
470.023	137.69
470.243	143.69
470.462	148.69
470.681	153.69
470.901	139.69
471.12	153.69
471.339	145.69
471.558	134.69
471.777	146.69
471.997	144.69
472.216	144.69
472.435	129.69
472.654	113.69
472.873	100.69
473.092	101.69
473.311	127.69
473.53	124.69
473.749	127.69
473.968	132.69
474.187	130.69
474.406	113.69
474.625	121.69
474.844	142.69
475.063	113.69
475.282	126.69
475.501	124.69
475.72	132.69
475.939	106.69
476.158	129.69
476.377	119.69
476.596	115.69
476.814	129.69
477.033	118.69
477.252	124.69
477.471	138.69
477.69	129.69
477.908	126.69
478.127	140.69
478.346	136.69
478.564	134.69
478.783	130.69
479.002	146.69
479.22	145.69
479.439	137.69
479.658	145.69
479.876	115.69
480.095	119.69
480.313	122.69
480.532	112.69
480.751	108.69
480.969	99.69
481.188	92.69
481.406	90.69
481.624	87.69
481.843	82.69
482.061	96.69
482.28	108.69
482.498	106.69
482.717	100.69
482.935	124.69
483.153	138.69
483.372	134.69
483.59	137.69
483.808	153.69
484.027	153.69
484.245	143.69
484.463	161.69
484.681	176.69
484.9	151.69
485.118	163.69
485.336	120.69
485.554	87.69
485.772	108.69
485.99	106.69
486.209	109.69
486.427	96.69
486.645	120.69
486.863	148.69
487.081	137.69
487.299	137.69
487.517	140.69
487.735	182.69
487.953	188.69
488.171	190.69
488.389	178.69
488.607	174.69
488.825	154.69
489.043	135.69
489.261	153.69
489.479	137.69
489.696	149.69
489.914	158.69
490.132	142.69
490.35	153.69
490.568	160.69
490.786	174.69
491.003	177.69
491.221	182.69
491.439	196.69
491.657	202.69
491.874	213.69
492.092	235.69
492.31	244.69
492.527	228.69
492.745	219.69
492.963	202.69
493.18	204.69
493.398	191.69
493.615	188.69
493.833	178.69
494.05	176.69
494.268	157.69
494.485	169.69
494.703	171.69
494.92	179.69
495.138	180.69
495.355	164.69
495.573	165.69
495.79	178.69
496.008	168.69
496.225	158.69
496.442	162.69
496.66	171.69
496.877	155.69
497.094	177.69
497.312	156.69
497.529	165.69
497.746	163.69
497.963	137.69
498.181	132.69
498.398	119.69
498.615	128.69
498.832	113.69
499.049	119.69
499.267	108.69
499.484	133.69
499.701	146.69
499.918	132.69
500.135	143.69
500.352	139.69
500.569	138.69
500.786	149.69
501.003	160.69
501.22	136.69
501.437	134.69
501.654	135.69
501.871	130.69
502.088	128.69
502.305	133.69
502.522	129.69
502.739	131.69
502.956	134.69
503.172	125.69
503.389	129.69
503.606	102.69
503.823	124.69
504.04	124.69
504.256	129.69
504.473	108.69
504.69	105.69
504.907	122.69
505.123	132.69
505.34	126.69
505.557	130.69
505.773	135.69
505.99	124.69
506.207	115.69
506.423	120.69
506.64	117.69
506.856	121.69
507.073	123.69
507.289	130.69
507.506	118.69
507.722	118.69
507.939	118.69
508.155	110.69
508.372	117.69
508.588	126.69
508.805	126.69
509.021	119.69
509.238	121.69
509.454	108.69
509.67	92.69
509.887	100.69
510.103	110.69
510.319	103.69
510.536	97.69
510.752	87.69
510.968	97.69
511.184	80.69
511.401	87.69
511.617	71.69
511.833	97.69
