Data from Location6.07152019.Energy5.Lamp.07192019.3%Agarose_HRD10591_16-12-36-395.txt Node
Date: Fri Jul 19 16:12:36 EDT 2019
User: cochatt
Spectrometer: HR+D1059
Trigger mode: 1
Integration Time (sec): 1.000000E-1
Scans to average: 1
Electric dark correction enabled: true
Nonlinearity correction enabled: false
Boxcar width: 0
XAxis mode: Wavelengths
Number of Pixels in Spectrum: 2048
>>>>>Begin Spectral Data<<<<<
223.165	-6.12
223.4	-6.12
223.635	-6.12
223.869	-19.12
224.104	-13.12
224.338	-15.12
224.573	-11.12
224.808	-22.12
225.042	-8.12
225.277	-20.12
225.511	4.88
225.746	2.88
225.98	-1.12
226.215	12.88
226.449	29.88
226.683	11.88
226.918	28.88
227.152	24.88
227.387	34.88
227.621	41.88
227.856	44.88
228.09	51.88
228.324	38.88
228.559	55.88
228.793	66.88
229.027	50.88
229.262	55.88
229.496	54.88
229.73	75.88
229.964	78.88
230.199	73.88
230.433	71.88
230.667	81.88
230.901	77.88
231.136	98.88
231.37	84.88
231.604	63.88
231.838	70.88
232.072	90.88
232.306	85.88
232.541	80.88
232.775	75.88
233.009	70.88
233.243	93.88
233.477	95.88
233.711	88.88
233.945	77.88
234.179	82.88
234.413	85.88
234.647	76.88
234.881	78.88
235.115	68.88
235.349	77.88
235.583	85.88
235.817	87.88
236.051	73.88
236.285	93.88
236.519	83.88
236.753	82.88
236.987	85.88
237.221	78.88
237.455	79.88
237.689	66.88
237.922	70.88
238.156	79.88
238.39	50.88
238.624	76.88
238.858	80.88
239.091	78.88
239.325	86.88
239.559	77.88
239.793	82.88
240.027	80.88
240.26	83.88
240.494	83.88
240.728	87.88
240.961	63.88
241.195	78.88
241.429	80.88
241.662	76.88
241.896	78.88
242.13	84.88
242.363	72.88
242.597	82.88
242.83	85.88
243.064	77.88
243.298	86.88
243.531	83.88
243.765	91.88
243.998	82.88
244.232	86.88
244.465	66.88
244.699	84.88
244.932	61.88
245.166	56.88
245.399	78.88
245.633	78.88
245.866	81.88
246.099	84.88
246.333	71.88
246.566	64.88
246.8	61.88
247.033	77.88
247.266	81.88
247.5	98.88
247.733	106.88
247.966	83.88
248.2	82.88
248.433	65.88
248.666	75.88
248.899	81.88
249.133	77.88
249.366	78.88
249.599	86.88
249.832	78.88
250.066	73.88
250.299	84.88
250.532	73.88
250.765	80.88
250.998	96.88
251.231	69.88
251.465	82.88
251.698	72.88
251.931	81.88
252.164	83.88
252.397	82.88
252.63	68.88
252.863	77.88
253.096	78.88
253.329	88.88
253.562	76.88
253.795	70.88
254.028	75.88
254.261	77.88
254.494	78.88
254.727	82.88
254.96	88.88
255.193	81.88
255.426	70.88
255.659	85.88
255.892	82.88
256.124	85.88
256.357	94.88
256.59	85.88
256.823	89.88
257.056	82.88
257.289	87.88
257.521	73.88
257.754	88.88
257.987	70.88
258.22	78.88
258.452	83.88
258.685	78.88
258.918	88.88
259.151	87.88
259.383	78.88
259.616	89.88
259.849	81.88
260.081	80.88
260.314	85.88
260.547	90.88
260.779	82.88
261.012	74.88
261.244	85.88
261.477	85.88
261.71	82.88
261.942	94.88
262.175	84.88
262.407	64.88
262.64	61.88
262.872	86.88
263.105	76.88
263.337	77.88
263.57	81.88
263.802	87.88
264.035	84.88
264.267	86.88
264.499	77.88
264.732	86.88
264.964	75.88
265.197	78.88
265.429	107.88
265.661	88.88
265.894	74.88
266.126	82.88
266.358	96.88
266.591	81.88
266.823	81.88
267.055	89.88
267.287	79.88
267.52	75.88
267.752	82.88
267.984	80.88
268.216	91.88
268.448	90.88
268.681	77.88
268.913	72.88
269.145	76.88
269.377	89.88
269.609	83.88
269.841	77.88
270.073	91.88
270.306	77.88
270.538	95.88
270.77	84.88
271.002	87.88
271.234	84.88
271.466	73.88
271.698	74.88
271.93	72.88
272.162	82.88
272.394	87.88
272.626	89.88
272.858	74.88
273.09	77.88
273.322	93.88
273.553	73.88
273.785	100.88
274.017	75.88
274.249	86.88
274.481	86.88
274.713	74.88
274.945	91.88
275.176	91.88
275.408	84.88
275.64	87.88
275.872	73.88
276.104	80.88
276.335	92.88
276.567	77.88
276.799	72.88
277.031	97.88
277.262	77.88
277.494	82.88
277.726	73.88
277.957	81.88
278.189	78.88
278.421	92.88
278.652	82.88
278.884	96.88
279.115	90.88
279.347	97.88
279.579	93.88
279.81	88.88
280.042	83.88
280.273	82.88
280.505	83.88
280.736	94.88
280.968	75.88
281.199	86.88
281.431	88.88
281.662	86.88
281.894	82.88
282.125	96.88
282.356	94.88
282.588	92.88
282.819	99.88
283.051	91.88
283.282	82.88
283.513	89.88
283.745	84.88
283.976	82.88
284.207	93.88
284.439	75.88
284.67	84.88
284.901	78.88
285.132	78.88
285.364	83.88
285.595	78.88
285.826	84.88
286.057	92.88
286.288	81.88
286.52	88.88
286.751	79.88
286.982	102.88
287.213	80.88
287.444	101.88
287.675	86.88
287.906	73.88
288.138	80.88
288.369	87.88
288.6	90.88
288.831	89.88
289.062	80.88
289.293	85.88
289.524	96.88
289.755	88.88
289.986	96.88
290.217	86.88
290.448	82.88
290.679	86.88
290.91	80.88
291.141	83.88
291.371	86.88
291.602	90.88
291.833	88.88
292.064	90.88
292.295	88.88
292.526	80.88
292.757	87.88
292.987	91.88
293.218	89.88
293.449	103.88
293.68	81.88
293.91	80.88
294.141	78.88
294.372	92.88
294.603	73.88
294.833	83.88
295.064	100.88
295.295	81.88
295.525	98.88
295.756	78.88
295.987	94.88
296.217	93.88
296.448	96.88
296.679	81.88
296.909	98.88
297.14	58.88
297.37	81.88
297.601	83.88
297.831	81.88
298.062	82.88
298.292	78.88
298.523	87.88
298.753	93.88
298.984	97.88
299.214	90.88
299.445	85.88
299.675	80.88
299.905	74.88
300.136	77.88
300.366	84.88
300.597	92.88
300.827	98.88
301.057	86.88
301.288	100.88
301.518	93.88
301.748	88.88
301.979	90.88
302.209	89.88
302.439	83.88
302.669	87.88
302.9	76.88
303.13	92.88
303.36	89.88
303.59	86.88
303.82	76.88
304.051	91.88
304.281	79.88
304.511	92.88
304.741	90.88
304.971	78.88
305.201	88.88
305.431	95.88
305.661	79.88
305.891	79.88
306.121	104.88
306.352	82.88
306.582	88.88
306.812	85.88
307.042	86.88
307.272	85.88
307.502	81.88
307.731	88.88
307.961	80.88
308.191	78.88
308.421	99.88
308.651	88.88
308.881	84.88
309.111	84.88
309.341	101.88
309.571	78.88
309.8	90.88
310.03	98.88
310.26	76.88
310.49	86.88
310.72	78.88
310.949	97.88
311.179	75.88
311.409	84.88
311.639	75.88
311.868	85.88
312.098	103.88
312.328	88.88
312.557	90.88
312.787	81.88
313.017	78.88
313.246	82.88
313.476	86.88
313.706	76.88
313.935	81.88
314.165	84.88
314.394	95.88
314.624	85.88
314.853	82.88
315.083	80.88
315.312	81.88
315.542	84.88
315.771	68.88
316.001	80.88
316.23	91.88
316.46	93.88
316.689	80.88
316.919	82.88
317.148	83.88
317.377	76.88
317.607	92.88
317.836	90.88
318.065	85.88
318.295	80.88
318.524	90.88
318.753	78.88
318.983	90.88
319.212	78.88
319.441	77.88
319.67	82.88
319.9	90.88
320.129	82.88
320.358	90.88
320.587	93.88
320.816	73.88
321.046	91.88
321.275	105.88
321.504	77.88
321.733	83.88
321.962	83.88
322.191	72.88
322.42	80.88
322.649	77.88
322.878	89.88
323.108	83.88
323.337	78.88
323.566	89.88
323.795	86.88
324.024	89.88
324.253	84.88
324.482	90.88
324.71	86.88
324.939	80.88
325.168	80.88
325.397	98.88
325.626	84.88
325.855	85.88
326.084	68.88
326.313	92.88
326.542	79.88
326.77	73.88
326.999	77.88
327.228	101.88
327.457	94.88
327.686	93.88
327.914	92.88
328.143	89.88
328.372	91.88
328.6	112.88
328.829	98.88
329.058	85.88
329.287	81.88
329.515	78.88
329.744	82.88
329.972	94.88
330.201	73.88
330.43	82.88
330.658	97.88
330.887	91.88
331.115	87.88
331.344	87.88
331.572	87.88
331.801	83.88
332.03	86.88
332.258	77.88
332.486	93.88
332.715	85.88
332.943	101.88
333.172	96.88
333.4	93.88
333.629	104.88
333.857	92.88
334.085	92.88
334.314	81.88
334.542	92.88
334.771	71.88
334.999	82.88
335.227	88.88
335.455	92.88
335.684	77.88
335.912	94.88
336.14	83.88
336.369	78.88
336.597	83.88
336.825	76.88
337.053	88.88
337.281	89.88
337.51	92.88
337.738	86.88
337.966	74.88
338.194	82.88
338.422	85.88
338.65	84.88
338.878	81.88
339.106	84.88
339.334	83.88
339.562	89.88
339.79	77.88
340.018	97.88
340.246	94.88
340.474	85.88
340.702	83.88
340.93	89.88
341.158	73.88
341.386	88.88
341.614	92.88
341.842	72.88
342.07	76.88
342.298	89.88
342.526	84.88
342.754	97.88
342.981	90.88
343.209	71.88
343.437	94.88
343.665	82.88
343.893	85.88
344.12	77.88
344.348	94.88
344.576	77.88
344.804	88.88
345.031	78.88
345.259	82.88
345.487	86.88
345.714	85.88
345.942	59.88
346.17	77.88
346.397	88.88
346.625	98.88
346.853	83.88
347.08	81.88
347.308	91.88
347.535	85.88
347.763	88.88
347.99	79.88
348.218	83.88
348.445	86.88
348.673	82.88
348.9	96.88
349.128	89.88
349.355	81.88
349.583	91.88
349.81	75.88
350.037	86.88
350.265	81.88
350.492	88.88
350.72	73.88
350.947	78.88
351.174	94.88
351.402	90.88
351.629	84.88
351.856	89.88
352.083	83.88
352.311	73.88
352.538	85.88
352.765	86.88
352.992	78.88
353.22	77.88
353.447	71.88
353.674	74.88
353.901	82.88
354.128	74.88
354.355	78.88
354.583	85.88
354.81	89.88
355.037	88.88
355.264	89.88
355.491	90.88
355.718	89.88
355.945	81.88
356.172	84.88
356.399	85.88
356.626	78.88
356.853	73.88
357.08	86.88
357.307	85.88
357.534	91.88
357.761	85.88
357.988	89.88
358.215	85.88
358.441	82.88
358.668	95.88
358.895	89.88
359.122	93.88
359.349	78.88
359.576	78.88
359.802	77.88
360.029	86.88
360.256	82.88
360.483	81.88
360.709	80.88
360.936	86.88
361.163	82.88
361.39	78.88
361.616	86.88
361.843	82.88
362.07	98.88
362.296	92.88
362.523	78.88
362.749	82.88
362.976	84.88
363.203	94.88
363.429	88.88
363.656	79.88
363.882	83.88
364.109	62.88
364.335	84.88
364.562	81.88
364.788	82.88
365.015	85.88
365.241	99.88
365.468	93.88
365.694	82.88
365.92	85.88
366.147	97.88
366.373	95.88
366.599	85.88
366.826	88.88
367.052	86.88
367.278	82.88
367.505	90.88
367.731	100.88
367.957	80.88
368.184	98.88
368.41	104.88
368.636	81.88
368.862	94.88
369.089	89.88
369.315	85.88
369.541	95.88
369.767	86.88
369.993	99.88
370.219	80.88
370.445	99.88
370.672	86.88
370.898	94.88
371.124	84.88
371.35	78.88
371.576	92.88
371.802	87.88
372.028	90.88
372.254	96.88
372.48	107.88
372.706	91.88
372.932	85.88
373.158	102.88
373.384	100.88
373.61	82.88
373.835	88.88
374.061	94.88
374.287	97.88
374.513	93.88
374.739	102.88
374.965	108.88
375.191	93.88
375.416	98.88
375.642	90.88
375.868	90.88
376.094	104.88
376.319	85.88
376.545	87.88
376.771	89.88
376.997	90.88
377.222	101.88
377.448	110.88
377.674	92.88
377.899	106.88
378.125	97.88
378.35	83.88
378.576	100.88
378.802	103.88
379.027	90.88
379.253	106.88
379.478	96.88
379.704	90.88
379.929	100.88
380.155	99.88
380.38	98.88
380.606	93.88
380.831	92.88
381.057	99.88
381.282	84.88
381.507	107.88
381.733	100.88
381.958	101.88
382.184	98.88
382.409	97.88
382.634	115.88
382.86	84.88
383.085	110.88
383.31	104.88
383.535	98.88
383.761	110.88
383.986	94.88
384.211	98.88
384.436	93.88
384.662	82.88
384.887	93.88
385.112	102.88
385.337	90.88
385.562	111.88
385.787	99.88
386.013	113.88
386.238	84.88
386.463	105.88
386.688	97.88
386.913	105.88
387.138	97.88
387.363	103.88
387.588	111.88
387.813	109.88
388.038	100.88
388.263	102.88
388.488	92.88
388.713	109.88
388.938	105.88
389.163	90.88
389.387	106.88
389.612	100.88
389.837	93.88
390.062	100.88
390.287	114.88
390.512	98.88
390.736	116.88
390.961	109.88
391.186	92.88
391.411	92.88
391.636	111.88
391.86	105.88
392.085	110.88
392.31	97.88
392.534	98.88
392.759	113.88
392.984	114.88
393.208	116.88
393.433	108.88
393.658	114.88
393.882	91.88
394.107	122.88
394.331	120.88
394.556	110.88
394.78	110.88
395.005	104.88
395.229	100.88
395.454	108.88
395.678	104.88
395.903	121.88
396.127	102.88
396.352	107.88
396.576	107.88
396.801	123.88
397.025	120.88
397.249	108.88
397.474	101.88
397.698	105.88
397.922	104.88
398.147	101.88
398.371	116.88
398.595	119.88
398.82	116.88
399.044	108.88
399.268	121.88
399.492	96.88
399.717	110.88
399.941	113.88
400.165	121.88
400.389	119.88
400.613	111.88
400.837	102.88
401.062	126.88
401.286	120.88
401.51	116.88
401.734	98.88
401.958	103.88
402.182	109.88
402.406	109.88
402.63	107.88
402.854	105.88
403.078	125.88
403.302	104.88
403.526	124.88
403.75	120.88
403.974	119.88
404.198	114.88
404.422	122.88
404.645	120.88
404.869	115.88
405.093	132.88
405.317	125.88
405.541	113.88
405.765	129.88
405.988	119.88
406.212	130.88
406.436	117.88
406.66	128.88
406.883	126.88
407.107	133.88
407.331	114.88
407.555	122.88
407.778	123.88
408.002	109.88
408.226	116.88
408.449	119.88
408.673	117.88
408.896	121.88
409.12	124.88
409.344	116.88
409.567	125.88
409.791	112.88
410.014	130.88
410.238	124.88
410.461	134.88
410.685	120.88
410.908	131.88
411.132	125.88
411.355	122.88
411.578	136.88
411.802	110.88
412.025	119.88
412.249	124.88
412.472	129.88
412.695	124.88
412.919	120.88
413.142	129.88
413.365	116.88
413.589	134.88
413.812	126.88
414.035	131.88
414.258	128.88
414.482	132.88
414.705	143.88
414.928	118.88
415.151	125.88
415.374	133.88
415.597	120.88
415.821	129.88
416.044	128.88
416.267	122.88
416.49	142.88
416.713	132.88
416.936	124.88
417.159	126.88
417.382	130.88
417.605	122.88
417.828	123.88
418.051	128.88
418.274	122.88
418.497	145.88
418.72	136.88
418.943	130.88
419.166	140.88
419.389	136.88
419.611	143.88
419.834	124.88
420.057	141.88
420.28	126.88
420.503	147.88
420.726	134.88
420.948	132.88
421.171	153.88
421.394	141.88
421.617	139.88
421.839	144.88
422.062	162.88
422.285	126.88
422.507	124.88
422.73	141.88
422.953	124.88
423.175	133.88
423.398	149.88
423.621	142.88
423.843	130.88
424.066	143.88
424.288	145.88
424.511	137.88
424.733	132.88
424.956	164.88
425.178	146.88
425.401	138.88
425.623	134.88
425.846	150.88
426.068	132.88
426.291	123.88
426.513	125.88
426.735	130.88
426.958	144.88
427.18	110.88
427.402	124.88
427.625	140.88
427.847	124.88
428.069	126.88
428.292	143.88
428.514	125.88
428.736	117.88
428.958	138.88
429.181	139.88
429.403	136.88
429.625	127.88
429.847	139.88
430.069	139.88
430.292	143.88
430.514	144.88
430.736	133.88
430.958	120.88
431.18	128.88
431.402	156.88
431.624	120.88
431.846	112.88
432.068	112.88
432.29	83.88
432.512	96.88
432.734	114.88
432.956	147.88
433.178	146.88
433.4	138.88
433.622	150.88
433.844	138.88
434.066	126.88
434.287	115.88
434.509	116.88
434.731	102.88
434.953	116.88
435.175	128.88
435.397	120.88
435.618	128.88
435.84	119.88
436.062	100.88
436.284	118.88
436.505	125.88
436.727	138.88
436.949	147.88
437.17	132.88
437.392	115.88
437.614	138.88
437.835	124.88
438.057	109.88
438.278	118.88
438.5	132.88
438.721	150.88
438.943	138.88
439.165	146.88
439.386	141.88
439.608	137.88
439.829	154.88
440.05	153.88
440.272	157.88
440.493	151.88
440.715	144.88
440.936	150.88
441.158	158.88
441.379	153.88
441.6	152.88
441.822	153.88
442.043	139.88
442.264	148.88
442.486	141.88
442.707	142.88
442.928	145.88
443.149	142.88
443.371	149.88
443.592	142.88
443.813	154.88
444.034	140.88
444.255	145.88
444.476	124.88
444.698	136.88
444.919	148.88
445.14	283.88
445.361	202.88
445.582	142.88
445.803	157.88
446.024	167.88
446.245	154.88
446.466	149.88
446.687	150.88
446.908	151.88
447.129	157.88
447.35	158.88
447.571	140.88
447.792	146.88
448.013	158.88
448.234	144.88
448.455	153.88
448.675	136.88
448.896	136.88
449.117	148.88
449.338	141.88
449.559	135.88
449.779	134.88
450	126.88
450.221	152.88
450.442	146.88
450.662	142.88
450.883	141.88
451.104	133.88
451.324	124.88
451.545	124.88
451.766	141.88
451.986	124.88
452.207	133.88
452.428	136.88
452.648	123.88
452.869	134.88
453.089	114.88
453.31	108.88
453.53	107.88
453.751	109.88
453.971	100.88
454.192	117.88
454.412	130.88
454.633	112.88
454.853	128.88
455.073	121.88
455.294	134.88
455.514	114.88
455.734	126.88
455.955	128.88
456.175	110.88
456.395	107.88
456.616	107.88
456.836	112.88
457.056	114.88
457.276	97.88
457.497	103.88
457.717	96.88
457.937	106.88
458.157	105.88
458.377	106.88
458.598	95.88
458.818	82.88
459.038	98.88
459.258	78.88
459.478	100.88
459.698	106.88
459.918	105.88
460.138	117.88
460.358	104.88
460.578	136.88
460.798	109.88
461.018	103.88
461.238	123.88
461.458	116.88
461.678	116.88
461.898	124.88
462.118	109.88
462.338	126.88
462.558	132.88
462.777	111.88
462.997	120.88
463.217	116.88
463.437	120.88
463.657	111.88
463.876	114.88
464.096	104.88
464.316	114.88
464.536	116.88
464.755	110.88
464.975	116.88
465.195	117.88
465.414	119.88
465.634	124.88
465.854	110.88
466.073	120.88
466.293	127.88
466.512	121.88
466.732	124.88
466.951	139.88
467.171	142.88
467.391	139.88
467.61	151.88
467.829	146.88
468.049	142.88
468.268	148.88
468.488	141.88
468.707	143.88
468.927	146.88
469.146	147.88
469.365	143.88
469.585	147.88
469.804	142.88
470.023	158.88
470.243	132.88
470.462	149.88
470.681	150.88
470.901	148.88
471.12	132.88
471.339	128.88
471.558	137.88
471.777	138.88
471.997	137.88
472.216	139.88
472.435	116.88
472.654	120.88
472.873	107.88
473.092	118.88
473.311	120.88
473.53	130.88
473.749	128.88
473.968	140.88
474.187	128.88
474.406	122.88
474.625	118.88
474.844	134.88
475.063	149.88
475.282	129.88
475.501	117.88
475.72	138.88
475.939	133.88
476.158	148.88
476.377	140.88
476.596	136.88
476.814	122.88
477.033	110.88
477.252	117.88
477.471	114.88
477.69	148.88
477.908	137.88
478.127	145.88
478.346	136.88
478.564	144.88
478.783	136.88
479.002	155.88
479.22	155.88
479.439	135.88
479.658	128.88
479.876	115.88
480.095	118.88
480.313	101.88
480.532	120.88
480.751	112.88
480.969	84.88
481.188	92.88
481.406	91.88
481.624	75.88
481.843	85.88
482.061	94.88
482.28	120.88
482.498	118.88
482.717	104.88
482.935	123.88
483.153	141.88
483.372	161.88
483.59	163.88
483.808	148.88
484.027	146.88
484.245	154.88
484.463	165.88
484.681	170.88
484.9	157.88
485.118	164.88
485.336	137.88
485.554	120.88
485.772	102.88
485.99	105.88
486.209	119.88
486.427	113.88
486.645	140.88
486.863	150.88
487.081	141.88
487.299	156.88
487.517	154.88
487.735	173.88
487.953	193.88
488.171	198.88
488.389	182.88
488.607	173.88
488.825	154.88
489.043	136.88
489.261	143.88
489.479	150.88
489.696	142.88
489.914	143.88
490.132	136.88
490.35	137.88
490.568	172.88
490.786	162.88
491.003	187.88
491.221	182.88
491.439	191.88
491.657	186.88
491.874	204.88
492.092	240.88
492.31	262.88
492.527	236.88
492.745	215.88
492.963	208.88
493.18	190.88
493.398	165.88
493.615	200.88
493.833	185.88
494.05	197.88
494.268	178.88
494.485	171.88
494.703	198.88
494.92	184.88
495.138	178.88
495.355	170.88
495.573	164.88
495.79	172.88
496.008	180.88
496.225	169.88
496.442	172.88
496.66	173.88
496.877	156.88
497.094	177.88
497.312	169.88
497.529	147.88
497.746	160.88
497.963	144.88
498.181	135.88
498.398	120.88
498.615	108.88
498.832	115.88
499.049	105.88
499.267	118.88
499.484	146.88
499.701	142.88
499.918	140.88
500.135	142.88
500.352	142.88
500.569	140.88
500.786	141.88
501.003	143.88
501.22	152.88
501.437	132.88
501.654	140.88
501.871	141.88
502.088	134.88
502.305	136.88
502.522	131.88
502.739	124.88
502.956	131.88
503.172	128.88
503.389	124.88
503.606	121.88
503.823	124.88
504.04	124.88
504.256	137.88
504.473	119.88
504.69	126.88
504.907	132.88
505.123	110.88
505.34	110.88
505.557	132.88
505.773	128.88
505.99	116.88
506.207	132.88
506.423	132.88
506.64	123.88
506.856	122.88
507.073	119.88
507.289	117.88
507.506	129.88
507.722	120.88
507.939	123.88
508.155	122.88
508.372	115.88
508.588	117.88
508.805	108.88
509.021	124.88
509.238	114.88
509.454	105.88
509.67	105.88
509.887	97.88
510.103	93.88
510.319	97.88
510.536	107.88
510.752	89.88
510.968	93.88
511.184	89.88
