Data from Location6.07152019.Energy5.Lamp.07192019.3%Agarose_HRD10591_16-13-47-396.txt Node
Date: Fri Jul 19 16:13:47 EDT 2019
User: cochatt
Spectrometer: HR+D1059
Trigger mode: 1
Integration Time (sec): 1.000000E-1
Scans to average: 1
Electric dark correction enabled: true
Nonlinearity correction enabled: false
Boxcar width: 0
XAxis mode: Wavelengths
Number of Pixels in Spectrum: 2048
>>>>>Begin Spectral Data<<<<<
223.165	-20.19
223.4	-20.19
223.635	-20.19
223.869	-19.19
224.104	-26.19
224.338	-6.19
224.573	-24.19
224.808	-8.19
225.042	-20.19
225.277	6.81
225.511	-8.19
225.746	9.81
225.98	27.81
226.215	13.81
226.449	13.81
226.683	6.81
226.918	28.81
227.152	24.81
227.387	31.81
227.621	24.81
227.856	47.81
228.09	52.81
228.324	47.81
228.559	45.81
228.793	66.81
229.027	58.81
229.262	61.81
229.496	70.81
229.73	72.81
229.964	68.81
230.199	66.81
230.433	67.81
230.667	85.81
230.901	77.81
231.136	76.81
231.37	73.81
231.604	71.81
231.838	72.81
232.072	96.81
232.306	78.81
232.541	83.81
232.775	70.81
233.009	81.81
233.243	72.81
233.477	90.81
233.711	76.81
233.945	79.81
234.179	77.81
234.413	70.81
234.647	82.81
234.881	76.81
235.115	78.81
235.349	84.81
235.583	80.81
235.817	91.81
236.051	80.81
236.285	76.81
236.519	85.81
236.753	66.81
236.987	92.81
237.221	75.81
237.455	78.81
237.689	74.81
237.922	89.81
238.156	74.81
238.39	83.81
238.624	70.81
238.858	81.81
239.091	74.81
239.325	79.81
239.559	76.81
239.793	82.81
240.027	71.81
240.26	69.81
240.494	80.81
240.728	78.81
240.961	66.81
241.195	78.81
241.429	80.81
241.662	92.81
241.896	64.81
242.13	71.81
242.363	74.81
242.597	69.81
242.83	76.81
243.064	81.81
243.298	83.81
243.531	91.81
243.765	80.81
243.998	78.81
244.232	87.81
244.465	74.81
244.699	65.81
244.932	88.81
245.166	70.81
245.399	77.81
245.633	81.81
245.866	80.81
246.099	86.81
246.333	85.81
246.566	67.81
246.8	87.81
247.033	81.81
247.266	88.81
247.5	79.81
247.733	75.81
247.966	77.81
248.2	74.81
248.433	76.81
248.666	67.81
248.899	76.81
249.133	72.81
249.366	78.81
249.599	84.81
249.832	85.81
250.066	69.81
250.299	79.81
250.532	91.81
250.765	83.81
250.998	75.81
251.231	72.81
251.465	80.81
251.698	67.81
251.931	65.81
252.164	82.81
252.397	88.81
252.63	81.81
252.863	87.81
253.096	83.81
253.329	89.81
253.562	77.81
253.795	81.81
254.028	76.81
254.261	100.81
254.494	79.81
254.727	89.81
254.96	73.81
255.193	85.81
255.426	95.81
255.659	81.81
255.892	90.81
256.124	86.81
256.357	78.81
256.59	77.81
256.823	79.81
257.056	83.81
257.289	81.81
257.521	83.81
257.754	86.81
257.987	83.81
258.22	90.81
258.452	83.81
258.685	70.81
258.918	79.81
259.151	71.81
259.383	80.81
259.616	76.81
259.849	78.81
260.081	95.81
260.314	104.81
260.547	74.81
260.779	79.81
261.012	75.81
261.244	77.81
261.477	82.81
261.71	82.81
261.942	72.81
262.175	65.81
262.407	87.81
262.64	78.81
262.872	97.81
263.105	88.81
263.337	87.81
263.57	87.81
263.802	89.81
264.035	83.81
264.267	75.81
264.499	82.81
264.732	67.81
264.964	82.81
265.197	84.81
265.429	89.81
265.661	79.81
265.894	76.81
266.126	62.81
266.358	81.81
266.591	75.81
266.823	94.81
267.055	83.81
267.287	84.81
267.52	84.81
267.752	76.81
267.984	77.81
268.216	84.81
268.448	87.81
268.681	86.81
268.913	87.81
269.145	89.81
269.377	79.81
269.609	86.81
269.841	83.81
270.073	75.81
270.306	84.81
270.538	77.81
270.77	79.81
271.002	88.81
271.234	86.81
271.466	81.81
271.698	80.81
271.93	98.81
272.162	102.81
272.394	77.81
272.626	82.81
272.858	93.81
273.09	75.81
273.322	80.81
273.553	80.81
273.785	87.81
274.017	80.81
274.249	83.81
274.481	94.81
274.713	88.81
274.945	91.81
275.176	79.81
275.408	73.81
275.64	83.81
275.872	94.81
276.104	103.81
276.335	90.81
276.567	81.81
276.799	84.81
277.031	86.81
277.262	84.81
277.494	84.81
277.726	88.81
277.957	78.81
278.189	84.81
278.421	86.81
278.652	70.81
278.884	87.81
279.115	73.81
279.347	88.81
279.579	81.81
279.81	90.81
280.042	95.81
280.273	101.81
280.505	80.81
280.736	76.81
280.968	86.81
281.199	90.81
281.431	94.81
281.662	81.81
281.894	68.81
282.125	89.81
282.356	90.81
282.588	96.81
282.819	83.81
283.051	96.81
283.282	74.81
283.513	76.81
283.745	94.81
283.976	82.81
284.207	83.81
284.439	91.81
284.67	82.81
284.901	87.81
285.132	95.81
285.364	85.81
285.595	84.81
285.826	78.81
286.057	86.81
286.288	86.81
286.52	85.81
286.751	74.81
286.982	81.81
287.213	87.81
287.444	80.81
287.675	78.81
287.906	95.81
288.138	88.81
288.369	71.81
288.6	92.81
288.831	80.81
289.062	86.81
289.293	75.81
289.524	79.81
289.755	82.81
289.986	88.81
290.217	91.81
290.448	100.81
290.679	82.81
290.91	88.81
291.141	101.81
291.371	70.81
291.602	88.81
291.833	82.81
292.064	73.81
292.295	90.81
292.526	91.81
292.757	82.81
292.987	74.81
293.218	90.81
293.449	82.81
293.68	83.81
293.91	78.81
294.141	76.81
294.372	76.81
294.603	70.81
294.833	92.81
295.064	77.81
295.295	83.81
295.525	76.81
295.756	88.81
295.987	85.81
296.217	92.81
296.448	87.81
296.679	79.81
296.909	71.81
297.14	89.81
297.37	88.81
297.601	84.81
297.831	76.81
298.062	71.81
298.292	89.81
298.523	88.81
298.753	82.81
298.984	81.81
299.214	76.81
299.445	79.81
299.675	96.81
299.905	79.81
300.136	80.81
300.366	84.81
300.597	86.81
300.827	83.81
301.057	85.81
301.288	88.81
301.518	94.81
301.748	73.81
301.979	83.81
302.209	87.81
302.439	83.81
302.669	89.81
302.9	88.81
303.13	77.81
303.36	86.81
303.59	92.81
303.82	82.81
304.051	88.81
304.281	85.81
304.511	77.81
304.741	89.81
304.971	89.81
305.201	88.81
305.431	87.81
305.661	90.81
305.891	87.81
306.121	95.81
306.352	71.81
306.582	85.81
306.812	84.81
307.042	97.81
307.272	80.81
307.502	93.81
307.731	89.81
307.961	90.81
308.191	69.81
308.421	80.81
308.651	91.81
308.881	82.81
309.111	90.81
309.341	85.81
309.571	85.81
309.8	89.81
310.03	82.81
310.26	89.81
310.49	93.81
310.72	76.81
310.949	79.81
311.179	85.81
311.409	73.81
311.639	82.81
311.868	75.81
312.098	84.81
312.328	86.81
312.557	97.81
312.787	90.81
313.017	93.81
313.246	90.81
313.476	89.81
313.706	76.81
313.935	79.81
314.165	92.81
314.394	91.81
314.624	90.81
314.853	88.81
315.083	91.81
315.312	83.81
315.542	86.81
315.771	92.81
316.001	77.81
316.23	107.81
316.46	87.81
316.689	77.81
316.919	87.81
317.148	81.81
317.377	87.81
317.607	98.81
317.836	82.81
318.065	86.81
318.295	71.81
318.524	92.81
318.753	91.81
318.983	80.81
319.212	78.81
319.441	89.81
319.67	94.81
319.9	76.81
320.129	64.81
320.358	82.81
320.587	81.81
320.816	74.81
321.046	85.81
321.275	73.81
321.504	86.81
321.733	84.81
321.962	78.81
322.191	92.81
322.42	76.81
322.649	83.81
322.878	90.81
323.108	80.81
323.337	90.81
323.566	75.81
323.795	87.81
324.024	83.81
324.253	89.81
324.482	82.81
324.71	85.81
324.939	89.81
325.168	81.81
325.397	95.81
325.626	83.81
325.855	95.81
326.084	88.81
326.313	77.81
326.542	74.81
326.77	82.81
326.999	72.81
327.228	87.81
327.457	82.81
327.686	85.81
327.914	82.81
328.143	101.81
328.372	99.81
328.6	89.81
328.829	85.81
329.058	88.81
329.287	86.81
329.515	85.81
329.744	92.81
329.972	87.81
330.201	77.81
330.43	75.81
330.658	84.81
330.887	82.81
331.115	82.81
331.344	93.81
331.572	88.81
331.801	77.81
332.03	78.81
332.258	76.81
332.486	71.81
332.715	82.81
332.943	84.81
333.172	78.81
333.4	87.81
333.629	90.81
333.857	85.81
334.085	104.81
334.314	82.81
334.542	88.81
334.771	81.81
334.999	81.81
335.227	100.81
335.455	83.81
335.684	101.81
335.912	97.81
336.14	88.81
336.369	82.81
336.597	82.81
336.825	91.81
337.053	73.81
337.281	94.81
337.51	81.81
337.738	93.81
337.966	87.81
338.194	96.81
338.422	86.81
338.65	94.81
338.878	83.81
339.106	72.81
339.334	92.81
339.562	80.81
339.79	87.81
340.018	80.81
340.246	87.81
340.474	88.81
340.702	82.81
340.93	91.81
341.158	90.81
341.386	98.81
341.614	91.81
341.842	93.81
342.07	79.81
342.298	81.81
342.526	87.81
342.754	79.81
342.981	92.81
343.209	94.81
343.437	84.81
343.665	81.81
343.893	85.81
344.12	87.81
344.348	89.81
344.576	88.81
344.804	82.81
345.031	93.81
345.259	89.81
345.487	75.81
345.714	77.81
345.942	82.81
346.17	80.81
346.397	83.81
346.625	81.81
346.853	76.81
347.08	93.81
347.308	77.81
347.535	84.81
347.763	84.81
347.99	72.81
348.218	83.81
348.445	78.81
348.673	86.81
348.9	88.81
349.128	87.81
349.355	83.81
349.583	104.81
349.81	85.81
350.037	88.81
350.265	88.81
350.492	78.81
350.72	85.81
350.947	75.81
351.174	85.81
351.402	79.81
351.629	78.81
351.856	91.81
352.083	89.81
352.311	86.81
352.538	88.81
352.765	91.81
352.992	87.81
353.22	94.81
353.447	97.81
353.674	88.81
353.901	91.81
354.128	84.81
354.355	82.81
354.583	91.81
354.81	83.81
355.037	75.81
355.264	90.81
355.491	79.81
355.718	87.81
355.945	82.81
356.172	78.81
356.399	95.81
356.626	88.81
356.853	87.81
357.08	77.81
357.307	87.81
357.534	75.81
357.761	80.81
357.988	79.81
358.215	85.81
358.441	93.81
358.668	93.81
358.895	85.81
359.122	89.81
359.349	83.81
359.576	89.81
359.802	87.81
360.029	90.81
360.256	87.81
360.483	94.81
360.709	86.81
360.936	98.81
361.163	86.81
361.39	89.81
361.616	74.81
361.843	84.81
362.07	92.81
362.296	97.81
362.523	84.81
362.749	77.81
362.976	72.81
363.203	82.81
363.429	90.81
363.656	88.81
363.882	97.81
364.109	92.81
364.335	95.81
364.562	85.81
364.788	84.81
365.015	86.81
365.241	87.81
365.468	97.81
365.694	82.81
365.92	81.81
366.147	87.81
366.373	86.81
366.599	85.81
366.826	94.81
367.052	69.81
367.278	88.81
367.505	81.81
367.731	102.81
367.957	83.81
368.184	85.81
368.41	89.81
368.636	93.81
368.862	99.81
369.089	88.81
369.315	92.81
369.541	94.81
369.767	85.81
369.993	87.81
370.219	96.81
370.445	99.81
370.672	95.81
370.898	87.81
371.124	82.81
371.35	87.81
371.576	85.81
371.802	87.81
372.028	83.81
372.254	87.81
372.48	93.81
372.706	90.81
372.932	101.81
373.158	96.81
373.384	89.81
373.61	94.81
373.835	84.81
374.061	95.81
374.287	107.81
374.513	92.81
374.739	86.81
374.965	81.81
375.191	86.81
375.416	92.81
375.642	84.81
375.868	103.81
376.094	100.81
376.319	97.81
376.545	97.81
376.771	94.81
376.997	92.81
377.222	84.81
377.448	96.81
377.674	107.81
377.899	100.81
378.125	93.81
378.35	96.81
378.576	90.81
378.802	87.81
379.027	90.81
379.253	87.81
379.478	106.81
379.704	102.81
379.929	99.81
380.155	92.81
380.38	92.81
380.606	103.81
380.831	109.81
381.057	116.81
381.282	95.81
381.507	113.81
381.733	95.81
381.958	99.81
382.184	90.81
382.409	106.81
382.634	109.81
382.86	98.81
383.085	106.81
383.31	120.81
383.535	98.81
383.761	88.81
383.986	84.81
384.211	82.81
384.436	103.81
384.662	107.81
384.887	98.81
385.112	92.81
385.337	101.81
385.562	108.81
385.787	88.81
386.013	104.81
386.238	90.81
386.463	103.81
386.688	99.81
386.913	101.81
387.138	91.81
387.363	95.81
387.588	91.81
387.813	113.81
388.038	95.81
388.263	95.81
388.488	90.81
388.713	108.81
388.938	106.81
389.163	92.81
389.387	101.81
389.612	87.81
389.837	96.81
390.062	96.81
390.287	110.81
390.512	111.81
390.736	98.81
390.961	100.81
391.186	103.81
391.411	111.81
391.636	119.81
391.86	118.81
392.085	104.81
392.31	114.81
392.534	116.81
392.759	102.81
392.984	118.81
393.208	115.81
393.433	103.81
393.658	92.81
393.882	102.81
394.107	113.81
394.331	121.81
394.556	104.81
394.78	89.81
395.005	114.81
395.229	101.81
395.454	112.81
395.678	109.81
395.903	114.81
396.127	117.81
396.352	114.81
396.576	108.81
396.801	113.81
397.025	101.81
397.249	118.81
397.474	128.81
397.698	115.81
397.922	101.81
398.147	111.81
398.371	111.81
398.595	123.81
398.82	108.81
399.044	100.81
399.268	122.81
399.492	120.81
399.717	107.81
399.941	119.81
400.165	117.81
400.389	124.81
400.613	114.81
400.837	131.81
401.062	105.81
401.286	103.81
401.51	103.81
401.734	107.81
401.958	117.81
402.182	118.81
402.406	113.81
402.63	113.81
402.854	103.81
403.078	117.81
403.302	102.81
403.526	111.81
403.75	101.81
403.974	118.81
404.198	123.81
404.422	113.81
404.645	124.81
404.869	106.81
405.093	116.81
405.317	116.81
405.541	126.81
405.765	123.81
405.988	130.81
406.212	107.81
406.436	125.81
406.66	116.81
406.883	105.81
407.107	113.81
407.331	117.81
407.555	105.81
407.778	126.81
408.002	115.81
408.226	118.81
408.449	132.81
408.673	131.81
408.896	119.81
409.12	106.81
409.344	122.81
409.567	127.81
409.791	135.81
410.014	130.81
410.238	123.81
410.461	117.81
410.685	125.81
410.908	119.81
411.132	118.81
411.355	117.81
411.578	129.81
411.802	132.81
412.025	123.81
412.249	118.81
412.472	125.81
412.695	131.81
412.919	125.81
413.142	119.81
413.365	126.81
413.589	123.81
413.812	129.81
414.035	125.81
414.258	117.81
414.482	128.81
414.705	132.81
414.928	130.81
415.151	124.81
415.374	137.81
415.597	126.81
415.821	138.81
416.044	131.81
416.267	136.81
416.49	140.81
416.713	127.81
416.936	119.81
417.159	117.81
417.382	152.81
417.605	124.81
417.828	140.81
418.051	117.81
418.274	123.81
418.497	133.81
418.72	143.81
418.943	135.81
419.166	133.81
419.389	151.81
419.611	132.81
419.834	134.81
420.057	134.81
420.28	132.81
420.503	135.81
420.726	135.81
420.948	134.81
421.171	141.81
421.394	129.81
421.617	133.81
421.839	133.81
422.062	132.81
422.285	135.81
422.507	136.81
422.73	138.81
422.953	131.81
423.175	127.81
423.398	123.81
423.621	126.81
423.843	124.81
424.066	139.81
424.288	142.81
424.511	159.81
424.733	149.81
424.956	146.81
425.178	157.81
425.401	141.81
425.623	142.81
425.846	131.81
426.068	131.81
426.291	138.81
426.513	125.81
426.735	125.81
426.958	132.81
427.18	125.81
427.402	147.81
427.625	123.81
427.847	135.81
428.069	123.81
428.292	144.81
428.514	127.81
428.736	123.81
428.958	141.81
429.181	138.81
429.403	116.81
429.625	120.81
429.847	148.81
430.069	134.81
430.292	130.81
430.514	130.81
430.736	124.81
430.958	139.81
431.18	133.81
431.402	147.81
431.624	134.81
431.846	119.81
432.068	111.81
432.29	93.81
432.512	117.81
432.734	131.81
432.956	148.81
433.178	136.81
433.4	151.81
433.622	133.81
433.844	142.81
434.066	123.81
434.287	119.81
434.509	98.81
434.731	108.81
434.953	119.81
435.175	127.81
435.397	136.81
435.618	124.81
435.84	106.81
436.062	123.81
436.284	119.81
436.505	130.81
436.727	131.81
436.949	138.81
437.17	125.81
437.392	139.81
437.614	125.81
437.835	125.81
438.057	120.81
438.278	106.81
438.5	130.81
438.721	138.81
438.943	151.81
439.165	142.81
439.386	144.81
439.608	138.81
439.829	149.81
440.05	165.81
440.272	146.81
440.493	147.81
440.715	142.81
440.936	140.81
441.158	150.81
441.379	138.81
441.6	156.81
441.822	141.81
442.043	150.81
442.264	133.81
442.486	150.81
442.707	145.81
442.928	161.81
443.149	137.81
443.371	116.81
443.592	133.81
443.813	129.81
444.034	137.81
444.255	145.81
444.476	136.81
444.698	145.81
444.919	142.81
445.14	286.81
445.361	218.81
445.582	142.81
445.803	160.81
446.024	150.81
446.245	164.81
446.466	159.81
446.687	153.81
446.908	149.81
447.129	156.81
447.35	158.81
447.571	147.81
447.792	147.81
448.013	158.81
448.234	136.81
448.455	147.81
448.675	147.81
448.896	153.81
449.117	159.81
449.338	147.81
449.559	159.81
449.779	131.81
450	139.81
450.221	139.81
450.442	142.81
450.662	145.81
450.883	127.81
451.104	151.81
451.324	138.81
451.545	127.81
451.766	139.81
451.986	139.81
452.207	131.81
452.428	128.81
452.648	118.81
452.869	135.81
453.089	122.81
453.31	105.81
453.53	103.81
453.751	114.81
453.971	102.81
454.192	113.81
454.412	121.81
454.633	108.81
454.853	102.81
455.073	123.81
455.294	129.81
455.514	114.81
455.734	122.81
455.955	122.81
456.175	119.81
456.395	117.81
456.616	121.81
456.836	116.81
457.056	119.81
457.276	113.81
457.497	109.81
457.717	118.81
457.937	107.81
458.157	118.81
458.377	115.81
458.598	91.81
458.818	99.81
459.038	104.81
459.258	99.81
459.478	100.81
459.698	89.81
459.918	101.81
460.138	120.81
460.358	127.81
460.578	113.81
460.798	128.81
461.018	127.81
461.238	124.81
461.458	108.81
461.678	123.81
461.898	113.81
462.118	114.81
462.338	129.81
462.558	114.81
462.777	113.81
462.997	106.81
463.217	113.81
463.437	97.81
463.657	116.81
463.876	106.81
464.096	105.81
464.316	104.81
464.536	119.81
464.755	106.81
464.975	107.81
465.195	126.81
465.414	131.81
465.634	126.81
465.854	131.81
466.073	118.81
466.293	122.81
466.512	157.81
466.732	129.81
466.951	137.81
467.171	144.81
467.391	135.81
467.61	140.81
467.829	138.81
468.049	132.81
468.268	137.81
468.488	147.81
468.707	159.81
468.927	147.81
469.146	130.81
469.365	141.81
469.585	154.81
469.804	159.81
470.023	146.81
470.243	147.81
470.462	143.81
470.681	146.81
470.901	153.81
471.12	148.81
471.339	140.81
471.558	140.81
471.777	126.81
471.997	136.81
472.216	123.81
472.435	111.81
472.654	97.81
472.873	109.81
473.092	116.81
473.311	113.81
473.53	121.81
473.749	134.81
473.968	145.81
474.187	118.81
474.406	116.81
474.625	137.81
474.844	144.81
475.063	127.81
475.282	139.81
475.501	128.81
475.72	120.81
475.939	129.81
476.158	130.81
476.377	145.81
476.596	142.81
476.814	121.81
477.033	117.81
477.252	121.81
477.471	116.81
477.69	140.81
477.908	149.81
478.127	155.81
478.346	138.81
478.564	139.81
478.783	138.81
479.002	145.81
479.22	143.81
479.439	137.81
479.658	131.81
479.876	116.81
480.095	115.81
480.313	124.81
480.532	119.81
480.751	112.81
480.969	97.81
481.188	83.81
481.406	83.81
481.624	93.81
481.843	82.81
482.061	102.81
482.28	118.81
482.498	106.81
482.717	109.81
482.935	127.81
483.153	151.81
483.372	165.81
483.59	147.81
483.808	147.81
484.027	139.81
484.245	139.81
484.463	139.81
484.681	180.81
484.9	159.81
485.118	127.81
485.336	121.81
485.554	115.81
485.772	118.81
485.99	104.81
486.209	113.81
486.427	125.81
486.645	116.81
486.863	149.81
487.081	139.81
487.299	136.81
487.517	141.81
487.735	181.81
487.953	195.81
488.171	193.81
488.389	180.81
488.607	163.81
488.825	141.81
489.043	151.81
489.261	145.81
489.479	147.81
489.696	143.81
489.914	161.81
490.132	152.81
490.35	155.81
490.568	167.81
490.786	161.81
491.003	197.81
491.221	166.81
491.439	189.81
491.657	195.81
491.874	204.81
492.092	235.81
492.31	244.81
492.527	240.81
492.745	208.81
492.963	207.81
493.18	188.81
493.398	180.81
493.615	185.81
493.833	183.81
494.05	165.81
494.268	172.81
494.485	163.81
494.703	193.81
494.92	176.81
495.138	172.81
495.355	197.81
495.573	188.81
495.79	171.81
496.008	171.81
496.225	163.81
496.442	167.81
496.66	167.81
496.877	179.81
497.094	179.81
497.312	167.81
497.529	159.81
497.746	147.81
497.963	154.81
498.181	145.81
498.398	132.81
498.615	128.81
498.832	106.81
499.049	122.81
499.267	121.81
499.484	132.81
499.701	127.81
499.918	147.81
500.135	139.81
500.352	147.81
500.569	146.81
500.786	135.81
501.003	149.81
501.22	139.81
501.437	145.81
501.654	141.81
501.871	132.81
502.088	134.81
502.305	133.81
502.522	127.81
502.739	134.81
502.956	129.81
503.172	127.81
503.389	114.81
503.606	127.81
503.823	118.81
504.04	127.81
504.256	139.81
504.473	125.81
504.69	122.81
504.907	117.81
505.123	133.81
505.34	125.81
505.557	123.81
505.773	137.81
505.99	131.81
506.207	118.81
506.423	119.81
506.64	131.81
506.856	117.81
507.073	135.81
507.289	119.81
507.506	120.81
507.722	133.81
507.939	121.81
508.155	124.81
508.372	119.81
508.588	120.81
508.805	134.81
509.021	122.81
509.238	111.81
509.454	117.81
509.67	118.81
509.887	97.81
510.103	88.81
510.319	96.81
510.536	95.81
510.752	87.81
510.968	89.81
511.184	78.81
511.401	101.81
