Data from Location6.07152019.Energy5.Lamp.07192019.3%Agarose_HRD10591_16-12-17-396.txt Node
Date: Fri Jul 19 16:12:17 EDT 2019
User: cochatt
Spectrometer: HR+D1059
Trigger mode: 1
Integration Time (sec): 1.000000E-1
Scans to average: 1
Electric dark correction enabled: true
Nonlinearity correction enabled: false
Boxcar width: 0
XAxis mode: Wavelengths
Number of Pixels in Spectrum: 2048
>>>>>Begin Spectral Data<<<<<
223.165	-34.62
223.4	-34.62
223.635	-34.62
223.869	-33.62
224.104	-29.62
224.338	-17.62
224.573	-7.62
224.808	1.38
225.042	-5.62
225.277	5.38
225.511	1.38
225.746	25.38
225.98	10.38
226.215	13.38
226.449	16.38
226.683	14.38
226.918	17.38
227.152	23.38
227.387	28.38
227.621	30.38
227.856	32.38
228.09	36.38
228.324	49.38
228.559	53.38
228.793	59.38
229.027	43.38
229.262	65.38
229.496	62.38
229.73	57.38
229.964	68.38
230.199	63.38
230.433	72.38
230.667	77.38
230.901	66.38
231.136	80.38
231.37	72.38
231.604	66.38
231.838	79.38
232.072	77.38
232.306	87.38
232.541	79.38
232.775	79.38
233.009	88.38
233.243	76.38
233.477	79.38
233.711	81.38
233.945	72.38
234.179	78.38
234.413	80.38
234.647	82.38
234.881	77.38
235.115	89.38
235.349	82.38
235.583	77.38
235.817	70.38
236.051	80.38
236.285	70.38
236.519	71.38
236.753	72.38
236.987	87.38
237.221	70.38
237.455	79.38
237.689	69.38
237.922	72.38
238.156	77.38
238.39	87.38
238.624	64.38
238.858	79.38
239.091	71.38
239.325	87.38
239.559	84.38
239.793	84.38
240.027	68.38
240.26	68.38
240.494	69.38
240.728	60.38
240.961	79.38
241.195	74.38
241.429	78.38
241.662	77.38
241.896	70.38
242.13	64.38
242.363	74.38
242.597	90.38
242.83	73.38
243.064	82.38
243.298	80.38
243.531	61.38
243.765	60.38
243.998	76.38
244.232	77.38
244.465	79.38
244.699	71.38
244.932	75.38
245.166	63.38
245.399	68.38
245.633	67.38
245.866	76.38
246.099	87.38
246.333	75.38
246.566	55.38
246.8	65.38
247.033	65.38
247.266	68.38
247.5	56.38
247.733	72.38
247.966	82.38
248.2	68.38
248.433	66.38
248.666	74.38
248.899	72.38
249.133	63.38
249.366	85.38
249.599	64.38
249.832	72.38
250.066	86.38
250.299	78.38
250.532	80.38
250.765	72.38
250.998	97.38
251.231	79.38
251.465	73.38
251.698	74.38
251.931	71.38
252.164	63.38
252.397	72.38
252.63	65.38
252.863	76.38
253.096	64.38
253.329	85.38
253.562	81.38
253.795	74.38
254.028	77.38
254.261	69.38
254.494	72.38
254.727	83.38
254.96	69.38
255.193	78.38
255.426	83.38
255.659	73.38
255.892	88.38
256.124	76.38
256.357	66.38
256.59	67.38
256.823	71.38
257.056	63.38
257.289	79.38
257.521	82.38
257.754	79.38
257.987	72.38
258.22	54.38
258.452	85.38
258.685	70.38
258.918	87.38
259.151	75.38
259.383	78.38
259.616	84.38
259.849	87.38
260.081	77.38
260.314	65.38
260.547	71.38
260.779	79.38
261.012	78.38
261.244	87.38
261.477	87.38
261.71	75.38
261.942	69.38
262.175	73.38
262.407	88.38
262.64	68.38
262.872	87.38
263.105	87.38
263.337	81.38
263.57	80.38
263.802	78.38
264.035	74.38
264.267	88.38
264.499	78.38
264.732	85.38
264.964	84.38
265.197	67.38
265.429	97.38
265.661	80.38
265.894	83.38
266.126	77.38
266.358	80.38
266.591	84.38
266.823	78.38
267.055	80.38
267.287	74.38
267.52	87.38
267.752	78.38
267.984	67.38
268.216	78.38
268.448	77.38
268.681	71.38
268.913	89.38
269.145	73.38
269.377	77.38
269.609	79.38
269.841	73.38
270.073	67.38
270.306	78.38
270.538	79.38
270.77	79.38
271.002	68.38
271.234	70.38
271.466	74.38
271.698	73.38
271.93	77.38
272.162	78.38
272.394	87.38
272.626	80.38
272.858	78.38
273.09	77.38
273.322	78.38
273.553	86.38
273.785	76.38
274.017	85.38
274.249	70.38
274.481	91.38
274.713	88.38
274.945	66.38
275.176	78.38
275.408	83.38
275.64	93.38
275.872	89.38
276.104	72.38
276.335	63.38
276.567	82.38
276.799	74.38
277.031	66.38
277.262	74.38
277.494	71.38
277.726	75.38
277.957	63.38
278.189	82.38
278.421	78.38
278.652	77.38
278.884	87.38
279.115	95.38
279.347	91.38
279.579	83.38
279.81	89.38
280.042	74.38
280.273	72.38
280.505	78.38
280.736	81.38
280.968	74.38
281.199	80.38
281.431	79.38
281.662	82.38
281.894	73.38
282.125	92.38
282.356	79.38
282.588	78.38
282.819	93.38
283.051	77.38
283.282	82.38
283.513	99.38
283.745	88.38
283.976	83.38
284.207	83.38
284.439	89.38
284.67	93.38
284.901	84.38
285.132	82.38
285.364	91.38
285.595	88.38
285.826	78.38
286.057	77.38
286.288	80.38
286.52	74.38
286.751	64.38
286.982	75.38
287.213	71.38
287.444	86.38
287.675	80.38
287.906	89.38
288.138	79.38
288.369	77.38
288.6	62.38
288.831	81.38
289.062	87.38
289.293	75.38
289.524	86.38
289.755	92.38
289.986	89.38
290.217	87.38
290.448	91.38
290.679	72.38
290.91	98.38
291.141	85.38
291.371	83.38
291.602	88.38
291.833	79.38
292.064	78.38
292.295	73.38
292.526	78.38
292.757	87.38
292.987	91.38
293.218	79.38
293.449	85.38
293.68	93.38
293.91	81.38
294.141	81.38
294.372	79.38
294.603	83.38
294.833	67.38
295.064	80.38
295.295	80.38
295.525	67.38
295.756	100.38
295.987	74.38
296.217	81.38
296.448	86.38
296.679	69.38
296.909	88.38
297.14	73.38
297.37	82.38
297.601	84.38
297.831	76.38
298.062	77.38
298.292	88.38
298.523	94.38
298.753	95.38
298.984	89.38
299.214	93.38
299.445	98.38
299.675	80.38
299.905	84.38
300.136	71.38
300.366	90.38
300.597	81.38
300.827	89.38
301.057	84.38
301.288	88.38
301.518	69.38
301.748	96.38
301.979	84.38
302.209	85.38
302.439	71.38
302.669	86.38
302.9	78.38
303.13	90.38
303.36	82.38
303.59	79.38
303.82	73.38
304.051	86.38
304.281	79.38
304.511	85.38
304.741	89.38
304.971	80.38
305.201	88.38
305.431	86.38
305.661	87.38
305.891	85.38
306.121	81.38
306.352	82.38
306.582	81.38
306.812	80.38
307.042	88.38
307.272	80.38
307.502	85.38
307.731	68.38
307.961	65.38
308.191	88.38
308.421	88.38
308.651	99.38
308.881	81.38
309.111	60.38
309.341	84.38
309.571	81.38
309.8	82.38
310.03	68.38
310.26	83.38
310.49	80.38
310.72	90.38
310.949	82.38
311.179	82.38
311.409	73.38
311.639	74.38
311.868	79.38
312.098	86.38
312.328	82.38
312.557	80.38
312.787	91.38
313.017	78.38
313.246	83.38
313.476	81.38
313.706	66.38
313.935	96.38
314.165	82.38
314.394	89.38
314.624	87.38
314.853	77.38
315.083	81.38
315.312	80.38
315.542	67.38
315.771	76.38
316.001	88.38
316.23	72.38
316.46	74.38
316.689	77.38
316.919	98.38
317.148	78.38
317.377	94.38
317.607	78.38
317.836	77.38
318.065	89.38
318.295	70.38
318.524	71.38
318.753	83.38
318.983	80.38
319.212	76.38
319.441	71.38
319.67	84.38
319.9	83.38
320.129	68.38
320.358	76.38
320.587	84.38
320.816	82.38
321.046	84.38
321.275	82.38
321.504	77.38
321.733	88.38
321.962	86.38
322.191	74.38
322.42	82.38
322.649	76.38
322.878	69.38
323.108	88.38
323.337	68.38
323.566	79.38
323.795	86.38
324.024	81.38
324.253	90.38
324.482	90.38
324.71	79.38
324.939	81.38
325.168	67.38
325.397	78.38
325.626	85.38
325.855	87.38
326.084	83.38
326.313	83.38
326.542	88.38
326.77	76.38
326.999	93.38
327.228	83.38
327.457	77.38
327.686	87.38
327.914	80.38
328.143	92.38
328.372	74.38
328.6	70.38
328.829	90.38
329.058	86.38
329.287	79.38
329.515	77.38
329.744	73.38
329.972	73.38
330.201	88.38
330.43	91.38
330.658	79.38
330.887	79.38
331.115	84.38
331.344	80.38
331.572	79.38
331.801	81.38
332.03	84.38
332.258	89.38
332.486	73.38
332.715	81.38
332.943	78.38
333.172	76.38
333.4	76.38
333.629	91.38
333.857	79.38
334.085	73.38
334.314	83.38
334.542	84.38
334.771	72.38
334.999	82.38
335.227	90.38
335.455	67.38
335.684	87.38
335.912	77.38
336.14	82.38
336.369	76.38
336.597	72.38
336.825	77.38
337.053	85.38
337.281	82.38
337.51	81.38
337.738	94.38
337.966	79.38
338.194	74.38
338.422	87.38
338.65	84.38
338.878	97.38
339.106	100.38
339.334	94.38
339.562	72.38
339.79	89.38
340.018	78.38
340.246	81.38
340.474	89.38
340.702	76.38
340.93	81.38
341.158	81.38
341.386	81.38
341.614	90.38
341.842	82.38
342.07	81.38
342.298	92.38
342.526	72.38
342.754	82.38
342.981	80.38
343.209	70.38
343.437	88.38
343.665	82.38
343.893	96.38
344.12	82.38
344.348	84.38
344.576	100.38
344.804	101.38
345.031	85.38
345.259	75.38
345.487	89.38
345.714	76.38
345.942	90.38
346.17	81.38
346.397	80.38
346.625	85.38
346.853	85.38
347.08	87.38
347.308	78.38
347.535	73.38
347.763	95.38
347.99	85.38
348.218	92.38
348.445	90.38
348.673	86.38
348.9	75.38
349.128	88.38
349.355	78.38
349.583	93.38
349.81	86.38
350.037	66.38
350.265	80.38
350.492	90.38
350.72	78.38
350.947	89.38
351.174	72.38
351.402	92.38
351.629	77.38
351.856	73.38
352.083	88.38
352.311	74.38
352.538	73.38
352.765	73.38
352.992	85.38
353.22	77.38
353.447	97.38
353.674	78.38
353.901	81.38
354.128	80.38
354.355	65.38
354.583	74.38
354.81	87.38
355.037	84.38
355.264	82.38
355.491	101.38
355.718	93.38
355.945	73.38
356.172	82.38
356.399	86.38
356.626	76.38
356.853	81.38
357.08	88.38
357.307	89.38
357.534	71.38
357.761	82.38
357.988	75.38
358.215	91.38
358.441	83.38
358.668	76.38
358.895	53.38
359.122	72.38
359.349	95.38
359.576	85.38
359.802	69.38
360.029	86.38
360.256	75.38
360.483	67.38
360.709	87.38
360.936	82.38
361.163	73.38
361.39	87.38
361.616	76.38
361.843	74.38
362.07	80.38
362.296	72.38
362.523	80.38
362.749	62.38
362.976	71.38
363.203	81.38
363.429	81.38
363.656	83.38
363.882	92.38
364.109	86.38
364.335	79.38
364.562	82.38
364.788	86.38
365.015	93.38
365.241	84.38
365.468	74.38
365.694	83.38
365.92	78.38
366.147	93.38
366.373	78.38
366.599	80.38
366.826	78.38
367.052	86.38
367.278	80.38
367.505	85.38
367.731	93.38
367.957	89.38
368.184	91.38
368.41	90.38
368.636	82.38
368.862	88.38
369.089	96.38
369.315	86.38
369.541	92.38
369.767	91.38
369.993	87.38
370.219	87.38
370.445	87.38
370.672	83.38
370.898	89.38
371.124	86.38
371.35	92.38
371.576	77.38
371.802	85.38
372.028	94.38
372.254	100.38
372.48	97.38
372.706	85.38
372.932	74.38
373.158	80.38
373.384	100.38
373.61	92.38
373.835	109.38
374.061	82.38
374.287	85.38
374.513	73.38
374.739	102.38
374.965	86.38
375.191	94.38
375.416	90.38
375.642	90.38
375.868	91.38
376.094	84.38
376.319	80.38
376.545	93.38
376.771	99.38
376.997	107.38
377.222	97.38
377.448	98.38
377.674	102.38
377.899	104.38
378.125	87.38
378.35	92.38
378.576	92.38
378.802	108.38
379.027	94.38
379.253	103.38
379.478	94.38
379.704	105.38
379.929	97.38
380.155	100.38
380.38	85.38
380.606	103.38
380.831	90.38
381.057	88.38
381.282	104.38
381.507	113.38
381.733	96.38
381.958	96.38
382.184	94.38
382.409	90.38
382.634	90.38
382.86	109.38
383.085	84.38
383.31	96.38
383.535	98.38
383.761	94.38
383.986	105.38
384.211	97.38
384.436	103.38
384.662	86.38
384.887	97.38
385.112	96.38
385.337	96.38
385.562	105.38
385.787	98.38
386.013	101.38
386.238	92.38
386.463	104.38
386.688	102.38
386.913	108.38
387.138	96.38
387.363	98.38
387.588	102.38
387.813	103.38
388.038	119.38
388.263	85.38
388.488	98.38
388.713	103.38
388.938	95.38
389.163	106.38
389.387	119.38
389.612	110.38
389.837	97.38
390.062	88.38
390.287	82.38
390.512	121.38
390.736	103.38
390.961	97.38
391.186	112.38
391.411	101.38
391.636	114.38
391.86	94.38
392.085	108.38
392.31	102.38
392.534	101.38
392.759	110.38
392.984	101.38
393.208	103.38
393.433	88.38
393.658	112.38
393.882	105.38
394.107	109.38
394.331	106.38
394.556	104.38
394.78	109.38
395.005	116.38
395.229	121.38
395.454	117.38
395.678	116.38
395.903	100.38
396.127	112.38
396.352	97.38
396.576	102.38
396.801	108.38
397.025	92.38
397.249	104.38
397.474	118.38
397.698	94.38
397.922	112.38
398.147	109.38
398.371	109.38
398.595	98.38
398.82	119.38
399.044	126.38
399.268	114.38
399.492	99.38
399.717	112.38
399.941	105.38
400.165	114.38
400.389	113.38
400.613	112.38
400.837	110.38
401.062	97.38
401.286	116.38
401.51	110.38
401.734	104.38
401.958	125.38
402.182	111.38
402.406	124.38
402.63	110.38
402.854	109.38
403.078	117.38
403.302	112.38
403.526	110.38
403.75	104.38
403.974	106.38
404.198	115.38
404.422	119.38
404.645	99.38
404.869	118.38
405.093	114.38
405.317	115.38
405.541	121.38
405.765	112.38
405.988	111.38
406.212	121.38
406.436	120.38
406.66	128.38
406.883	120.38
407.107	127.38
407.331	99.38
407.555	113.38
407.778	103.38
408.002	118.38
408.226	119.38
408.449	118.38
408.673	107.38
408.896	122.38
409.12	127.38
409.344	129.38
409.567	120.38
409.791	123.38
410.014	120.38
410.238	124.38
410.461	143.38
410.685	122.38
410.908	122.38
411.132	138.38
411.355	118.38
411.578	121.38
411.802	126.38
412.025	102.38
412.249	111.38
412.472	121.38
412.695	123.38
412.919	114.38
413.142	124.38
413.365	131.38
413.589	126.38
413.812	121.38
414.035	122.38
414.258	117.38
414.482	119.38
414.705	123.38
414.928	115.38
415.151	123.38
415.374	137.38
415.597	130.38
415.821	131.38
416.044	136.38
416.267	134.38
416.49	126.38
416.713	135.38
416.936	134.38
417.159	133.38
417.382	136.38
417.605	131.38
417.828	141.38
418.051	133.38
418.274	131.38
418.497	132.38
418.72	130.38
418.943	132.38
419.166	128.38
419.389	143.38
419.611	134.38
419.834	130.38
420.057	142.38
420.28	138.38
420.503	142.38
420.726	134.38
420.948	133.38
421.171	135.38
421.394	142.38
421.617	139.38
421.839	146.38
422.062	136.38
422.285	128.38
422.507	136.38
422.73	126.38
422.953	133.38
423.175	129.38
423.398	135.38
423.621	140.38
423.843	145.38
424.066	130.38
424.288	149.38
424.511	150.38
424.733	138.38
424.956	139.38
425.178	145.38
425.401	140.38
425.623	135.38
425.846	126.38
426.068	133.38
426.291	129.38
426.513	139.38
426.735	136.38
426.958	133.38
427.18	135.38
427.402	128.38
427.625	123.38
427.847	129.38
428.069	138.38
428.292	131.38
428.514	126.38
428.736	132.38
428.958	128.38
429.181	135.38
429.403	130.38
429.625	136.38
429.847	121.38
430.069	121.38
430.292	128.38
430.514	128.38
430.736	116.38
430.958	140.38
431.18	128.38
431.402	133.38
431.624	124.38
431.846	98.38
432.068	97.38
432.29	100.38
432.512	96.38
432.734	128.38
432.956	134.38
433.178	146.38
433.4	141.38
433.622	139.38
433.844	141.38
434.066	120.38
434.287	104.38
434.509	102.38
434.731	110.38
434.953	117.38
435.175	124.38
435.397	121.38
435.618	124.38
435.84	105.38
436.062	116.38
436.284	122.38
436.505	142.38
436.727	142.38
436.949	135.38
437.17	123.38
437.392	122.38
437.614	126.38
437.835	124.38
438.057	112.38
438.278	123.38
438.5	113.38
438.721	134.38
438.943	145.38
439.165	132.38
439.386	128.38
439.608	141.38
439.829	148.38
440.05	155.38
440.272	158.38
440.493	156.38
440.715	138.38
440.936	149.38
441.158	154.38
441.379	150.38
441.6	147.38
441.822	149.38
442.043	148.38
442.264	146.38
442.486	148.38
442.707	142.38
442.928	140.38
443.149	137.38
443.371	146.38
443.592	132.38
443.813	148.38
444.034	142.38
444.255	129.38
444.476	143.38
444.698	153.38
444.919	146.38
445.14	287.38
445.361	203.38
445.582	149.38
445.803	148.38
446.024	153.38
446.245	141.38
446.466	166.38
446.687	160.38
446.908	166.38
447.129	155.38
447.35	153.38
447.571	158.38
447.792	157.38
448.013	138.38
448.234	144.38
448.455	153.38
448.675	142.38
448.896	151.38
449.117	150.38
449.338	151.38
449.559	135.38
449.779	138.38
450	141.38
450.221	130.38
450.442	161.38
450.662	146.38
450.883	134.38
451.104	138.38
451.324	126.38
451.545	138.38
451.766	142.38
451.986	125.38
452.207	128.38
452.428	125.38
452.648	122.38
452.869	125.38
453.089	108.38
453.31	119.38
453.53	111.38
453.751	91.38
453.971	94.38
454.192	108.38
454.412	103.38
454.633	110.38
454.853	121.38
455.073	129.38
455.294	119.38
455.514	126.38
455.734	113.38
455.955	125.38
456.175	128.38
456.395	105.38
456.616	116.38
456.836	106.38
457.056	108.38
457.276	101.38
457.497	117.38
457.717	92.38
457.937	124.38
458.157	115.38
458.377	101.38
458.598	100.38
458.818	94.38
459.038	72.38
459.258	82.38
459.478	96.38
459.698	91.38
459.918	115.38
460.138	114.38
460.358	114.38
460.578	117.38
460.798	134.38
461.018	114.38
461.238	133.38
461.458	118.38
461.678	122.38
461.898	116.38
462.118	120.38
462.338	114.38
462.558	122.38
462.777	108.38
462.997	116.38
463.217	117.38
463.437	121.38
463.657	111.38
463.876	110.38
464.096	102.38
464.316	101.38
464.536	115.38
464.755	121.38
464.975	111.38
465.195	121.38
465.414	110.38
465.634	130.38
465.854	124.38
466.073	119.38
466.293	136.38
466.512	120.38
466.732	124.38
466.951	135.38
467.171	135.38
467.391	138.38
467.61	129.38
467.829	132.38
468.049	153.38
468.268	133.38
468.488	132.38
468.707	131.38
468.927	149.38
469.146	126.38
469.365	148.38
469.585	137.38
469.804	137.38
470.023	146.38
470.243	145.38
470.462	149.38
470.681	141.38
470.901	136.38
471.12	145.38
471.339	132.38
471.558	136.38
471.777	144.38
471.997	132.38
472.216	132.38
472.435	122.38
472.654	104.38
472.873	99.38
473.092	142.38
473.311	131.38
473.53	135.38
473.749	130.38
473.968	124.38
474.187	121.38
474.406	120.38
474.625	136.38
474.844	131.38
475.063	139.38
475.282	120.38
475.501	120.38
475.72	116.38
475.939	125.38
476.158	130.38
476.377	117.38
476.596	117.38
476.814	118.38
477.033	100.38
477.252	111.38
477.471	128.38
477.69	130.38
477.908	142.38
478.127	136.38
478.346	144.38
478.564	122.38
478.783	140.38
479.002	142.38
479.22	141.38
479.439	144.38
479.658	126.38
479.876	112.38
480.095	123.38
480.313	122.38
480.532	122.38
480.751	103.38
480.969	98.38
481.188	93.38
481.406	108.38
481.624	104.38
481.843	76.38
482.061	99.38
482.28	112.38
482.498	100.38
482.717	118.38
482.935	122.38
483.153	145.38
483.372	150.38
483.59	167.38
483.808	144.38
484.027	134.38
484.245	121.38
484.463	164.38
484.681	156.38
484.9	156.38
485.118	138.38
485.336	120.38
485.554	106.38
485.772	82.38
485.99	101.38
486.209	116.38
486.427	114.38
486.645	106.38
486.863	139.38
487.081	147.38
487.299	138.38
487.517	134.38
487.735	183.38
487.953	185.38
488.171	175.38
488.389	178.38
488.607	160.38
488.825	156.38
489.043	136.38
489.261	133.38
489.479	148.38
489.696	145.38
489.914	151.38
490.132	161.38
490.35	157.38
490.568	156.38
490.786	169.38
491.003	161.38
491.221	178.38
491.439	185.38
491.657	201.38
491.874	220.38
492.092	236.38
492.31	270.38
492.527	244.38
492.745	213.38
492.963	204.38
493.18	184.38
493.398	182.38
493.615	175.38
493.833	177.38
494.05	207.38
494.268	174.38
494.485	177.38
494.703	179.38
494.92	173.38
495.138	180.38
495.355	181.38
495.573	173.38
495.79	160.38
496.008	175.38
496.225	172.38
496.442	169.38
496.66	169.38
496.877	166.38
497.094	179.38
497.312	159.38
497.529	150.38
497.746	153.38
497.963	153.38
498.181	136.38
498.398	118.38
498.615	121.38
498.832	113.38
499.049	120.38
499.267	110.38
499.484	132.38
499.701	137.38
499.918	129.38
500.135	142.38
500.352	139.38
500.569	150.38
500.786	154.38
501.003	152.38
501.22	132.38
501.437	144.38
501.654	137.38
501.871	138.38
502.088	119.38
502.305	143.38
502.522	138.38
502.739	150.38
502.956	122.38
503.172	129.38
503.389	127.38
503.606	124.38
503.823	134.38
504.04	141.38
504.256	122.38
504.473	124.38
504.69	118.38
504.907	120.38
505.123	122.38
505.34	111.38
505.557	122.38
505.773	146.38
505.99	124.38
506.207	122.38
506.423	126.38
506.64	125.38
506.856	113.38
507.073	120.38
507.289	126.38
507.506	117.38
507.722	114.38
507.939	115.38
508.155	108.38
508.372	119.38
508.588	121.38
508.805	125.38
509.021	122.38
509.238	114.38
509.454	96.38
509.67	103.38
509.887	94.38
510.103	98.38
510.319	104.38
510.536	102.38
510.752	80.38
510.968	83.38
511.184	83.38
511.401	80.38
511.617	85.38
