Data from Location6.07152019.Energy5.Lamp.07192019.3%Agarose_HRD10591_16-11-25-396.txt Node
Date: Fri Jul 19 16:11:25 EDT 2019
User: cochatt
Spectrometer: HR+D1059
Trigger mode: 1
Integration Time (sec): 1.000000E-1
Scans to average: 1
Electric dark correction enabled: true
Nonlinearity correction enabled: false
Boxcar width: 0
XAxis mode: Wavelengths
Number of Pixels in Spectrum: 2048
>>>>>Begin Spectral Data<<<<<
223.165	-10.44
223.4	-10.44
223.635	-10.44
223.869	-14.44
224.104	-10.44
224.338	-18.44
224.573	-8.44
224.808	-4.44
225.042	-19.44
225.277	-3.44
225.511	9.56
225.746	-7.44
225.98	-0.44
226.215	13.56
226.449	8.56
226.683	13.56
226.918	23.56
227.152	28.56
227.387	26.56
227.621	40.56
227.856	57.56
228.09	51.56
228.324	59.56
228.559	55.56
228.793	60.56
229.027	60.56
229.262	64.56
229.496	73.56
229.73	69.56
229.964	67.56
230.199	65.56
230.433	79.56
230.667	83.56
230.901	83.56
231.136	89.56
231.37	72.56
231.604	80.56
231.838	83.56
232.072	81.56
232.306	89.56
232.541	75.56
232.775	74.56
233.009	84.56
233.243	79.56
233.477	77.56
233.711	77.56
233.945	83.56
234.179	81.56
234.413	84.56
234.647	77.56
234.881	78.56
235.115	74.56
235.349	80.56
235.583	71.56
235.817	84.56
236.051	83.56
236.285	65.56
236.519	74.56
236.753	77.56
236.987	89.56
237.221	67.56
237.455	71.56
237.689	76.56
237.922	85.56
238.156	75.56
238.39	83.56
238.624	72.56
238.858	69.56
239.091	75.56
239.325	63.56
239.559	82.56
239.793	99.56
240.027	80.56
240.26	79.56
240.494	90.56
240.728	78.56
240.961	59.56
241.195	71.56
241.429	77.56
241.662	68.56
241.896	78.56
242.13	80.56
242.363	80.56
242.597	79.56
242.83	81.56
243.064	71.56
243.298	72.56
243.531	73.56
243.765	72.56
243.998	67.56
244.232	83.56
244.465	69.56
244.699	81.56
244.932	95.56
245.166	83.56
245.399	81.56
245.633	67.56
245.866	60.56
246.099	76.56
246.333	69.56
246.566	71.56
246.8	71.56
247.033	81.56
247.266	77.56
247.5	78.56
247.733	69.56
247.966	72.56
248.2	81.56
248.433	74.56
248.666	87.56
248.899	85.56
249.133	66.56
249.366	69.56
249.599	83.56
249.832	73.56
250.066	80.56
250.299	77.56
250.532	88.56
250.765	77.56
250.998	55.56
251.231	87.56
251.465	77.56
251.698	87.56
251.931	84.56
252.164	75.56
252.397	76.56
252.63	70.56
252.863	80.56
253.096	66.56
253.329	77.56
253.562	85.56
253.795	73.56
254.028	86.56
254.261	74.56
254.494	69.56
254.727	89.56
254.96	87.56
255.193	76.56
255.426	89.56
255.659	84.56
255.892	85.56
256.124	95.56
256.357	82.56
256.59	75.56
256.823	87.56
257.056	78.56
257.289	77.56
257.521	75.56
257.754	84.56
257.987	89.56
258.22	81.56
258.452	68.56
258.685	74.56
258.918	85.56
259.151	78.56
259.383	81.56
259.616	70.56
259.849	68.56
260.081	80.56
260.314	76.56
260.547	80.56
260.779	76.56
261.012	83.56
261.244	78.56
261.477	69.56
261.71	70.56
261.942	78.56
262.175	83.56
262.407	71.56
262.64	68.56
262.872	77.56
263.105	86.56
263.337	89.56
263.57	81.56
263.802	72.56
264.035	93.56
264.267	81.56
264.499	91.56
264.732	87.56
264.964	82.56
265.197	90.56
265.429	84.56
265.661	77.56
265.894	75.56
266.126	77.56
266.358	84.56
266.591	79.56
266.823	81.56
267.055	89.56
267.287	95.56
267.52	92.56
267.752	75.56
267.984	92.56
268.216	76.56
268.448	87.56
268.681	78.56
268.913	77.56
269.145	74.56
269.377	87.56
269.609	83.56
269.841	72.56
270.073	68.56
270.306	89.56
270.538	73.56
270.77	84.56
271.002	87.56
271.234	83.56
271.466	77.56
271.698	95.56
271.93	73.56
272.162	90.56
272.394	102.56
272.626	76.56
272.858	79.56
273.09	83.56
273.322	76.56
273.553	88.56
273.785	87.56
274.017	84.56
274.249	95.56
274.481	81.56
274.713	88.56
274.945	95.56
275.176	82.56
275.408	83.56
275.64	83.56
275.872	85.56
276.104	85.56
276.335	83.56
276.567	85.56
276.799	72.56
277.031	74.56
277.262	81.56
277.494	82.56
277.726	87.56
277.957	86.56
278.189	101.56
278.421	85.56
278.652	81.56
278.884	96.56
279.115	87.56
279.347	88.56
279.579	71.56
279.81	89.56
280.042	64.56
280.273	61.56
280.505	63.56
280.736	85.56
280.968	83.56
281.199	93.56
281.431	83.56
281.662	90.56
281.894	92.56
282.125	86.56
282.356	87.56
282.588	96.56
282.819	91.56
283.051	102.56
283.282	84.56
283.513	79.56
283.745	88.56
283.976	93.56
284.207	97.56
284.439	83.56
284.67	75.56
284.901	74.56
285.132	86.56
285.364	78.56
285.595	85.56
285.826	98.56
286.057	84.56
286.288	81.56
286.52	88.56
286.751	68.56
286.982	90.56
287.213	73.56
287.444	81.56
287.675	87.56
287.906	81.56
288.138	84.56
288.369	83.56
288.6	78.56
288.831	86.56
289.062	87.56
289.293	69.56
289.524	98.56
289.755	84.56
289.986	86.56
290.217	87.56
290.448	98.56
290.679	83.56
290.91	75.56
291.141	75.56
291.371	73.56
291.602	67.56
291.833	80.56
292.064	95.56
292.295	82.56
292.526	89.56
292.757	82.56
292.987	97.56
293.218	81.56
293.449	83.56
293.68	90.56
293.91	70.56
294.141	86.56
294.372	83.56
294.603	93.56
294.833	77.56
295.064	92.56
295.295	71.56
295.525	78.56
295.756	102.56
295.987	83.56
296.217	80.56
296.448	92.56
296.679	82.56
296.909	74.56
297.14	77.56
297.37	72.56
297.601	85.56
297.831	83.56
298.062	82.56
298.292	83.56
298.523	73.56
298.753	95.56
298.984	88.56
299.214	89.56
299.445	83.56
299.675	78.56
299.905	83.56
300.136	89.56
300.366	100.56
300.597	83.56
300.827	99.56
301.057	91.56
301.288	90.56
301.518	74.56
301.748	83.56
301.979	87.56
302.209	87.56
302.439	96.56
302.669	79.56
302.9	85.56
303.13	80.56
303.36	87.56
303.59	92.56
303.82	80.56
304.051	84.56
304.281	89.56
304.511	85.56
304.741	72.56
304.971	74.56
305.201	83.56
305.431	101.56
305.661	87.56
305.891	81.56
306.121	94.56
306.352	84.56
306.582	92.56
306.812	77.56
307.042	77.56
307.272	79.56
307.502	73.56
307.731	87.56
307.961	80.56
308.191	87.56
308.421	83.56
308.651	95.56
308.881	91.56
309.111	89.56
309.341	88.56
309.571	76.56
309.8	73.56
310.03	83.56
310.26	77.56
310.49	100.56
310.72	90.56
310.949	93.56
311.179	83.56
311.409	77.56
311.639	86.56
311.868	78.56
312.098	79.56
312.328	92.56
312.557	83.56
312.787	76.56
313.017	90.56
313.246	84.56
313.476	98.56
313.706	78.56
313.935	83.56
314.165	91.56
314.394	81.56
314.624	82.56
314.853	94.56
315.083	88.56
315.312	92.56
315.542	82.56
315.771	89.56
316.001	92.56
316.23	74.56
316.46	63.56
316.689	77.56
316.919	72.56
317.148	101.56
317.377	95.56
317.607	88.56
317.836	92.56
318.065	88.56
318.295	92.56
318.524	97.56
318.753	84.56
318.983	90.56
319.212	85.56
319.441	77.56
319.67	77.56
319.9	101.56
320.129	78.56
320.358	91.56
320.587	76.56
320.816	83.56
321.046	100.56
321.275	92.56
321.504	80.56
321.733	71.56
321.962	82.56
322.191	85.56
322.42	80.56
322.649	76.56
322.878	80.56
323.108	89.56
323.337	85.56
323.566	90.56
323.795	98.56
324.024	74.56
324.253	85.56
324.482	87.56
324.71	91.56
324.939	100.56
325.168	84.56
325.397	87.56
325.626	86.56
325.855	90.56
326.084	86.56
326.313	88.56
326.542	80.56
326.77	80.56
326.999	75.56
327.228	93.56
327.457	91.56
327.686	89.56
327.914	87.56
328.143	92.56
328.372	83.56
328.6	86.56
328.829	89.56
329.058	85.56
329.287	86.56
329.515	86.56
329.744	95.56
329.972	82.56
330.201	77.56
330.43	95.56
330.658	73.56
330.887	99.56
331.115	91.56
331.344	78.56
331.572	87.56
331.801	89.56
332.03	85.56
332.258	82.56
332.486	79.56
332.715	85.56
332.943	82.56
333.172	99.56
333.4	95.56
333.629	76.56
333.857	74.56
334.085	95.56
334.314	97.56
334.542	85.56
334.771	74.56
334.999	96.56
335.227	88.56
335.455	83.56
335.684	83.56
335.912	68.56
336.14	81.56
336.369	85.56
336.597	100.56
336.825	88.56
337.053	90.56
337.281	74.56
337.51	96.56
337.738	94.56
337.966	89.56
338.194	88.56
338.422	86.56
338.65	88.56
338.878	84.56
339.106	84.56
339.334	86.56
339.562	88.56
339.79	83.56
340.018	89.56
340.246	99.56
340.474	81.56
340.702	80.56
340.93	79.56
341.158	81.56
341.386	83.56
341.614	81.56
341.842	79.56
342.07	76.56
342.298	81.56
342.526	77.56
342.754	84.56
342.981	79.56
343.209	73.56
343.437	94.56
343.665	71.56
343.893	77.56
344.12	88.56
344.348	87.56
344.576	98.56
344.804	86.56
345.031	101.56
345.259	83.56
345.487	91.56
345.714	92.56
345.942	63.56
346.17	86.56
346.397	88.56
346.625	83.56
346.853	87.56
347.08	82.56
347.308	83.56
347.535	79.56
347.763	86.56
347.99	81.56
348.218	85.56
348.445	88.56
348.673	90.56
348.9	97.56
349.128	84.56
349.355	89.56
349.583	89.56
349.81	96.56
350.037	91.56
350.265	92.56
350.492	91.56
350.72	89.56
350.947	85.56
351.174	83.56
351.402	81.56
351.629	89.56
351.856	83.56
352.083	104.56
352.311	95.56
352.538	84.56
352.765	82.56
352.992	91.56
353.22	82.56
353.447	83.56
353.674	97.56
353.901	80.56
354.128	100.56
354.355	76.56
354.583	79.56
354.81	91.56
355.037	83.56
355.264	91.56
355.491	88.56
355.718	75.56
355.945	95.56
356.172	84.56
356.399	79.56
356.626	82.56
356.853	81.56
357.08	84.56
357.307	88.56
357.534	96.56
357.761	82.56
357.988	70.56
358.215	70.56
358.441	91.56
358.668	84.56
358.895	69.56
359.122	92.56
359.349	86.56
359.576	68.56
359.802	77.56
360.029	84.56
360.256	81.56
360.483	74.56
360.709	85.56
360.936	98.56
361.163	77.56
361.39	81.56
361.616	99.56
361.843	91.56
362.07	88.56
362.296	92.56
362.523	78.56
362.749	95.56
362.976	79.56
363.203	98.56
363.429	97.56
363.656	82.56
363.882	96.56
364.109	75.56
364.335	92.56
364.562	77.56
364.788	80.56
365.015	72.56
365.241	94.56
365.468	68.56
365.694	82.56
365.92	95.56
366.147	99.56
366.373	95.56
366.599	93.56
366.826	86.56
367.052	89.56
367.278	95.56
367.505	85.56
367.731	102.56
367.957	83.56
368.184	93.56
368.41	89.56
368.636	102.56
368.862	102.56
369.089	91.56
369.315	80.56
369.541	98.56
369.767	91.56
369.993	81.56
370.219	88.56
370.445	92.56
370.672	100.56
370.898	76.56
371.124	96.56
371.35	99.56
371.576	97.56
371.802	96.56
372.028	100.56
372.254	90.56
372.48	87.56
372.706	101.56
372.932	93.56
373.158	81.56
373.384	104.56
373.61	90.56
373.835	86.56
374.061	72.56
374.287	96.56
374.513	96.56
374.739	90.56
374.965	96.56
375.191	95.56
375.416	106.56
375.642	74.56
375.868	93.56
376.094	91.56
376.319	100.56
376.545	93.56
376.771	100.56
376.997	105.56
377.222	84.56
377.448	101.56
377.674	106.56
377.899	86.56
378.125	96.56
378.35	106.56
378.576	84.56
378.802	86.56
379.027	92.56
379.253	97.56
379.478	76.56
379.704	90.56
379.929	89.56
380.155	92.56
380.38	90.56
380.606	107.56
380.831	112.56
381.057	87.56
381.282	111.56
381.507	95.56
381.733	99.56
381.958	104.56
382.184	105.56
382.409	82.56
382.634	96.56
382.86	96.56
383.085	83.56
383.31	88.56
383.535	103.56
383.761	102.56
383.986	103.56
384.211	106.56
384.436	104.56
384.662	116.56
384.887	87.56
385.112	94.56
385.337	105.56
385.562	96.56
385.787	107.56
386.013	107.56
386.238	101.56
386.463	98.56
386.688	108.56
386.913	107.56
387.138	100.56
387.363	98.56
387.588	114.56
387.813	86.56
388.038	120.56
388.263	116.56
388.488	100.56
388.713	98.56
388.938	105.56
389.163	97.56
389.387	93.56
389.612	99.56
389.837	108.56
390.062	108.56
390.287	101.56
390.512	102.56
390.736	94.56
390.961	101.56
391.186	99.56
391.411	98.56
391.636	107.56
391.86	93.56
392.085	103.56
392.31	105.56
392.534	106.56
392.759	112.56
392.984	96.56
393.208	106.56
393.433	111.56
393.658	96.56
393.882	107.56
394.107	101.56
394.331	116.56
394.556	121.56
394.78	112.56
395.005	115.56
395.229	96.56
395.454	104.56
395.678	110.56
395.903	99.56
396.127	104.56
396.352	110.56
396.576	102.56
396.801	93.56
397.025	100.56
397.249	104.56
397.474	112.56
397.698	104.56
397.922	108.56
398.147	121.56
398.371	123.56
398.595	116.56
398.82	117.56
399.044	111.56
399.268	104.56
399.492	121.56
399.717	115.56
399.941	115.56
400.165	101.56
400.389	113.56
400.613	98.56
400.837	118.56
401.062	116.56
401.286	102.56
401.51	112.56
401.734	102.56
401.958	121.56
402.182	107.56
402.406	115.56
402.63	115.56
402.854	120.56
403.078	110.56
403.302	119.56
403.526	104.56
403.75	105.56
403.974	115.56
404.198	124.56
404.422	111.56
404.645	124.56
404.869	123.56
405.093	120.56
405.317	124.56
405.541	129.56
405.765	124.56
405.988	133.56
406.212	112.56
406.436	117.56
406.66	120.56
406.883	123.56
407.107	117.56
407.331	118.56
407.555	111.56
407.778	117.56
408.002	108.56
408.226	127.56
408.449	117.56
408.673	107.56
408.896	136.56
409.12	135.56
409.344	120.56
409.567	130.56
409.791	135.56
410.014	105.56
410.238	105.56
410.461	121.56
410.685	120.56
410.908	111.56
411.132	116.56
411.355	121.56
411.578	143.56
411.802	132.56
412.025	121.56
412.249	131.56
412.472	127.56
412.695	105.56
412.919	128.56
413.142	123.56
413.365	109.56
413.589	131.56
413.812	123.56
414.035	118.56
414.258	136.56
414.482	124.56
414.705	109.56
414.928	123.56
415.151	131.56
415.374	113.56
415.597	114.56
415.821	136.56
416.044	145.56
416.267	113.56
416.49	140.56
416.713	135.56
416.936	131.56
417.159	122.56
417.382	139.56
417.605	130.56
417.828	138.56
418.051	129.56
418.274	134.56
418.497	127.56
418.72	148.56
418.943	133.56
419.166	138.56
419.389	129.56
419.611	144.56
419.834	140.56
420.057	141.56
420.28	140.56
420.503	143.56
420.726	132.56
420.948	133.56
421.171	144.56
421.394	149.56
421.617	140.56
421.839	151.56
422.062	127.56
422.285	135.56
422.507	139.56
422.73	128.56
422.953	141.56
423.175	131.56
423.398	138.56
423.621	139.56
423.843	127.56
424.066	133.56
424.288	145.56
424.511	154.56
424.733	153.56
424.956	139.56
425.178	137.56
425.401	132.56
425.623	149.56
425.846	123.56
426.068	138.56
426.291	126.56
426.513	124.56
426.735	122.56
426.958	136.56
427.18	141.56
427.402	149.56
427.625	124.56
427.847	132.56
428.069	136.56
428.292	116.56
428.514	122.56
428.736	131.56
428.958	131.56
429.181	133.56
429.403	139.56
429.625	124.56
429.847	129.56
430.069	143.56
430.292	133.56
430.514	112.56
430.736	135.56
430.958	123.56
431.18	131.56
431.402	122.56
431.624	121.56
431.846	105.56
432.068	99.56
432.29	87.56
432.512	127.56
432.734	128.56
432.956	139.56
433.178	145.56
433.4	137.56
433.622	141.56
433.844	134.56
434.066	114.56
434.287	116.56
434.509	100.56
434.731	107.56
434.953	125.56
435.175	120.56
435.397	121.56
435.618	121.56
435.84	108.56
436.062	111.56
436.284	121.56
436.505	131.56
436.727	128.56
436.949	131.56
437.17	133.56
437.392	116.56
437.614	127.56
437.835	123.56
438.057	120.56
438.278	117.56
438.5	116.56
438.721	127.56
438.943	146.56
439.165	144.56
439.386	128.56
439.608	143.56
439.829	149.56
440.05	156.56
440.272	155.56
440.493	153.56
440.715	132.56
440.936	152.56
441.158	147.56
441.379	145.56
441.6	156.56
441.822	172.56
442.043	149.56
442.264	140.56
442.486	142.56
442.707	134.56
442.928	150.56
443.149	131.56
443.371	145.56
443.592	140.56
443.813	159.56
444.034	145.56
444.255	135.56
444.476	145.56
444.698	156.56
444.919	155.56
445.14	283.56
445.361	198.56
445.582	138.56
445.803	140.56
446.024	146.56
446.245	148.56
446.466	153.56
446.687	157.56
446.908	159.56
447.129	154.56
447.35	172.56
447.571	164.56
447.792	155.56
448.013	156.56
448.234	147.56
448.455	163.56
448.675	146.56
448.896	157.56
449.117	148.56
449.338	136.56
449.559	134.56
449.779	145.56
450	149.56
450.221	135.56
450.442	149.56
450.662	129.56
450.883	145.56
451.104	147.56
451.324	138.56
451.545	127.56
451.766	145.56
451.986	131.56
452.207	135.56
452.428	138.56
452.648	119.56
452.869	139.56
453.089	123.56
453.31	118.56
453.53	116.56
453.751	113.56
453.971	116.56
454.192	116.56
454.412	122.56
454.633	109.56
454.853	120.56
455.073	131.56
455.294	129.56
455.514	123.56
455.734	131.56
455.955	122.56
456.175	125.56
456.395	113.56
456.616	107.56
456.836	104.56
457.056	116.56
457.276	123.56
457.497	92.56
457.717	123.56
457.937	113.56
458.157	122.56
458.377	90.56
458.598	111.56
458.818	89.56
459.038	90.56
459.258	84.56
459.478	96.56
459.698	86.56
459.918	88.56
460.138	101.56
460.358	123.56
460.578	119.56
460.798	121.56
461.018	118.56
461.238	129.56
461.458	111.56
461.678	133.56
461.898	107.56
462.118	114.56
462.338	115.56
462.558	89.56
462.777	105.56
462.997	131.56
463.217	136.56
463.437	91.56
463.657	113.56
463.876	111.56
464.096	103.56
464.316	118.56
464.536	117.56
464.755	125.56
464.975	115.56
465.195	127.56
465.414	116.56
465.634	127.56
465.854	123.56
466.073	131.56
466.293	135.56
466.512	129.56
466.732	132.56
466.951	139.56
467.171	131.56
467.391	141.56
467.61	144.56
467.829	156.56
468.049	136.56
468.268	138.56
468.488	127.56
468.707	136.56
468.927	145.56
469.146	137.56
469.365	153.56
469.585	140.56
469.804	126.56
470.023	145.56
470.243	149.56
470.462	144.56
470.681	149.56
470.901	159.56
471.12	137.56
471.339	145.56
471.558	160.56
471.777	131.56
471.997	153.56
472.216	131.56
472.435	109.56
472.654	113.56
472.873	119.56
473.092	124.56
473.311	117.56
473.53	124.56
473.749	139.56
473.968	126.56
474.187	117.56
474.406	123.56
474.625	137.56
474.844	142.56
475.063	132.56
475.282	139.56
475.501	111.56
475.72	124.56
475.939	124.56
476.158	126.56
476.377	125.56
476.596	115.56
476.814	117.56
477.033	105.56
477.252	114.56
477.471	141.56
477.69	140.56
477.908	157.56
478.127	133.56
478.346	135.56
478.564	107.56
478.783	135.56
479.002	138.56
479.22	140.56
479.439	152.56
479.658	125.56
479.876	123.56
480.095	124.56
480.313	103.56
480.532	127.56
480.751	105.56
480.969	91.56
481.188	83.56
481.406	97.56
481.624	82.56
481.843	89.56
482.061	118.56
482.28	131.56
482.498	119.56
482.717	115.56
482.935	140.56
483.153	149.56
483.372	155.56
483.59	168.56
483.808	150.56
484.027	130.56
484.245	141.56
484.463	165.56
484.681	179.56
484.9	142.56
485.118	155.56
485.336	133.56
485.554	120.56
485.772	98.56
485.99	87.56
486.209	112.56
486.427	116.56
486.645	114.56
486.863	131.56
487.081	148.56
487.299	141.56
487.517	130.56
487.735	188.56
487.953	196.56
488.171	190.56
488.389	177.56
488.607	160.56
488.825	155.56
489.043	125.56
489.261	137.56
489.479	167.56
489.696	149.56
489.914	143.56
490.132	163.56
490.35	163.56
490.568	165.56
490.786	180.56
491.003	190.56
491.221	178.56
491.439	184.56
491.657	192.56
491.874	209.56
492.092	240.56
492.31	265.56
492.527	247.56
492.745	224.56
492.963	198.56
493.18	199.56
493.398	179.56
493.615	184.56
493.833	188.56
494.05	179.56
494.268	190.56
494.485	184.56
494.703	167.56
494.92	177.56
495.138	182.56
495.355	184.56
495.573	190.56
495.79	179.56
496.008	175.56
496.225	170.56
496.442	183.56
496.66	181.56
496.877	163.56
497.094	159.56
497.312	161.56
497.529	162.56
497.746	153.56
497.963	135.56
498.181	141.56
498.398	138.56
498.615	111.56
498.832	128.56
499.049	132.56
499.267	131.56
499.484	126.56
499.701	143.56
499.918	139.56
500.135	151.56
500.352	145.56
500.569	139.56
500.786	157.56
501.003	139.56
501.22	160.56
501.437	150.56
501.654	144.56
501.871	152.56
502.088	137.56
502.305	155.56
502.522	132.56
502.739	128.56
502.956	143.56
503.172	131.56
503.389	131.56
503.606	114.56
503.823	117.56
504.04	127.56
504.256	111.56
504.473	113.56
504.69	125.56
504.907	123.56
505.123	139.56
505.34	119.56
505.557	127.56
505.773	120.56
505.99	136.56
506.207	123.56
506.423	113.56
506.64	127.56
506.856	128.56
507.073	131.56
507.289	126.56
507.506	132.56
507.722	104.56
507.939	125.56
508.155	117.56
508.372	117.56
508.588	113.56
508.805	114.56
509.021	104.56
509.238	108.56
509.454	110.56
509.67	101.56
509.887	84.56
510.103	88.56
510.319	100.56
510.536	91.56
510.752	97.56
510.968	94.56
511.184	95.56
511.401	86.56
