Data from Location6.07152019.Energy5.Lamp.07192019.3%Agarose_HRD10591_16-13-33-398.txt Node
Date: Fri Jul 19 16:13:33 EDT 2019
User: cochatt
Spectrometer: HR+D1059
Trigger mode: 1
Integration Time (sec): 1.000000E-1
Scans to average: 1
Electric dark correction enabled: true
Nonlinearity correction enabled: false
Boxcar width: 0
XAxis mode: Wavelengths
Number of Pixels in Spectrum: 2048
>>>>>Begin Spectral Data<<<<<
223.165	-8.44
223.4	-8.44
223.635	-8.44
223.869	-12.44
224.104	-2.44
224.338	-12.44
224.573	-15.44
224.808	-2.44
225.042	-6.44
225.277	-15.44
225.511	-15.44
225.746	2.56
225.98	5.56
226.215	7.56
226.449	10.56
226.683	13.56
226.918	20.56
227.152	30.56
227.387	26.56
227.621	43.56
227.856	39.56
228.09	21.56
228.324	44.56
228.559	37.56
228.793	50.56
229.027	54.56
229.262	66.56
229.496	61.56
229.73	63.56
229.964	81.56
230.199	71.56
230.433	83.56
230.667	84.56
230.901	85.56
231.136	79.56
231.37	77.56
231.604	86.56
231.838	72.56
232.072	78.56
232.306	69.56
232.541	82.56
232.775	81.56
233.009	77.56
233.243	77.56
233.477	74.56
233.711	82.56
233.945	78.56
234.179	67.56
234.413	74.56
234.647	83.56
234.881	74.56
235.115	68.56
235.349	74.56
235.583	81.56
235.817	75.56
236.051	71.56
236.285	83.56
236.519	80.56
236.753	87.56
236.987	87.56
237.221	67.56
237.455	77.56
237.689	81.56
237.922	81.56
238.156	88.56
238.39	70.56
238.624	87.56
238.858	72.56
239.091	72.56
239.325	67.56
239.559	83.56
239.793	72.56
240.027	73.56
240.26	77.56
240.494	79.56
240.728	72.56
240.961	63.56
241.195	78.56
241.429	66.56
241.662	69.56
241.896	68.56
242.13	72.56
242.363	77.56
242.597	69.56
242.83	79.56
243.064	75.56
243.298	79.56
243.531	83.56
243.765	65.56
243.998	65.56
244.232	90.56
244.465	68.56
244.699	79.56
244.932	79.56
245.166	81.56
245.399	67.56
245.633	83.56
245.866	73.56
246.099	71.56
246.333	72.56
246.566	85.56
246.8	88.56
247.033	85.56
247.266	73.56
247.5	65.56
247.733	72.56
247.966	66.56
248.2	82.56
248.433	74.56
248.666	83.56
248.899	83.56
249.133	82.56
249.366	80.56
249.599	82.56
249.832	62.56
250.066	85.56
250.299	95.56
250.532	86.56
250.765	90.56
250.998	73.56
251.231	80.56
251.465	83.56
251.698	71.56
251.931	70.56
252.164	84.56
252.397	79.56
252.63	77.56
252.863	74.56
253.096	91.56
253.329	78.56
253.562	85.56
253.795	76.56
254.028	74.56
254.261	75.56
254.494	78.56
254.727	74.56
254.96	78.56
255.193	86.56
255.426	82.56
255.659	77.56
255.892	81.56
256.124	79.56
256.357	93.56
256.59	86.56
256.823	68.56
257.056	81.56
257.289	77.56
257.521	77.56
257.754	79.56
257.987	71.56
258.22	74.56
258.452	81.56
258.685	85.56
258.918	83.56
259.151	75.56
259.383	73.56
259.616	63.56
259.849	77.56
260.081	61.56
260.314	78.56
260.547	84.56
260.779	85.56
261.012	89.56
261.244	84.56
261.477	78.56
261.71	69.56
261.942	83.56
262.175	84.56
262.407	74.56
262.64	72.56
262.872	77.56
263.105	82.56
263.337	72.56
263.57	80.56
263.802	82.56
264.035	72.56
264.267	69.56
264.499	70.56
264.732	74.56
264.964	78.56
265.197	80.56
265.429	70.56
265.661	75.56
265.894	90.56
266.126	93.56
266.358	80.56
266.591	86.56
266.823	89.56
267.055	76.56
267.287	84.56
267.52	84.56
267.752	81.56
267.984	81.56
268.216	83.56
268.448	76.56
268.681	89.56
268.913	76.56
269.145	80.56
269.377	74.56
269.609	70.56
269.841	89.56
270.073	70.56
270.306	89.56
270.538	82.56
270.77	82.56
271.002	92.56
271.234	96.56
271.466	71.56
271.698	79.56
271.93	73.56
272.162	85.56
272.394	91.56
272.626	78.56
272.858	68.56
273.09	82.56
273.322	87.56
273.553	90.56
273.785	91.56
274.017	85.56
274.249	73.56
274.481	79.56
274.713	86.56
274.945	90.56
275.176	78.56
275.408	82.56
275.64	77.56
275.872	79.56
276.104	78.56
276.335	79.56
276.567	88.56
276.799	78.56
277.031	90.56
277.262	85.56
277.494	90.56
277.726	77.56
277.957	95.56
278.189	78.56
278.421	90.56
278.652	85.56
278.884	69.56
279.115	69.56
279.347	86.56
279.579	73.56
279.81	88.56
280.042	62.56
280.273	84.56
280.505	86.56
280.736	99.56
280.968	96.56
281.199	81.56
281.431	83.56
281.662	78.56
281.894	74.56
282.125	85.56
282.356	74.56
282.588	80.56
282.819	72.56
283.051	85.56
283.282	80.56
283.513	85.56
283.745	75.56
283.976	85.56
284.207	74.56
284.439	84.56
284.67	79.56
284.901	84.56
285.132	69.56
285.364	78.56
285.595	94.56
285.826	82.56
286.057	77.56
286.288	88.56
286.52	88.56
286.751	82.56
286.982	85.56
287.213	78.56
287.444	79.56
287.675	90.56
287.906	86.56
288.138	90.56
288.369	80.56
288.6	88.56
288.831	78.56
289.062	76.56
289.293	70.56
289.524	75.56
289.755	78.56
289.986	93.56
290.217	91.56
290.448	79.56
290.679	75.56
290.91	81.56
291.141	69.56
291.371	100.56
291.602	89.56
291.833	83.56
292.064	85.56
292.295	85.56
292.526	87.56
292.757	92.56
292.987	89.56
293.218	82.56
293.449	74.56
293.68	84.56
293.91	74.56
294.141	82.56
294.372	76.56
294.603	67.56
294.833	76.56
295.064	89.56
295.295	88.56
295.525	93.56
295.756	82.56
295.987	78.56
296.217	84.56
296.448	74.56
296.679	88.56
296.909	86.56
297.14	87.56
297.37	88.56
297.601	80.56
297.831	88.56
298.062	82.56
298.292	85.56
298.523	98.56
298.753	93.56
298.984	85.56
299.214	79.56
299.445	81.56
299.675	88.56
299.905	76.56
300.136	86.56
300.366	77.56
300.597	74.56
300.827	90.56
301.057	78.56
301.288	96.56
301.518	81.56
301.748	87.56
301.979	87.56
302.209	104.56
302.439	70.56
302.669	90.56
302.9	89.56
303.13	58.56
303.36	82.56
303.59	72.56
303.82	74.56
304.051	73.56
304.281	100.56
304.511	92.56
304.741	94.56
304.971	86.56
305.201	73.56
305.431	88.56
305.661	84.56
305.891	81.56
306.121	84.56
306.352	73.56
306.582	78.56
306.812	86.56
307.042	97.56
307.272	77.56
307.502	70.56
307.731	73.56
307.961	88.56
308.191	90.56
308.421	85.56
308.651	87.56
308.881	76.56
309.111	89.56
309.341	86.56
309.571	88.56
309.8	97.56
310.03	81.56
310.26	80.56
310.49	83.56
310.72	72.56
310.949	84.56
311.179	85.56
311.409	82.56
311.639	86.56
311.868	95.56
312.098	85.56
312.328	80.56
312.557	78.56
312.787	84.56
313.017	87.56
313.246	90.56
313.476	78.56
313.706	87.56
313.935	82.56
314.165	92.56
314.394	90.56
314.624	90.56
314.853	84.56
315.083	93.56
315.312	91.56
315.542	85.56
315.771	84.56
316.001	85.56
316.23	76.56
316.46	65.56
316.689	90.56
316.919	88.56
317.148	84.56
317.377	99.56
317.607	82.56
317.836	78.56
318.065	75.56
318.295	87.56
318.524	91.56
318.753	88.56
318.983	88.56
319.212	92.56
319.441	91.56
319.67	84.56
319.9	70.56
320.129	86.56
320.358	84.56
320.587	87.56
320.816	74.56
321.046	68.56
321.275	86.56
321.504	72.56
321.733	94.56
321.962	84.56
322.191	76.56
322.42	84.56
322.649	88.56
322.878	77.56
323.108	86.56
323.337	81.56
323.566	84.56
323.795	74.56
324.024	88.56
324.253	81.56
324.482	88.56
324.71	84.56
324.939	77.56
325.168	74.56
325.397	83.56
325.626	76.56
325.855	87.56
326.084	87.56
326.313	70.56
326.542	95.56
326.77	83.56
326.999	93.56
327.228	87.56
327.457	82.56
327.686	81.56
327.914	92.56
328.143	89.56
328.372	90.56
328.6	79.56
328.829	80.56
329.058	87.56
329.287	85.56
329.515	88.56
329.744	86.56
329.972	75.56
330.201	58.56
330.43	72.56
330.658	85.56
330.887	84.56
331.115	85.56
331.344	80.56
331.572	95.56
331.801	82.56
332.03	88.56
332.258	87.56
332.486	95.56
332.715	84.56
332.943	79.56
333.172	93.56
333.4	86.56
333.629	81.56
333.857	68.56
334.085	63.56
334.314	76.56
334.542	88.56
334.771	86.56
334.999	85.56
335.227	84.56
335.455	77.56
335.684	76.56
335.912	81.56
336.14	85.56
336.369	78.56
336.597	77.56
336.825	74.56
337.053	69.56
337.281	72.56
337.51	81.56
337.738	80.56
337.966	61.56
338.194	75.56
338.422	84.56
338.65	86.56
338.878	82.56
339.106	79.56
339.334	88.56
339.562	72.56
339.79	78.56
340.018	86.56
340.246	93.56
340.474	82.56
340.702	95.56
340.93	75.56
341.158	69.56
341.386	98.56
341.614	79.56
341.842	95.56
342.07	79.56
342.298	92.56
342.526	81.56
342.754	76.56
342.981	74.56
343.209	86.56
343.437	91.56
343.665	84.56
343.893	78.56
344.12	88.56
344.348	80.56
344.576	84.56
344.804	83.56
345.031	85.56
345.259	82.56
345.487	74.56
345.714	69.56
345.942	70.56
346.17	85.56
346.397	80.56
346.625	73.56
346.853	87.56
347.08	79.56
347.308	85.56
347.535	81.56
347.763	85.56
347.99	86.56
348.218	75.56
348.445	79.56
348.673	86.56
348.9	78.56
349.128	89.56
349.355	84.56
349.583	97.56
349.81	84.56
350.037	81.56
350.265	76.56
350.492	90.56
350.72	67.56
350.947	94.56
351.174	78.56
351.402	81.56
351.629	85.56
351.856	78.56
352.083	95.56
352.311	80.56
352.538	79.56
352.765	89.56
352.992	91.56
353.22	84.56
353.447	73.56
353.674	78.56
353.901	85.56
354.128	93.56
354.355	88.56
354.583	86.56
354.81	91.56
355.037	83.56
355.264	66.56
355.491	89.56
355.718	75.56
355.945	109.56
356.172	88.56
356.399	82.56
356.626	81.56
356.853	80.56
357.08	80.56
357.307	85.56
357.534	80.56
357.761	82.56
357.988	97.56
358.215	99.56
358.441	85.56
358.668	84.56
358.895	74.56
359.122	89.56
359.349	73.56
359.576	61.56
359.802	60.56
360.029	88.56
360.256	81.56
360.483	75.56
360.709	74.56
360.936	93.56
361.163	87.56
361.39	93.56
361.616	74.56
361.843	88.56
362.07	72.56
362.296	89.56
362.523	100.56
362.749	89.56
362.976	88.56
363.203	84.56
363.429	101.56
363.656	87.56
363.882	82.56
364.109	79.56
364.335	79.56
364.562	82.56
364.788	84.56
365.015	77.56
365.241	79.56
365.468	83.56
365.694	85.56
365.92	83.56
366.147	66.56
366.373	73.56
366.599	87.56
366.826	76.56
367.052	80.56
367.278	87.56
367.505	81.56
367.731	81.56
367.957	84.56
368.184	78.56
368.41	79.56
368.636	80.56
368.862	95.56
369.089	90.56
369.315	104.56
369.541	90.56
369.767	85.56
369.993	100.56
370.219	88.56
370.445	78.56
370.672	86.56
370.898	91.56
371.124	89.56
371.35	89.56
371.576	83.56
371.802	102.56
372.028	99.56
372.254	92.56
372.48	104.56
372.706	99.56
372.932	92.56
373.158	90.56
373.384	96.56
373.61	97.56
373.835	104.56
374.061	84.56
374.287	93.56
374.513	92.56
374.739	91.56
374.965	92.56
375.191	92.56
375.416	103.56
375.642	118.56
375.868	102.56
376.094	97.56
376.319	103.56
376.545	93.56
376.771	89.56
376.997	94.56
377.222	79.56
377.448	88.56
377.674	90.56
377.899	74.56
378.125	99.56
378.35	96.56
378.576	79.56
378.802	91.56
379.027	94.56
379.253	96.56
379.478	80.56
379.704	85.56
379.929	92.56
380.155	97.56
380.38	104.56
380.606	111.56
380.831	92.56
381.057	100.56
381.282	92.56
381.507	86.56
381.733	103.56
381.958	87.56
382.184	93.56
382.409	93.56
382.634	106.56
382.86	112.56
383.085	98.56
383.31	98.56
383.535	86.56
383.761	93.56
383.986	98.56
384.211	98.56
384.436	111.56
384.662	86.56
384.887	86.56
385.112	101.56
385.337	83.56
385.562	107.56
385.787	84.56
386.013	99.56
386.238	92.56
386.463	109.56
386.688	116.56
386.913	93.56
387.138	104.56
387.363	89.56
387.588	96.56
387.813	97.56
388.038	110.56
388.263	100.56
388.488	96.56
388.713	121.56
388.938	97.56
389.163	85.56
389.387	105.56
389.612	95.56
389.837	105.56
390.062	106.56
390.287	98.56
390.512	100.56
390.736	91.56
390.961	101.56
391.186	95.56
391.411	105.56
391.636	102.56
391.86	91.56
392.085	114.56
392.31	92.56
392.534	116.56
392.759	86.56
392.984	96.56
393.208	98.56
393.433	100.56
393.658	112.56
393.882	108.56
394.107	92.56
394.331	93.56
394.556	98.56
394.78	109.56
395.005	113.56
395.229	103.56
395.454	96.56
395.678	117.56
395.903	95.56
396.127	95.56
396.352	121.56
396.576	96.56
396.801	102.56
397.025	108.56
397.249	112.56
397.474	111.56
397.698	106.56
397.922	108.56
398.147	113.56
398.371	114.56
398.595	114.56
398.82	103.56
399.044	101.56
399.268	105.56
399.492	114.56
399.717	110.56
399.941	104.56
400.165	110.56
400.389	115.56
400.613	105.56
400.837	124.56
401.062	108.56
401.286	104.56
401.51	114.56
401.734	124.56
401.958	110.56
402.182	111.56
402.406	108.56
402.63	113.56
402.854	115.56
403.078	129.56
403.302	129.56
403.526	120.56
403.75	123.56
403.974	111.56
404.198	116.56
404.422	113.56
404.645	113.56
404.869	113.56
405.093	112.56
405.317	112.56
405.541	101.56
405.765	108.56
405.988	122.56
406.212	121.56
406.436	125.56
406.66	132.56
406.883	121.56
407.107	130.56
407.331	118.56
407.555	116.56
407.778	125.56
408.002	135.56
408.226	124.56
408.449	116.56
408.673	116.56
408.896	110.56
409.12	123.56
409.344	128.56
409.567	114.56
409.791	130.56
410.014	118.56
410.238	118.56
410.461	128.56
410.685	115.56
410.908	121.56
411.132	128.56
411.355	128.56
411.578	129.56
411.802	135.56
412.025	114.56
412.249	106.56
412.472	113.56
412.695	114.56
412.919	111.56
413.142	114.56
413.365	122.56
413.589	117.56
413.812	118.56
414.035	134.56
414.258	116.56
414.482	124.56
414.705	131.56
414.928	138.56
415.151	121.56
415.374	134.56
415.597	121.56
415.821	112.56
416.044	141.56
416.267	123.56
416.49	122.56
416.713	122.56
416.936	128.56
417.159	111.56
417.382	112.56
417.605	125.56
417.828	135.56
418.051	116.56
418.274	127.56
418.497	128.56
418.72	132.56
418.943	134.56
419.166	136.56
419.389	138.56
419.611	138.56
419.834	143.56
420.057	144.56
420.28	125.56
420.503	132.56
420.726	131.56
420.948	136.56
421.171	120.56
421.394	132.56
421.617	152.56
421.839	152.56
422.062	160.56
422.285	127.56
422.507	132.56
422.73	127.56
422.953	137.56
423.175	140.56
423.398	128.56
423.621	138.56
423.843	142.56
424.066	136.56
424.288	136.56
424.511	137.56
424.733	145.56
424.956	152.56
425.178	146.56
425.401	151.56
425.623	137.56
425.846	132.56
426.068	126.56
426.291	125.56
426.513	142.56
426.735	128.56
426.958	136.56
427.18	134.56
427.402	129.56
427.625	128.56
427.847	120.56
428.069	117.56
428.292	127.56
428.514	137.56
428.736	135.56
428.958	138.56
429.181	130.56
429.403	140.56
429.625	131.56
429.847	130.56
430.069	113.56
430.292	143.56
430.514	117.56
430.736	123.56
430.958	119.56
431.18	113.56
431.402	121.56
431.624	135.56
431.846	103.56
432.068	96.56
432.29	100.56
432.512	115.56
432.734	119.56
432.956	116.56
433.178	140.56
433.4	144.56
433.622	150.56
433.844	122.56
434.066	134.56
434.287	118.56
434.509	109.56
434.731	104.56
434.953	119.56
435.175	118.56
435.397	125.56
435.618	114.56
435.84	110.56
436.062	118.56
436.284	130.56
436.505	124.56
436.727	125.56
436.949	129.56
437.17	124.56
437.392	139.56
437.614	128.56
437.835	105.56
438.057	117.56
438.278	120.56
438.5	136.56
438.721	135.56
438.943	150.56
439.165	138.56
439.386	146.56
439.608	131.56
439.829	156.56
440.05	134.56
440.272	157.56
440.493	152.56
440.715	137.56
440.936	147.56
441.158	140.56
441.379	127.56
441.6	144.56
441.822	141.56
442.043	149.56
442.264	151.56
442.486	134.56
442.707	151.56
442.928	133.56
443.149	134.56
443.371	148.56
443.592	136.56
443.813	143.56
444.034	145.56
444.255	129.56
444.476	127.56
444.698	144.56
444.919	147.56
445.14	284.56
445.361	207.56
445.582	156.56
445.803	141.56
446.024	142.56
446.245	164.56
446.466	148.56
446.687	152.56
446.908	179.56
447.129	141.56
447.35	161.56
447.571	168.56
447.792	133.56
448.013	156.56
448.234	152.56
448.455	137.56
448.675	141.56
448.896	138.56
449.117	140.56
449.338	138.56
449.559	129.56
449.779	136.56
450	135.56
450.221	138.56
450.442	157.56
450.662	131.56
450.883	142.56
451.104	142.56
451.324	145.56
451.545	137.56
451.766	130.56
451.986	135.56
452.207	129.56
452.428	142.56
452.648	129.56
452.869	132.56
453.089	127.56
453.31	112.56
453.53	112.56
453.751	105.56
453.971	111.56
454.192	92.56
454.412	121.56
454.633	126.56
454.853	130.56
455.073	129.56
455.294	111.56
455.514	120.56
455.734	127.56
455.955	121.56
456.175	109.56
456.395	132.56
456.616	106.56
456.836	107.56
457.056	116.56
457.276	106.56
457.497	119.56
457.717	102.56
457.937	101.56
458.157	110.56
458.377	101.56
458.598	106.56
458.818	104.56
459.038	88.56
459.258	79.56
459.478	89.56
459.698	90.56
459.918	82.56
460.138	120.56
460.358	112.56
460.578	122.56
460.798	114.56
461.018	135.56
461.238	117.56
461.458	121.56
461.678	119.56
461.898	113.56
462.118	108.56
462.338	124.56
462.558	116.56
462.777	109.56
462.997	109.56
463.217	113.56
463.437	112.56
463.657	112.56
463.876	99.56
464.096	100.56
464.316	103.56
464.536	114.56
464.755	112.56
464.975	98.56
465.195	110.56
465.414	126.56
465.634	102.56
465.854	116.56
466.073	107.56
466.293	134.56
466.512	139.56
466.732	134.56
466.951	130.56
467.171	137.56
467.391	144.56
467.61	142.56
467.829	145.56
468.049	163.56
468.268	127.56
468.488	144.56
468.707	133.56
468.927	139.56
469.146	128.56
469.365	129.56
469.585	145.56
469.804	139.56
470.023	137.56
470.243	139.56
470.462	140.56
470.681	149.56
470.901	141.56
471.12	147.56
471.339	153.56
471.558	160.56
471.777	140.56
471.997	129.56
472.216	135.56
472.435	122.56
472.654	118.56
472.873	104.56
473.092	129.56
473.311	124.56
473.53	120.56
473.749	116.56
473.968	127.56
474.187	134.56
474.406	124.56
474.625	131.56
474.844	130.56
475.063	124.56
475.282	133.56
475.501	112.56
475.72	111.56
475.939	117.56
476.158	125.56
476.377	116.56
476.596	142.56
476.814	112.56
477.033	99.56
477.252	115.56
477.471	136.56
477.69	141.56
477.908	140.56
478.127	133.56
478.346	140.56
478.564	136.56
478.783	133.56
479.002	134.56
479.22	144.56
479.439	141.56
479.658	133.56
479.876	119.56
480.095	115.56
480.313	124.56
480.532	122.56
480.751	120.56
480.969	101.56
481.188	85.56
481.406	94.56
481.624	78.56
481.843	92.56
482.061	88.56
482.28	120.56
482.498	109.56
482.717	112.56
482.935	125.56
483.153	158.56
483.372	158.56
483.59	154.56
483.808	134.56
484.027	142.56
484.245	154.56
484.463	154.56
484.681	181.56
484.9	138.56
485.118	151.56
485.336	135.56
485.554	126.56
485.772	92.56
485.99	102.56
486.209	112.56
486.427	112.56
486.645	122.56
486.863	138.56
487.081	149.56
487.299	143.56
487.517	141.56
487.735	167.56
487.953	186.56
488.171	198.56
488.389	194.56
488.607	164.56
488.825	137.56
489.043	130.56
489.261	135.56
489.479	135.56
489.696	139.56
489.914	152.56
490.132	177.56
490.35	146.56
490.568	161.56
490.786	172.56
491.003	162.56
491.221	189.56
491.439	198.56
491.657	192.56
491.874	218.56
492.092	243.56
492.31	274.56
492.527	252.56
492.745	217.56
492.963	201.56
493.18	197.56
493.398	197.56
493.615	189.56
493.833	194.56
494.05	182.56
494.268	167.56
494.485	190.56
494.703	177.56
494.92	189.56
495.138	182.56
495.355	168.56
495.573	171.56
495.79	169.56
496.008	183.56
496.225	187.56
496.442	178.56
496.66	173.56
496.877	174.56
497.094	166.56
497.312	151.56
497.529	158.56
497.746	146.56
497.963	137.56
498.181	121.56
498.398	129.56
498.615	127.56
498.832	124.56
499.049	120.56
499.267	119.56
499.484	122.56
499.701	134.56
499.918	125.56
500.135	128.56
500.352	150.56
500.569	146.56
500.786	140.56
501.003	165.56
501.22	133.56
501.437	137.56
501.654	136.56
501.871	127.56
502.088	152.56
502.305	138.56
502.522	139.56
502.739	116.56
502.956	118.56
503.172	129.56
503.389	128.56
503.606	129.56
503.823	120.56
504.04	110.56
504.256	114.56
504.473	118.56
504.69	117.56
504.907	124.56
505.123	119.56
505.34	124.56
505.557	120.56
505.773	129.56
505.99	126.56
506.207	119.56
506.423	121.56
506.64	135.56
506.856	117.56
507.073	127.56
507.289	124.56
507.506	124.56
507.722	132.56
507.939	125.56
508.155	103.56
508.372	124.56
508.588	116.56
508.805	117.56
509.021	111.56
509.238	109.56
509.454	106.56
509.67	108.56
509.887	108.56
510.103	104.56
510.319	93.56
510.536	93.56
510.752	94.56
510.968	96.56
511.184	79.56
511.401	74.56
511.617	96.56
