Data from Location6.07152019.Energy5.Lamp.07192019.3%Agarose_HRD10591_16-12-02-394.txt Node
Date: Fri Jul 19 16:12:02 EDT 2019
User: cochatt
Spectrometer: HR+D1059
Trigger mode: 1
Integration Time (sec): 1.000000E-1
Scans to average: 1
Electric dark correction enabled: true
Nonlinearity correction enabled: false
Boxcar width: 0
XAxis mode: Wavelengths
Number of Pixels in Spectrum: 2048
>>>>>Begin Spectral Data<<<<<
223.165	-12.69
223.4	-12.69
223.635	-12.69
223.869	-17.69
224.104	-16.69
224.338	-7.69
224.573	-1.69
224.808	-16.69
225.042	-12.69
225.277	1.31
225.511	1.31
225.746	0.31
225.98	-5.69
226.215	-0.69
226.449	11.31
226.683	16.31
226.918	22.31
227.152	39.31
227.387	30.31
227.621	30.31
227.856	43.31
228.09	51.31
228.324	58.31
228.559	52.31
228.793	60.31
229.027	60.31
229.262	66.31
229.496	81.31
229.73	72.31
229.964	73.31
230.199	67.31
230.433	75.31
230.667	86.31
230.901	80.31
231.136	80.31
231.37	84.31
231.604	74.31
231.838	60.31
232.072	87.31
232.306	83.31
232.541	82.31
232.775	101.31
233.009	80.31
233.243	90.31
233.477	79.31
233.711	82.31
233.945	78.31
234.179	79.31
234.413	75.31
234.647	71.31
234.881	81.31
235.115	79.31
235.349	94.31
235.583	83.31
235.817	85.31
236.051	84.31
236.285	84.31
236.519	69.31
236.753	77.31
236.987	72.31
237.221	82.31
237.455	81.31
237.689	76.31
237.922	77.31
238.156	76.31
238.39	71.31
238.624	72.31
238.858	86.31
239.091	75.31
239.325	74.31
239.559	80.31
239.793	82.31
240.027	85.31
240.26	76.31
240.494	75.31
240.728	83.31
240.961	86.31
241.195	74.31
241.429	89.31
241.662	73.31
241.896	78.31
242.13	87.31
242.363	82.31
242.597	78.31
242.83	82.31
243.064	90.31
243.298	76.31
243.531	82.31
243.765	75.31
243.998	77.31
244.232	85.31
244.465	86.31
244.699	83.31
244.932	83.31
245.166	67.31
245.399	75.31
245.633	72.31
245.866	68.31
246.099	85.31
246.333	78.31
246.566	75.31
246.8	75.31
247.033	92.31
247.266	67.31
247.5	70.31
247.733	71.31
247.966	72.31
248.2	85.31
248.433	69.31
248.666	76.31
248.899	73.31
249.133	81.31
249.366	79.31
249.599	73.31
249.832	73.31
250.066	77.31
250.299	74.31
250.532	74.31
250.765	71.31
250.998	84.31
251.231	77.31
251.465	81.31
251.698	71.31
251.931	64.31
252.164	73.31
252.397	64.31
252.63	84.31
252.863	81.31
253.096	63.31
253.329	82.31
253.562	83.31
253.795	71.31
254.028	99.31
254.261	78.31
254.494	76.31
254.727	88.31
254.96	77.31
255.193	86.31
255.426	75.31
255.659	89.31
255.892	84.31
256.124	83.31
256.357	73.31
256.59	81.31
256.823	75.31
257.056	77.31
257.289	74.31
257.521	75.31
257.754	76.31
257.987	80.31
258.22	91.31
258.452	79.31
258.685	84.31
258.918	73.31
259.151	86.31
259.383	88.31
259.616	80.31
259.849	85.31
260.081	90.31
260.314	73.31
260.547	80.31
260.779	78.31
261.012	75.31
261.244	67.31
261.477	73.31
261.71	88.31
261.942	78.31
262.175	94.31
262.407	74.31
262.64	92.31
262.872	88.31
263.105	77.31
263.337	80.31
263.57	79.31
263.802	82.31
264.035	84.31
264.267	84.31
264.499	83.31
264.732	68.31
264.964	86.31
265.197	79.31
265.429	81.31
265.661	75.31
265.894	83.31
266.126	86.31
266.358	87.31
266.591	69.31
266.823	82.31
267.055	92.31
267.287	76.31
267.52	72.31
267.752	69.31
267.984	70.31
268.216	82.31
268.448	76.31
268.681	79.31
268.913	70.31
269.145	84.31
269.377	79.31
269.609	88.31
269.841	81.31
270.073	74.31
270.306	75.31
270.538	82.31
270.77	74.31
271.002	76.31
271.234	77.31
271.466	70.31
271.698	75.31
271.93	76.31
272.162	85.31
272.394	87.31
272.626	76.31
272.858	77.31
273.09	82.31
273.322	71.31
273.553	84.31
273.785	72.31
274.017	84.31
274.249	88.31
274.481	85.31
274.713	74.31
274.945	89.31
275.176	89.31
275.408	91.31
275.64	86.31
275.872	91.31
276.104	70.31
276.335	72.31
276.567	75.31
276.799	78.31
277.031	95.31
277.262	69.31
277.494	84.31
277.726	81.31
277.957	87.31
278.189	90.31
278.421	88.31
278.652	83.31
278.884	81.31
279.115	87.31
279.347	86.31
279.579	88.31
279.81	82.31
280.042	82.31
280.273	71.31
280.505	75.31
280.736	77.31
280.968	87.31
281.199	75.31
281.431	85.31
281.662	78.31
281.894	81.31
282.125	75.31
282.356	78.31
282.588	74.31
282.819	96.31
283.051	67.31
283.282	86.31
283.513	100.31
283.745	80.31
283.976	86.31
284.207	84.31
284.439	74.31
284.67	83.31
284.901	86.31
285.132	83.31
285.364	70.31
285.595	89.31
285.826	79.31
286.057	81.31
286.288	65.31
286.52	72.31
286.751	91.31
286.982	85.31
287.213	84.31
287.444	81.31
287.675	83.31
287.906	82.31
288.138	100.31
288.369	86.31
288.6	91.31
288.831	92.31
289.062	88.31
289.293	80.31
289.524	85.31
289.755	80.31
289.986	73.31
290.217	80.31
290.448	78.31
290.679	89.31
290.91	75.31
291.141	83.31
291.371	77.31
291.602	81.31
291.833	67.31
292.064	77.31
292.295	82.31
292.526	87.31
292.757	98.31
292.987	73.31
293.218	90.31
293.449	82.31
293.68	83.31
293.91	88.31
294.141	90.31
294.372	75.31
294.603	88.31
294.833	89.31
295.064	77.31
295.295	75.31
295.525	83.31
295.756	81.31
295.987	99.31
296.217	82.31
296.448	81.31
296.679	75.31
296.909	80.31
297.14	77.31
297.37	82.31
297.601	92.31
297.831	91.31
298.062	78.31
298.292	100.31
298.523	90.31
298.753	93.31
298.984	67.31
299.214	96.31
299.445	69.31
299.675	80.31
299.905	83.31
300.136	90.31
300.366	89.31
300.597	81.31
300.827	88.31
301.057	87.31
301.288	75.31
301.518	77.31
301.748	83.31
301.979	90.31
302.209	96.31
302.439	75.31
302.669	80.31
302.9	86.31
303.13	83.31
303.36	100.31
303.59	104.31
303.82	83.31
304.051	86.31
304.281	84.31
304.511	88.31
304.741	75.31
304.971	79.31
305.201	64.31
305.431	81.31
305.661	96.31
305.891	86.31
306.121	82.31
306.352	78.31
306.582	97.31
306.812	80.31
307.042	84.31
307.272	91.31
307.502	96.31
307.731	94.31
307.961	87.31
308.191	86.31
308.421	83.31
308.651	83.31
308.881	84.31
309.111	72.31
309.341	62.31
309.571	72.31
309.8	91.31
310.03	86.31
310.26	92.31
310.49	76.31
310.72	86.31
310.949	82.31
311.179	76.31
311.409	68.31
311.639	67.31
311.868	80.31
312.098	96.31
312.328	81.31
312.557	79.31
312.787	75.31
313.017	73.31
313.246	103.31
313.476	80.31
313.706	75.31
313.935	74.31
314.165	99.31
314.394	79.31
314.624	89.31
314.853	81.31
315.083	77.31
315.312	87.31
315.542	87.31
315.771	92.31
316.001	90.31
316.23	93.31
316.46	84.31
316.689	83.31
316.919	70.31
317.148	83.31
317.377	78.31
317.607	74.31
317.836	94.31
318.065	89.31
318.295	80.31
318.524	74.31
318.753	77.31
318.983	80.31
319.212	86.31
319.441	91.31
319.67	89.31
319.9	79.31
320.129	87.31
320.358	72.31
320.587	82.31
320.816	81.31
321.046	69.31
321.275	88.31
321.504	83.31
321.733	85.31
321.962	88.31
322.191	77.31
322.42	98.31
322.649	108.31
322.878	83.31
323.108	88.31
323.337	85.31
323.566	79.31
323.795	98.31
324.024	76.31
324.253	87.31
324.482	81.31
324.71	83.31
324.939	72.31
325.168	72.31
325.397	82.31
325.626	76.31
325.855	104.31
326.084	74.31
326.313	82.31
326.542	82.31
326.77	79.31
326.999	72.31
327.228	92.31
327.457	71.31
327.686	84.31
327.914	86.31
328.143	83.31
328.372	99.31
328.6	82.31
328.829	95.31
329.058	61.31
329.287	70.31
329.515	80.31
329.744	85.31
329.972	81.31
330.201	86.31
330.43	76.31
330.658	82.31
330.887	92.31
331.115	91.31
331.344	88.31
331.572	81.31
331.801	74.31
332.03	78.31
332.258	82.31
332.486	80.31
332.715	76.31
332.943	84.31
333.172	76.31
333.4	94.31
333.629	87.31
333.857	92.31
334.085	80.31
334.314	76.31
334.542	71.31
334.771	79.31
334.999	89.31
335.227	81.31
335.455	72.31
335.684	75.31
335.912	90.31
336.14	80.31
336.369	97.31
336.597	97.31
336.825	87.31
337.053	73.31
337.281	74.31
337.51	83.31
337.738	82.31
337.966	88.31
338.194	79.31
338.422	80.31
338.65	67.31
338.878	82.31
339.106	83.31
339.334	86.31
339.562	83.31
339.79	80.31
340.018	78.31
340.246	81.31
340.474	78.31
340.702	92.31
340.93	76.31
341.158	71.31
341.386	91.31
341.614	92.31
341.842	74.31
342.07	87.31
342.298	85.31
342.526	83.31
342.754	84.31
342.981	84.31
343.209	67.31
343.437	81.31
343.665	66.31
343.893	79.31
344.12	88.31
344.348	86.31
344.576	76.31
344.804	97.31
345.031	77.31
345.259	92.31
345.487	72.31
345.714	83.31
345.942	76.31
346.17	80.31
346.397	86.31
346.625	83.31
346.853	79.31
347.08	73.31
347.308	95.31
347.535	78.31
347.763	81.31
347.99	87.31
348.218	81.31
348.445	79.31
348.673	83.31
348.9	81.31
349.128	90.31
349.355	84.31
349.583	86.31
349.81	88.31
350.037	79.31
350.265	83.31
350.492	96.31
350.72	94.31
350.947	85.31
351.174	71.31
351.402	78.31
351.629	81.31
351.856	89.31
352.083	86.31
352.311	74.31
352.538	81.31
352.765	79.31
352.992	79.31
353.22	95.31
353.447	81.31
353.674	81.31
353.901	84.31
354.128	69.31
354.355	77.31
354.583	65.31
354.81	88.31
355.037	75.31
355.264	76.31
355.491	76.31
355.718	90.31
355.945	71.31
356.172	81.31
356.399	72.31
356.626	92.31
356.853	79.31
357.08	83.31
357.307	79.31
357.534	71.31
357.761	75.31
357.988	77.31
358.215	81.31
358.441	77.31
358.668	85.31
358.895	65.31
359.122	74.31
359.349	89.31
359.576	84.31
359.802	86.31
360.029	74.31
360.256	69.31
360.483	84.31
360.709	74.31
360.936	90.31
361.163	98.31
361.39	72.31
361.616	74.31
361.843	82.31
362.07	91.31
362.296	96.31
362.523	94.31
362.749	80.31
362.976	89.31
363.203	89.31
363.429	86.31
363.656	75.31
363.882	72.31
364.109	86.31
364.335	99.31
364.562	94.31
364.788	85.31
365.015	100.31
365.241	79.31
365.468	80.31
365.694	83.31
365.92	95.31
366.147	89.31
366.373	78.31
366.599	92.31
366.826	88.31
367.052	86.31
367.278	91.31
367.505	90.31
367.731	93.31
367.957	74.31
368.184	87.31
368.41	97.31
368.636	86.31
368.862	79.31
369.089	93.31
369.315	81.31
369.541	89.31
369.767	84.31
369.993	93.31
370.219	77.31
370.445	91.31
370.672	92.31
370.898	85.31
371.124	75.31
371.35	84.31
371.576	94.31
371.802	97.31
372.028	85.31
372.254	80.31
372.48	89.31
372.706	85.31
372.932	86.31
373.158	86.31
373.384	85.31
373.61	89.31
373.835	99.31
374.061	101.31
374.287	88.31
374.513	82.31
374.739	73.31
374.965	80.31
375.191	100.31
375.416	89.31
375.642	96.31
375.868	92.31
376.094	86.31
376.319	94.31
376.545	105.31
376.771	90.31
376.997	77.31
377.222	98.31
377.448	112.31
377.674	108.31
377.899	104.31
378.125	87.31
378.35	94.31
378.576	84.31
378.802	92.31
379.027	104.31
379.253	97.31
379.478	106.31
379.704	81.31
379.929	97.31
380.155	114.31
380.38	104.31
380.606	92.31
380.831	87.31
381.057	101.31
381.282	96.31
381.507	99.31
381.733	88.31
381.958	106.31
382.184	97.31
382.409	96.31
382.634	89.31
382.86	90.31
383.085	90.31
383.31	100.31
383.535	90.31
383.761	92.31
383.986	106.31
384.211	93.31
384.436	93.31
384.662	99.31
384.887	97.31
385.112	92.31
385.337	86.31
385.562	94.31
385.787	93.31
386.013	106.31
386.238	95.31
386.463	88.31
386.688	103.31
386.913	105.31
387.138	103.31
387.363	97.31
387.588	104.31
387.813	96.31
388.038	85.31
388.263	103.31
388.488	109.31
388.713	98.31
388.938	103.31
389.163	111.31
389.387	106.31
389.612	90.31
389.837	114.31
390.062	95.31
390.287	93.31
390.512	95.31
390.736	95.31
390.961	85.31
391.186	110.31
391.411	108.31
391.636	98.31
391.86	125.31
392.085	100.31
392.31	116.31
392.534	109.31
392.759	105.31
392.984	91.31
393.208	104.31
393.433	110.31
393.658	102.31
393.882	104.31
394.107	114.31
394.331	103.31
394.556	102.31
394.78	119.31
395.005	112.31
395.229	107.31
395.454	105.31
395.678	113.31
395.903	114.31
396.127	111.31
396.352	108.31
396.576	112.31
396.801	104.31
397.025	88.31
397.249	120.31
397.474	110.31
397.698	118.31
397.922	103.31
398.147	104.31
398.371	93.31
398.595	113.31
398.82	102.31
399.044	87.31
399.268	99.31
399.492	117.31
399.717	109.31
399.941	122.31
400.165	116.31
400.389	103.31
400.613	122.31
400.837	116.31
401.062	129.31
401.286	121.31
401.51	107.31
401.734	110.31
401.958	124.31
402.182	114.31
402.406	113.31
402.63	129.31
402.854	117.31
403.078	131.31
403.302	128.31
403.526	112.31
403.75	120.31
403.974	113.31
404.198	120.31
404.422	129.31
404.645	114.31
404.869	119.31
405.093	121.31
405.317	133.31
405.541	126.31
405.765	124.31
405.988	127.31
406.212	125.31
406.436	114.31
406.66	116.31
406.883	119.31
407.107	124.31
407.331	115.31
407.555	102.31
407.778	116.31
408.002	122.31
408.226	115.31
408.449	122.31
408.673	120.31
408.896	119.31
409.12	119.31
409.344	113.31
409.567	132.31
409.791	130.31
410.014	122.31
410.238	130.31
410.461	128.31
410.685	124.31
410.908	136.31
411.132	103.31
411.355	136.31
411.578	128.31
411.802	124.31
412.025	126.31
412.249	123.31
412.472	122.31
412.695	128.31
412.919	124.31
413.142	121.31
413.365	124.31
413.589	124.31
413.812	135.31
414.035	135.31
414.258	130.31
414.482	130.31
414.705	105.31
414.928	116.31
415.151	114.31
415.374	123.31
415.597	112.31
415.821	119.31
416.044	130.31
416.267	121.31
416.49	125.31
416.713	137.31
416.936	148.31
417.159	133.31
417.382	116.31
417.605	126.31
417.828	131.31
418.051	138.31
418.274	125.31
418.497	142.31
418.72	135.31
418.943	120.31
419.166	140.31
419.389	135.31
419.611	132.31
419.834	129.31
420.057	136.31
420.28	134.31
420.503	140.31
420.726	143.31
420.948	143.31
421.171	146.31
421.394	153.31
421.617	153.31
421.839	142.31
422.062	139.31
422.285	137.31
422.507	131.31
422.73	139.31
422.953	128.31
423.175	141.31
423.398	128.31
423.621	130.31
423.843	143.31
424.066	148.31
424.288	134.31
424.511	154.31
424.733	146.31
424.956	146.31
425.178	147.31
425.401	148.31
425.623	149.31
425.846	114.31
426.068	120.31
426.291	126.31
426.513	118.31
426.735	129.31
426.958	134.31
427.18	159.31
427.402	122.31
427.625	128.31
427.847	125.31
428.069	139.31
428.292	128.31
428.514	131.31
428.736	129.31
428.958	121.31
429.181	130.31
429.403	135.31
429.625	126.31
429.847	136.31
430.069	120.31
430.292	145.31
430.514	123.31
430.736	146.31
430.958	131.31
431.18	132.31
431.402	116.31
431.624	113.31
431.846	108.31
432.068	94.31
432.29	88.31
432.512	103.31
432.734	125.31
432.956	128.31
433.178	151.31
433.4	148.31
433.622	147.31
433.844	136.31
434.066	139.31
434.287	117.31
434.509	112.31
434.731	104.31
434.953	105.31
435.175	125.31
435.397	136.31
435.618	125.31
435.84	106.31
436.062	122.31
436.284	118.31
436.505	117.31
436.727	141.31
436.949	138.31
437.17	139.31
437.392	144.31
437.614	140.31
437.835	104.31
438.057	100.31
438.278	125.31
438.5	122.31
438.721	130.31
438.943	138.31
439.165	120.31
439.386	143.31
439.608	148.31
439.829	158.31
440.05	166.31
440.272	147.31
440.493	153.31
440.715	146.31
440.936	153.31
441.158	136.31
441.379	140.31
441.6	154.31
441.822	167.31
442.043	162.31
442.264	152.31
442.486	140.31
442.707	146.31
442.928	129.31
443.149	148.31
443.371	145.31
443.592	132.31
443.813	152.31
444.034	151.31
444.255	148.31
444.476	136.31
444.698	148.31
444.919	154.31
445.14	255.31
445.361	196.31
445.582	148.31
445.803	137.31
446.024	147.31
446.245	156.31
446.466	168.31
446.687	156.31
446.908	154.31
447.129	158.31
447.35	164.31
447.571	152.31
447.792	144.31
448.013	156.31
448.234	147.31
448.455	142.31
448.675	151.31
448.896	143.31
449.117	139.31
449.338	152.31
449.559	135.31
449.779	124.31
450	130.31
450.221	144.31
450.442	132.31
450.662	132.31
450.883	137.31
451.104	141.31
451.324	130.31
451.545	144.31
451.766	136.31
451.986	114.31
452.207	134.31
452.428	135.31
452.648	129.31
452.869	142.31
453.089	139.31
453.31	108.31
453.53	112.31
453.751	101.31
453.971	126.31
454.192	98.31
454.412	100.31
454.633	112.31
454.853	122.31
455.073	123.31
455.294	129.31
455.514	123.31
455.734	129.31
455.955	121.31
456.175	130.31
456.395	107.31
456.616	119.31
456.836	109.31
457.056	120.31
457.276	117.31
457.497	101.31
457.717	107.31
457.937	120.31
458.157	119.31
458.377	107.31
458.598	95.31
458.818	84.31
459.038	79.31
459.258	96.31
459.478	93.31
459.698	100.31
459.918	92.31
460.138	100.31
460.358	112.31
460.578	138.31
460.798	125.31
461.018	116.31
461.238	115.31
461.458	94.31
461.678	108.31
461.898	122.31
462.118	116.31
462.338	119.31
462.558	113.31
462.777	120.31
462.997	113.31
463.217	113.31
463.437	115.31
463.657	121.31
463.876	98.31
464.096	108.31
464.316	105.31
464.536	118.31
464.755	118.31
464.975	99.31
465.195	117.31
465.414	122.31
465.634	106.31
465.854	120.31
466.073	145.31
466.293	132.31
466.512	122.31
466.732	144.31
466.951	119.31
467.171	129.31
467.391	139.31
467.61	158.31
467.829	137.31
468.049	127.31
468.268	126.31
468.488	126.31
468.707	138.31
468.927	142.31
469.146	153.31
469.365	146.31
469.585	136.31
469.804	144.31
470.023	151.31
470.243	139.31
470.462	144.31
470.681	162.31
470.901	160.31
471.12	157.31
471.339	145.31
471.558	130.31
471.777	141.31
471.997	128.31
472.216	129.31
472.435	132.31
472.654	121.31
472.873	95.31
473.092	112.31
473.311	135.31
473.53	121.31
473.749	133.31
473.968	146.31
474.187	117.31
474.406	123.31
474.625	144.31
474.844	142.31
475.063	125.31
475.282	130.31
475.501	121.31
475.72	128.31
475.939	126.31
476.158	130.31
476.377	131.31
476.596	120.31
476.814	120.31
477.033	110.31
477.252	114.31
477.471	129.31
477.69	124.31
477.908	129.31
478.127	142.31
478.346	140.31
478.564	138.31
478.783	131.31
479.002	131.31
479.22	163.31
479.439	146.31
479.658	112.31
479.876	120.31
480.095	125.31
480.313	120.31
480.532	105.31
480.751	114.31
480.969	92.31
481.188	100.31
481.406	91.31
481.624	98.31
481.843	90.31
482.061	100.31
482.28	114.31
482.498	111.31
482.717	112.31
482.935	118.31
483.153	155.31
483.372	165.31
483.59	154.31
483.808	143.31
484.027	148.31
484.245	139.31
484.463	144.31
484.681	168.31
484.9	154.31
485.118	147.31
485.336	124.31
485.554	123.31
485.772	101.31
485.99	104.31
486.209	120.31
486.427	120.31
486.645	127.31
486.863	144.31
487.081	151.31
487.299	134.31
487.517	157.31
487.735	185.31
487.953	209.31
488.171	198.31
488.389	182.31
488.607	165.31
488.825	150.31
489.043	148.31
489.261	130.31
489.479	154.31
489.696	147.31
489.914	127.31
490.132	152.31
490.35	150.31
490.568	167.31
490.786	178.31
491.003	172.31
491.221	190.31
491.439	201.31
491.657	199.31
491.874	212.31
492.092	241.31
492.31	250.31
492.527	254.31
492.745	223.31
492.963	182.31
493.18	192.31
493.398	172.31
493.615	186.31
493.833	182.31
494.05	179.31
494.268	167.31
494.485	176.31
494.703	176.31
494.92	175.31
495.138	174.31
495.355	162.31
495.573	178.31
495.79	179.31
496.008	172.31
496.225	182.31
496.442	163.31
496.66	176.31
496.877	179.31
497.094	180.31
497.312	169.31
497.529	172.31
497.746	161.31
497.963	162.31
498.181	156.31
498.398	133.31
498.615	135.31
498.832	122.31
499.049	122.31
499.267	136.31
499.484	128.31
499.701	134.31
499.918	130.31
500.135	141.31
500.352	139.31
500.569	135.31
500.786	155.31
501.003	150.31
501.22	148.31
501.437	146.31
501.654	137.31
501.871	126.31
502.088	140.31
502.305	154.31
502.522	131.31
502.739	121.31
502.956	127.31
503.172	139.31
503.389	134.31
503.606	126.31
503.823	127.31
504.04	120.31
504.256	115.31
504.473	140.31
504.69	122.31
504.907	126.31
505.123	118.31
505.34	129.31
505.557	128.31
505.773	126.31
505.99	133.31
506.207	115.31
506.423	124.31
506.64	124.31
506.856	131.31
507.073	124.31
507.289	130.31
507.506	124.31
507.722	117.31
507.939	117.31
508.155	124.31
508.372	115.31
508.588	122.31
508.805	115.31
509.021	98.31
509.238	115.31
509.454	102.31
509.67	105.31
509.887	108.31
510.103	93.31
510.319	80.31
510.536	87.31
510.752	92.31
510.968	84.31
511.184	86.31
511.401	82.31
511.617	81.31
