Data from Location6.07152019.Energy5.Lamp.07192019.3%Agarose_HRD10591_16-11-09-394.txt Node
Date: Fri Jul 19 16:11:09 EDT 2019
User: cochatt
Spectrometer: HR+D1059
Trigger mode: 1
Integration Time (sec): 1.000000E-1
Scans to average: 1
Electric dark correction enabled: true
Nonlinearity correction enabled: false
Boxcar width: 0
XAxis mode: Wavelengths
Number of Pixels in Spectrum: 2048
>>>>>Begin Spectral Data<<<<<
223.165	-11.88
223.4	-11.88
223.635	-11.88
223.869	-6.88
224.104	-15.88
224.338	-22.88
224.573	-22.88
224.808	-13.88
225.042	-4.88
225.277	-1.88
225.511	0.12
225.746	11.12
225.98	12.12
226.215	12.12
226.449	25.12
226.683	12.12
226.918	10.12
227.152	18.12
227.387	23.12
227.621	25.12
227.856	35.12
228.09	40.12
228.324	52.12
228.559	61.12
228.793	49.12
229.027	64.12
229.262	60.12
229.496	68.12
229.73	79.12
229.964	73.12
230.199	73.12
230.433	61.12
230.667	72.12
230.901	87.12
231.136	65.12
231.37	84.12
231.604	73.12
231.838	85.12
232.072	85.12
232.306	82.12
232.541	78.12
232.775	74.12
233.009	82.12
233.243	87.12
233.477	80.12
233.711	77.12
233.945	63.12
234.179	76.12
234.413	75.12
234.647	79.12
234.881	79.12
235.115	80.12
235.349	75.12
235.583	74.12
235.817	72.12
236.051	71.12
236.285	75.12
236.519	79.12
236.753	86.12
236.987	80.12
237.221	76.12
237.455	70.12
237.689	70.12
237.922	77.12
238.156	78.12
238.39	75.12
238.624	72.12
238.858	73.12
239.091	75.12
239.325	74.12
239.559	72.12
239.793	81.12
240.027	92.12
240.26	97.12
240.494	65.12
240.728	68.12
240.961	70.12
241.195	85.12
241.429	79.12
241.662	71.12
241.896	70.12
242.13	68.12
242.363	87.12
242.597	81.12
242.83	87.12
243.064	70.12
243.298	66.12
243.531	76.12
243.765	73.12
243.998	82.12
244.232	90.12
244.465	87.12
244.699	70.12
244.932	76.12
245.166	88.12
245.399	72.12
245.633	65.12
245.866	63.12
246.099	76.12
246.333	84.12
246.566	91.12
246.8	73.12
247.033	63.12
247.266	81.12
247.5	61.12
247.733	87.12
247.966	73.12
248.2	87.12
248.433	90.12
248.666	74.12
248.899	76.12
249.133	81.12
249.366	89.12
249.599	82.12
249.832	74.12
250.066	84.12
250.299	69.12
250.532	89.12
250.765	78.12
250.998	69.12
251.231	72.12
251.465	74.12
251.698	82.12
251.931	91.12
252.164	81.12
252.397	78.12
252.63	72.12
252.863	73.12
253.096	80.12
253.329	76.12
253.562	75.12
253.795	83.12
254.028	72.12
254.261	87.12
254.494	75.12
254.727	86.12
254.96	86.12
255.193	79.12
255.426	67.12
255.659	64.12
255.892	79.12
256.124	76.12
256.357	68.12
256.59	70.12
256.823	74.12
257.056	82.12
257.289	70.12
257.521	80.12
257.754	82.12
257.987	82.12
258.22	77.12
258.452	72.12
258.685	77.12
258.918	81.12
259.151	70.12
259.383	67.12
259.616	75.12
259.849	70.12
260.081	77.12
260.314	96.12
260.547	82.12
260.779	76.12
261.012	83.12
261.244	68.12
261.477	85.12
261.71	75.12
261.942	69.12
262.175	95.12
262.407	79.12
262.64	81.12
262.872	73.12
263.105	80.12
263.337	65.12
263.57	71.12
263.802	75.12
264.035	78.12
264.267	82.12
264.499	99.12
264.732	88.12
264.964	93.12
265.197	79.12
265.429	71.12
265.661	82.12
265.894	82.12
266.126	90.12
266.358	87.12
266.591	88.12
266.823	59.12
267.055	91.12
267.287	97.12
267.52	82.12
267.752	82.12
267.984	98.12
268.216	78.12
268.448	81.12
268.681	83.12
268.913	76.12
269.145	85.12
269.377	90.12
269.609	79.12
269.841	89.12
270.073	87.12
270.306	82.12
270.538	94.12
270.77	86.12
271.002	97.12
271.234	85.12
271.466	85.12
271.698	86.12
271.93	82.12
272.162	80.12
272.394	87.12
272.626	84.12
272.858	72.12
273.09	88.12
273.322	81.12
273.553	78.12
273.785	88.12
274.017	99.12
274.249	80.12
274.481	71.12
274.713	81.12
274.945	73.12
275.176	75.12
275.408	87.12
275.64	75.12
275.872	58.12
276.104	93.12
276.335	95.12
276.567	74.12
276.799	84.12
277.031	83.12
277.262	85.12
277.494	79.12
277.726	75.12
277.957	75.12
278.189	84.12
278.421	81.12
278.652	68.12
278.884	82.12
279.115	69.12
279.347	66.12
279.579	77.12
279.81	83.12
280.042	80.12
280.273	88.12
280.505	79.12
280.736	80.12
280.968	81.12
281.199	86.12
281.431	86.12
281.662	81.12
281.894	85.12
282.125	78.12
282.356	71.12
282.588	82.12
282.819	83.12
283.051	79.12
283.282	93.12
283.513	83.12
283.745	90.12
283.976	82.12
284.207	85.12
284.439	83.12
284.67	100.12
284.901	84.12
285.132	91.12
285.364	83.12
285.595	79.12
285.826	75.12
286.057	84.12
286.288	86.12
286.52	80.12
286.751	96.12
286.982	87.12
287.213	91.12
287.444	91.12
287.675	85.12
287.906	86.12
288.138	69.12
288.369	91.12
288.6	80.12
288.831	89.12
289.062	90.12
289.293	87.12
289.524	79.12
289.755	86.12
289.986	79.12
290.217	81.12
290.448	102.12
290.679	81.12
290.91	82.12
291.141	80.12
291.371	87.12
291.602	91.12
291.833	92.12
292.064	71.12
292.295	80.12
292.526	83.12
292.757	95.12
292.987	97.12
293.218	93.12
293.449	74.12
293.68	79.12
293.91	87.12
294.141	64.12
294.372	84.12
294.603	82.12
294.833	70.12
295.064	89.12
295.295	77.12
295.525	80.12
295.756	79.12
295.987	87.12
296.217	89.12
296.448	102.12
296.679	77.12
296.909	85.12
297.14	73.12
297.37	96.12
297.601	93.12
297.831	74.12
298.062	86.12
298.292	71.12
298.523	89.12
298.753	88.12
298.984	88.12
299.214	87.12
299.445	76.12
299.675	88.12
299.905	78.12
300.136	84.12
300.366	91.12
300.597	75.12
300.827	75.12
301.057	82.12
301.288	82.12
301.518	91.12
301.748	80.12
301.979	72.12
302.209	90.12
302.439	99.12
302.669	80.12
302.9	90.12
303.13	82.12
303.36	76.12
303.59	96.12
303.82	83.12
304.051	64.12
304.281	76.12
304.511	79.12
304.741	87.12
304.971	82.12
305.201	85.12
305.431	92.12
305.661	98.12
305.891	74.12
306.121	86.12
306.352	94.12
306.582	81.12
306.812	81.12
307.042	88.12
307.272	81.12
307.502	82.12
307.731	97.12
307.961	78.12
308.191	82.12
308.421	72.12
308.651	79.12
308.881	88.12
309.111	74.12
309.341	94.12
309.571	76.12
309.8	78.12
310.03	83.12
310.26	78.12
310.49	96.12
310.72	98.12
310.949	87.12
311.179	78.12
311.409	74.12
311.639	94.12
311.868	82.12
312.098	78.12
312.328	69.12
312.557	78.12
312.787	94.12
313.017	84.12
313.246	80.12
313.476	81.12
313.706	93.12
313.935	70.12
314.165	79.12
314.394	74.12
314.624	86.12
314.853	86.12
315.083	83.12
315.312	85.12
315.542	93.12
315.771	73.12
316.001	79.12
316.23	72.12
316.46	67.12
316.689	81.12
316.919	99.12
317.148	73.12
317.377	67.12
317.607	86.12
317.836	89.12
318.065	83.12
318.295	88.12
318.524	89.12
318.753	81.12
318.983	84.12
319.212	79.12
319.441	82.12
319.67	92.12
319.9	77.12
320.129	84.12
320.358	69.12
320.587	71.12
320.816	78.12
321.046	82.12
321.275	90.12
321.504	88.12
321.733	87.12
321.962	90.12
322.191	103.12
322.42	90.12
322.649	89.12
322.878	76.12
323.108	86.12
323.337	90.12
323.566	91.12
323.795	88.12
324.024	93.12
324.253	77.12
324.482	80.12
324.71	80.12
324.939	72.12
325.168	76.12
325.397	74.12
325.626	72.12
325.855	84.12
326.084	81.12
326.313	82.12
326.542	87.12
326.77	86.12
326.999	82.12
327.228	75.12
327.457	75.12
327.686	94.12
327.914	94.12
328.143	86.12
328.372	85.12
328.6	84.12
328.829	81.12
329.058	82.12
329.287	94.12
329.515	86.12
329.744	73.12
329.972	67.12
330.201	83.12
330.43	79.12
330.658	83.12
330.887	75.12
331.115	88.12
331.344	94.12
331.572	85.12
331.801	76.12
332.03	81.12
332.258	85.12
332.486	85.12
332.715	80.12
332.943	76.12
333.172	89.12
333.4	75.12
333.629	78.12
333.857	71.12
334.085	77.12
334.314	79.12
334.542	88.12
334.771	92.12
334.999	94.12
335.227	90.12
335.455	72.12
335.684	88.12
335.912	92.12
336.14	90.12
336.369	81.12
336.597	82.12
336.825	70.12
337.053	83.12
337.281	89.12
337.51	81.12
337.738	77.12
337.966	85.12
338.194	82.12
338.422	90.12
338.65	96.12
338.878	92.12
339.106	82.12
339.334	97.12
339.562	74.12
339.79	84.12
340.018	80.12
340.246	66.12
340.474	88.12
340.702	88.12
340.93	82.12
341.158	83.12
341.386	65.12
341.614	75.12
341.842	96.12
342.07	85.12
342.298	83.12
342.526	73.12
342.754	78.12
342.981	74.12
343.209	86.12
343.437	93.12
343.665	82.12
343.893	74.12
344.12	81.12
344.348	93.12
344.576	75.12
344.804	90.12
345.031	73.12
345.259	83.12
345.487	90.12
345.714	75.12
345.942	75.12
346.17	94.12
346.397	72.12
346.625	85.12
346.853	84.12
347.08	79.12
347.308	92.12
347.535	74.12
347.763	87.12
347.99	70.12
348.218	90.12
348.445	74.12
348.673	83.12
348.9	95.12
349.128	90.12
349.355	83.12
349.583	83.12
349.81	102.12
350.037	74.12
350.265	86.12
350.492	81.12
350.72	88.12
350.947	90.12
351.174	94.12
351.402	83.12
351.629	99.12
351.856	79.12
352.083	73.12
352.311	91.12
352.538	81.12
352.765	81.12
352.992	83.12
353.22	86.12
353.447	94.12
353.674	85.12
353.901	75.12
354.128	86.12
354.355	98.12
354.583	83.12
354.81	72.12
355.037	74.12
355.264	88.12
355.491	85.12
355.718	70.12
355.945	76.12
356.172	79.12
356.399	72.12
356.626	84.12
356.853	89.12
357.08	80.12
357.307	79.12
357.534	71.12
357.761	84.12
357.988	73.12
358.215	77.12
358.441	73.12
358.668	82.12
358.895	74.12
359.122	75.12
359.349	74.12
359.576	101.12
359.802	98.12
360.029	93.12
360.256	93.12
360.483	86.12
360.709	80.12
360.936	86.12
361.163	79.12
361.39	88.12
361.616	83.12
361.843	67.12
362.07	82.12
362.296	79.12
362.523	79.12
362.749	71.12
362.976	85.12
363.203	76.12
363.429	73.12
363.656	74.12
363.882	85.12
364.109	69.12
364.335	81.12
364.562	73.12
364.788	79.12
365.015	83.12
365.241	83.12
365.468	91.12
365.694	84.12
365.92	83.12
366.147	67.12
366.373	82.12
366.599	88.12
366.826	89.12
367.052	90.12
367.278	93.12
367.505	79.12
367.731	98.12
367.957	85.12
368.184	93.12
368.41	88.12
368.636	86.12
368.862	90.12
369.089	97.12
369.315	97.12
369.541	90.12
369.767	88.12
369.993	103.12
370.219	87.12
370.445	91.12
370.672	82.12
370.898	77.12
371.124	87.12
371.35	103.12
371.576	81.12
371.802	89.12
372.028	100.12
372.254	81.12
372.48	82.12
372.706	94.12
372.932	90.12
373.158	100.12
373.384	84.12
373.61	102.12
373.835	94.12
374.061	81.12
374.287	94.12
374.513	87.12
374.739	103.12
374.965	85.12
375.191	72.12
375.416	79.12
375.642	88.12
375.868	89.12
376.094	88.12
376.319	79.12
376.545	85.12
376.771	90.12
376.997	92.12
377.222	99.12
377.448	100.12
377.674	94.12
377.899	92.12
378.125	92.12
378.35	85.12
378.576	110.12
378.802	100.12
379.027	90.12
379.253	89.12
379.478	95.12
379.704	91.12
379.929	103.12
380.155	87.12
380.38	100.12
380.606	104.12
380.831	107.12
381.057	97.12
381.282	95.12
381.507	82.12
381.733	105.12
381.958	101.12
382.184	92.12
382.409	91.12
382.634	109.12
382.86	95.12
383.085	90.12
383.31	97.12
383.535	98.12
383.761	90.12
383.986	92.12
384.211	84.12
384.436	99.12
384.662	98.12
384.887	97.12
385.112	101.12
385.337	112.12
385.562	91.12
385.787	117.12
386.013	101.12
386.238	110.12
386.463	97.12
386.688	106.12
386.913	87.12
387.138	103.12
387.363	112.12
387.588	108.12
387.813	98.12
388.038	95.12
388.263	103.12
388.488	100.12
388.713	92.12
388.938	93.12
389.163	99.12
389.387	93.12
389.612	101.12
389.837	106.12
390.062	98.12
390.287	110.12
390.512	92.12
390.736	102.12
390.961	84.12
391.186	96.12
391.411	100.12
391.636	115.12
391.86	113.12
392.085	97.12
392.31	104.12
392.534	106.12
392.759	107.12
392.984	95.12
393.208	97.12
393.433	103.12
393.658	99.12
393.882	119.12
394.107	121.12
394.331	113.12
394.556	95.12
394.78	117.12
395.005	106.12
395.229	102.12
395.454	111.12
395.678	95.12
395.903	115.12
396.127	101.12
396.352	99.12
396.576	104.12
396.801	112.12
397.025	93.12
397.249	101.12
397.474	109.12
397.698	114.12
397.922	113.12
398.147	111.12
398.371	113.12
398.595	103.12
398.82	105.12
399.044	118.12
399.268	100.12
399.492	109.12
399.717	107.12
399.941	107.12
400.165	119.12
400.389	105.12
400.613	110.12
400.837	103.12
401.062	115.12
401.286	117.12
401.51	112.12
401.734	99.12
401.958	112.12
402.182	100.12
402.406	96.12
402.63	115.12
402.854	117.12
403.078	116.12
403.302	109.12
403.526	110.12
403.75	128.12
403.974	116.12
404.198	118.12
404.422	115.12
404.645	125.12
404.869	123.12
405.093	119.12
405.317	128.12
405.541	126.12
405.765	115.12
405.988	99.12
406.212	117.12
406.436	111.12
406.66	117.12
406.883	117.12
407.107	100.12
407.331	112.12
407.555	127.12
407.778	121.12
408.002	114.12
408.226	115.12
408.449	123.12
408.673	129.12
408.896	114.12
409.12	115.12
409.344	110.12
409.567	150.12
409.791	123.12
410.014	125.12
410.238	129.12
410.461	126.12
410.685	130.12
410.908	131.12
411.132	131.12
411.355	142.12
411.578	114.12
411.802	101.12
412.025	110.12
412.249	121.12
412.472	119.12
412.695	116.12
412.919	128.12
413.142	136.12
413.365	123.12
413.589	129.12
413.812	122.12
414.035	118.12
414.258	134.12
414.482	114.12
414.705	122.12
414.928	124.12
415.151	104.12
415.374	118.12
415.597	113.12
415.821	118.12
416.044	118.12
416.267	126.12
416.49	121.12
416.713	129.12
416.936	126.12
417.159	133.12
417.382	125.12
417.605	127.12
417.828	132.12
418.051	139.12
418.274	121.12
418.497	119.12
418.72	145.12
418.943	129.12
419.166	143.12
419.389	128.12
419.611	144.12
419.834	147.12
420.057	121.12
420.28	136.12
420.503	138.12
420.726	128.12
420.948	147.12
421.171	129.12
421.394	152.12
421.617	143.12
421.839	154.12
422.062	139.12
422.285	130.12
422.507	131.12
422.73	137.12
422.953	132.12
423.175	115.12
423.398	125.12
423.621	133.12
423.843	118.12
424.066	133.12
424.288	132.12
424.511	148.12
424.733	148.12
424.956	142.12
425.178	145.12
425.401	117.12
425.623	131.12
425.846	139.12
426.068	132.12
426.291	131.12
426.513	135.12
426.735	134.12
426.958	143.12
427.18	138.12
427.402	134.12
427.625	126.12
427.847	142.12
428.069	117.12
428.292	122.12
428.514	121.12
428.736	134.12
428.958	119.12
429.181	123.12
429.403	135.12
429.625	140.12
429.847	134.12
430.069	120.12
430.292	121.12
430.514	112.12
430.736	137.12
430.958	123.12
431.18	131.12
431.402	129.12
431.624	134.12
431.846	104.12
432.068	102.12
432.29	101.12
432.512	114.12
432.734	123.12
432.956	141.12
433.178	127.12
433.4	142.12
433.622	141.12
433.844	132.12
434.066	112.12
434.287	104.12
434.509	105.12
434.731	105.12
434.953	110.12
435.175	138.12
435.397	134.12
435.618	118.12
435.84	127.12
436.062	122.12
436.284	127.12
436.505	124.12
436.727	123.12
436.949	141.12
437.17	127.12
437.392	130.12
437.614	148.12
437.835	121.12
438.057	114.12
438.278	106.12
438.5	123.12
438.721	143.12
438.943	153.12
439.165	136.12
439.386	142.12
439.608	145.12
439.829	146.12
440.05	153.12
440.272	138.12
440.493	138.12
440.715	143.12
440.936	145.12
441.158	148.12
441.379	144.12
441.6	154.12
441.822	136.12
442.043	148.12
442.264	146.12
442.486	148.12
442.707	146.12
442.928	135.12
443.149	163.12
443.371	143.12
443.592	150.12
443.813	138.12
444.034	139.12
444.255	146.12
444.476	136.12
444.698	145.12
444.919	148.12
445.14	265.12
445.361	208.12
445.582	151.12
445.803	155.12
446.024	139.12
446.245	157.12
446.466	152.12
446.687	157.12
446.908	161.12
447.129	160.12
447.35	167.12
447.571	153.12
447.792	150.12
448.013	139.12
448.234	136.12
448.455	136.12
448.675	140.12
448.896	142.12
449.117	149.12
449.338	138.12
449.559	127.12
449.779	132.12
450	129.12
450.221	139.12
450.442	132.12
450.662	135.12
450.883	140.12
451.104	145.12
451.324	139.12
451.545	125.12
451.766	122.12
451.986	135.12
452.207	133.12
452.428	131.12
452.648	138.12
452.869	123.12
453.089	106.12
453.31	119.12
453.53	114.12
453.751	110.12
453.971	115.12
454.192	123.12
454.412	106.12
454.633	117.12
454.853	121.12
455.073	125.12
455.294	125.12
455.514	133.12
455.734	119.12
455.955	130.12
456.175	111.12
456.395	117.12
456.616	106.12
456.836	99.12
457.056	114.12
457.276	110.12
457.497	133.12
457.717	106.12
457.937	108.12
458.157	111.12
458.377	117.12
458.598	89.12
458.818	76.12
459.038	82.12
459.258	86.12
459.478	88.12
459.698	89.12
459.918	98.12
460.138	98.12
460.358	105.12
460.578	117.12
460.798	110.12
461.018	121.12
461.238	123.12
461.458	118.12
461.678	125.12
461.898	120.12
462.118	99.12
462.338	113.12
462.558	111.12
462.777	111.12
462.997	101.12
463.217	106.12
463.437	104.12
463.657	104.12
463.876	106.12
464.096	98.12
464.316	102.12
464.536	124.12
464.755	109.12
464.975	114.12
465.195	117.12
465.414	117.12
465.634	107.12
465.854	119.12
466.073	117.12
466.293	121.12
466.512	142.12
466.732	134.12
466.951	143.12
467.171	109.12
467.391	135.12
467.61	129.12
467.829	128.12
468.049	139.12
468.268	141.12
468.488	128.12
468.707	137.12
468.927	134.12
469.146	139.12
469.365	145.12
469.585	133.12
469.804	151.12
470.023	145.12
470.243	138.12
470.462	140.12
470.681	129.12
470.901	133.12
471.12	133.12
471.339	150.12
471.558	150.12
471.777	141.12
471.997	149.12
472.216	135.12
472.435	114.12
472.654	90.12
472.873	114.12
473.092	114.12
473.311	137.12
473.53	127.12
473.749	128.12
473.968	121.12
474.187	113.12
474.406	112.12
474.625	142.12
474.844	135.12
475.063	129.12
475.282	115.12
475.501	106.12
475.72	130.12
475.939	121.12
476.158	121.12
476.377	130.12
476.596	133.12
476.814	109.12
477.033	99.12
477.252	111.12
477.471	130.12
477.69	131.12
477.908	143.12
478.127	127.12
478.346	131.12
478.564	127.12
478.783	149.12
479.002	137.12
479.22	127.12
479.439	125.12
479.658	123.12
479.876	100.12
480.095	101.12
480.313	103.12
480.532	129.12
480.751	112.12
480.969	91.12
481.188	87.12
481.406	80.12
481.624	90.12
481.843	84.12
482.061	96.12
482.28	106.12
482.498	130.12
482.717	116.12
482.935	121.12
483.153	139.12
483.372	152.12
483.59	141.12
483.808	143.12
484.027	139.12
484.245	149.12
484.463	156.12
484.681	157.12
484.9	158.12
485.118	155.12
485.336	131.12
485.554	115.12
485.772	102.12
485.99	111.12
486.209	117.12
486.427	116.12
486.645	135.12
486.863	153.12
487.081	145.12
487.299	130.12
487.517	153.12
487.735	156.12
487.953	194.12
488.171	176.12
488.389	195.12
488.607	158.12
488.825	157.12
489.043	133.12
489.261	150.12
489.479	153.12
489.696	144.12
489.914	133.12
490.132	156.12
490.35	146.12
490.568	149.12
490.786	174.12
491.003	181.12
491.221	171.12
491.439	181.12
491.657	183.12
491.874	211.12
492.092	256.12
492.31	238.12
492.527	225.12
492.745	242.12
492.963	195.12
493.18	202.12
493.398	179.12
493.615	180.12
493.833	179.12
494.05	168.12
494.268	159.12
494.485	182.12
494.703	189.12
494.92	170.12
495.138	198.12
495.355	184.12
495.573	184.12
495.79	175.12
496.008	187.12
496.225	163.12
496.442	170.12
496.66	175.12
496.877	169.12
497.094	175.12
497.312	165.12
497.529	189.12
497.746	148.12
497.963	136.12
498.181	127.12
498.398	117.12
498.615	123.12
498.832	114.12
499.049	145.12
499.267	128.12
499.484	115.12
499.701	126.12
499.918	133.12
500.135	134.12
500.352	149.12
500.569	136.12
500.786	135.12
501.003	147.12
501.22	139.12
501.437	149.12
501.654	143.12
501.871	143.12
502.088	125.12
502.305	116.12
502.522	137.12
502.739	122.12
502.956	130.12
503.172	125.12
503.389	129.12
503.606	123.12
503.823	120.12
504.04	123.12
504.256	134.12
504.473	133.12
504.69	122.12
504.907	129.12
505.123	131.12
505.34	123.12
505.557	135.12
505.773	121.12
505.99	123.12
506.207	122.12
506.423	126.12
506.64	120.12
506.856	111.12
507.073	119.12
507.289	107.12
507.506	117.12
507.722	125.12
507.939	119.12
508.155	138.12
508.372	125.12
508.588	110.12
508.805	121.12
509.021	103.12
509.238	117.12
509.454	101.12
509.67	97.12
509.887	97.12
510.103	98.12
510.319	97.12
510.536	97.12
510.752	93.12
510.968	81.12
511.184	94.12
511.401	84.12
511.617	91.12
