Data from Location6.07152019.Energy5.Lamp.07192019.3%Agarose_HRD10591_16-11-07-395.txt Node
Date: Fri Jul 19 16:11:07 EDT 2019
User: cochatt
Spectrometer: HR+D1059
Trigger mode: 1
Integration Time (sec): 1.000000E-1
Scans to average: 1
Electric dark correction enabled: true
Nonlinearity correction enabled: false
Boxcar width: 0
XAxis mode: Wavelengths
Number of Pixels in Spectrum: 2048
>>>>>Begin Spectral Data<<<<<
223.165	-8.69
223.4	-8.69
223.635	-8.69
223.869	-17.69
224.104	-12.69
224.338	-6.69
224.573	-16.69
224.808	-13.69
225.042	-6.69
225.277	-1.69
225.511	-8.69
225.746	18.31
225.98	12.31
226.215	9.31
226.449	6.31
226.683	13.31
226.918	22.31
227.152	11.31
227.387	36.31
227.621	36.31
227.856	41.31
228.09	47.31
228.324	64.31
228.559	61.31
228.793	56.31
229.027	62.31
229.262	63.31
229.496	78.31
229.73	90.31
229.964	75.31
230.199	76.31
230.433	87.31
230.667	86.31
230.901	78.31
231.136	100.31
231.37	85.31
231.604	78.31
231.838	96.31
232.072	93.31
232.306	72.31
232.541	84.31
232.775	91.31
233.009	74.31
233.243	85.31
233.477	75.31
233.711	83.31
233.945	72.31
234.179	87.31
234.413	89.31
234.647	74.31
234.881	78.31
235.115	82.31
235.349	77.31
235.583	80.31
235.817	78.31
236.051	94.31
236.285	84.31
236.519	78.31
236.753	85.31
236.987	88.31
237.221	95.31
237.455	83.31
237.689	86.31
237.922	91.31
238.156	89.31
238.39	74.31
238.624	84.31
238.858	79.31
239.091	88.31
239.325	81.31
239.559	74.31
239.793	84.31
240.027	75.31
240.26	82.31
240.494	86.31
240.728	98.31
240.961	84.31
241.195	92.31
241.429	75.31
241.662	87.31
241.896	75.31
242.13	78.31
242.363	93.31
242.597	93.31
242.83	90.31
243.064	75.31
243.298	87.31
243.531	77.31
243.765	84.31
243.998	83.31
244.232	83.31
244.465	76.31
244.699	97.31
244.932	83.31
245.166	75.31
245.399	83.31
245.633	80.31
245.866	91.31
246.099	84.31
246.333	81.31
246.566	79.31
246.8	97.31
247.033	69.31
247.266	72.31
247.5	78.31
247.733	72.31
247.966	90.31
248.2	85.31
248.433	82.31
248.666	81.31
248.899	77.31
249.133	85.31
249.366	92.31
249.599	89.31
249.832	87.31
250.066	94.31
250.299	84.31
250.532	87.31
250.765	88.31
250.998	85.31
251.231	72.31
251.465	80.31
251.698	76.31
251.931	84.31
252.164	77.31
252.397	68.31
252.63	85.31
252.863	87.31
253.096	91.31
253.329	94.31
253.562	72.31
253.795	87.31
254.028	98.31
254.261	98.31
254.494	92.31
254.727	80.31
254.96	83.31
255.193	87.31
255.426	75.31
255.659	85.31
255.892	84.31
256.124	93.31
256.357	81.31
256.59	80.31
256.823	88.31
257.056	85.31
257.289	93.31
257.521	84.31
257.754	73.31
257.987	70.31
258.22	88.31
258.452	90.31
258.685	92.31
258.918	90.31
259.151	81.31
259.383	77.31
259.616	81.31
259.849	82.31
260.081	93.31
260.314	88.31
260.547	78.31
260.779	85.31
261.012	95.31
261.244	85.31
261.477	97.31
261.71	91.31
261.942	91.31
262.175	81.31
262.407	72.31
262.64	92.31
262.872	94.31
263.105	93.31
263.337	94.31
263.57	84.31
263.802	93.31
264.035	85.31
264.267	76.31
264.499	84.31
264.732	91.31
264.964	85.31
265.197	86.31
265.429	93.31
265.661	88.31
265.894	95.31
266.126	98.31
266.358	80.31
266.591	80.31
266.823	85.31
267.055	98.31
267.287	93.31
267.52	88.31
267.752	91.31
267.984	95.31
268.216	82.31
268.448	88.31
268.681	90.31
268.913	86.31
269.145	101.31
269.377	78.31
269.609	86.31
269.841	79.31
270.073	90.31
270.306	70.31
270.538	93.31
270.77	88.31
271.002	86.31
271.234	79.31
271.466	78.31
271.698	104.31
271.93	82.31
272.162	86.31
272.394	95.31
272.626	78.31
272.858	92.31
273.09	84.31
273.322	88.31
273.553	83.31
273.785	89.31
274.017	94.31
274.249	82.31
274.481	89.31
274.713	94.31
274.945	97.31
275.176	83.31
275.408	76.31
275.64	90.31
275.872	89.31
276.104	80.31
276.335	79.31
276.567	98.31
276.799	88.31
277.031	82.31
277.262	98.31
277.494	100.31
277.726	97.31
277.957	92.31
278.189	92.31
278.421	95.31
278.652	95.31
278.884	87.31
279.115	80.31
279.347	78.31
279.579	87.31
279.81	84.31
280.042	93.31
280.273	77.31
280.505	89.31
280.736	84.31
280.968	85.31
281.199	75.31
281.431	86.31
281.662	101.31
281.894	90.31
282.125	95.31
282.356	86.31
282.588	94.31
282.819	84.31
283.051	78.31
283.282	78.31
283.513	97.31
283.745	79.31
283.976	89.31
284.207	79.31
284.439	83.31
284.67	100.31
284.901	87.31
285.132	90.31
285.364	78.31
285.595	97.31
285.826	88.31
286.057	82.31
286.288	85.31
286.52	89.31
286.751	93.31
286.982	104.31
287.213	84.31
287.444	89.31
287.675	82.31
287.906	90.31
288.138	79.31
288.369	92.31
288.6	96.31
288.831	84.31
289.062	93.31
289.293	69.31
289.524	108.31
289.755	82.31
289.986	86.31
290.217	83.31
290.448	101.31
290.679	96.31
290.91	87.31
291.141	88.31
291.371	81.31
291.602	88.31
291.833	93.31
292.064	100.31
292.295	84.31
292.526	90.31
292.757	73.31
292.987	93.31
293.218	84.31
293.449	91.31
293.68	91.31
293.91	93.31
294.141	88.31
294.372	83.31
294.603	89.31
294.833	82.31
295.064	97.31
295.295	92.31
295.525	89.31
295.756	93.31
295.987	77.31
296.217	89.31
296.448	95.31
296.679	90.31
296.909	75.31
297.14	81.31
297.37	97.31
297.601	81.31
297.831	86.31
298.062	92.31
298.292	95.31
298.523	83.31
298.753	86.31
298.984	98.31
299.214	88.31
299.445	91.31
299.675	95.31
299.905	96.31
300.136	93.31
300.366	88.31
300.597	96.31
300.827	103.31
301.057	95.31
301.288	105.31
301.518	104.31
301.748	82.31
301.979	93.31
302.209	80.31
302.439	88.31
302.669	98.31
302.9	89.31
303.13	93.31
303.36	96.31
303.59	95.31
303.82	89.31
304.051	92.31
304.281	84.31
304.511	112.31
304.741	93.31
304.971	94.31
305.201	92.31
305.431	96.31
305.661	82.31
305.891	85.31
306.121	88.31
306.352	90.31
306.582	90.31
306.812	81.31
307.042	91.31
307.272	92.31
307.502	82.31
307.731	85.31
307.961	89.31
308.191	92.31
308.421	86.31
308.651	87.31
308.881	91.31
309.111	94.31
309.341	85.31
309.571	89.31
309.8	86.31
310.03	86.31
310.26	80.31
310.49	83.31
310.72	78.31
310.949	83.31
311.179	82.31
311.409	89.31
311.639	88.31
311.868	88.31
312.098	88.31
312.328	94.31
312.557	95.31
312.787	81.31
313.017	82.31
313.246	92.31
313.476	90.31
313.706	104.31
313.935	89.31
314.165	84.31
314.394	92.31
314.624	88.31
314.853	89.31
315.083	105.31
315.312	78.31
315.542	104.31
315.771	109.31
316.001	99.31
316.23	80.31
316.46	82.31
316.689	77.31
316.919	94.31
317.148	89.31
317.377	94.31
317.607	87.31
317.836	97.31
318.065	92.31
318.295	89.31
318.524	86.31
318.753	92.31
318.983	86.31
319.212	89.31
319.441	84.31
319.67	91.31
319.9	92.31
320.129	96.31
320.358	97.31
320.587	93.31
320.816	95.31
321.046	85.31
321.275	98.31
321.504	95.31
321.733	91.31
321.962	85.31
322.191	107.31
322.42	92.31
322.649	95.31
322.878	86.31
323.108	99.31
323.337	81.31
323.566	70.31
323.795	84.31
324.024	90.31
324.253	93.31
324.482	96.31
324.71	88.31
324.939	96.31
325.168	92.31
325.397	93.31
325.626	80.31
325.855	77.31
326.084	80.31
326.313	94.31
326.542	93.31
326.77	87.31
326.999	94.31
327.228	89.31
327.457	95.31
327.686	84.31
327.914	97.31
328.143	87.31
328.372	100.31
328.6	76.31
328.829	89.31
329.058	84.31
329.287	101.31
329.515	87.31
329.744	88.31
329.972	76.31
330.201	88.31
330.43	90.31
330.658	88.31
330.887	82.31
331.115	100.31
331.344	89.31
331.572	80.31
331.801	89.31
332.03	87.31
332.258	90.31
332.486	88.31
332.715	95.31
332.943	92.31
333.172	88.31
333.4	83.31
333.629	91.31
333.857	73.31
334.085	84.31
334.314	94.31
334.542	87.31
334.771	91.31
334.999	95.31
335.227	82.31
335.455	96.31
335.684	82.31
335.912	77.31
336.14	99.31
336.369	85.31
336.597	89.31
336.825	88.31
337.053	103.31
337.281	90.31
337.51	107.31
337.738	96.31
337.966	87.31
338.194	82.31
338.422	77.31
338.65	98.31
338.878	105.31
339.106	97.31
339.334	86.31
339.562	97.31
339.79	67.31
340.018	82.31
340.246	82.31
340.474	90.31
340.702	109.31
340.93	91.31
341.158	92.31
341.386	88.31
341.614	81.31
341.842	83.31
342.07	92.31
342.298	86.31
342.526	85.31
342.754	97.31
342.981	92.31
343.209	85.31
343.437	82.31
343.665	86.31
343.893	96.31
344.12	98.31
344.348	89.31
344.576	89.31
344.804	85.31
345.031	78.31
345.259	80.31
345.487	90.31
345.714	83.31
345.942	84.31
346.17	97.31
346.397	100.31
346.625	98.31
346.853	94.31
347.08	97.31
347.308	95.31
347.535	92.31
347.763	98.31
347.99	92.31
348.218	78.31
348.445	93.31
348.673	90.31
348.9	92.31
349.128	93.31
349.355	99.31
349.583	70.31
349.81	70.31
350.037	97.31
350.265	97.31
350.492	97.31
350.72	80.31
350.947	93.31
351.174	101.31
351.402	88.31
351.629	90.31
351.856	82.31
352.083	88.31
352.311	107.31
352.538	84.31
352.765	78.31
352.992	92.31
353.22	84.31
353.447	78.31
353.674	103.31
353.901	90.31
354.128	89.31
354.355	94.31
354.583	91.31
354.81	86.31
355.037	90.31
355.264	92.31
355.491	86.31
355.718	105.31
355.945	95.31
356.172	91.31
356.399	82.31
356.626	90.31
356.853	91.31
357.08	92.31
357.307	97.31
357.534	84.31
357.761	89.31
357.988	92.31
358.215	88.31
358.441	84.31
358.668	73.31
358.895	79.31
359.122	94.31
359.349	98.31
359.576	86.31
359.802	93.31
360.029	89.31
360.256	98.31
360.483	87.31
360.709	91.31
360.936	91.31
361.163	88.31
361.39	93.31
361.616	92.31
361.843	102.31
362.07	105.31
362.296	94.31
362.523	77.31
362.749	97.31
362.976	76.31
363.203	92.31
363.429	95.31
363.656	111.31
363.882	81.31
364.109	69.31
364.335	89.31
364.562	84.31
364.788	81.31
365.015	86.31
365.241	82.31
365.468	99.31
365.694	106.31
365.92	98.31
366.147	85.31
366.373	86.31
366.599	96.31
366.826	87.31
367.052	81.31
367.278	96.31
367.505	87.31
367.731	91.31
367.957	81.31
368.184	88.31
368.41	100.31
368.636	78.31
368.862	96.31
369.089	78.31
369.315	94.31
369.541	96.31
369.767	101.31
369.993	110.31
370.219	100.31
370.445	89.31
370.672	93.31
370.898	105.31
371.124	93.31
371.35	100.31
371.576	90.31
371.802	97.31
372.028	89.31
372.254	94.31
372.48	100.31
372.706	102.31
372.932	106.31
373.158	87.31
373.384	82.31
373.61	95.31
373.835	111.31
374.061	90.31
374.287	105.31
374.513	91.31
374.739	104.31
374.965	90.31
375.191	103.31
375.416	104.31
375.642	102.31
375.868	112.31
376.094	103.31
376.319	95.31
376.545	92.31
376.771	89.31
376.997	106.31
377.222	123.31
377.448	92.31
377.674	98.31
377.899	93.31
378.125	77.31
378.35	95.31
378.576	96.31
378.802	110.31
379.027	104.31
379.253	98.31
379.478	102.31
379.704	91.31
379.929	104.31
380.155	87.31
380.38	100.31
380.606	101.31
380.831	103.31
381.057	96.31
381.282	105.31
381.507	106.31
381.733	104.31
381.958	103.31
382.184	107.31
382.409	97.31
382.634	94.31
382.86	98.31
383.085	113.31
383.31	106.31
383.535	100.31
383.761	112.31
383.986	100.31
384.211	100.31
384.436	97.31
384.662	85.31
384.887	97.31
385.112	86.31
385.337	102.31
385.562	103.31
385.787	105.31
386.013	119.31
386.238	107.31
386.463	109.31
386.688	110.31
386.913	97.31
387.138	104.31
387.363	103.31
387.588	116.31
387.813	108.31
388.038	101.31
388.263	106.31
388.488	91.31
388.713	107.31
388.938	94.31
389.163	105.31
389.387	109.31
389.612	102.31
389.837	111.31
390.062	111.31
390.287	99.31
390.512	113.31
390.736	123.31
390.961	123.31
391.186	93.31
391.411	111.31
391.636	115.31
391.86	103.31
392.085	106.31
392.31	106.31
392.534	116.31
392.759	103.31
392.984	111.31
393.208	103.31
393.433	121.31
393.658	97.31
393.882	124.31
394.107	99.31
394.331	123.31
394.556	128.31
394.78	117.31
395.005	96.31
395.229	121.31
395.454	125.31
395.678	111.31
395.903	126.31
396.127	119.31
396.352	118.31
396.576	120.31
396.801	112.31
397.025	126.31
397.249	118.31
397.474	113.31
397.698	108.31
397.922	121.31
398.147	114.31
398.371	112.31
398.595	117.31
398.82	107.31
399.044	100.31
399.268	111.31
399.492	120.31
399.717	130.31
399.941	108.31
400.165	117.31
400.389	121.31
400.613	122.31
400.837	127.31
401.062	112.31
401.286	122.31
401.51	116.31
401.734	97.31
401.958	106.31
402.182	113.31
402.406	121.31
402.63	127.31
402.854	125.31
403.078	111.31
403.302	118.31
403.526	121.31
403.75	118.31
403.974	103.31
404.198	118.31
404.422	130.31
404.645	129.31
404.869	130.31
405.093	128.31
405.317	136.31
405.541	127.31
405.765	132.31
405.988	126.31
406.212	133.31
406.436	124.31
406.66	108.31
406.883	126.31
407.107	127.31
407.331	135.31
407.555	126.31
407.778	116.31
408.002	124.31
408.226	135.31
408.449	130.31
408.673	130.31
408.896	125.31
409.12	115.31
409.344	137.31
409.567	109.31
409.791	126.31
410.014	132.31
410.238	135.31
410.461	120.31
410.685	139.31
410.908	136.31
411.132	125.31
411.355	129.31
411.578	133.31
411.802	127.31
412.025	134.31
412.249	136.31
412.472	141.31
412.695	136.31
412.919	140.31
413.142	146.31
413.365	133.31
413.589	130.31
413.812	121.31
414.035	132.31
414.258	112.31
414.482	142.31
414.705	129.31
414.928	134.31
415.151	126.31
415.374	139.31
415.597	116.31
415.821	140.31
416.044	123.31
416.267	116.31
416.49	137.31
416.713	134.31
416.936	129.31
417.159	130.31
417.382	149.31
417.605	138.31
417.828	128.31
418.051	138.31
418.274	132.31
418.497	138.31
418.72	152.31
418.943	124.31
419.166	128.31
419.389	137.31
419.611	142.31
419.834	140.31
420.057	161.31
420.28	147.31
420.503	132.31
420.726	128.31
420.948	141.31
421.171	132.31
421.394	145.31
421.617	150.31
421.839	160.31
422.062	154.31
422.285	138.31
422.507	143.31
422.73	131.31
422.953	139.31
423.175	135.31
423.398	130.31
423.621	142.31
423.843	147.31
424.066	156.31
424.288	149.31
424.511	138.31
424.733	162.31
424.956	151.31
425.178	150.31
425.401	137.31
425.623	150.31
425.846	133.31
426.068	147.31
426.291	126.31
426.513	141.31
426.735	140.31
426.958	140.31
427.18	134.31
427.402	133.31
427.625	132.31
427.847	154.31
428.069	136.31
428.292	149.31
428.514	138.31
428.736	130.31
428.958	118.31
429.181	126.31
429.403	139.31
429.625	133.31
429.847	133.31
430.069	146.31
430.292	140.31
430.514	146.31
430.736	132.31
430.958	122.31
431.18	139.31
431.402	132.31
431.624	129.31
431.846	108.31
432.068	92.31
432.29	94.31
432.512	119.31
432.734	134.31
432.956	126.31
433.178	146.31
433.4	145.31
433.622	150.31
433.844	144.31
434.066	126.31
434.287	126.31
434.509	118.31
434.731	117.31
434.953	123.31
435.175	144.31
435.397	142.31
435.618	121.31
435.84	103.31
436.062	116.31
436.284	121.31
436.505	139.31
436.727	136.31
436.949	143.31
437.17	134.31
437.392	132.31
437.614	138.31
437.835	122.31
438.057	112.31
438.278	128.31
438.5	138.31
438.721	134.31
438.943	144.31
439.165	136.31
439.386	147.31
439.608	140.31
439.829	141.31
440.05	168.31
440.272	160.31
440.493	147.31
440.715	140.31
440.936	147.31
441.158	142.31
441.379	149.31
441.6	155.31
441.822	152.31
442.043	152.31
442.264	141.31
442.486	146.31
442.707	144.31
442.928	147.31
443.149	140.31
443.371	136.31
443.592	144.31
443.813	140.31
444.034	137.31
444.255	146.31
444.476	152.31
444.698	145.31
444.919	152.31
445.14	263.31
445.361	205.31
445.582	152.31
445.803	157.31
446.024	138.31
446.245	160.31
446.466	158.31
446.687	169.31
446.908	174.31
447.129	159.31
447.35	148.31
447.571	153.31
447.792	157.31
448.013	161.31
448.234	158.31
448.455	156.31
448.675	156.31
448.896	141.31
449.117	136.31
449.338	132.31
449.559	130.31
449.779	153.31
450	144.31
450.221	157.31
450.442	136.31
450.662	145.31
450.883	145.31
451.104	139.31
451.324	134.31
451.545	137.31
451.766	134.31
451.986	146.31
452.207	137.31
452.428	135.31
452.648	121.31
452.869	123.31
453.089	129.31
453.31	129.31
453.53	114.31
453.751	116.31
453.971	122.31
454.192	103.31
454.412	116.31
454.633	126.31
454.853	128.31
455.073	130.31
455.294	119.31
455.514	128.31
455.734	127.31
455.955	138.31
456.175	108.31
456.395	129.31
456.616	128.31
456.836	116.31
457.056	104.31
457.276	113.31
457.497	90.31
457.717	117.31
457.937	94.31
458.157	116.31
458.377	124.31
458.598	119.31
458.818	97.31
459.038	91.31
459.258	89.31
459.478	86.31
459.698	95.31
459.918	110.31
460.138	114.31
460.358	132.31
460.578	136.31
460.798	135.31
461.018	119.31
461.238	126.31
461.458	124.31
461.678	113.31
461.898	131.31
462.118	114.31
462.338	125.31
462.558	109.31
462.777	111.31
462.997	127.31
463.217	110.31
463.437	112.31
463.657	124.31
463.876	110.31
464.096	118.31
464.316	114.31
464.536	103.31
464.755	123.31
464.975	124.31
465.195	114.31
465.414	123.31
465.634	112.31
465.854	114.31
466.073	138.31
466.293	138.31
466.512	135.31
466.732	136.31
466.951	137.31
467.171	129.31
467.391	150.31
467.61	133.31
467.829	130.31
468.049	141.31
468.268	143.31
468.488	134.31
468.707	157.31
468.927	141.31
469.146	137.31
469.365	139.31
469.585	134.31
469.804	154.31
470.023	147.31
470.243	155.31
470.462	138.31
470.681	143.31
470.901	136.31
471.12	142.31
471.339	154.31
471.558	156.31
471.777	153.31
471.997	149.31
472.216	133.31
472.435	135.31
472.654	110.31
472.873	123.31
473.092	124.31
473.311	116.31
473.53	138.31
473.749	134.31
473.968	130.31
474.187	114.31
474.406	124.31
474.625	136.31
474.844	144.31
475.063	140.31
475.282	126.31
475.501	123.31
475.72	129.31
475.939	130.31
476.158	133.31
476.377	138.31
476.596	121.31
476.814	122.31
477.033	125.31
477.252	130.31
477.471	147.31
477.69	134.31
477.908	157.31
478.127	163.31
478.346	158.31
478.564	147.31
478.783	138.31
479.002	151.31
479.22	124.31
479.439	127.31
479.658	136.31
479.876	141.31
480.095	119.31
480.313	128.31
480.532	110.31
480.751	124.31
480.969	108.31
481.188	109.31
481.406	108.31
481.624	85.31
481.843	106.31
482.061	113.31
482.28	124.31
482.498	137.31
482.717	120.31
482.935	132.31
483.153	136.31
483.372	165.31
483.59	151.31
483.808	150.31
484.027	141.31
484.245	144.31
484.463	167.31
484.681	175.31
484.9	152.31
485.118	159.31
485.336	143.31
485.554	127.31
485.772	99.31
485.99	110.31
486.209	127.31
486.427	122.31
486.645	126.31
486.863	164.31
487.081	144.31
487.299	143.31
487.517	149.31
487.735	191.31
487.953	198.31
488.171	208.31
488.389	188.31
488.607	177.31
488.825	152.31
489.043	146.31
489.261	146.31
489.479	150.31
489.696	161.31
489.914	164.31
490.132	146.31
490.35	158.31
490.568	160.31
490.786	183.31
491.003	182.31
491.221	196.31
491.439	197.31
491.657	210.31
491.874	220.31
492.092	241.31
492.31	266.31
492.527	260.31
492.745	221.31
492.963	210.31
493.18	193.31
493.398	208.31
493.615	196.31
493.833	182.31
494.05	170.31
494.268	177.31
494.485	182.31
494.703	186.31
494.92	195.31
495.138	193.31
495.355	177.31
495.573	173.31
495.79	185.31
496.008	173.31
496.225	168.31
496.442	184.31
496.66	169.31
496.877	175.31
497.094	182.31
497.312	197.31
497.529	170.31
497.746	163.31
497.963	136.31
498.181	145.31
498.398	132.31
498.615	143.31
498.832	122.31
499.049	124.31
499.267	148.31
499.484	144.31
499.701	143.31
499.918	157.31
500.135	142.31
500.352	145.31
500.569	169.31
500.786	168.31
501.003	162.31
501.22	140.31
501.437	140.31
501.654	135.31
501.871	145.31
502.088	147.31
502.305	152.31
502.522	142.31
502.739	124.31
502.956	125.31
503.172	117.31
503.389	137.31
503.606	132.31
503.823	135.31
504.04	121.31
504.256	128.31
504.473	134.31
504.69	131.31
504.907	139.31
505.123	134.31
505.34	132.31
505.557	130.31
505.773	137.31
505.99	138.31
506.207	136.31
506.423	121.31
506.64	126.31
506.856	117.31
507.073	127.31
507.289	129.31
507.506	120.31
507.722	129.31
507.939	123.31
508.155	122.31
508.372	130.31
508.588	125.31
508.805	120.31
509.021	114.31
509.238	110.31
509.454	115.31
509.67	110.31
509.887	97.31
510.103	97.31
510.319	101.31
510.536	89.31
510.752	101.31
