Data from Location6.07152019.Energy5.Lamp.07192019.3%Agarose_HRD10591_16-12-55-395.txt Node
Date: Fri Jul 19 16:12:55 EDT 2019
User: cochatt
Spectrometer: HR+D1059
Trigger mode: 1
Integration Time (sec): 1.000000E-1
Scans to average: 1
Electric dark correction enabled: true
Nonlinearity correction enabled: false
Boxcar width: 0
XAxis mode: Wavelengths
Number of Pixels in Spectrum: 2048
>>>>>Begin Spectral Data<<<<<
223.165	-24.81
223.4	-24.81
223.635	-24.81
223.869	-22.81
224.104	-15.81
224.338	-0.81
224.573	-7.81
224.808	-15.81
225.042	0.19
225.277	-1.81
225.511	-12.81
225.746	-4.81
225.98	9.19
226.215	7.19
226.449	17.19
226.683	24.19
226.918	22.19
227.152	27.19
227.387	40.19
227.621	36.19
227.856	40.19
228.09	46.19
228.324	52.19
228.559	47.19
228.793	41.19
229.027	58.19
229.262	65.19
229.496	58.19
229.73	76.19
229.964	71.19
230.199	73.19
230.433	61.19
230.667	80.19
230.901	81.19
231.136	78.19
231.37	84.19
231.604	79.19
231.838	84.19
232.072	73.19
232.306	87.19
232.541	72.19
232.775	73.19
233.009	98.19
233.243	72.19
233.477	84.19
233.711	81.19
233.945	83.19
234.179	83.19
234.413	89.19
234.647	79.19
234.881	75.19
235.115	81.19
235.349	84.19
235.583	69.19
235.817	79.19
236.051	75.19
236.285	77.19
236.519	94.19
236.753	64.19
236.987	77.19
237.221	88.19
237.455	66.19
237.689	73.19
237.922	71.19
238.156	74.19
238.39	78.19
238.624	72.19
238.858	73.19
239.091	84.19
239.325	83.19
239.559	69.19
239.793	72.19
240.027	87.19
240.26	81.19
240.494	74.19
240.728	68.19
240.961	70.19
241.195	73.19
241.429	62.19
241.662	69.19
241.896	71.19
242.13	72.19
242.363	58.19
242.597	66.19
242.83	71.19
243.064	64.19
243.298	86.19
243.531	72.19
243.765	67.19
243.998	85.19
244.232	84.19
244.465	60.19
244.699	69.19
244.932	68.19
245.166	78.19
245.399	77.19
245.633	73.19
245.866	80.19
246.099	85.19
246.333	87.19
246.566	64.19
246.8	74.19
247.033	71.19
247.266	78.19
247.5	74.19
247.733	69.19
247.966	72.19
248.2	69.19
248.433	74.19
248.666	80.19
248.899	83.19
249.133	75.19
249.366	61.19
249.599	66.19
249.832	88.19
250.066	73.19
250.299	67.19
250.532	82.19
250.765	64.19
250.998	69.19
251.231	72.19
251.465	85.19
251.698	84.19
251.931	70.19
252.164	88.19
252.397	81.19
252.63	63.19
252.863	65.19
253.096	77.19
253.329	80.19
253.562	79.19
253.795	64.19
254.028	72.19
254.261	84.19
254.494	82.19
254.727	76.19
254.96	72.19
255.193	72.19
255.426	82.19
255.659	78.19
255.892	85.19
256.124	64.19
256.357	82.19
256.59	86.19
256.823	83.19
257.056	89.19
257.289	84.19
257.521	81.19
257.754	57.19
257.987	82.19
258.22	77.19
258.452	81.19
258.685	63.19
258.918	68.19
259.151	76.19
259.383	89.19
259.616	89.19
259.849	88.19
260.081	85.19
260.314	62.19
260.547	79.19
260.779	79.19
261.012	83.19
261.244	82.19
261.477	73.19
261.71	72.19
261.942	84.19
262.175	81.19
262.407	76.19
262.64	70.19
262.872	76.19
263.105	64.19
263.337	87.19
263.57	75.19
263.802	66.19
264.035	78.19
264.267	80.19
264.499	78.19
264.732	92.19
264.964	60.19
265.197	64.19
265.429	66.19
265.661	72.19
265.894	82.19
266.126	78.19
266.358	72.19
266.591	87.19
266.823	81.19
267.055	80.19
267.287	75.19
267.52	80.19
267.752	74.19
267.984	82.19
268.216	64.19
268.448	70.19
268.681	73.19
268.913	81.19
269.145	89.19
269.377	89.19
269.609	73.19
269.841	81.19
270.073	78.19
270.306	74.19
270.538	79.19
270.77	90.19
271.002	86.19
271.234	97.19
271.466	91.19
271.698	87.19
271.93	68.19
272.162	82.19
272.394	73.19
272.626	74.19
272.858	74.19
273.09	75.19
273.322	80.19
273.553	71.19
273.785	90.19
274.017	71.19
274.249	65.19
274.481	71.19
274.713	81.19
274.945	82.19
275.176	81.19
275.408	75.19
275.64	85.19
275.872	72.19
276.104	80.19
276.335	75.19
276.567	66.19
276.799	84.19
277.031	71.19
277.262	76.19
277.494	74.19
277.726	73.19
277.957	77.19
278.189	78.19
278.421	76.19
278.652	73.19
278.884	80.19
279.115	73.19
279.347	80.19
279.579	84.19
279.81	86.19
280.042	79.19
280.273	67.19
280.505	87.19
280.736	65.19
280.968	73.19
281.199	98.19
281.431	79.19
281.662	65.19
281.894	74.19
282.125	92.19
282.356	80.19
282.588	84.19
282.819	86.19
283.051	97.19
283.282	85.19
283.513	73.19
283.745	70.19
283.976	76.19
284.207	74.19
284.439	82.19
284.67	79.19
284.901	90.19
285.132	98.19
285.364	72.19
285.595	69.19
285.826	76.19
286.057	83.19
286.288	76.19
286.52	80.19
286.751	72.19
286.982	81.19
287.213	80.19
287.444	91.19
287.675	79.19
287.906	82.19
288.138	83.19
288.369	66.19
288.6	79.19
288.831	75.19
289.062	78.19
289.293	91.19
289.524	86.19
289.755	81.19
289.986	92.19
290.217	92.19
290.448	82.19
290.679	84.19
290.91	88.19
291.141	78.19
291.371	78.19
291.602	78.19
291.833	74.19
292.064	75.19
292.295	81.19
292.526	69.19
292.757	87.19
292.987	83.19
293.218	79.19
293.449	85.19
293.68	76.19
293.91	73.19
294.141	78.19
294.372	75.19
294.603	90.19
294.833	69.19
295.064	81.19
295.295	75.19
295.525	78.19
295.756	80.19
295.987	72.19
296.217	84.19
296.448	67.19
296.679	86.19
296.909	74.19
297.14	79.19
297.37	76.19
297.601	82.19
297.831	91.19
298.062	78.19
298.292	87.19
298.523	90.19
298.753	73.19
298.984	74.19
299.214	82.19
299.445	93.19
299.675	84.19
299.905	85.19
300.136	82.19
300.366	86.19
300.597	78.19
300.827	70.19
301.057	80.19
301.288	78.19
301.518	78.19
301.748	71.19
301.979	79.19
302.209	85.19
302.439	96.19
302.669	88.19
302.9	76.19
303.13	85.19
303.36	90.19
303.59	80.19
303.82	90.19
304.051	90.19
304.281	71.19
304.511	78.19
304.741	73.19
304.971	77.19
305.201	89.19
305.431	92.19
305.661	96.19
305.891	78.19
306.121	84.19
306.352	74.19
306.582	74.19
306.812	91.19
307.042	78.19
307.272	87.19
307.502	87.19
307.731	87.19
307.961	84.19
308.191	75.19
308.421	81.19
308.651	82.19
308.881	86.19
309.111	84.19
309.341	74.19
309.571	84.19
309.8	64.19
310.03	77.19
310.26	81.19
310.49	91.19
310.72	80.19
310.949	92.19
311.179	69.19
311.409	78.19
311.639	85.19
311.868	83.19
312.098	85.19
312.328	80.19
312.557	84.19
312.787	73.19
313.017	76.19
313.246	78.19
313.476	89.19
313.706	89.19
313.935	72.19
314.165	84.19
314.394	93.19
314.624	84.19
314.853	75.19
315.083	80.19
315.312	91.19
315.542	88.19
315.771	88.19
316.001	72.19
316.23	83.19
316.46	77.19
316.689	76.19
316.919	79.19
317.148	96.19
317.377	85.19
317.607	75.19
317.836	87.19
318.065	93.19
318.295	75.19
318.524	74.19
318.753	80.19
318.983	79.19
319.212	90.19
319.441	78.19
319.67	86.19
319.9	79.19
320.129	79.19
320.358	87.19
320.587	73.19
320.816	78.19
321.046	67.19
321.275	90.19
321.504	78.19
321.733	74.19
321.962	93.19
322.191	87.19
322.42	80.19
322.649	77.19
322.878	87.19
323.108	89.19
323.337	83.19
323.566	94.19
323.795	81.19
324.024	76.19
324.253	76.19
324.482	92.19
324.71	80.19
324.939	95.19
325.168	83.19
325.397	85.19
325.626	89.19
325.855	80.19
326.084	84.19
326.313	89.19
326.542	88.19
326.77	94.19
326.999	76.19
327.228	70.19
327.457	77.19
327.686	94.19
327.914	76.19
328.143	78.19
328.372	85.19
328.6	81.19
328.829	96.19
329.058	85.19
329.287	82.19
329.515	76.19
329.744	88.19
329.972	79.19
330.201	75.19
330.43	84.19
330.658	74.19
330.887	82.19
331.115	69.19
331.344	88.19
331.572	72.19
331.801	83.19
332.03	96.19
332.258	86.19
332.486	91.19
332.715	96.19
332.943	90.19
333.172	74.19
333.4	69.19
333.629	78.19
333.857	87.19
334.085	83.19
334.314	66.19
334.542	76.19
334.771	78.19
334.999	81.19
335.227	80.19
335.455	83.19
335.684	84.19
335.912	82.19
336.14	83.19
336.369	76.19
336.597	85.19
336.825	97.19
337.053	78.19
337.281	78.19
337.51	83.19
337.738	73.19
337.966	81.19
338.194	90.19
338.422	76.19
338.65	89.19
338.878	70.19
339.106	83.19
339.334	88.19
339.562	80.19
339.79	88.19
340.018	88.19
340.246	71.19
340.474	78.19
340.702	77.19
340.93	79.19
341.158	79.19
341.386	80.19
341.614	92.19
341.842	91.19
342.07	87.19
342.298	73.19
342.526	74.19
342.754	81.19
342.981	78.19
343.209	81.19
343.437	78.19
343.665	84.19
343.893	75.19
344.12	96.19
344.348	76.19
344.576	85.19
344.804	82.19
345.031	68.19
345.259	78.19
345.487	71.19
345.714	75.19
345.942	76.19
346.17	74.19
346.397	80.19
346.625	80.19
346.853	73.19
347.08	90.19
347.308	73.19
347.535	86.19
347.763	90.19
347.99	83.19
348.218	78.19
348.445	66.19
348.673	82.19
348.9	90.19
349.128	85.19
349.355	85.19
349.583	87.19
349.81	73.19
350.037	70.19
350.265	79.19
350.492	101.19
350.72	93.19
350.947	72.19
351.174	76.19
351.402	86.19
351.629	80.19
351.856	98.19
352.083	73.19
352.311	83.19
352.538	92.19
352.765	73.19
352.992	78.19
353.22	80.19
353.447	91.19
353.674	80.19
353.901	79.19
354.128	85.19
354.355	82.19
354.583	66.19
354.81	79.19
355.037	73.19
355.264	87.19
355.491	93.19
355.718	71.19
355.945	88.19
356.172	77.19
356.399	92.19
356.626	80.19
356.853	71.19
357.08	75.19
357.307	86.19
357.534	80.19
357.761	96.19
357.988	100.19
358.215	85.19
358.441	79.19
358.668	86.19
358.895	80.19
359.122	64.19
359.349	71.19
359.576	74.19
359.802	77.19
360.029	82.19
360.256	79.19
360.483	81.19
360.709	81.19
360.936	79.19
361.163	74.19
361.39	86.19
361.616	67.19
361.843	82.19
362.07	75.19
362.296	85.19
362.523	75.19
362.749	88.19
362.976	81.19
363.203	76.19
363.429	60.19
363.656	69.19
363.882	75.19
364.109	81.19
364.335	74.19
364.562	80.19
364.788	73.19
365.015	89.19
365.241	74.19
365.468	88.19
365.694	91.19
365.92	96.19
366.147	90.19
366.373	96.19
366.599	86.19
366.826	82.19
367.052	82.19
367.278	81.19
367.505	89.19
367.731	90.19
367.957	81.19
368.184	80.19
368.41	85.19
368.636	83.19
368.862	87.19
369.089	84.19
369.315	85.19
369.541	92.19
369.767	90.19
369.993	93.19
370.219	79.19
370.445	85.19
370.672	92.19
370.898	94.19
371.124	101.19
371.35	92.19
371.576	96.19
371.802	84.19
372.028	87.19
372.254	87.19
372.48	81.19
372.706	69.19
372.932	82.19
373.158	82.19
373.384	92.19
373.61	84.19
373.835	79.19
374.061	88.19
374.287	90.19
374.513	90.19
374.739	88.19
374.965	99.19
375.191	100.19
375.416	86.19
375.642	93.19
375.868	99.19
376.094	96.19
376.319	109.19
376.545	95.19
376.771	87.19
376.997	78.19
377.222	86.19
377.448	99.19
377.674	90.19
377.899	91.19
378.125	87.19
378.35	97.19
378.576	97.19
378.802	87.19
379.027	83.19
379.253	98.19
379.478	95.19
379.704	92.19
379.929	105.19
380.155	96.19
380.38	105.19
380.606	90.19
380.831	78.19
381.057	93.19
381.282	84.19
381.507	88.19
381.733	102.19
381.958	100.19
382.184	104.19
382.409	108.19
382.634	90.19
382.86	98.19
383.085	102.19
383.31	84.19
383.535	104.19
383.761	97.19
383.986	94.19
384.211	104.19
384.436	102.19
384.662	81.19
384.887	91.19
385.112	94.19
385.337	89.19
385.562	92.19
385.787	93.19
386.013	110.19
386.238	94.19
386.463	99.19
386.688	107.19
386.913	101.19
387.138	118.19
387.363	96.19
387.588	94.19
387.813	100.19
388.038	96.19
388.263	94.19
388.488	103.19
388.713	93.19
388.938	88.19
389.163	95.19
389.387	86.19
389.612	99.19
389.837	103.19
390.062	113.19
390.287	102.19
390.512	93.19
390.736	92.19
390.961	87.19
391.186	105.19
391.411	100.19
391.636	111.19
391.86	96.19
392.085	104.19
392.31	109.19
392.534	96.19
392.759	102.19
392.984	120.19
393.208	110.19
393.433	104.19
393.658	99.19
393.882	100.19
394.107	103.19
394.331	111.19
394.556	117.19
394.78	116.19
395.005	105.19
395.229	102.19
395.454	114.19
395.678	111.19
395.903	96.19
396.127	98.19
396.352	110.19
396.576	122.19
396.801	108.19
397.025	113.19
397.249	110.19
397.474	110.19
397.698	117.19
397.922	114.19
398.147	104.19
398.371	118.19
398.595	115.19
398.82	116.19
399.044	101.19
399.268	89.19
399.492	112.19
399.717	124.19
399.941	126.19
400.165	122.19
400.389	109.19
400.613	96.19
400.837	110.19
401.062	105.19
401.286	96.19
401.51	118.19
401.734	115.19
401.958	116.19
402.182	101.19
402.406	100.19
402.63	112.19
402.854	112.19
403.078	119.19
403.302	101.19
403.526	93.19
403.75	116.19
403.974	120.19
404.198	120.19
404.422	116.19
404.645	118.19
404.869	109.19
405.093	114.19
405.317	114.19
405.541	114.19
405.765	133.19
405.988	121.19
406.212	114.19
406.436	117.19
406.66	134.19
406.883	119.19
407.107	117.19
407.331	105.19
407.555	106.19
407.778	112.19
408.002	131.19
408.226	117.19
408.449	123.19
408.673	111.19
408.896	119.19
409.12	130.19
409.344	116.19
409.567	116.19
409.791	120.19
410.014	99.19
410.238	118.19
410.461	111.19
410.685	118.19
410.908	120.19
411.132	117.19
411.355	128.19
411.578	119.19
411.802	117.19
412.025	103.19
412.249	124.19
412.472	120.19
412.695	116.19
412.919	127.19
413.142	120.19
413.365	122.19
413.589	124.19
413.812	134.19
414.035	118.19
414.258	116.19
414.482	129.19
414.705	126.19
414.928	125.19
415.151	122.19
415.374	121.19
415.597	137.19
415.821	128.19
416.044	127.19
416.267	112.19
416.49	119.19
416.713	118.19
416.936	129.19
417.159	128.19
417.382	125.19
417.605	116.19
417.828	142.19
418.051	134.19
418.274	136.19
418.497	149.19
418.72	132.19
418.943	138.19
419.166	128.19
419.389	129.19
419.611	142.19
419.834	131.19
420.057	130.19
420.28	138.19
420.503	149.19
420.726	137.19
420.948	130.19
421.171	128.19
421.394	138.19
421.617	146.19
421.839	140.19
422.062	152.19
422.285	139.19
422.507	147.19
422.73	139.19
422.953	128.19
423.175	127.19
423.398	136.19
423.621	137.19
423.843	122.19
424.066	144.19
424.288	140.19
424.511	148.19
424.733	155.19
424.956	164.19
425.178	142.19
425.401	148.19
425.623	116.19
425.846	119.19
426.068	135.19
426.291	135.19
426.513	130.19
426.735	143.19
426.958	129.19
427.18	133.19
427.402	151.19
427.625	125.19
427.847	135.19
428.069	131.19
428.292	114.19
428.514	134.19
428.736	115.19
428.958	121.19
429.181	131.19
429.403	136.19
429.625	138.19
429.847	130.19
430.069	126.19
430.292	125.19
430.514	132.19
430.736	137.19
430.958	146.19
431.18	129.19
431.402	130.19
431.624	125.19
431.846	116.19
432.068	102.19
432.29	103.19
432.512	109.19
432.734	117.19
432.956	128.19
433.178	144.19
433.4	151.19
433.622	145.19
433.844	142.19
434.066	123.19
434.287	112.19
434.509	109.19
434.731	114.19
434.953	118.19
435.175	104.19
435.397	122.19
435.618	128.19
435.84	115.19
436.062	99.19
436.284	121.19
436.505	138.19
436.727	130.19
436.949	137.19
437.17	138.19
437.392	125.19
437.614	117.19
437.835	119.19
438.057	96.19
438.278	111.19
438.5	137.19
438.721	138.19
438.943	132.19
439.165	133.19
439.386	146.19
439.608	142.19
439.829	144.19
440.05	164.19
440.272	149.19
440.493	134.19
440.715	150.19
440.936	141.19
441.158	151.19
441.379	152.19
441.6	141.19
441.822	147.19
442.043	149.19
442.264	149.19
442.486	153.19
442.707	137.19
442.928	120.19
443.149	127.19
443.371	135.19
443.592	137.19
443.813	142.19
444.034	132.19
444.255	144.19
444.476	136.19
444.698	137.19
444.919	150.19
445.14	266.19
445.361	192.19
445.582	145.19
445.803	135.19
446.024	136.19
446.245	154.19
446.466	150.19
446.687	151.19
446.908	162.19
447.129	159.19
447.35	163.19
447.571	153.19
447.792	151.19
448.013	140.19
448.234	146.19
448.455	140.19
448.675	151.19
448.896	148.19
449.117	132.19
449.338	146.19
449.559	136.19
449.779	138.19
450	137.19
450.221	132.19
450.442	147.19
450.662	128.19
450.883	133.19
451.104	142.19
451.324	146.19
451.545	135.19
451.766	144.19
451.986	133.19
452.207	123.19
452.428	124.19
452.648	137.19
452.869	113.19
453.089	103.19
453.31	103.19
453.53	107.19
453.751	102.19
453.971	97.19
454.192	96.19
454.412	116.19
454.633	112.19
454.853	109.19
455.073	115.19
455.294	117.19
455.514	128.19
455.734	137.19
455.955	111.19
456.175	128.19
456.395	115.19
456.616	105.19
456.836	92.19
457.056	112.19
457.276	114.19
457.497	102.19
457.717	108.19
457.937	118.19
458.157	119.19
458.377	108.19
458.598	86.19
458.818	96.19
459.038	79.19
459.258	77.19
459.478	86.19
459.698	88.19
459.918	87.19
460.138	105.19
460.358	125.19
460.578	120.19
460.798	115.19
461.018	122.19
461.238	124.19
461.458	130.19
461.678	114.19
461.898	109.19
462.118	119.19
462.338	113.19
462.558	112.19
462.777	130.19
462.997	112.19
463.217	90.19
463.437	113.19
463.657	124.19
463.876	104.19
464.096	111.19
464.316	114.19
464.536	117.19
464.755	125.19
464.975	120.19
465.195	116.19
465.414	111.19
465.634	118.19
465.854	124.19
466.073	140.19
466.293	126.19
466.512	105.19
466.732	128.19
466.951	115.19
467.171	123.19
467.391	124.19
467.61	134.19
467.829	138.19
468.049	144.19
468.268	124.19
468.488	147.19
468.707	136.19
468.927	146.19
469.146	143.19
469.365	159.19
469.585	129.19
469.804	140.19
470.023	136.19
470.243	138.19
470.462	145.19
470.681	136.19
470.901	158.19
471.12	158.19
471.339	139.19
471.558	151.19
471.777	152.19
471.997	134.19
472.216	124.19
472.435	124.19
472.654	102.19
472.873	131.19
473.092	104.19
473.311	123.19
473.53	134.19
473.749	111.19
473.968	124.19
474.187	121.19
474.406	110.19
474.625	116.19
474.844	136.19
475.063	131.19
475.282	128.19
475.501	124.19
475.72	116.19
475.939	122.19
476.158	146.19
476.377	130.19
476.596	119.19
476.814	120.19
477.033	104.19
477.252	124.19
477.471	114.19
477.69	134.19
477.908	128.19
478.127	142.19
478.346	145.19
478.564	131.19
478.783	142.19
479.002	137.19
479.22	152.19
479.439	142.19
479.658	124.19
479.876	116.19
480.095	115.19
480.313	123.19
480.532	130.19
480.751	123.19
480.969	92.19
481.188	91.19
481.406	89.19
481.624	84.19
481.843	74.19
482.061	97.19
482.28	112.19
482.498	126.19
482.717	120.19
482.935	128.19
483.153	124.19
483.372	157.19
483.59	161.19
483.808	134.19
484.027	120.19
484.245	139.19
484.463	154.19
484.681	168.19
484.9	153.19
485.118	155.19
485.336	124.19
485.554	111.19
485.772	111.19
485.99	100.19
486.209	119.19
486.427	112.19
486.645	113.19
486.863	131.19
487.081	133.19
487.299	145.19
487.517	133.19
487.735	188.19
487.953	198.19
488.171	192.19
488.389	180.19
488.607	168.19
488.825	161.19
489.043	141.19
489.261	143.19
489.479	157.19
489.696	143.19
489.914	161.19
490.132	154.19
490.35	176.19
490.568	164.19
490.786	157.19
491.003	190.19
491.221	182.19
491.439	194.19
491.657	198.19
491.874	231.19
492.092	248.19
492.31	270.19
492.527	258.19
492.745	208.19
492.963	208.19
493.18	200.19
493.398	183.19
493.615	191.19
493.833	186.19
494.05	172.19
494.268	168.19
494.485	181.19
494.703	188.19
494.92	161.19
495.138	183.19
495.355	182.19
495.573	159.19
495.79	168.19
496.008	170.19
496.225	182.19
496.442	164.19
496.66	172.19
496.877	160.19
497.094	172.19
497.312	146.19
497.529	174.19
497.746	142.19
497.963	153.19
498.181	122.19
498.398	141.19
498.615	115.19
498.832	123.19
499.049	105.19
499.267	109.19
499.484	111.19
499.701	121.19
499.918	124.19
500.135	146.19
500.352	143.19
500.569	149.19
500.786	153.19
501.003	145.19
501.22	148.19
501.437	153.19
501.654	137.19
501.871	144.19
502.088	121.19
502.305	132.19
502.522	136.19
502.739	140.19
502.956	129.19
503.172	132.19
503.389	121.19
503.606	111.19
503.823	110.19
504.04	130.19
504.256	133.19
504.473	130.19
504.69	121.19
504.907	134.19
505.123	118.19
505.34	122.19
505.557	116.19
505.773	100.19
505.99	122.19
506.207	114.19
506.423	123.19
506.64	128.19
506.856	126.19
507.073	129.19
507.289	126.19
507.506	117.19
507.722	121.19
507.939	131.19
508.155	118.19
508.372	103.19
508.588	120.19
508.805	121.19
509.021	104.19
509.238	113.19
509.454	97.19
509.67	101.19
509.887	103.19
510.103	94.19
510.319	93.19
510.536	91.19
510.752	93.19
510.968	93.19
511.184	79.19
511.401	87.19
511.617	88.19
511.833	70.19
