Data from Location6.07152019.Energy5.Lamp.07192019.3%Agarose_HRD10591_16-13-16-396.txt Node
Date: Fri Jul 19 16:13:16 EDT 2019
User: cochatt
Spectrometer: HR+D1059
Trigger mode: 1
Integration Time (sec): 1.000000E-1
Scans to average: 1
Electric dark correction enabled: true
Nonlinearity correction enabled: false
Boxcar width: 0
XAxis mode: Wavelengths
Number of Pixels in Spectrum: 2048
>>>>>Begin Spectral Data<<<<<
223.165	-17.69
223.4	-17.69
223.635	-17.69
223.869	-10.69
224.104	-17.69
224.338	-12.69
224.573	-22.69
224.808	-24.69
225.042	-12.69
225.277	-21.69
225.511	6.31
225.746	4.31
225.98	4.31
226.215	20.31
226.449	9.31
226.683	26.31
226.918	29.31
227.152	40.31
227.387	29.31
227.621	40.31
227.856	33.31
228.09	42.31
228.324	58.31
228.559	57.31
228.793	61.31
229.027	67.31
229.262	53.31
229.496	72.31
229.73	76.31
229.964	63.31
230.199	89.31
230.433	83.31
230.667	80.31
230.901	75.31
231.136	77.31
231.37	75.31
231.604	68.31
231.838	67.31
232.072	86.31
232.306	75.31
232.541	99.31
232.775	78.31
233.009	90.31
233.243	81.31
233.477	84.31
233.711	88.31
233.945	85.31
234.179	92.31
234.413	86.31
234.647	79.31
234.881	79.31
235.115	84.31
235.349	88.31
235.583	78.31
235.817	90.31
236.051	79.31
236.285	83.31
236.519	69.31
236.753	86.31
236.987	87.31
237.221	67.31
237.455	81.31
237.689	74.31
237.922	77.31
238.156	83.31
238.39	60.31
238.624	88.31
238.858	84.31
239.091	77.31
239.325	71.31
239.559	88.31
239.793	78.31
240.027	88.31
240.26	75.31
240.494	80.31
240.728	80.31
240.961	72.31
241.195	73.31
241.429	78.31
241.662	73.31
241.896	68.31
242.13	85.31
242.363	86.31
242.597	74.31
242.83	79.31
243.064	85.31
243.298	72.31
243.531	74.31
243.765	74.31
243.998	83.31
244.232	70.31
244.465	82.31
244.699	74.31
244.932	75.31
245.166	77.31
245.399	88.31
245.633	79.31
245.866	87.31
246.099	70.31
246.333	71.31
246.566	71.31
246.8	81.31
247.033	68.31
247.266	81.31
247.5	94.31
247.733	93.31
247.966	80.31
248.2	79.31
248.433	70.31
248.666	72.31
248.899	86.31
249.133	75.31
249.366	91.31
249.599	96.31
249.832	86.31
250.066	83.31
250.299	79.31
250.532	80.31
250.765	83.31
250.998	73.31
251.231	73.31
251.465	83.31
251.698	81.31
251.931	84.31
252.164	84.31
252.397	64.31
252.63	68.31
252.863	75.31
253.096	84.31
253.329	82.31
253.562	88.31
253.795	80.31
254.028	72.31
254.261	86.31
254.494	75.31
254.727	83.31
254.96	69.31
255.193	66.31
255.426	91.31
255.659	78.31
255.892	70.31
256.124	73.31
256.357	88.31
256.59	86.31
256.823	62.31
257.056	80.31
257.289	85.31
257.521	80.31
257.754	72.31
257.987	80.31
258.22	79.31
258.452	79.31
258.685	82.31
258.918	88.31
259.151	71.31
259.383	70.31
259.616	79.31
259.849	80.31
260.081	83.31
260.314	82.31
260.547	78.31
260.779	81.31
261.012	80.31
261.244	60.31
261.477	78.31
261.71	68.31
261.942	66.31
262.175	95.31
262.407	76.31
262.64	86.31
262.872	78.31
263.105	93.31
263.337	71.31
263.57	83.31
263.802	100.31
264.035	92.31
264.267	74.31
264.499	91.31
264.732	86.31
264.964	79.31
265.197	81.31
265.429	84.31
265.661	68.31
265.894	93.31
266.126	82.31
266.358	76.31
266.591	89.31
266.823	82.31
267.055	93.31
267.287	91.31
267.52	89.31
267.752	88.31
267.984	87.31
268.216	74.31
268.448	81.31
268.681	82.31
268.913	80.31
269.145	80.31
269.377	72.31
269.609	84.31
269.841	86.31
270.073	92.31
270.306	78.31
270.538	76.31
270.77	74.31
271.002	69.31
271.234	83.31
271.466	81.31
271.698	96.31
271.93	88.31
272.162	100.31
272.394	82.31
272.626	79.31
272.858	74.31
273.09	79.31
273.322	83.31
273.553	90.31
273.785	99.31
274.017	80.31
274.249	87.31
274.481	102.31
274.713	82.31
274.945	92.31
275.176	83.31
275.408	80.31
275.64	93.31
275.872	84.31
276.104	98.31
276.335	80.31
276.567	80.31
276.799	88.31
277.031	91.31
277.262	83.31
277.494	80.31
277.726	85.31
277.957	81.31
278.189	89.31
278.421	96.31
278.652	89.31
278.884	94.31
279.115	87.31
279.347	80.31
279.579	71.31
279.81	78.31
280.042	76.31
280.273	86.31
280.505	90.31
280.736	71.31
280.968	78.31
281.199	92.31
281.431	83.31
281.662	87.31
281.894	82.31
282.125	76.31
282.356	89.31
282.588	88.31
282.819	80.31
283.051	73.31
283.282	91.31
283.513	95.31
283.745	85.31
283.976	90.31
284.207	89.31
284.439	80.31
284.67	99.31
284.901	91.31
285.132	87.31
285.364	101.31
285.595	87.31
285.826	89.31
286.057	98.31
286.288	89.31
286.52	81.31
286.751	74.31
286.982	83.31
287.213	84.31
287.444	94.31
287.675	79.31
287.906	87.31
288.138	102.31
288.369	92.31
288.6	80.31
288.831	91.31
289.062	87.31
289.293	90.31
289.524	95.31
289.755	82.31
289.986	86.31
290.217	98.31
290.448	82.31
290.679	89.31
290.91	96.31
291.141	84.31
291.371	86.31
291.602	91.31
291.833	87.31
292.064	87.31
292.295	83.31
292.526	93.31
292.757	84.31
292.987	79.31
293.218	74.31
293.449	77.31
293.68	93.31
293.91	87.31
294.141	93.31
294.372	82.31
294.603	97.31
294.833	70.31
295.064	86.31
295.295	81.31
295.525	80.31
295.756	99.31
295.987	93.31
296.217	75.31
296.448	84.31
296.679	92.31
296.909	87.31
297.14	88.31
297.37	75.31
297.601	79.31
297.831	80.31
298.062	76.31
298.292	90.31
298.523	83.31
298.753	90.31
298.984	78.31
299.214	88.31
299.445	94.31
299.675	90.31
299.905	86.31
300.136	84.31
300.366	86.31
300.597	94.31
300.827	95.31
301.057	88.31
301.288	79.31
301.518	86.31
301.748	92.31
301.979	74.31
302.209	100.31
302.439	60.31
302.669	74.31
302.9	90.31
303.13	85.31
303.36	80.31
303.59	85.31
303.82	105.31
304.051	93.31
304.281	92.31
304.511	88.31
304.741	83.31
304.971	90.31
305.201	102.31
305.431	91.31
305.661	81.31
305.891	88.31
306.121	92.31
306.352	97.31
306.582	80.31
306.812	84.31
307.042	87.31
307.272	94.31
307.502	86.31
307.731	79.31
307.961	94.31
308.191	81.31
308.421	68.31
308.651	84.31
308.881	83.31
309.111	90.31
309.341	83.31
309.571	80.31
309.8	90.31
310.03	91.31
310.26	92.31
310.49	98.31
310.72	91.31
310.949	82.31
311.179	80.31
311.409	89.31
311.639	75.31
311.868	85.31
312.098	72.31
312.328	76.31
312.557	84.31
312.787	77.31
313.017	78.31
313.246	90.31
313.476	86.31
313.706	83.31
313.935	76.31
314.165	84.31
314.394	87.31
314.624	92.31
314.853	99.31
315.083	86.31
315.312	83.31
315.542	78.31
315.771	85.31
316.001	79.31
316.23	86.31
316.46	86.31
316.689	89.31
316.919	95.31
317.148	83.31
317.377	92.31
317.607	93.31
317.836	91.31
318.065	88.31
318.295	73.31
318.524	81.31
318.753	92.31
318.983	87.31
319.212	88.31
319.441	90.31
319.67	88.31
319.9	85.31
320.129	91.31
320.358	80.31
320.587	85.31
320.816	86.31
321.046	83.31
321.275	99.31
321.504	87.31
321.733	91.31
321.962	94.31
322.191	93.31
322.42	87.31
322.649	95.31
322.878	85.31
323.108	80.31
323.337	100.31
323.566	93.31
323.795	79.31
324.024	89.31
324.253	102.31
324.482	84.31
324.71	78.31
324.939	86.31
325.168	81.31
325.397	94.31
325.626	64.31
325.855	92.31
326.084	84.31
326.313	85.31
326.542	88.31
326.77	66.31
326.999	88.31
327.228	99.31
327.457	71.31
327.686	91.31
327.914	91.31
328.143	82.31
328.372	88.31
328.6	86.31
328.829	76.31
329.058	92.31
329.287	83.31
329.515	78.31
329.744	82.31
329.972	82.31
330.201	78.31
330.43	80.31
330.658	80.31
330.887	91.31
331.115	86.31
331.344	90.31
331.572	93.31
331.801	90.31
332.03	69.31
332.258	103.31
332.486	92.31
332.715	99.31
332.943	70.31
333.172	92.31
333.4	83.31
333.629	91.31
333.857	80.31
334.085	80.31
334.314	94.31
334.542	76.31
334.771	86.31
334.999	92.31
335.227	91.31
335.455	86.31
335.684	87.31
335.912	101.31
336.14	77.31
336.369	86.31
336.597	85.31
336.825	82.31
337.053	78.31
337.281	74.31
337.51	75.31
337.738	81.31
337.966	75.31
338.194	77.31
338.422	92.31
338.65	93.31
338.878	90.31
339.106	89.31
339.334	81.31
339.562	87.31
339.79	101.31
340.018	89.31
340.246	90.31
340.474	91.31
340.702	81.31
340.93	88.31
341.158	93.31
341.386	88.31
341.614	84.31
341.842	100.31
342.07	84.31
342.298	83.31
342.526	96.31
342.754	89.31
342.981	86.31
343.209	84.31
343.437	83.31
343.665	91.31
343.893	86.31
344.12	97.31
344.348	92.31
344.576	77.31
344.804	87.31
345.031	83.31
345.259	87.31
345.487	88.31
345.714	71.31
345.942	84.31
346.17	84.31
346.397	106.31
346.625	88.31
346.853	90.31
347.08	80.31
347.308	91.31
347.535	97.31
347.763	93.31
347.99	103.31
348.218	88.31
348.445	89.31
348.673	93.31
348.9	79.31
349.128	88.31
349.355	94.31
349.583	90.31
349.81	82.31
350.037	76.31
350.265	97.31
350.492	84.31
350.72	88.31
350.947	90.31
351.174	99.31
351.402	84.31
351.629	87.31
351.856	90.31
352.083	87.31
352.311	93.31
352.538	76.31
352.765	86.31
352.992	94.31
353.22	91.31
353.447	93.31
353.674	88.31
353.901	88.31
354.128	74.31
354.355	90.31
354.583	98.31
354.81	85.31
355.037	78.31
355.264	89.31
355.491	85.31
355.718	92.31
355.945	83.31
356.172	82.31
356.399	100.31
356.626	81.31
356.853	76.31
357.08	95.31
357.307	74.31
357.534	77.31
357.761	82.31
357.988	93.31
358.215	90.31
358.441	91.31
358.668	88.31
358.895	91.31
359.122	74.31
359.349	86.31
359.576	93.31
359.802	86.31
360.029	85.31
360.256	86.31
360.483	88.31
360.709	98.31
360.936	81.31
361.163	99.31
361.39	87.31
361.616	90.31
361.843	89.31
362.07	99.31
362.296	90.31
362.523	89.31
362.749	74.31
362.976	64.31
363.203	79.31
363.429	87.31
363.656	82.31
363.882	97.31
364.109	103.31
364.335	92.31
364.562	88.31
364.788	90.31
365.015	87.31
365.241	90.31
365.468	99.31
365.694	104.31
365.92	86.31
366.147	92.31
366.373	86.31
366.599	87.31
366.826	91.31
367.052	93.31
367.278	90.31
367.505	89.31
367.731	89.31
367.957	92.31
368.184	82.31
368.41	78.31
368.636	93.31
368.862	93.31
369.089	84.31
369.315	92.31
369.541	89.31
369.767	87.31
369.993	85.31
370.219	88.31
370.445	114.31
370.672	100.31
370.898	90.31
371.124	95.31
371.35	88.31
371.576	95.31
371.802	106.31
372.028	95.31
372.254	101.31
372.48	104.31
372.706	114.31
372.932	91.31
373.158	84.31
373.384	91.31
373.61	95.31
373.835	100.31
374.061	103.31
374.287	104.31
374.513	87.31
374.739	91.31
374.965	94.31
375.191	86.31
375.416	87.31
375.642	80.31
375.868	97.31
376.094	96.31
376.319	92.31
376.545	104.31
376.771	94.31
376.997	91.31
377.222	89.31
377.448	99.31
377.674	100.31
377.899	108.31
378.125	100.31
378.35	103.31
378.576	95.31
378.802	92.31
379.027	105.31
379.253	99.31
379.478	106.31
379.704	94.31
379.929	94.31
380.155	100.31
380.38	111.31
380.606	92.31
380.831	89.31
381.057	91.31
381.282	110.31
381.507	87.31
381.733	103.31
381.958	103.31
382.184	102.31
382.409	84.31
382.634	117.31
382.86	98.31
383.085	94.31
383.31	82.31
383.535	97.31
383.761	101.31
383.986	106.31
384.211	90.31
384.436	107.31
384.662	105.31
384.887	98.31
385.112	88.31
385.337	91.31
385.562	103.31
385.787	101.31
386.013	110.31
386.238	110.31
386.463	103.31
386.688	119.31
386.913	120.31
387.138	98.31
387.363	102.31
387.588	111.31
387.813	118.31
388.038	97.31
388.263	89.31
388.488	100.31
388.713	106.31
388.938	98.31
389.163	124.31
389.387	120.31
389.612	103.31
389.837	120.31
390.062	99.31
390.287	118.31
390.512	120.31
390.736	114.31
390.961	101.31
391.186	100.31
391.411	107.31
391.636	117.31
391.86	103.31
392.085	103.31
392.31	111.31
392.534	104.31
392.759	110.31
392.984	113.31
393.208	116.31
393.433	132.31
393.658	123.31
393.882	113.31
394.107	124.31
394.331	113.31
394.556	118.31
394.78	125.31
395.005	111.31
395.229	104.31
395.454	104.31
395.678	105.31
395.903	123.31
396.127	111.31
396.352	110.31
396.576	121.31
396.801	99.31
397.025	116.31
397.249	127.31
397.474	126.31
397.698	118.31
397.922	122.31
398.147	100.31
398.371	116.31
398.595	125.31
398.82	118.31
399.044	117.31
399.268	115.31
399.492	102.31
399.717	103.31
399.941	118.31
400.165	127.31
400.389	102.31
400.613	103.31
400.837	110.31
401.062	124.31
401.286	136.31
401.51	126.31
401.734	112.31
401.958	116.31
402.182	124.31
402.406	106.31
402.63	122.31
402.854	135.31
403.078	111.31
403.302	121.31
403.526	118.31
403.75	118.31
403.974	115.31
404.198	122.31
404.422	124.31
404.645	123.31
404.869	118.31
405.093	137.31
405.317	120.31
405.541	118.31
405.765	124.31
405.988	127.31
406.212	130.31
406.436	124.31
406.66	131.31
406.883	126.31
407.107	139.31
407.331	120.31
407.555	124.31
407.778	104.31
408.002	130.31
408.226	126.31
408.449	132.31
408.673	122.31
408.896	126.31
409.12	122.31
409.344	113.31
409.567	128.31
409.791	115.31
410.014	128.31
410.238	119.31
410.461	131.31
410.685	134.31
410.908	115.31
411.132	132.31
411.355	130.31
411.578	124.31
411.802	133.31
412.025	110.31
412.249	134.31
412.472	130.31
412.695	144.31
412.919	124.31
413.142	142.31
413.365	129.31
413.589	126.31
413.812	129.31
414.035	128.31
414.258	128.31
414.482	138.31
414.705	132.31
414.928	138.31
415.151	135.31
415.374	134.31
415.597	140.31
415.821	140.31
416.044	111.31
416.267	116.31
416.49	130.31
416.713	134.31
416.936	132.31
417.159	118.31
417.382	127.31
417.605	128.31
417.828	151.31
418.051	134.31
418.274	132.31
418.497	137.31
418.72	141.31
418.943	141.31
419.166	144.31
419.389	145.31
419.611	148.31
419.834	146.31
420.057	133.31
420.28	154.31
420.503	132.31
420.726	143.31
420.948	127.31
421.171	151.31
421.394	131.31
421.617	162.31
421.839	148.31
422.062	145.31
422.285	141.31
422.507	129.31
422.73	130.31
422.953	135.31
423.175	134.31
423.398	136.31
423.621	141.31
423.843	135.31
424.066	141.31
424.288	147.31
424.511	156.31
424.733	158.31
424.956	136.31
425.178	134.31
425.401	165.31
425.623	152.31
425.846	144.31
426.068	147.31
426.291	142.31
426.513	137.31
426.735	141.31
426.958	149.31
427.18	127.31
427.402	136.31
427.625	146.31
427.847	135.31
428.069	128.31
428.292	151.31
428.514	123.31
428.736	130.31
428.958	146.31
429.181	139.31
429.403	136.31
429.625	149.31
429.847	136.31
430.069	119.31
430.292	142.31
430.514	127.31
430.736	134.31
430.958	135.31
431.18	134.31
431.402	143.31
431.624	122.31
431.846	120.31
432.068	102.31
432.29	99.31
432.512	113.31
432.734	131.31
432.956	131.31
433.178	146.31
433.4	143.31
433.622	150.31
433.844	140.31
434.066	126.31
434.287	105.31
434.509	105.31
434.731	95.31
434.953	116.31
435.175	130.31
435.397	142.31
435.618	141.31
435.84	121.31
436.062	124.31
436.284	136.31
436.505	150.31
436.727	143.31
436.949	132.31
437.17	139.31
437.392	134.31
437.614	142.31
437.835	124.31
438.057	119.31
438.278	115.31
438.5	125.31
438.721	134.31
438.943	164.31
439.165	141.31
439.386	131.31
439.608	160.31
439.829	168.31
440.05	147.31
440.272	157.31
440.493	156.31
440.715	156.31
440.936	156.31
441.158	156.31
441.379	147.31
441.6	147.31
441.822	155.31
442.043	153.31
442.264	156.31
442.486	142.31
442.707	153.31
442.928	162.31
443.149	138.31
443.371	142.31
443.592	138.31
443.813	151.31
444.034	138.31
444.255	134.31
444.476	149.31
444.698	167.31
444.919	154.31
445.14	272.31
445.361	200.31
445.582	181.31
445.803	162.31
446.024	145.31
446.245	151.31
446.466	163.31
446.687	174.31
446.908	160.31
447.129	163.31
447.35	162.31
447.571	171.31
447.792	160.31
448.013	158.31
448.234	149.31
448.455	142.31
448.675	154.31
448.896	158.31
449.117	165.31
449.338	145.31
449.559	151.31
449.779	148.31
450	150.31
450.221	131.31
450.442	131.31
450.662	133.31
450.883	130.31
451.104	148.31
451.324	141.31
451.545	130.31
451.766	140.31
451.986	126.31
452.207	133.31
452.428	137.31
452.648	142.31
452.869	119.31
453.089	128.31
453.31	129.31
453.53	124.31
453.751	106.31
453.971	114.31
454.192	100.31
454.412	116.31
454.633	109.31
454.853	138.31
455.073	126.31
455.294	138.31
455.514	141.31
455.734	132.31
455.955	128.31
456.175	121.31
456.395	116.31
456.616	124.31
456.836	110.31
457.056	108.31
457.276	94.31
457.497	120.31
457.717	122.31
457.937	119.31
458.157	100.31
458.377	114.31
458.598	120.31
458.818	97.31
459.038	108.31
459.258	92.31
459.478	94.31
459.698	91.31
459.918	98.31
460.138	120.31
460.358	123.31
460.578	114.31
460.798	126.31
461.018	113.31
461.238	130.31
461.458	143.31
461.678	117.31
461.898	118.31
462.118	115.31
462.338	122.31
462.558	128.31
462.777	128.31
462.997	120.31
463.217	116.31
463.437	123.31
463.657	127.31
463.876	120.31
464.096	103.31
464.316	126.31
464.536	126.31
464.755	130.31
464.975	109.31
465.195	118.31
465.414	123.31
465.634	118.31
465.854	122.31
466.073	118.31
466.293	128.31
466.512	142.31
466.732	144.31
466.951	149.31
467.171	136.31
467.391	136.31
467.61	142.31
467.829	133.31
468.049	151.31
468.268	147.31
468.488	147.31
468.707	142.31
468.927	123.31
469.146	137.31
469.365	149.31
469.585	141.31
469.804	159.31
470.023	133.31
470.243	154.31
470.462	148.31
470.681	147.31
470.901	148.31
471.12	152.31
471.339	154.31
471.558	152.31
471.777	132.31
471.997	142.31
472.216	140.31
472.435	111.31
472.654	109.31
472.873	120.31
473.092	134.31
473.311	141.31
473.53	134.31
473.749	140.31
473.968	142.31
474.187	139.31
474.406	124.31
474.625	142.31
474.844	131.31
475.063	147.31
475.282	132.31
475.501	110.31
475.72	130.31
475.939	131.31
476.158	139.31
476.377	136.31
476.596	125.31
476.814	126.31
477.033	109.31
477.252	103.31
477.471	133.31
477.69	142.31
477.908	143.31
478.127	156.31
478.346	144.31
478.564	143.31
478.783	139.31
479.002	144.31
479.22	140.31
479.439	142.31
479.658	140.31
479.876	125.31
480.095	108.31
480.313	122.31
480.532	110.31
480.751	110.31
480.969	98.31
481.188	96.31
481.406	104.31
481.624	106.31
481.843	86.31
482.061	108.31
482.28	121.31
482.498	123.31
482.717	111.31
482.935	130.31
483.153	150.31
483.372	148.31
483.59	162.31
483.808	139.31
484.027	134.31
484.245	140.31
484.463	168.31
484.681	158.31
484.9	160.31
485.118	149.31
485.336	136.31
485.554	125.31
485.772	105.31
485.99	89.31
486.209	105.31
486.427	103.31
486.645	132.31
486.863	151.31
487.081	144.31
487.299	138.31
487.517	143.31
487.735	189.31
487.953	190.31
488.171	200.31
488.389	195.31
488.607	177.31
488.825	141.31
489.043	146.31
489.261	143.31
489.479	148.31
489.696	139.31
489.914	164.31
490.132	153.31
490.35	162.31
490.568	169.31
490.786	182.31
491.003	171.31
491.221	193.31
491.439	201.31
491.657	216.31
491.874	223.31
492.092	236.31
492.31	268.31
492.527	247.31
492.745	216.31
492.963	200.31
493.18	198.31
493.398	196.31
493.615	204.31
493.833	189.31
494.05	194.31
494.268	178.31
494.485	199.31
494.703	178.31
494.92	180.31
495.138	175.31
495.355	173.31
495.573	188.31
495.79	178.31
496.008	182.31
496.225	175.31
496.442	182.31
496.66	189.31
496.877	189.31
497.094	183.31
497.312	179.31
497.529	165.31
497.746	162.31
497.963	142.31
498.181	143.31
498.398	133.31
498.615	133.31
498.832	124.31
499.049	114.31
499.267	117.31
499.484	132.31
499.701	141.31
499.918	141.31
500.135	143.31
500.352	164.31
500.569	139.31
500.786	148.31
501.003	161.31
501.22	135.31
501.437	142.31
501.654	130.31
501.871	132.31
502.088	138.31
502.305	149.31
502.522	124.31
502.739	147.31
502.956	132.31
503.172	126.31
503.389	130.31
503.606	129.31
503.823	131.31
504.04	120.31
504.256	124.31
504.473	122.31
504.69	104.31
504.907	130.31
505.123	123.31
505.34	132.31
505.557	134.31
505.773	130.31
505.99	118.31
506.207	111.31
506.423	144.31
506.64	127.31
506.856	136.31
507.073	130.31
507.289	126.31
507.506	128.31
507.722	128.31
507.939	130.31
508.155	136.31
508.372	128.31
508.588	118.31
508.805	115.31
509.021	101.31
509.238	98.31
509.454	115.31
509.67	106.31
509.887	107.31
510.103	85.31
510.319	97.31
510.536	108.31
510.752	105.31
510.968	103.31
