Data from Location6.07152019.Energy5.Lamp.07192019.3%Agarose_HRD10591_16-12-26-395.txt Node
Date: Fri Jul 19 16:12:26 EDT 2019
User: cochatt
Spectrometer: HR+D1059
Trigger mode: 1
Integration Time (sec): 1.000000E-1
Scans to average: 1
Electric dark correction enabled: true
Nonlinearity correction enabled: false
Boxcar width: 0
XAxis mode: Wavelengths
Number of Pixels in Spectrum: 2048
>>>>>Begin Spectral Data<<<<<
223.165	-10.56
223.4	-10.56
223.635	-10.56
223.869	-20.56
224.104	-9.56
224.338	-8.56
224.573	-25.56
224.808	-11.56
225.042	-8.56
225.277	-1.56
225.511	-1.56
225.746	1.44
225.98	4.44
226.215	10.44
226.449	20.44
226.683	21.44
226.918	16.44
227.152	23.44
227.387	38.44
227.621	34.44
227.856	36.44
228.09	51.44
228.324	37.44
228.559	53.44
228.793	55.44
229.027	69.44
229.262	58.44
229.496	75.44
229.73	75.44
229.964	83.44
230.199	84.44
230.433	84.44
230.667	73.44
230.901	67.44
231.136	74.44
231.37	85.44
231.604	79.44
231.838	77.44
232.072	90.44
232.306	83.44
232.541	92.44
232.775	90.44
233.009	91.44
233.243	91.44
233.477	86.44
233.711	82.44
233.945	83.44
234.179	91.44
234.413	60.44
234.647	85.44
234.881	68.44
235.115	73.44
235.349	82.44
235.583	77.44
235.817	73.44
236.051	82.44
236.285	74.44
236.519	71.44
236.753	78.44
236.987	71.44
237.221	80.44
237.455	90.44
237.689	69.44
237.922	76.44
238.156	74.44
238.39	76.44
238.624	70.44
238.858	86.44
239.091	93.44
239.325	88.44
239.559	79.44
239.793	79.44
240.027	81.44
240.26	85.44
240.494	81.44
240.728	94.44
240.961	86.44
241.195	95.44
241.429	85.44
241.662	84.44
241.896	85.44
242.13	79.44
242.363	68.44
242.597	71.44
242.83	74.44
243.064	73.44
243.298	82.44
243.531	79.44
243.765	66.44
243.998	69.44
244.232	76.44
244.465	78.44
244.699	82.44
244.932	68.44
245.166	83.44
245.399	75.44
245.633	73.44
245.866	80.44
246.099	78.44
246.333	83.44
246.566	77.44
246.8	78.44
247.033	74.44
247.266	70.44
247.5	94.44
247.733	90.44
247.966	102.44
248.2	88.44
248.433	83.44
248.666	79.44
248.899	85.44
249.133	83.44
249.366	94.44
249.599	74.44
249.832	79.44
250.066	87.44
250.299	88.44
250.532	89.44
250.765	86.44
250.998	83.44
251.231	82.44
251.465	88.44
251.698	75.44
251.931	76.44
252.164	70.44
252.397	72.44
252.63	87.44
252.863	89.44
253.096	84.44
253.329	85.44
253.562	75.44
253.795	57.44
254.028	72.44
254.261	76.44
254.494	73.44
254.727	91.44
254.96	90.44
255.193	79.44
255.426	71.44
255.659	105.44
255.892	104.44
256.124	91.44
256.357	72.44
256.59	75.44
256.823	97.44
257.056	76.44
257.289	77.44
257.521	90.44
257.754	79.44
257.987	87.44
258.22	91.44
258.452	78.44
258.685	94.44
258.918	94.44
259.151	71.44
259.383	81.44
259.616	78.44
259.849	73.44
260.081	93.44
260.314	82.44
260.547	77.44
260.779	78.44
261.012	74.44
261.244	85.44
261.477	82.44
261.71	78.44
261.942	100.44
262.175	90.44
262.407	100.44
262.64	88.44
262.872	101.44
263.105	81.44
263.337	81.44
263.57	78.44
263.802	82.44
264.035	92.44
264.267	79.44
264.499	95.44
264.732	88.44
264.964	92.44
265.197	81.44
265.429	78.44
265.661	92.44
265.894	81.44
266.126	94.44
266.358	81.44
266.591	91.44
266.823	85.44
267.055	89.44
267.287	84.44
267.52	81.44
267.752	75.44
267.984	88.44
268.216	78.44
268.448	85.44
268.681	75.44
268.913	92.44
269.145	77.44
269.377	84.44
269.609	86.44
269.841	68.44
270.073	85.44
270.306	77.44
270.538	87.44
270.77	76.44
271.002	65.44
271.234	71.44
271.466	87.44
271.698	91.44
271.93	78.44
272.162	89.44
272.394	76.44
272.626	81.44
272.858	79.44
273.09	83.44
273.322	92.44
273.553	84.44
273.785	85.44
274.017	92.44
274.249	85.44
274.481	73.44
274.713	93.44
274.945	93.44
275.176	74.44
275.408	85.44
275.64	78.44
275.872	78.44
276.104	84.44
276.335	83.44
276.567	74.44
276.799	80.44
277.031	83.44
277.262	73.44
277.494	93.44
277.726	82.44
277.957	83.44
278.189	77.44
278.421	85.44
278.652	89.44
278.884	95.44
279.115	73.44
279.347	78.44
279.579	85.44
279.81	90.44
280.042	90.44
280.273	78.44
280.505	82.44
280.736	86.44
280.968	95.44
281.199	76.44
281.431	89.44
281.662	88.44
281.894	87.44
282.125	89.44
282.356	83.44
282.588	93.44
282.819	84.44
283.051	76.44
283.282	87.44
283.513	93.44
283.745	85.44
283.976	82.44
284.207	87.44
284.439	78.44
284.67	77.44
284.901	65.44
285.132	81.44
285.364	93.44
285.595	88.44
285.826	88.44
286.057	85.44
286.288	91.44
286.52	97.44
286.751	86.44
286.982	91.44
287.213	89.44
287.444	102.44
287.675	82.44
287.906	76.44
288.138	84.44
288.369	85.44
288.6	78.44
288.831	74.44
289.062	108.44
289.293	81.44
289.524	97.44
289.755	94.44
289.986	79.44
290.217	94.44
290.448	80.44
290.679	98.44
290.91	86.44
291.141	79.44
291.371	97.44
291.602	86.44
291.833	84.44
292.064	74.44
292.295	71.44
292.526	74.44
292.757	71.44
292.987	81.44
293.218	74.44
293.449	79.44
293.68	88.44
293.91	80.44
294.141	82.44
294.372	97.44
294.603	93.44
294.833	90.44
295.064	86.44
295.295	80.44
295.525	85.44
295.756	87.44
295.987	86.44
296.217	82.44
296.448	77.44
296.679	96.44
296.909	90.44
297.14	92.44
297.37	93.44
297.601	82.44
297.831	78.44
298.062	72.44
298.292	81.44
298.523	91.44
298.753	72.44
298.984	74.44
299.214	82.44
299.445	101.44
299.675	88.44
299.905	83.44
300.136	79.44
300.366	84.44
300.597	105.44
300.827	95.44
301.057	84.44
301.288	94.44
301.518	82.44
301.748	82.44
301.979	90.44
302.209	87.44
302.439	94.44
302.669	98.44
302.9	85.44
303.13	86.44
303.36	93.44
303.59	100.44
303.82	75.44
304.051	90.44
304.281	74.44
304.511	79.44
304.741	87.44
304.971	87.44
305.201	87.44
305.431	98.44
305.661	87.44
305.891	71.44
306.121	83.44
306.352	80.44
306.582	84.44
306.812	89.44
307.042	96.44
307.272	84.44
307.502	97.44
307.731	78.44
307.961	89.44
308.191	86.44
308.421	84.44
308.651	100.44
308.881	89.44
309.111	85.44
309.341	73.44
309.571	88.44
309.8	78.44
310.03	94.44
310.26	84.44
310.49	89.44
310.72	86.44
310.949	88.44
311.179	78.44
311.409	83.44
311.639	77.44
311.868	86.44
312.098	85.44
312.328	78.44
312.557	83.44
312.787	78.44
313.017	91.44
313.246	93.44
313.476	95.44
313.706	86.44
313.935	89.44
314.165	92.44
314.394	92.44
314.624	98.44
314.853	71.44
315.083	92.44
315.312	76.44
315.542	91.44
315.771	85.44
316.001	78.44
316.23	82.44
316.46	103.44
316.689	84.44
316.919	87.44
317.148	87.44
317.377	88.44
317.607	91.44
317.836	95.44
318.065	73.44
318.295	86.44
318.524	85.44
318.753	85.44
318.983	99.44
319.212	98.44
319.441	78.44
319.67	76.44
319.9	89.44
320.129	87.44
320.358	77.44
320.587	74.44
320.816	77.44
321.046	86.44
321.275	99.44
321.504	97.44
321.733	75.44
321.962	91.44
322.191	72.44
322.42	89.44
322.649	92.44
322.878	93.44
323.108	81.44
323.337	76.44
323.566	85.44
323.795	92.44
324.024	95.44
324.253	96.44
324.482	85.44
324.71	90.44
324.939	81.44
325.168	86.44
325.397	77.44
325.626	86.44
325.855	95.44
326.084	66.44
326.313	84.44
326.542	94.44
326.77	97.44
326.999	81.44
327.228	77.44
327.457	76.44
327.686	98.44
327.914	78.44
328.143	85.44
328.372	85.44
328.6	86.44
328.829	90.44
329.058	81.44
329.287	85.44
329.515	85.44
329.744	84.44
329.972	86.44
330.201	86.44
330.43	91.44
330.658	94.44
330.887	81.44
331.115	102.44
331.344	94.44
331.572	87.44
331.801	89.44
332.03	80.44
332.258	83.44
332.486	88.44
332.715	83.44
332.943	97.44
333.172	90.44
333.4	79.44
333.629	85.44
333.857	82.44
334.085	77.44
334.314	89.44
334.542	90.44
334.771	88.44
334.999	79.44
335.227	81.44
335.455	100.44
335.684	85.44
335.912	80.44
336.14	84.44
336.369	67.44
336.597	79.44
336.825	92.44
337.053	84.44
337.281	75.44
337.51	90.44
337.738	88.44
337.966	84.44
338.194	101.44
338.422	88.44
338.65	84.44
338.878	85.44
339.106	83.44
339.334	90.44
339.562	93.44
339.79	84.44
340.018	105.44
340.246	80.44
340.474	89.44
340.702	87.44
340.93	88.44
341.158	85.44
341.386	74.44
341.614	83.44
341.842	81.44
342.07	97.44
342.298	85.44
342.526	76.44
342.754	93.44
342.981	73.44
343.209	93.44
343.437	89.44
343.665	100.44
343.893	76.44
344.12	84.44
344.348	94.44
344.576	92.44
344.804	79.44
345.031	70.44
345.259	94.44
345.487	98.44
345.714	85.44
345.942	102.44
346.17	86.44
346.397	87.44
346.625	91.44
346.853	100.44
347.08	77.44
347.308	94.44
347.535	83.44
347.763	86.44
347.99	76.44
348.218	110.44
348.445	87.44
348.673	87.44
348.9	102.44
349.128	86.44
349.355	78.44
349.583	87.44
349.81	85.44
350.037	84.44
350.265	81.44
350.492	91.44
350.72	77.44
350.947	77.44
351.174	88.44
351.402	73.44
351.629	99.44
351.856	93.44
352.083	82.44
352.311	98.44
352.538	89.44
352.765	83.44
352.992	82.44
353.22	100.44
353.447	84.44
353.674	81.44
353.901	88.44
354.128	73.44
354.355	79.44
354.583	83.44
354.81	80.44
355.037	79.44
355.264	75.44
355.491	75.44
355.718	84.44
355.945	85.44
356.172	88.44
356.399	89.44
356.626	88.44
356.853	91.44
357.08	88.44
357.307	97.44
357.534	80.44
357.761	104.44
357.988	97.44
358.215	80.44
358.441	74.44
358.668	79.44
358.895	93.44
359.122	93.44
359.349	77.44
359.576	83.44
359.802	87.44
360.029	95.44
360.256	97.44
360.483	87.44
360.709	74.44
360.936	86.44
361.163	90.44
361.39	94.44
361.616	85.44
361.843	84.44
362.07	84.44
362.296	89.44
362.523	75.44
362.749	89.44
362.976	92.44
363.203	88.44
363.429	84.44
363.656	80.44
363.882	85.44
364.109	104.44
364.335	100.44
364.562	76.44
364.788	84.44
365.015	80.44
365.241	81.44
365.468	86.44
365.694	78.44
365.92	85.44
366.147	85.44
366.373	84.44
366.599	110.44
366.826	99.44
367.052	89.44
367.278	84.44
367.505	98.44
367.731	94.44
367.957	95.44
368.184	89.44
368.41	84.44
368.636	82.44
368.862	81.44
369.089	81.44
369.315	97.44
369.541	100.44
369.767	87.44
369.993	85.44
370.219	93.44
370.445	74.44
370.672	96.44
370.898	107.44
371.124	91.44
371.35	102.44
371.576	102.44
371.802	86.44
372.028	107.44
372.254	90.44
372.48	98.44
372.706	101.44
372.932	90.44
373.158	98.44
373.384	92.44
373.61	99.44
373.835	92.44
374.061	70.44
374.287	92.44
374.513	84.44
374.739	108.44
374.965	95.44
375.191	88.44
375.416	101.44
375.642	109.44
375.868	104.44
376.094	108.44
376.319	100.44
376.545	90.44
376.771	89.44
376.997	85.44
377.222	92.44
377.448	102.44
377.674	98.44
377.899	96.44
378.125	93.44
378.35	97.44
378.576	113.44
378.802	97.44
379.027	100.44
379.253	94.44
379.478	100.44
379.704	97.44
379.929	107.44
380.155	104.44
380.38	116.44
380.606	101.44
380.831	84.44
381.057	100.44
381.282	117.44
381.507	105.44
381.733	103.44
381.958	94.44
382.184	102.44
382.409	96.44
382.634	82.44
382.86	87.44
383.085	102.44
383.31	117.44
383.535	99.44
383.761	97.44
383.986	101.44
384.211	100.44
384.436	104.44
384.662	104.44
384.887	93.44
385.112	95.44
385.337	95.44
385.562	92.44
385.787	102.44
386.013	102.44
386.238	112.44
386.463	87.44
386.688	103.44
386.913	106.44
387.138	110.44
387.363	101.44
387.588	105.44
387.813	109.44
388.038	109.44
388.263	126.44
388.488	110.44
388.713	94.44
388.938	98.44
389.163	97.44
389.387	97.44
389.612	108.44
389.837	106.44
390.062	103.44
390.287	106.44
390.512	102.44
390.736	102.44
390.961	106.44
391.186	113.44
391.411	123.44
391.636	112.44
391.86	122.44
392.085	111.44
392.31	99.44
392.534	108.44
392.759	108.44
392.984	130.44
393.208	121.44
393.433	107.44
393.658	112.44
393.882	119.44
394.107	91.44
394.331	109.44
394.556	108.44
394.78	107.44
395.005	103.44
395.229	119.44
395.454	119.44
395.678	98.44
395.903	115.44
396.127	112.44
396.352	110.44
396.576	118.44
396.801	117.44
397.025	104.44
397.249	123.44
397.474	121.44
397.698	117.44
397.922	136.44
398.147	119.44
398.371	106.44
398.595	109.44
398.82	111.44
399.044	111.44
399.268	114.44
399.492	121.44
399.717	114.44
399.941	112.44
400.165	114.44
400.389	110.44
400.613	105.44
400.837	109.44
401.062	108.44
401.286	107.44
401.51	124.44
401.734	113.44
401.958	125.44
402.182	124.44
402.406	122.44
402.63	131.44
402.854	122.44
403.078	115.44
403.302	123.44
403.526	119.44
403.75	125.44
403.974	113.44
404.198	122.44
404.422	129.44
404.645	127.44
404.869	129.44
405.093	125.44
405.317	125.44
405.541	132.44
405.765	124.44
405.988	101.44
406.212	118.44
406.436	127.44
406.66	123.44
406.883	125.44
407.107	121.44
407.331	124.44
407.555	127.44
407.778	117.44
408.002	111.44
408.226	129.44
408.449	125.44
408.673	118.44
408.896	111.44
409.12	129.44
409.344	133.44
409.567	118.44
409.791	131.44
410.014	139.44
410.238	128.44
410.461	118.44
410.685	119.44
410.908	132.44
411.132	124.44
411.355	125.44
411.578	119.44
411.802	131.44
412.025	126.44
412.249	135.44
412.472	131.44
412.695	140.44
412.919	121.44
413.142	131.44
413.365	135.44
413.589	122.44
413.812	121.44
414.035	130.44
414.258	110.44
414.482	134.44
414.705	123.44
414.928	126.44
415.151	134.44
415.374	125.44
415.597	126.44
415.821	123.44
416.044	145.44
416.267	131.44
416.49	129.44
416.713	130.44
416.936	138.44
417.159	131.44
417.382	133.44
417.605	140.44
417.828	129.44
418.051	132.44
418.274	119.44
418.497	122.44
418.72	144.44
418.943	159.44
419.166	133.44
419.389	138.44
419.611	129.44
419.834	133.44
420.057	141.44
420.28	133.44
420.503	127.44
420.726	140.44
420.948	135.44
421.171	139.44
421.394	138.44
421.617	144.44
421.839	131.44
422.062	125.44
422.285	141.44
422.507	123.44
422.73	129.44
422.953	140.44
423.175	147.44
423.398	128.44
423.621	150.44
423.843	122.44
424.066	143.44
424.288	140.44
424.511	149.44
424.733	150.44
424.956	142.44
425.178	134.44
425.401	139.44
425.623	129.44
425.846	144.44
426.068	144.44
426.291	136.44
426.513	135.44
426.735	150.44
426.958	129.44
427.18	134.44
427.402	145.44
427.625	147.44
427.847	128.44
428.069	148.44
428.292	140.44
428.514	135.44
428.736	122.44
428.958	146.44
429.181	136.44
429.403	133.44
429.625	127.44
429.847	121.44
430.069	131.44
430.292	140.44
430.514	127.44
430.736	127.44
430.958	141.44
431.18	138.44
431.402	126.44
431.624	123.44
431.846	115.44
432.068	99.44
432.29	109.44
432.512	108.44
432.734	130.44
432.956	145.44
433.178	147.44
433.4	126.44
433.622	147.44
433.844	149.44
434.066	146.44
434.287	115.44
434.509	88.44
434.731	106.44
434.953	134.44
435.175	137.44
435.397	131.44
435.618	126.44
435.84	125.44
436.062	121.44
436.284	148.44
436.505	140.44
436.727	126.44
436.949	148.44
437.17	151.44
437.392	135.44
437.614	145.44
437.835	115.44
438.057	105.44
438.278	131.44
438.5	122.44
438.721	139.44
438.943	149.44
439.165	148.44
439.386	137.44
439.608	162.44
439.829	162.44
440.05	157.44
440.272	143.44
440.493	142.44
440.715	144.44
440.936	149.44
441.158	169.44
441.379	151.44
441.6	151.44
441.822	162.44
442.043	140.44
442.264	149.44
442.486	149.44
442.707	149.44
442.928	153.44
443.149	149.44
443.371	146.44
443.592	138.44
443.813	156.44
444.034	149.44
444.255	139.44
444.476	144.44
444.698	143.44
444.919	135.44
445.14	283.44
445.361	209.44
445.582	164.44
445.803	138.44
446.024	155.44
446.245	168.44
446.466	161.44
446.687	170.44
446.908	157.44
447.129	171.44
447.35	149.44
447.571	154.44
447.792	148.44
448.013	159.44
448.234	162.44
448.455	151.44
448.675	156.44
448.896	140.44
449.117	149.44
449.338	137.44
449.559	143.44
449.779	149.44
450	140.44
450.221	156.44
450.442	131.44
450.662	144.44
450.883	140.44
451.104	138.44
451.324	140.44
451.545	137.44
451.766	141.44
451.986	132.44
452.207	138.44
452.428	140.44
452.648	129.44
452.869	133.44
453.089	116.44
453.31	99.44
453.53	117.44
453.751	98.44
453.971	105.44
454.192	107.44
454.412	119.44
454.633	107.44
454.853	119.44
455.073	124.44
455.294	134.44
455.514	117.44
455.734	121.44
455.955	118.44
456.175	126.44
456.395	130.44
456.616	111.44
456.836	113.44
457.056	107.44
457.276	117.44
457.497	94.44
457.717	107.44
457.937	110.44
458.157	121.44
458.377	117.44
458.598	99.44
458.818	95.44
459.038	92.44
459.258	102.44
459.478	94.44
459.698	102.44
459.918	110.44
460.138	107.44
460.358	124.44
460.578	119.44
460.798	114.44
461.018	121.44
461.238	121.44
461.458	116.44
461.678	123.44
461.898	122.44
462.118	122.44
462.338	121.44
462.558	126.44
462.777	113.44
462.997	107.44
463.217	95.44
463.437	119.44
463.657	114.44
463.876	120.44
464.096	122.44
464.316	118.44
464.536	118.44
464.755	120.44
464.975	135.44
465.195	123.44
465.414	129.44
465.634	133.44
465.854	133.44
466.073	136.44
466.293	147.44
466.512	141.44
466.732	137.44
466.951	129.44
467.171	141.44
467.391	138.44
467.61	152.44
467.829	148.44
468.049	157.44
468.268	147.44
468.488	142.44
468.707	149.44
468.927	128.44
469.146	144.44
469.365	146.44
469.585	141.44
469.804	151.44
470.023	141.44
470.243	145.44
470.462	160.44
470.681	147.44
470.901	137.44
471.12	142.44
471.339	156.44
471.558	157.44
471.777	136.44
471.997	130.44
472.216	126.44
472.435	126.44
472.654	123.44
472.873	111.44
473.092	127.44
473.311	126.44
473.53	132.44
473.749	139.44
473.968	125.44
474.187	135.44
474.406	135.44
474.625	131.44
474.844	143.44
475.063	130.44
475.282	129.44
475.501	116.44
475.72	128.44
475.939	142.44
476.158	142.44
476.377	136.44
476.596	127.44
476.814	104.44
477.033	101.44
477.252	124.44
477.471	139.44
477.69	138.44
477.908	137.44
478.127	134.44
478.346	132.44
478.564	149.44
478.783	134.44
479.002	147.44
479.22	137.44
479.439	114.44
479.658	127.44
479.876	115.44
480.095	107.44
480.313	115.44
480.532	122.44
480.751	113.44
480.969	100.44
481.188	80.44
481.406	96.44
481.624	88.44
481.843	102.44
482.061	91.44
482.28	124.44
482.498	122.44
482.717	114.44
482.935	116.44
483.153	162.44
483.372	162.44
483.59	166.44
483.808	143.44
484.027	141.44
484.245	137.44
484.463	153.44
484.681	165.44
484.9	153.44
485.118	143.44
485.336	137.44
485.554	127.44
485.772	123.44
485.99	105.44
486.209	109.44
486.427	106.44
486.645	130.44
486.863	147.44
487.081	140.44
487.299	155.44
487.517	139.44
487.735	193.44
487.953	190.44
488.171	178.44
488.389	182.44
488.607	175.44
488.825	142.44
489.043	155.44
489.261	144.44
489.479	138.44
489.696	145.44
489.914	147.44
490.132	142.44
490.35	162.44
490.568	170.44
490.786	183.44
491.003	188.44
491.221	200.44
491.439	200.44
491.657	200.44
491.874	219.44
492.092	231.44
492.31	257.44
492.527	257.44
492.745	220.44
492.963	217.44
493.18	200.44
493.398	191.44
493.615	187.44
493.833	166.44
494.05	183.44
494.268	187.44
494.485	203.44
494.703	198.44
494.92	181.44
495.138	170.44
495.355	187.44
495.573	165.44
495.79	175.44
496.008	191.44
496.225	190.44
496.442	177.44
496.66	177.44
496.877	171.44
497.094	189.44
497.312	167.44
497.529	168.44
497.746	143.44
497.963	140.44
498.181	146.44
498.398	123.44
498.615	134.44
498.832	138.44
499.049	119.44
499.267	125.44
499.484	137.44
499.701	146.44
499.918	149.44
500.135	146.44
500.352	140.44
500.569	158.44
500.786	167.44
501.003	129.44
501.22	148.44
501.437	139.44
501.654	137.44
501.871	122.44
502.088	132.44
502.305	129.44
502.522	129.44
502.739	141.44
502.956	119.44
503.172	125.44
503.389	125.44
503.606	125.44
503.823	103.44
504.04	133.44
504.256	126.44
504.473	113.44
504.69	108.44
504.907	121.44
505.123	135.44
505.34	125.44
505.557	137.44
505.773	125.44
505.99	129.44
506.207	134.44
506.423	132.44
506.64	108.44
506.856	116.44
507.073	116.44
507.289	127.44
507.506	127.44
507.722	125.44
507.939	133.44
508.155	123.44
508.372	112.44
508.588	111.44
508.805	119.44
509.021	122.44
509.238	114.44
509.454	115.44
509.67	101.44
509.887	113.44
510.103	99.44
510.319	94.44
510.536	89.44
510.752	93.44
510.968	89.44
