Data from Location6.07152019.Energy5.Lamp.07192019.3%Agarose_HRD10591_16-11-10-394.txt Node
Date: Fri Jul 19 16:11:10 EDT 2019
User: cochatt
Spectrometer: HR+D1059
Trigger mode: 1
Integration Time (sec): 1.000000E-1
Scans to average: 1
Electric dark correction enabled: true
Nonlinearity correction enabled: false
Boxcar width: 0
XAxis mode: Wavelengths
Number of Pixels in Spectrum: 2048
>>>>>Begin Spectral Data<<<<<
223.165	-17.81
223.4	-17.81
223.635	-17.81
223.869	-9.81
224.104	-32.81
224.338	-6.81
224.573	-11.81
224.808	-10.81
225.042	-9.81
225.277	-10.81
225.511	-10.81
225.746	17.19
225.98	4.19
226.215	17.19
226.449	12.19
226.683	10.19
226.918	40.19
227.152	20.19
227.387	45.19
227.621	42.19
227.856	37.19
228.09	34.19
228.324	60.19
228.559	38.19
228.793	73.19
229.027	43.19
229.262	52.19
229.496	67.19
229.73	69.19
229.964	85.19
230.199	88.19
230.433	76.19
230.667	81.19
230.901	74.19
231.136	76.19
231.37	90.19
231.604	76.19
231.838	92.19
232.072	86.19
232.306	85.19
232.541	87.19
232.775	80.19
233.009	73.19
233.243	88.19
233.477	85.19
233.711	91.19
233.945	84.19
234.179	93.19
234.413	88.19
234.647	90.19
234.881	83.19
235.115	94.19
235.349	95.19
235.583	77.19
235.817	66.19
236.051	86.19
236.285	71.19
236.519	83.19
236.753	77.19
236.987	74.19
237.221	71.19
237.455	95.19
237.689	99.19
237.922	79.19
238.156	90.19
238.39	76.19
238.624	69.19
238.858	78.19
239.091	78.19
239.325	90.19
239.559	82.19
239.793	86.19
240.027	83.19
240.26	78.19
240.494	83.19
240.728	81.19
240.961	78.19
241.195	69.19
241.429	73.19
241.662	66.19
241.896	82.19
242.13	80.19
242.363	67.19
242.597	68.19
242.83	88.19
243.064	73.19
243.298	78.19
243.531	76.19
243.765	73.19
243.998	84.19
244.232	76.19
244.465	79.19
244.699	86.19
244.932	82.19
245.166	88.19
245.399	73.19
245.633	77.19
245.866	91.19
246.099	86.19
246.333	84.19
246.566	70.19
246.8	89.19
247.033	76.19
247.266	86.19
247.5	82.19
247.733	75.19
247.966	75.19
248.2	90.19
248.433	79.19
248.666	78.19
248.899	79.19
249.133	71.19
249.366	93.19
249.599	75.19
249.832	92.19
250.066	87.19
250.299	72.19
250.532	85.19
250.765	84.19
250.998	65.19
251.231	92.19
251.465	74.19
251.698	89.19
251.931	71.19
252.164	98.19
252.397	73.19
252.63	85.19
252.863	71.19
253.096	86.19
253.329	85.19
253.562	82.19
253.795	76.19
254.028	87.19
254.261	85.19
254.494	89.19
254.727	79.19
254.96	96.19
255.193	86.19
255.426	67.19
255.659	87.19
255.892	93.19
256.124	86.19
256.357	93.19
256.59	95.19
256.823	81.19
257.056	87.19
257.289	82.19
257.521	88.19
257.754	84.19
257.987	83.19
258.22	78.19
258.452	97.19
258.685	87.19
258.918	76.19
259.151	90.19
259.383	75.19
259.616	101.19
259.849	94.19
260.081	90.19
260.314	83.19
260.547	85.19
260.779	83.19
261.012	84.19
261.244	86.19
261.477	84.19
261.71	81.19
261.942	98.19
262.175	84.19
262.407	82.19
262.64	79.19
262.872	76.19
263.105	95.19
263.337	74.19
263.57	85.19
263.802	82.19
264.035	92.19
264.267	69.19
264.499	74.19
264.732	89.19
264.964	90.19
265.197	89.19
265.429	80.19
265.661	94.19
265.894	82.19
266.126	90.19
266.358	93.19
266.591	84.19
266.823	91.19
267.055	81.19
267.287	90.19
267.52	91.19
267.752	92.19
267.984	86.19
268.216	80.19
268.448	87.19
268.681	78.19
268.913	75.19
269.145	69.19
269.377	89.19
269.609	92.19
269.841	83.19
270.073	89.19
270.306	74.19
270.538	74.19
270.77	86.19
271.002	65.19
271.234	90.19
271.466	79.19
271.698	89.19
271.93	79.19
272.162	83.19
272.394	92.19
272.626	86.19
272.858	73.19
273.09	103.19
273.322	81.19
273.553	88.19
273.785	96.19
274.017	84.19
274.249	88.19
274.481	95.19
274.713	78.19
274.945	97.19
275.176	81.19
275.408	88.19
275.64	94.19
275.872	83.19
276.104	72.19
276.335	87.19
276.567	83.19
276.799	85.19
277.031	70.19
277.262	93.19
277.494	88.19
277.726	87.19
277.957	87.19
278.189	98.19
278.421	84.19
278.652	76.19
278.884	75.19
279.115	83.19
279.347	84.19
279.579	87.19
279.81	78.19
280.042	78.19
280.273	82.19
280.505	97.19
280.736	86.19
280.968	88.19
281.199	93.19
281.431	93.19
281.662	95.19
281.894	88.19
282.125	88.19
282.356	107.19
282.588	89.19
282.819	89.19
283.051	72.19
283.282	76.19
283.513	93.19
283.745	85.19
283.976	89.19
284.207	75.19
284.439	89.19
284.67	86.19
284.901	79.19
285.132	87.19
285.364	81.19
285.595	85.19
285.826	83.19
286.057	83.19
286.288	90.19
286.52	89.19
286.751	88.19
286.982	85.19
287.213	87.19
287.444	89.19
287.675	90.19
287.906	88.19
288.138	84.19
288.369	107.19
288.6	102.19
288.831	82.19
289.062	92.19
289.293	86.19
289.524	89.19
289.755	81.19
289.986	83.19
290.217	81.19
290.448	90.19
290.679	74.19
290.91	71.19
291.141	89.19
291.371	88.19
291.602	87.19
291.833	77.19
292.064	94.19
292.295	102.19
292.526	89.19
292.757	98.19
292.987	88.19
293.218	83.19
293.449	82.19
293.68	79.19
293.91	80.19
294.141	94.19
294.372	97.19
294.603	79.19
294.833	68.19
295.064	87.19
295.295	79.19
295.525	75.19
295.756	96.19
295.987	91.19
296.217	90.19
296.448	87.19
296.679	99.19
296.909	92.19
297.14	79.19
297.37	100.19
297.601	91.19
297.831	99.19
298.062	88.19
298.292	90.19
298.523	76.19
298.753	91.19
298.984	97.19
299.214	84.19
299.445	85.19
299.675	90.19
299.905	98.19
300.136	93.19
300.366	86.19
300.597	88.19
300.827	91.19
301.057	83.19
301.288	87.19
301.518	79.19
301.748	88.19
301.979	89.19
302.209	93.19
302.439	84.19
302.669	83.19
302.9	91.19
303.13	94.19
303.36	96.19
303.59	97.19
303.82	88.19
304.051	85.19
304.281	87.19
304.511	98.19
304.741	95.19
304.971	76.19
305.201	82.19
305.431	79.19
305.661	84.19
305.891	87.19
306.121	90.19
306.352	93.19
306.582	82.19
306.812	100.19
307.042	92.19
307.272	89.19
307.502	77.19
307.731	81.19
307.961	99.19
308.191	76.19
308.421	89.19
308.651	94.19
308.881	83.19
309.111	67.19
309.341	85.19
309.571	86.19
309.8	85.19
310.03	93.19
310.26	86.19
310.49	93.19
310.72	63.19
310.949	90.19
311.179	93.19
311.409	90.19
311.639	89.19
311.868	81.19
312.098	88.19
312.328	105.19
312.557	96.19
312.787	79.19
313.017	88.19
313.246	89.19
313.476	84.19
313.706	104.19
313.935	86.19
314.165	112.19
314.394	88.19
314.624	88.19
314.853	87.19
315.083	91.19
315.312	93.19
315.542	82.19
315.771	77.19
316.001	85.19
316.23	74.19
316.46	77.19
316.689	82.19
316.919	81.19
317.148	98.19
317.377	98.19
317.607	95.19
317.836	93.19
318.065	90.19
318.295	67.19
318.524	95.19
318.753	90.19
318.983	89.19
319.212	106.19
319.441	91.19
319.67	86.19
319.9	84.19
320.129	91.19
320.358	96.19
320.587	82.19
320.816	85.19
321.046	84.19
321.275	84.19
321.504	77.19
321.733	107.19
321.962	89.19
322.191	94.19
322.42	86.19
322.649	92.19
322.878	84.19
323.108	82.19
323.337	79.19
323.566	92.19
323.795	86.19
324.024	99.19
324.253	90.19
324.482	95.19
324.71	89.19
324.939	86.19
325.168	95.19
325.397	84.19
325.626	79.19
325.855	92.19
326.084	73.19
326.313	73.19
326.542	94.19
326.77	86.19
326.999	91.19
327.228	94.19
327.457	95.19
327.686	88.19
327.914	92.19
328.143	97.19
328.372	106.19
328.6	84.19
328.829	81.19
329.058	80.19
329.287	83.19
329.515	88.19
329.744	73.19
329.972	90.19
330.201	94.19
330.43	93.19
330.658	82.19
330.887	94.19
331.115	90.19
331.344	82.19
331.572	78.19
331.801	86.19
332.03	91.19
332.258	83.19
332.486	90.19
332.715	90.19
332.943	84.19
333.172	103.19
333.4	99.19
333.629	104.19
333.857	95.19
334.085	82.19
334.314	86.19
334.542	77.19
334.771	88.19
334.999	93.19
335.227	88.19
335.455	87.19
335.684	94.19
335.912	75.19
336.14	98.19
336.369	78.19
336.597	84.19
336.825	87.19
337.053	98.19
337.281	89.19
337.51	81.19
337.738	90.19
337.966	79.19
338.194	89.19
338.422	92.19
338.65	79.19
338.878	88.19
339.106	93.19
339.334	106.19
339.562	100.19
339.79	93.19
340.018	89.19
340.246	105.19
340.474	93.19
340.702	93.19
340.93	94.19
341.158	79.19
341.386	90.19
341.614	85.19
341.842	89.19
342.07	95.19
342.298	79.19
342.526	89.19
342.754	87.19
342.981	95.19
343.209	88.19
343.437	86.19
343.665	88.19
343.893	74.19
344.12	90.19
344.348	94.19
344.576	94.19
344.804	96.19
345.031	79.19
345.259	95.19
345.487	90.19
345.714	78.19
345.942	87.19
346.17	98.19
346.397	93.19
346.625	87.19
346.853	91.19
347.08	61.19
347.308	88.19
347.535	88.19
347.763	86.19
347.99	100.19
348.218	91.19
348.445	81.19
348.673	95.19
348.9	87.19
349.128	93.19
349.355	83.19
349.583	72.19
349.81	65.19
350.037	82.19
350.265	93.19
350.492	91.19
350.72	96.19
350.947	91.19
351.174	86.19
351.402	92.19
351.629	86.19
351.856	94.19
352.083	82.19
352.311	89.19
352.538	90.19
352.765	89.19
352.992	92.19
353.22	95.19
353.447	99.19
353.674	95.19
353.901	86.19
354.128	77.19
354.355	82.19
354.583	104.19
354.81	83.19
355.037	75.19
355.264	72.19
355.491	78.19
355.718	97.19
355.945	84.19
356.172	86.19
356.399	78.19
356.626	90.19
356.853	96.19
357.08	90.19
357.307	90.19
357.534	73.19
357.761	75.19
357.988	76.19
358.215	95.19
358.441	82.19
358.668	100.19
358.895	85.19
359.122	86.19
359.349	83.19
359.576	84.19
359.802	100.19
360.029	101.19
360.256	104.19
360.483	93.19
360.709	95.19
360.936	86.19
361.163	70.19
361.39	96.19
361.616	86.19
361.843	83.19
362.07	87.19
362.296	95.19
362.523	103.19
362.749	91.19
362.976	84.19
363.203	94.19
363.429	85.19
363.656	79.19
363.882	75.19
364.109	72.19
364.335	78.19
364.562	90.19
364.788	105.19
365.015	91.19
365.241	88.19
365.468	76.19
365.694	91.19
365.92	83.19
366.147	92.19
366.373	81.19
366.599	97.19
366.826	92.19
367.052	100.19
367.278	99.19
367.505	101.19
367.731	86.19
367.957	91.19
368.184	82.19
368.41	73.19
368.636	92.19
368.862	94.19
369.089	96.19
369.315	98.19
369.541	93.19
369.767	97.19
369.993	104.19
370.219	86.19
370.445	109.19
370.672	95.19
370.898	93.19
371.124	111.19
371.35	100.19
371.576	92.19
371.802	85.19
372.028	91.19
372.254	105.19
372.48	98.19
372.706	85.19
372.932	86.19
373.158	91.19
373.384	94.19
373.61	89.19
373.835	103.19
374.061	79.19
374.287	102.19
374.513	78.19
374.739	103.19
374.965	99.19
375.191	84.19
375.416	91.19
375.642	104.19
375.868	107.19
376.094	100.19
376.319	89.19
376.545	86.19
376.771	96.19
376.997	93.19
377.222	96.19
377.448	97.19
377.674	108.19
377.899	107.19
378.125	95.19
378.35	79.19
378.576	102.19
378.802	94.19
379.027	104.19
379.253	92.19
379.478	86.19
379.704	99.19
379.929	98.19
380.155	104.19
380.38	90.19
380.606	93.19
380.831	106.19
381.057	90.19
381.282	90.19
381.507	97.19
381.733	103.19
381.958	107.19
382.184	88.19
382.409	97.19
382.634	100.19
382.86	100.19
383.085	95.19
383.31	94.19
383.535	100.19
383.761	115.19
383.986	109.19
384.211	106.19
384.436	102.19
384.662	92.19
384.887	104.19
385.112	119.19
385.337	121.19
385.562	105.19
385.787	113.19
386.013	101.19
386.238	111.19
386.463	108.19
386.688	97.19
386.913	97.19
387.138	95.19
387.363	106.19
387.588	89.19
387.813	118.19
388.038	106.19
388.263	105.19
388.488	115.19
388.713	102.19
388.938	117.19
389.163	99.19
389.387	101.19
389.612	112.19
389.837	101.19
390.062	106.19
390.287	107.19
390.512	123.19
390.736	110.19
390.961	118.19
391.186	97.19
391.411	91.19
391.636	124.19
391.86	113.19
392.085	89.19
392.31	97.19
392.534	118.19
392.759	96.19
392.984	108.19
393.208	112.19
393.433	117.19
393.658	127.19
393.882	102.19
394.107	105.19
394.331	109.19
394.556	90.19
394.78	114.19
395.005	111.19
395.229	114.19
395.454	115.19
395.678	111.19
395.903	117.19
396.127	133.19
396.352	119.19
396.576	118.19
396.801	116.19
397.025	130.19
397.249	118.19
397.474	119.19
397.698	122.19
397.922	122.19
398.147	118.19
398.371	101.19
398.595	121.19
398.82	115.19
399.044	114.19
399.268	117.19
399.492	117.19
399.717	118.19
399.941	119.19
400.165	129.19
400.389	107.19
400.613	118.19
400.837	121.19
401.062	111.19
401.286	110.19
401.51	113.19
401.734	113.19
401.958	102.19
402.182	117.19
402.406	116.19
402.63	130.19
402.854	125.19
403.078	133.19
403.302	123.19
403.526	135.19
403.75	119.19
403.974	122.19
404.198	113.19
404.422	111.19
404.645	119.19
404.869	126.19
405.093	123.19
405.317	114.19
405.541	123.19
405.765	119.19
405.988	121.19
406.212	115.19
406.436	124.19
406.66	135.19
406.883	109.19
407.107	129.19
407.331	124.19
407.555	127.19
407.778	117.19
408.002	132.19
408.226	127.19
408.449	132.19
408.673	121.19
408.896	129.19
409.12	138.19
409.344	131.19
409.567	122.19
409.791	131.19
410.014	142.19
410.238	143.19
410.461	140.19
410.685	131.19
410.908	150.19
411.132	138.19
411.355	134.19
411.578	125.19
411.802	124.19
412.025	111.19
412.249	131.19
412.472	118.19
412.695	129.19
412.919	137.19
413.142	117.19
413.365	127.19
413.589	128.19
413.812	109.19
414.035	134.19
414.258	143.19
414.482	114.19
414.705	126.19
414.928	124.19
415.151	133.19
415.374	145.19
415.597	148.19
415.821	136.19
416.044	143.19
416.267	133.19
416.49	131.19
416.713	130.19
416.936	129.19
417.159	124.19
417.382	129.19
417.605	135.19
417.828	146.19
418.051	119.19
418.274	143.19
418.497	150.19
418.72	127.19
418.943	144.19
419.166	139.19
419.389	156.19
419.611	129.19
419.834	149.19
420.057	128.19
420.28	139.19
420.503	128.19
420.726	126.19
420.948	137.19
421.171	129.19
421.394	144.19
421.617	148.19
421.839	164.19
422.062	165.19
422.285	136.19
422.507	131.19
422.73	144.19
422.953	127.19
423.175	121.19
423.398	123.19
423.621	143.19
423.843	147.19
424.066	150.19
424.288	142.19
424.511	134.19
424.733	149.19
424.956	156.19
425.178	150.19
425.401	149.19
425.623	145.19
425.846	143.19
426.068	145.19
426.291	137.19
426.513	135.19
426.735	142.19
426.958	143.19
427.18	146.19
427.402	134.19
427.625	129.19
427.847	129.19
428.069	139.19
428.292	132.19
428.514	134.19
428.736	140.19
428.958	135.19
429.181	144.19
429.403	137.19
429.625	130.19
429.847	151.19
430.069	150.19
430.292	135.19
430.514	118.19
430.736	122.19
430.958	142.19
431.18	140.19
431.402	131.19
431.624	121.19
431.846	110.19
432.068	106.19
432.29	104.19
432.512	115.19
432.734	133.19
432.956	137.19
433.178	129.19
433.4	134.19
433.622	161.19
433.844	126.19
434.066	116.19
434.287	116.19
434.509	99.19
434.731	105.19
434.953	122.19
435.175	121.19
435.397	132.19
435.618	124.19
435.84	129.19
436.062	123.19
436.284	138.19
436.505	138.19
436.727	122.19
436.949	150.19
437.17	129.19
437.392	141.19
437.614	125.19
437.835	122.19
438.057	102.19
438.278	123.19
438.5	129.19
438.721	126.19
438.943	144.19
439.165	132.19
439.386	153.19
439.608	141.19
439.829	144.19
440.05	140.19
440.272	160.19
440.493	144.19
440.715	143.19
440.936	158.19
441.158	141.19
441.379	160.19
441.6	165.19
441.822	155.19
442.043	147.19
442.264	140.19
442.486	129.19
442.707	141.19
442.928	142.19
443.149	144.19
443.371	157.19
443.592	138.19
443.813	141.19
444.034	133.19
444.255	159.19
444.476	158.19
444.698	150.19
444.919	158.19
445.14	268.19
445.361	207.19
445.582	158.19
445.803	154.19
446.024	146.19
446.245	155.19
446.466	172.19
446.687	157.19
446.908	186.19
447.129	157.19
447.35	163.19
447.571	158.19
447.792	153.19
448.013	154.19
448.234	143.19
448.455	144.19
448.675	143.19
448.896	153.19
449.117	150.19
449.338	162.19
449.559	132.19
449.779	149.19
450	144.19
450.221	124.19
450.442	139.19
450.662	146.19
450.883	137.19
451.104	153.19
451.324	137.19
451.545	125.19
451.766	147.19
451.986	129.19
452.207	133.19
452.428	122.19
452.648	121.19
452.869	115.19
453.089	130.19
453.31	120.19
453.53	106.19
453.751	119.19
453.971	96.19
454.192	110.19
454.412	123.19
454.633	109.19
454.853	120.19
455.073	118.19
455.294	123.19
455.514	130.19
455.734	133.19
455.955	115.19
456.175	99.19
456.395	125.19
456.616	127.19
456.836	118.19
457.056	113.19
457.276	110.19
457.497	103.19
457.717	102.19
457.937	106.19
458.157	115.19
458.377	121.19
458.598	109.19
458.818	82.19
459.038	96.19
459.258	94.19
459.478	100.19
459.698	109.19
459.918	111.19
460.138	121.19
460.358	121.19
460.578	123.19
460.798	132.19
461.018	108.19
461.238	127.19
461.458	122.19
461.678	125.19
461.898	131.19
462.118	127.19
462.338	131.19
462.558	116.19
462.777	118.19
462.997	119.19
463.217	114.19
463.437	105.19
463.657	113.19
463.876	125.19
464.096	121.19
464.316	118.19
464.536	100.19
464.755	119.19
464.975	119.19
465.195	124.19
465.414	131.19
465.634	117.19
465.854	131.19
466.073	146.19
466.293	131.19
466.512	150.19
466.732	142.19
466.951	142.19
467.171	131.19
467.391	129.19
467.61	134.19
467.829	142.19
468.049	142.19
468.268	141.19
468.488	145.19
468.707	147.19
468.927	147.19
469.146	135.19
469.365	151.19
469.585	152.19
469.804	150.19
470.023	148.19
470.243	163.19
470.462	144.19
470.681	154.19
470.901	145.19
471.12	156.19
471.339	151.19
471.558	144.19
471.777	142.19
471.997	132.19
472.216	131.19
472.435	127.19
472.654	116.19
472.873	121.19
473.092	133.19
473.311	114.19
473.53	136.19
473.749	132.19
473.968	118.19
474.187	122.19
474.406	137.19
474.625	142.19
474.844	148.19
475.063	139.19
475.282	135.19
475.501	120.19
475.72	116.19
475.939	124.19
476.158	135.19
476.377	125.19
476.596	123.19
476.814	129.19
477.033	117.19
477.252	129.19
477.471	137.19
477.69	136.19
477.908	144.19
478.127	151.19
478.346	146.19
478.564	117.19
478.783	128.19
479.002	163.19
479.22	144.19
479.439	143.19
479.658	147.19
479.876	114.19
480.095	113.19
480.313	121.19
480.532	126.19
480.751	105.19
480.969	116.19
481.188	90.19
481.406	110.19
481.624	97.19
481.843	95.19
482.061	102.19
482.28	106.19
482.498	97.19
482.717	114.19
482.935	121.19
483.153	145.19
483.372	167.19
483.59	159.19
483.808	135.19
484.027	144.19
484.245	129.19
484.463	143.19
484.681	158.19
484.9	164.19
485.118	147.19
485.336	136.19
485.554	121.19
485.772	104.19
485.99	110.19
486.209	106.19
486.427	109.19
486.645	118.19
486.863	152.19
487.081	135.19
487.299	140.19
487.517	133.19
487.735	165.19
487.953	204.19
488.171	217.19
488.389	178.19
488.607	169.19
488.825	161.19
489.043	125.19
489.261	136.19
489.479	143.19
489.696	154.19
489.914	159.19
490.132	159.19
490.35	160.19
490.568	174.19
490.786	177.19
491.003	177.19
491.221	199.19
491.439	188.19
491.657	191.19
491.874	227.19
492.092	244.19
492.31	252.19
492.527	236.19
492.745	215.19
492.963	206.19
493.18	209.19
493.398	189.19
493.615	195.19
493.833	211.19
494.05	202.19
494.268	185.19
494.485	195.19
494.703	181.19
494.92	190.19
495.138	179.19
495.355	190.19
495.573	172.19
495.79	179.19
496.008	177.19
496.225	183.19
496.442	180.19
496.66	173.19
496.877	169.19
497.094	173.19
497.312	185.19
497.529	170.19
497.746	171.19
497.963	138.19
498.181	120.19
498.398	123.19
498.615	135.19
498.832	123.19
499.049	131.19
499.267	123.19
499.484	127.19
499.701	134.19
499.918	166.19
500.135	148.19
500.352	141.19
500.569	139.19
500.786	170.19
501.003	149.19
501.22	156.19
501.437	158.19
501.654	126.19
501.871	136.19
502.088	130.19
502.305	141.19
502.522	138.19
502.739	143.19
502.956	140.19
503.172	125.19
503.389	125.19
503.606	116.19
503.823	125.19
504.04	122.19
504.256	121.19
504.473	130.19
504.69	125.19
504.907	123.19
505.123	122.19
505.34	124.19
505.557	139.19
505.773	127.19
505.99	140.19
506.207	116.19
506.423	133.19
506.64	129.19
506.856	126.19
507.073	122.19
507.289	122.19
507.506	117.19
507.722	123.19
507.939	129.19
508.155	125.19
508.372	114.19
508.588	124.19
508.805	132.19
509.021	123.19
509.238	118.19
509.454	110.19
509.67	100.19
509.887	100.19
510.103	103.19
510.319	103.19
510.536	105.19
510.752	95.19
