Data from Location6.07152019.Energy5.Lamp.07192019.3%Agarose_HRD10591_16-10-45-396.txt Node
Date: Fri Jul 19 16:10:45 EDT 2019
User: cochatt
Spectrometer: HR+D1059
Trigger mode: 1
Integration Time (sec): 1.000000E-1
Scans to average: 1
Electric dark correction enabled: true
Nonlinearity correction enabled: false
Boxcar width: 0
XAxis mode: Wavelengths
Number of Pixels in Spectrum: 2048
>>>>>Begin Spectral Data<<<<<
223.165	-7.44
223.4	-7.44
223.635	-7.44
223.869	-11.44
224.104	-15.44
224.338	-17.44
224.573	-14.44
224.808	-5.44
225.042	-6.44
225.277	-12.44
225.511	-3.44
225.746	6.56
225.98	17.56
226.215	13.56
226.449	11.56
226.683	8.56
226.918	1.56
227.152	34.56
227.387	45.56
227.621	37.56
227.856	39.56
228.09	39.56
228.324	41.56
228.559	54.56
228.793	54.56
229.027	58.56
229.262	62.56
229.496	59.56
229.73	76.56
229.964	64.56
230.199	72.56
230.433	70.56
230.667	74.56
230.901	76.56
231.136	84.56
231.37	81.56
231.604	83.56
231.838	79.56
232.072	87.56
232.306	76.56
232.541	85.56
232.775	75.56
233.009	78.56
233.243	90.56
233.477	83.56
233.711	82.56
233.945	83.56
234.179	86.56
234.413	83.56
234.647	80.56
234.881	89.56
235.115	78.56
235.349	79.56
235.583	83.56
235.817	75.56
236.051	68.56
236.285	86.56
236.519	77.56
236.753	74.56
236.987	70.56
237.221	66.56
237.455	72.56
237.689	74.56
237.922	74.56
238.156	82.56
238.39	92.56
238.624	70.56
238.858	83.56
239.091	71.56
239.325	69.56
239.559	70.56
239.793	71.56
240.027	76.56
240.26	80.56
240.494	70.56
240.728	79.56
240.961	94.56
241.195	88.56
241.429	70.56
241.662	79.56
241.896	76.56
242.13	75.56
242.363	79.56
242.597	75.56
242.83	91.56
243.064	65.56
243.298	69.56
243.531	65.56
243.765	74.56
243.998	79.56
244.232	93.56
244.465	82.56
244.699	76.56
244.932	75.56
245.166	89.56
245.399	86.56
245.633	77.56
245.866	77.56
246.099	82.56
246.333	81.56
246.566	77.56
246.8	81.56
247.033	67.56
247.266	89.56
247.5	72.56
247.733	72.56
247.966	86.56
248.2	77.56
248.433	71.56
248.666	72.56
248.899	82.56
249.133	64.56
249.366	87.56
249.599	71.56
249.832	82.56
250.066	83.56
250.299	70.56
250.532	67.56
250.765	79.56
250.998	67.56
251.231	72.56
251.465	93.56
251.698	87.56
251.931	81.56
252.164	71.56
252.397	70.56
252.63	79.56
252.863	81.56
253.096	78.56
253.329	63.56
253.562	73.56
253.795	63.56
254.028	75.56
254.261	88.56
254.494	76.56
254.727	77.56
254.96	68.56
255.193	72.56
255.426	95.56
255.659	69.56
255.892	82.56
256.124	73.56
256.357	79.56
256.59	69.56
256.823	75.56
257.056	86.56
257.289	83.56
257.521	93.56
257.754	61.56
257.987	75.56
258.22	87.56
258.452	80.56
258.685	83.56
258.918	88.56
259.151	71.56
259.383	79.56
259.616	81.56
259.849	80.56
260.081	82.56
260.314	78.56
260.547	72.56
260.779	90.56
261.012	79.56
261.244	72.56
261.477	73.56
261.71	71.56
261.942	87.56
262.175	78.56
262.407	77.56
262.64	95.56
262.872	92.56
263.105	82.56
263.337	81.56
263.57	83.56
263.802	84.56
264.035	80.56
264.267	73.56
264.499	69.56
264.732	90.56
264.964	66.56
265.197	78.56
265.429	73.56
265.661	93.56
265.894	85.56
266.126	75.56
266.358	85.56
266.591	82.56
266.823	82.56
267.055	102.56
267.287	83.56
267.52	98.56
267.752	88.56
267.984	65.56
268.216	87.56
268.448	74.56
268.681	83.56
268.913	88.56
269.145	80.56
269.377	86.56
269.609	83.56
269.841	95.56
270.073	75.56
270.306	81.56
270.538	81.56
270.77	75.56
271.002	84.56
271.234	76.56
271.466	90.56
271.698	76.56
271.93	85.56
272.162	78.56
272.394	82.56
272.626	74.56
272.858	90.56
273.09	94.56
273.322	85.56
273.553	98.56
273.785	82.56
274.017	78.56
274.249	81.56
274.481	86.56
274.713	75.56
274.945	83.56
275.176	102.56
275.408	89.56
275.64	74.56
275.872	83.56
276.104	93.56
276.335	85.56
276.567	88.56
276.799	74.56
277.031	65.56
277.262	80.56
277.494	95.56
277.726	96.56
277.957	71.56
278.189	88.56
278.421	82.56
278.652	84.56
278.884	77.56
279.115	81.56
279.347	90.56
279.579	74.56
279.81	70.56
280.042	83.56
280.273	79.56
280.505	76.56
280.736	87.56
280.968	90.56
281.199	80.56
281.431	83.56
281.662	85.56
281.894	90.56
282.125	69.56
282.356	83.56
282.588	66.56
282.819	79.56
283.051	75.56
283.282	74.56
283.513	90.56
283.745	91.56
283.976	84.56
284.207	80.56
284.439	82.56
284.67	85.56
284.901	79.56
285.132	90.56
285.364	94.56
285.595	78.56
285.826	87.56
286.057	94.56
286.288	79.56
286.52	82.56
286.751	81.56
286.982	70.56
287.213	66.56
287.444	85.56
287.675	83.56
287.906	81.56
288.138	87.56
288.369	85.56
288.6	90.56
288.831	66.56
289.062	72.56
289.293	86.56
289.524	87.56
289.755	83.56
289.986	88.56
290.217	83.56
290.448	84.56
290.679	79.56
290.91	83.56
291.141	85.56
291.371	87.56
291.602	77.56
291.833	81.56
292.064	90.56
292.295	79.56
292.526	85.56
292.757	72.56
292.987	89.56
293.218	91.56
293.449	89.56
293.68	72.56
293.91	84.56
294.141	84.56
294.372	94.56
294.603	79.56
294.833	84.56
295.064	75.56
295.295	85.56
295.525	82.56
295.756	91.56
295.987	95.56
296.217	91.56
296.448	77.56
296.679	70.56
296.909	81.56
297.14	85.56
297.37	90.56
297.601	95.56
297.831	79.56
298.062	82.56
298.292	83.56
298.523	96.56
298.753	98.56
298.984	78.56
299.214	83.56
299.445	77.56
299.675	91.56
299.905	82.56
300.136	82.56
300.366	76.56
300.597	88.56
300.827	82.56
301.057	80.56
301.288	90.56
301.518	74.56
301.748	76.56
301.979	81.56
302.209	75.56
302.439	73.56
302.669	87.56
302.9	93.56
303.13	97.56
303.36	76.56
303.59	76.56
303.82	89.56
304.051	80.56
304.281	78.56
304.511	87.56
304.741	75.56
304.971	78.56
305.201	87.56
305.431	82.56
305.661	97.56
305.891	84.56
306.121	79.56
306.352	82.56
306.582	90.56
306.812	80.56
307.042	86.56
307.272	93.56
307.502	91.56
307.731	73.56
307.961	75.56
308.191	85.56
308.421	74.56
308.651	77.56
308.881	84.56
309.111	62.56
309.341	90.56
309.571	74.56
309.8	80.56
310.03	76.56
310.26	70.56
310.49	102.56
310.72	88.56
310.949	76.56
311.179	81.56
311.409	80.56
311.639	83.56
311.868	79.56
312.098	74.56
312.328	77.56
312.557	84.56
312.787	83.56
313.017	82.56
313.246	85.56
313.476	79.56
313.706	79.56
313.935	96.56
314.165	70.56
314.394	81.56
314.624	79.56
314.853	87.56
315.083	88.56
315.312	83.56
315.542	72.56
315.771	90.56
316.001	86.56
316.23	91.56
316.46	78.56
316.689	74.56
316.919	77.56
317.148	90.56
317.377	86.56
317.607	87.56
317.836	85.56
318.065	96.56
318.295	76.56
318.524	65.56
318.753	79.56
318.983	74.56
319.212	72.56
319.441	91.56
319.67	85.56
319.9	87.56
320.129	76.56
320.358	85.56
320.587	90.56
320.816	90.56
321.046	84.56
321.275	94.56
321.504	89.56
321.733	82.56
321.962	86.56
322.191	104.56
322.42	89.56
322.649	76.56
322.878	76.56
323.108	88.56
323.337	71.56
323.566	85.56
323.795	86.56
324.024	79.56
324.253	74.56
324.482	85.56
324.71	95.56
324.939	82.56
325.168	81.56
325.397	77.56
325.626	88.56
325.855	89.56
326.084	78.56
326.313	83.56
326.542	88.56
326.77	87.56
326.999	96.56
327.228	77.56
327.457	81.56
327.686	86.56
327.914	88.56
328.143	99.56
328.372	72.56
328.6	88.56
328.829	91.56
329.058	97.56
329.287	88.56
329.515	94.56
329.744	89.56
329.972	89.56
330.201	83.56
330.43	85.56
330.658	83.56
330.887	78.56
331.115	67.56
331.344	83.56
331.572	86.56
331.801	90.56
332.03	76.56
332.258	80.56
332.486	80.56
332.715	86.56
332.943	91.56
333.172	83.56
333.4	78.56
333.629	84.56
333.857	69.56
334.085	81.56
334.314	88.56
334.542	94.56
334.771	83.56
334.999	83.56
335.227	66.56
335.455	86.56
335.684	84.56
335.912	71.56
336.14	92.56
336.369	72.56
336.597	80.56
336.825	81.56
337.053	83.56
337.281	83.56
337.51	88.56
337.738	83.56
337.966	91.56
338.194	92.56
338.422	88.56
338.65	91.56
338.878	100.56
339.106	87.56
339.334	85.56
339.562	97.56
339.79	90.56
340.018	81.56
340.246	89.56
340.474	83.56
340.702	82.56
340.93	88.56
341.158	73.56
341.386	83.56
341.614	85.56
341.842	76.56
342.07	90.56
342.298	80.56
342.526	88.56
342.754	95.56
342.981	99.56
343.209	79.56
343.437	89.56
343.665	80.56
343.893	86.56
344.12	81.56
344.348	89.56
344.576	90.56
344.804	87.56
345.031	82.56
345.259	96.56
345.487	83.56
345.714	86.56
345.942	86.56
346.17	70.56
346.397	84.56
346.625	90.56
346.853	89.56
347.08	82.56
347.308	98.56
347.535	94.56
347.763	82.56
347.99	90.56
348.218	91.56
348.445	93.56
348.673	86.56
348.9	88.56
349.128	94.56
349.355	93.56
349.583	100.56
349.81	97.56
350.037	66.56
350.265	81.56
350.492	90.56
350.72	80.56
350.947	87.56
351.174	80.56
351.402	84.56
351.629	75.56
351.856	73.56
352.083	81.56
352.311	74.56
352.538	91.56
352.765	78.56
352.992	88.56
353.22	79.56
353.447	83.56
353.674	88.56
353.901	76.56
354.128	76.56
354.355	81.56
354.583	79.56
354.81	90.56
355.037	97.56
355.264	92.56
355.491	94.56
355.718	87.56
355.945	83.56
356.172	80.56
356.399	91.56
356.626	96.56
356.853	77.56
357.08	76.56
357.307	95.56
357.534	78.56
357.761	81.56
357.988	74.56
358.215	82.56
358.441	80.56
358.668	83.56
358.895	89.56
359.122	77.56
359.349	83.56
359.576	85.56
359.802	83.56
360.029	96.56
360.256	77.56
360.483	79.56
360.709	72.56
360.936	95.56
361.163	88.56
361.39	87.56
361.616	93.56
361.843	88.56
362.07	73.56
362.296	84.56
362.523	96.56
362.749	78.56
362.976	79.56
363.203	98.56
363.429	69.56
363.656	91.56
363.882	78.56
364.109	86.56
364.335	87.56
364.562	80.56
364.788	90.56
365.015	81.56
365.241	80.56
365.468	88.56
365.694	79.56
365.92	72.56
366.147	89.56
366.373	82.56
366.599	86.56
366.826	95.56
367.052	97.56
367.278	92.56
367.505	109.56
367.731	81.56
367.957	87.56
368.184	94.56
368.41	84.56
368.636	97.56
368.862	99.56
369.089	99.56
369.315	84.56
369.541	95.56
369.767	100.56
369.993	94.56
370.219	102.56
370.445	92.56
370.672	87.56
370.898	77.56
371.124	86.56
371.35	100.56
371.576	94.56
371.802	102.56
372.028	102.56
372.254	88.56
372.48	78.56
372.706	88.56
372.932	97.56
373.158	95.56
373.384	94.56
373.61	100.56
373.835	100.56
374.061	101.56
374.287	93.56
374.513	88.56
374.739	78.56
374.965	88.56
375.191	98.56
375.416	96.56
375.642	106.56
375.868	115.56
376.094	95.56
376.319	95.56
376.545	98.56
376.771	102.56
376.997	100.56
377.222	82.56
377.448	87.56
377.674	98.56
377.899	91.56
378.125	106.56
378.35	91.56
378.576	98.56
378.802	86.56
379.027	109.56
379.253	90.56
379.478	92.56
379.704	97.56
379.929	106.56
380.155	103.56
380.38	95.56
380.606	95.56
380.831	98.56
381.057	115.56
381.282	86.56
381.507	96.56
381.733	97.56
381.958	101.56
382.184	95.56
382.409	86.56
382.634	78.56
382.86	105.56
383.085	96.56
383.31	86.56
383.535	89.56
383.761	100.56
383.986	103.56
384.211	92.56
384.436	96.56
384.662	103.56
384.887	94.56
385.112	85.56
385.337	102.56
385.562	115.56
385.787	103.56
386.013	105.56
386.238	94.56
386.463	97.56
386.688	99.56
386.913	109.56
387.138	99.56
387.363	98.56
387.588	105.56
387.813	113.56
388.038	85.56
388.263	106.56
388.488	102.56
388.713	92.56
388.938	104.56
389.163	106.56
389.387	107.56
389.612	112.56
389.837	119.56
390.062	113.56
390.287	118.56
390.512	87.56
390.736	99.56
390.961	110.56
391.186	93.56
391.411	92.56
391.636	109.56
391.86	97.56
392.085	124.56
392.31	111.56
392.534	114.56
392.759	118.56
392.984	101.56
393.208	102.56
393.433	97.56
393.658	113.56
393.882	93.56
394.107	104.56
394.331	118.56
394.556	109.56
394.78	105.56
395.005	126.56
395.229	120.56
395.454	122.56
395.678	111.56
395.903	113.56
396.127	117.56
396.352	101.56
396.576	99.56
396.801	109.56
397.025	113.56
397.249	104.56
397.474	121.56
397.698	99.56
397.922	112.56
398.147	113.56
398.371	91.56
398.595	103.56
398.82	110.56
399.044	120.56
399.268	104.56
399.492	115.56
399.717	109.56
399.941	121.56
400.165	130.56
400.389	121.56
400.613	115.56
400.837	111.56
401.062	109.56
401.286	123.56
401.51	113.56
401.734	117.56
401.958	112.56
402.182	117.56
402.406	121.56
402.63	119.56
402.854	116.56
403.078	127.56
403.302	119.56
403.526	119.56
403.75	118.56
403.974	110.56
404.198	119.56
404.422	105.56
404.645	113.56
404.869	113.56
405.093	113.56
405.317	114.56
405.541	123.56
405.765	108.56
405.988	98.56
406.212	111.56
406.436	113.56
406.66	130.56
406.883	122.56
407.107	123.56
407.331	119.56
407.555	130.56
407.778	113.56
408.002	106.56
408.226	129.56
408.449	122.56
408.673	114.56
408.896	123.56
409.12	120.56
409.344	115.56
409.567	117.56
409.791	124.56
410.014	128.56
410.238	134.56
410.461	133.56
410.685	126.56
410.908	129.56
411.132	132.56
411.355	125.56
411.578	133.56
411.802	129.56
412.025	118.56
412.249	117.56
412.472	128.56
412.695	106.56
412.919	121.56
413.142	121.56
413.365	126.56
413.589	134.56
413.812	122.56
414.035	123.56
414.258	131.56
414.482	122.56
414.705	135.56
414.928	130.56
415.151	120.56
415.374	130.56
415.597	120.56
415.821	126.56
416.044	125.56
416.267	122.56
416.49	133.56
416.713	133.56
416.936	125.56
417.159	117.56
417.382	129.56
417.605	127.56
417.828	139.56
418.051	144.56
418.274	127.56
418.497	144.56
418.72	139.56
418.943	130.56
419.166	147.56
419.389	136.56
419.611	138.56
419.834	131.56
420.057	138.56
420.28	143.56
420.503	133.56
420.726	131.56
420.948	138.56
421.171	140.56
421.394	140.56
421.617	140.56
421.839	131.56
422.062	145.56
422.285	138.56
422.507	137.56
422.73	123.56
422.953	130.56
423.175	147.56
423.398	125.56
423.621	124.56
423.843	140.56
424.066	139.56
424.288	158.56
424.511	146.56
424.733	147.56
424.956	139.56
425.178	135.56
425.401	145.56
425.623	136.56
425.846	145.56
426.068	134.56
426.291	128.56
426.513	144.56
426.735	131.56
426.958	135.56
427.18	132.56
427.402	146.56
427.625	129.56
427.847	137.56
428.069	122.56
428.292	127.56
428.514	137.56
428.736	123.56
428.958	112.56
429.181	123.56
429.403	140.56
429.625	133.56
429.847	134.56
430.069	130.56
430.292	135.56
430.514	139.56
430.736	143.56
430.958	144.56
431.18	133.56
431.402	135.56
431.624	111.56
431.846	104.56
432.068	105.56
432.29	89.56
432.512	106.56
432.734	138.56
432.956	139.56
433.178	133.56
433.4	153.56
433.622	143.56
433.844	117.56
434.066	136.56
434.287	110.56
434.509	112.56
434.731	100.56
434.953	105.56
435.175	128.56
435.397	129.56
435.618	124.56
435.84	111.56
436.062	123.56
436.284	136.56
436.505	127.56
436.727	125.56
436.949	131.56
437.17	134.56
437.392	137.56
437.614	114.56
437.835	120.56
438.057	106.56
438.278	111.56
438.5	141.56
438.721	148.56
438.943	149.56
439.165	147.56
439.386	130.56
439.608	153.56
439.829	154.56
440.05	150.56
440.272	147.56
440.493	134.56
440.715	147.56
440.936	149.56
441.158	147.56
441.379	155.56
441.6	153.56
441.822	148.56
442.043	158.56
442.264	157.56
442.486	133.56
442.707	138.56
442.928	146.56
443.149	147.56
443.371	146.56
443.592	141.56
443.813	148.56
444.034	138.56
444.255	153.56
444.476	134.56
444.698	131.56
444.919	132.56
445.14	272.56
445.361	208.56
445.582	144.56
445.803	149.56
446.024	158.56
446.245	147.56
446.466	148.56
446.687	159.56
446.908	169.56
447.129	158.56
447.35	177.56
447.571	156.56
447.792	146.56
448.013	143.56
448.234	154.56
448.455	141.56
448.675	151.56
448.896	135.56
449.117	158.56
449.338	133.56
449.559	138.56
449.779	131.56
450	131.56
450.221	152.56
450.442	127.56
450.662	131.56
450.883	150.56
451.104	140.56
451.324	122.56
451.545	145.56
451.766	132.56
451.986	127.56
452.207	130.56
452.428	137.56
452.648	120.56
452.869	127.56
453.089	122.56
453.31	119.56
453.53	111.56
453.751	101.56
453.971	104.56
454.192	110.56
454.412	100.56
454.633	120.56
454.853	111.56
455.073	117.56
455.294	121.56
455.514	130.56
455.734	127.56
455.955	135.56
456.175	118.56
456.395	115.56
456.616	122.56
456.836	113.56
457.056	115.56
457.276	104.56
457.497	130.56
457.717	114.56
457.937	111.56
458.157	121.56
458.377	101.56
458.598	109.56
458.818	95.56
459.038	98.56
459.258	92.56
459.478	91.56
459.698	95.56
459.918	106.56
460.138	117.56
460.358	118.56
460.578	127.56
460.798	101.56
461.018	118.56
461.238	122.56
461.458	107.56
461.678	122.56
461.898	104.56
462.118	110.56
462.338	113.56
462.558	111.56
462.777	106.56
462.997	104.56
463.217	110.56
463.437	119.56
463.657	112.56
463.876	106.56
464.096	106.56
464.316	125.56
464.536	122.56
464.755	120.56
464.975	106.56
465.195	121.56
465.414	118.56
465.634	126.56
465.854	121.56
466.073	119.56
466.293	118.56
466.512	134.56
466.732	127.56
466.951	144.56
467.171	113.56
467.391	143.56
467.61	137.56
467.829	139.56
468.049	137.56
468.268	137.56
468.488	134.56
468.707	143.56
468.927	147.56
469.146	139.56
469.365	137.56
469.585	125.56
469.804	157.56
470.023	150.56
470.243	140.56
470.462	155.56
470.681	157.56
470.901	143.56
471.12	136.56
471.339	152.56
471.558	153.56
471.777	134.56
471.997	143.56
472.216	144.56
472.435	137.56
472.654	112.56
472.873	125.56
473.092	135.56
473.311	132.56
473.53	126.56
473.749	132.56
473.968	130.56
474.187	134.56
474.406	129.56
474.625	133.56
474.844	129.56
475.063	132.56
475.282	138.56
475.501	125.56
475.72	145.56
475.939	125.56
476.158	135.56
476.377	130.56
476.596	115.56
476.814	125.56
477.033	93.56
477.252	100.56
477.471	126.56
477.69	133.56
477.908	130.56
478.127	138.56
478.346	133.56
478.564	131.56
478.783	144.56
479.002	147.56
479.22	123.56
479.439	145.56
479.658	126.56
479.876	125.56
480.095	121.56
480.313	104.56
480.532	113.56
480.751	117.56
480.969	96.56
481.188	96.56
481.406	96.56
481.624	84.56
481.843	93.56
482.061	88.56
482.28	108.56
482.498	119.56
482.717	105.56
482.935	118.56
483.153	138.56
483.372	159.56
483.59	171.56
483.808	131.56
484.027	130.56
484.245	137.56
484.463	162.56
484.681	151.56
484.9	156.56
485.118	152.56
485.336	133.56
485.554	110.56
485.772	95.56
485.99	95.56
486.209	114.56
486.427	111.56
486.645	130.56
486.863	133.56
487.081	147.56
487.299	131.56
487.517	143.56
487.735	175.56
487.953	201.56
488.171	200.56
488.389	184.56
488.607	157.56
488.825	165.56
489.043	135.56
489.261	138.56
489.479	151.56
489.696	140.56
489.914	153.56
490.132	158.56
490.35	159.56
490.568	171.56
490.786	159.56
491.003	165.56
491.221	185.56
491.439	182.56
491.657	195.56
491.874	206.56
492.092	232.56
492.31	242.56
492.527	241.56
492.745	224.56
492.963	202.56
493.18	194.56
493.398	193.56
493.615	179.56
493.833	190.56
494.05	181.56
494.268	167.56
494.485	187.56
494.703	177.56
494.92	170.56
495.138	175.56
495.355	181.56
495.573	177.56
495.79	171.56
496.008	177.56
496.225	184.56
496.442	167.56
496.66	175.56
496.877	162.56
497.094	173.56
497.312	172.56
497.529	158.56
497.746	146.56
497.963	147.56
498.181	137.56
498.398	123.56
498.615	126.56
498.832	127.56
499.049	125.56
499.267	132.56
499.484	127.56
499.701	134.56
499.918	121.56
500.135	143.56
500.352	147.56
500.569	138.56
500.786	147.56
501.003	142.56
501.22	149.56
501.437	145.56
501.654	126.56
501.871	126.56
502.088	130.56
502.305	139.56
502.522	133.56
502.739	132.56
502.956	132.56
503.172	143.56
503.389	133.56
503.606	125.56
503.823	120.56
504.04	133.56
504.256	110.56
504.473	132.56
504.69	125.56
504.907	131.56
505.123	123.56
505.34	137.56
505.557	134.56
505.773	116.56
505.99	133.56
506.207	127.56
506.423	120.56
506.64	121.56
506.856	123.56
507.073	128.56
507.289	121.56
507.506	129.56
507.722	131.56
507.939	114.56
508.155	123.56
508.372	113.56
508.588	113.56
508.805	119.56
509.021	128.56
509.238	127.56
509.454	98.56
509.67	104.56
509.887	102.56
510.103	89.56
510.319	101.56
510.536	88.56
510.752	80.56
510.968	82.56
511.184	89.56
511.401	87.56
