Data from Location6.07152019.Energy5.Lamp.07192019.3%Agarose_HRD10591_16-13-14-397.txt Node
Date: Fri Jul 19 16:13:14 EDT 2019
User: cochatt
Spectrometer: HR+D1059
Trigger mode: 1
Integration Time (sec): 1.000000E-1
Scans to average: 1
Electric dark correction enabled: true
Nonlinearity correction enabled: false
Boxcar width: 0
XAxis mode: Wavelengths
Number of Pixels in Spectrum: 2048
>>>>>Begin Spectral Data<<<<<
223.165	-26.25
223.4	-26.25
223.635	-26.25
223.869	-15.25
224.104	-11.25
224.338	-20.25
224.573	-0.25
224.808	-22.25
225.042	-5.25
225.277	-8.25
225.511	0.75
225.746	13.75
225.98	7.75
226.215	10.75
226.449	15.75
226.683	6.75
226.918	19.75
227.152	33.75
227.387	32.75
227.621	49.75
227.856	28.75
228.09	51.75
228.324	53.75
228.559	60.75
228.793	53.75
229.027	63.75
229.262	70.75
229.496	74.75
229.73	74.75
229.964	75.75
230.199	80.75
230.433	68.75
230.667	88.75
230.901	76.75
231.136	78.75
231.37	79.75
231.604	64.75
231.838	82.75
232.072	88.75
232.306	72.75
232.541	82.75
232.775	86.75
233.009	70.75
233.243	87.75
233.477	79.75
233.711	73.75
233.945	92.75
234.179	78.75
234.413	74.75
234.647	75.75
234.881	83.75
235.115	81.75
235.349	80.75
235.583	72.75
235.817	87.75
236.051	79.75
236.285	85.75
236.519	94.75
236.753	74.75
236.987	73.75
237.221	89.75
237.455	71.75
237.689	86.75
237.922	85.75
238.156	84.75
238.39	65.75
238.624	74.75
238.858	67.75
239.091	78.75
239.325	75.75
239.559	75.75
239.793	75.75
240.027	78.75
240.26	85.75
240.494	76.75
240.728	74.75
240.961	80.75
241.195	74.75
241.429	85.75
241.662	74.75
241.896	88.75
242.13	82.75
242.363	95.75
242.597	88.75
242.83	81.75
243.064	76.75
243.298	77.75
243.531	65.75
243.765	80.75
243.998	61.75
244.232	86.75
244.465	79.75
244.699	85.75
244.932	85.75
245.166	84.75
245.399	101.75
245.633	69.75
245.866	98.75
246.099	81.75
246.333	71.75
246.566	77.75
246.8	78.75
247.033	69.75
247.266	68.75
247.5	85.75
247.733	75.75
247.966	93.75
248.2	62.75
248.433	76.75
248.666	76.75
248.899	62.75
249.133	81.75
249.366	74.75
249.599	81.75
249.832	84.75
250.066	85.75
250.299	79.75
250.532	86.75
250.765	82.75
250.998	73.75
251.231	94.75
251.465	79.75
251.698	81.75
251.931	87.75
252.164	73.75
252.397	82.75
252.63	73.75
252.863	85.75
253.096	80.75
253.329	82.75
253.562	61.75
253.795	88.75
254.028	76.75
254.261	85.75
254.494	75.75
254.727	91.75
254.96	81.75
255.193	82.75
255.426	87.75
255.659	77.75
255.892	78.75
256.124	81.75
256.357	89.75
256.59	83.75
256.823	78.75
257.056	96.75
257.289	68.75
257.521	79.75
257.754	71.75
257.987	84.75
258.22	93.75
258.452	78.75
258.685	90.75
258.918	89.75
259.151	90.75
259.383	92.75
259.616	83.75
259.849	91.75
260.081	75.75
260.314	81.75
260.547	82.75
260.779	89.75
261.012	85.75
261.244	80.75
261.477	83.75
261.71	91.75
261.942	70.75
262.175	82.75
262.407	72.75
262.64	71.75
262.872	58.75
263.105	75.75
263.337	76.75
263.57	82.75
263.802	88.75
264.035	75.75
264.267	73.75
264.499	77.75
264.732	88.75
264.964	74.75
265.197	83.75
265.429	83.75
265.661	88.75
265.894	84.75
266.126	96.75
266.358	80.75
266.591	79.75
266.823	97.75
267.055	82.75
267.287	99.75
267.52	100.75
267.752	92.75
267.984	76.75
268.216	82.75
268.448	71.75
268.681	79.75
268.913	89.75
269.145	75.75
269.377	77.75
269.609	75.75
269.841	91.75
270.073	76.75
270.306	84.75
270.538	83.75
270.77	95.75
271.002	92.75
271.234	97.75
271.466	86.75
271.698	80.75
271.93	87.75
272.162	80.75
272.394	77.75
272.626	81.75
272.858	88.75
273.09	72.75
273.322	80.75
273.553	92.75
273.785	78.75
274.017	90.75
274.249	65.75
274.481	77.75
274.713	92.75
274.945	82.75
275.176	85.75
275.408	80.75
275.64	89.75
275.872	106.75
276.104	91.75
276.335	80.75
276.567	97.75
276.799	85.75
277.031	81.75
277.262	84.75
277.494	76.75
277.726	83.75
277.957	72.75
278.189	75.75
278.421	65.75
278.652	88.75
278.884	75.75
279.115	86.75
279.347	79.75
279.579	85.75
279.81	85.75
280.042	90.75
280.273	87.75
280.505	81.75
280.736	78.75
280.968	76.75
281.199	79.75
281.431	86.75
281.662	84.75
281.894	92.75
282.125	80.75
282.356	74.75
282.588	98.75
282.819	84.75
283.051	76.75
283.282	100.75
283.513	75.75
283.745	92.75
283.976	73.75
284.207	88.75
284.439	104.75
284.67	86.75
284.901	76.75
285.132	91.75
285.364	84.75
285.595	86.75
285.826	83.75
286.057	89.75
286.288	92.75
286.52	100.75
286.751	89.75
286.982	95.75
287.213	95.75
287.444	83.75
287.675	85.75
287.906	81.75
288.138	76.75
288.369	82.75
288.6	95.75
288.831	72.75
289.062	70.75
289.293	104.75
289.524	80.75
289.755	90.75
289.986	77.75
290.217	75.75
290.448	69.75
290.679	80.75
290.91	83.75
291.141	78.75
291.371	93.75
291.602	92.75
291.833	92.75
292.064	87.75
292.295	77.75
292.526	82.75
292.757	88.75
292.987	93.75
293.218	98.75
293.449	81.75
293.68	88.75
293.91	85.75
294.141	76.75
294.372	75.75
294.603	79.75
294.833	80.75
295.064	71.75
295.295	83.75
295.525	76.75
295.756	82.75
295.987	75.75
296.217	95.75
296.448	82.75
296.679	77.75
296.909	75.75
297.14	80.75
297.37	87.75
297.601	93.75
297.831	86.75
298.062	71.75
298.292	84.75
298.523	78.75
298.753	85.75
298.984	89.75
299.214	78.75
299.445	81.75
299.675	103.75
299.905	99.75
300.136	87.75
300.366	76.75
300.597	89.75
300.827	79.75
301.057	82.75
301.288	85.75
301.518	90.75
301.748	81.75
301.979	74.75
302.209	88.75
302.439	87.75
302.669	84.75
302.9	91.75
303.13	92.75
303.36	96.75
303.59	86.75
303.82	89.75
304.051	73.75
304.281	78.75
304.511	95.75
304.741	82.75
304.971	81.75
305.201	84.75
305.431	86.75
305.661	78.75
305.891	96.75
306.121	83.75
306.352	75.75
306.582	75.75
306.812	82.75
307.042	72.75
307.272	85.75
307.502	81.75
307.731	89.75
307.961	77.75
308.191	89.75
308.421	79.75
308.651	87.75
308.881	75.75
309.111	84.75
309.341	82.75
309.571	76.75
309.8	81.75
310.03	90.75
310.26	72.75
310.49	91.75
310.72	75.75
310.949	68.75
311.179	87.75
311.409	88.75
311.639	90.75
311.868	87.75
312.098	88.75
312.328	99.75
312.557	88.75
312.787	91.75
313.017	85.75
313.246	89.75
313.476	81.75
313.706	99.75
313.935	99.75
314.165	89.75
314.394	88.75
314.624	72.75
314.853	90.75
315.083	72.75
315.312	81.75
315.542	83.75
315.771	73.75
316.001	103.75
316.23	96.75
316.46	89.75
316.689	82.75
316.919	91.75
317.148	86.75
317.377	99.75
317.607	87.75
317.836	89.75
318.065	74.75
318.295	76.75
318.524	86.75
318.753	91.75
318.983	93.75
319.212	74.75
319.441	87.75
319.67	79.75
319.9	79.75
320.129	87.75
320.358	81.75
320.587	77.75
320.816	91.75
321.046	88.75
321.275	86.75
321.504	95.75
321.733	86.75
321.962	73.75
322.191	97.75
322.42	83.75
322.649	90.75
322.878	74.75
323.108	82.75
323.337	77.75
323.566	91.75
323.795	81.75
324.024	76.75
324.253	82.75
324.482	76.75
324.71	82.75
324.939	89.75
325.168	102.75
325.397	99.75
325.626	85.75
325.855	94.75
326.084	106.75
326.313	80.75
326.542	72.75
326.77	72.75
326.999	94.75
327.228	95.75
327.457	103.75
327.686	99.75
327.914	88.75
328.143	87.75
328.372	81.75
328.6	94.75
328.829	78.75
329.058	76.75
329.287	87.75
329.515	80.75
329.744	91.75
329.972	92.75
330.201	86.75
330.43	89.75
330.658	83.75
330.887	86.75
331.115	86.75
331.344	80.75
331.572	89.75
331.801	74.75
332.03	81.75
332.258	84.75
332.486	77.75
332.715	91.75
332.943	83.75
333.172	84.75
333.4	81.75
333.629	70.75
333.857	93.75
334.085	85.75
334.314	83.75
334.542	88.75
334.771	82.75
334.999	75.75
335.227	82.75
335.455	81.75
335.684	77.75
335.912	79.75
336.14	81.75
336.369	89.75
336.597	89.75
336.825	79.75
337.053	89.75
337.281	86.75
337.51	89.75
337.738	90.75
337.966	73.75
338.194	81.75
338.422	81.75
338.65	83.75
338.878	88.75
339.106	78.75
339.334	84.75
339.562	89.75
339.79	78.75
340.018	81.75
340.246	82.75
340.474	79.75
340.702	95.75
340.93	74.75
341.158	78.75
341.386	83.75
341.614	78.75
341.842	98.75
342.07	82.75
342.298	79.75
342.526	82.75
342.754	73.75
342.981	85.75
343.209	85.75
343.437	86.75
343.665	78.75
343.893	92.75
344.12	89.75
344.348	59.75
344.576	76.75
344.804	74.75
345.031	92.75
345.259	85.75
345.487	79.75
345.714	79.75
345.942	93.75
346.17	83.75
346.397	82.75
346.625	85.75
346.853	81.75
347.08	81.75
347.308	79.75
347.535	88.75
347.763	97.75
347.99	72.75
348.218	77.75
348.445	93.75
348.673	77.75
348.9	93.75
349.128	81.75
349.355	85.75
349.583	77.75
349.81	92.75
350.037	83.75
350.265	81.75
350.492	83.75
350.72	96.75
350.947	83.75
351.174	79.75
351.402	92.75
351.629	85.75
351.856	83.75
352.083	84.75
352.311	90.75
352.538	87.75
352.765	88.75
352.992	89.75
353.22	78.75
353.447	90.75
353.674	86.75
353.901	84.75
354.128	89.75
354.355	83.75
354.583	74.75
354.81	81.75
355.037	85.75
355.264	87.75
355.491	73.75
355.718	72.75
355.945	88.75
356.172	100.75
356.399	85.75
356.626	86.75
356.853	82.75
357.08	88.75
357.307	90.75
357.534	79.75
357.761	83.75
357.988	82.75
358.215	96.75
358.441	74.75
358.668	79.75
358.895	77.75
359.122	81.75
359.349	72.75
359.576	83.75
359.802	96.75
360.029	79.75
360.256	84.75
360.483	83.75
360.709	70.75
360.936	96.75
361.163	81.75
361.39	80.75
361.616	90.75
361.843	73.75
362.07	89.75
362.296	99.75
362.523	72.75
362.749	77.75
362.976	78.75
363.203	81.75
363.429	75.75
363.656	87.75
363.882	87.75
364.109	80.75
364.335	93.75
364.562	90.75
364.788	72.75
365.015	90.75
365.241	83.75
365.468	99.75
365.694	80.75
365.92	82.75
366.147	79.75
366.373	71.75
366.599	76.75
366.826	86.75
367.052	81.75
367.278	93.75
367.505	97.75
367.731	86.75
367.957	93.75
368.184	88.75
368.41	89.75
368.636	105.75
368.862	90.75
369.089	105.75
369.315	90.75
369.541	89.75
369.767	95.75
369.993	92.75
370.219	91.75
370.445	82.75
370.672	101.75
370.898	79.75
371.124	78.75
371.35	95.75
371.576	80.75
371.802	91.75
372.028	97.75
372.254	81.75
372.48	77.75
372.706	99.75
372.932	95.75
373.158	102.75
373.384	111.75
373.61	92.75
373.835	99.75
374.061	86.75
374.287	97.75
374.513	92.75
374.739	101.75
374.965	100.75
375.191	105.75
375.416	86.75
375.642	102.75
375.868	108.75
376.094	94.75
376.319	87.75
376.545	70.75
376.771	86.75
376.997	87.75
377.222	88.75
377.448	103.75
377.674	102.75
377.899	98.75
378.125	99.75
378.35	95.75
378.576	88.75
378.802	92.75
379.027	94.75
379.253	93.75
379.478	84.75
379.704	96.75
379.929	83.75
380.155	101.75
380.38	95.75
380.606	98.75
380.831	93.75
381.057	103.75
381.282	89.75
381.507	100.75
381.733	93.75
381.958	94.75
382.184	89.75
382.409	90.75
382.634	103.75
382.86	93.75
383.085	105.75
383.31	101.75
383.535	103.75
383.761	104.75
383.986	100.75
384.211	99.75
384.436	91.75
384.662	92.75
384.887	91.75
385.112	81.75
385.337	97.75
385.562	93.75
385.787	92.75
386.013	107.75
386.238	106.75
386.463	106.75
386.688	105.75
386.913	110.75
387.138	89.75
387.363	93.75
387.588	95.75
387.813	106.75
388.038	101.75
388.263	114.75
388.488	87.75
388.713	96.75
388.938	89.75
389.163	104.75
389.387	109.75
389.612	104.75
389.837	100.75
390.062	100.75
390.287	102.75
390.512	101.75
390.736	97.75
390.961	113.75
391.186	97.75
391.411	104.75
391.636	98.75
391.86	107.75
392.085	98.75
392.31	98.75
392.534	127.75
392.759	113.75
392.984	109.75
393.208	113.75
393.433	107.75
393.658	98.75
393.882	123.75
394.107	111.75
394.331	112.75
394.556	107.75
394.78	111.75
395.005	110.75
395.229	114.75
395.454	97.75
395.678	100.75
395.903	118.75
396.127	111.75
396.352	105.75
396.576	99.75
396.801	101.75
397.025	103.75
397.249	109.75
397.474	116.75
397.698	121.75
397.922	125.75
398.147	126.75
398.371	115.75
398.595	115.75
398.82	116.75
399.044	117.75
399.268	121.75
399.492	107.75
399.717	133.75
399.941	117.75
400.165	112.75
400.389	110.75
400.613	105.75
400.837	125.75
401.062	113.75
401.286	106.75
401.51	119.75
401.734	127.75
401.958	113.75
402.182	123.75
402.406	119.75
402.63	118.75
402.854	127.75
403.078	118.75
403.302	123.75
403.526	123.75
403.75	118.75
403.974	123.75
404.198	119.75
404.422	129.75
404.645	123.75
404.869	124.75
405.093	108.75
405.317	120.75
405.541	120.75
405.765	118.75
405.988	114.75
406.212	115.75
406.436	132.75
406.66	128.75
406.883	129.75
407.107	123.75
407.331	117.75
407.555	123.75
407.778	131.75
408.002	117.75
408.226	121.75
408.449	117.75
408.673	115.75
408.896	129.75
409.12	138.75
409.344	117.75
409.567	122.75
409.791	125.75
410.014	130.75
410.238	118.75
410.461	112.75
410.685	129.75
410.908	122.75
411.132	120.75
411.355	116.75
411.578	124.75
411.802	124.75
412.025	130.75
412.249	115.75
412.472	131.75
412.695	114.75
412.919	131.75
413.142	133.75
413.365	121.75
413.589	120.75
413.812	119.75
414.035	133.75
414.258	128.75
414.482	123.75
414.705	132.75
414.928	147.75
415.151	126.75
415.374	120.75
415.597	119.75
415.821	121.75
416.044	133.75
416.267	130.75
416.49	116.75
416.713	117.75
416.936	119.75
417.159	123.75
417.382	123.75
417.605	139.75
417.828	138.75
418.051	120.75
418.274	142.75
418.497	137.75
418.72	132.75
418.943	135.75
419.166	127.75
419.389	128.75
419.611	128.75
419.834	143.75
420.057	132.75
420.28	124.75
420.503	130.75
420.726	135.75
420.948	138.75
421.171	143.75
421.394	136.75
421.617	144.75
421.839	137.75
422.062	142.75
422.285	122.75
422.507	131.75
422.73	127.75
422.953	125.75
423.175	134.75
423.398	141.75
423.621	129.75
423.843	144.75
424.066	151.75
424.288	139.75
424.511	141.75
424.733	147.75
424.956	141.75
425.178	139.75
425.401	141.75
425.623	141.75
425.846	141.75
426.068	136.75
426.291	136.75
426.513	130.75
426.735	139.75
426.958	117.75
427.18	134.75
427.402	127.75
427.625	137.75
427.847	132.75
428.069	143.75
428.292	119.75
428.514	133.75
428.736	124.75
428.958	125.75
429.181	131.75
429.403	115.75
429.625	127.75
429.847	138.75
430.069	132.75
430.292	123.75
430.514	131.75
430.736	125.75
430.958	134.75
431.18	134.75
431.402	135.75
431.624	120.75
431.846	95.75
432.068	108.75
432.29	109.75
432.512	114.75
432.734	123.75
432.956	147.75
433.178	145.75
433.4	145.75
433.622	150.75
433.844	129.75
434.066	108.75
434.287	99.75
434.509	90.75
434.731	100.75
434.953	108.75
435.175	130.75
435.397	131.75
435.618	115.75
435.84	124.75
436.062	131.75
436.284	145.75
436.505	146.75
436.727	136.75
436.949	145.75
437.17	139.75
437.392	133.75
437.614	125.75
437.835	120.75
438.057	127.75
438.278	116.75
438.5	123.75
438.721	139.75
438.943	152.75
439.165	153.75
439.386	158.75
439.608	156.75
439.829	147.75
440.05	152.75
440.272	145.75
440.493	129.75
440.715	153.75
440.936	152.75
441.158	138.75
441.379	171.75
441.6	173.75
441.822	145.75
442.043	152.75
442.264	145.75
442.486	130.75
442.707	146.75
442.928	147.75
443.149	136.75
443.371	123.75
443.592	133.75
443.813	151.75
444.034	149.75
444.255	161.75
444.476	148.75
444.698	156.75
444.919	162.75
445.14	280.75
445.361	207.75
445.582	151.75
445.803	151.75
446.024	161.75
446.245	161.75
446.466	150.75
446.687	168.75
446.908	153.75
447.129	169.75
447.35	163.75
447.571	156.75
447.792	143.75
448.013	147.75
448.234	148.75
448.455	145.75
448.675	150.75
448.896	134.75
449.117	148.75
449.338	138.75
449.559	147.75
449.779	137.75
450	134.75
450.221	132.75
450.442	138.75
450.662	144.75
450.883	149.75
451.104	129.75
451.324	141.75
451.545	131.75
451.766	117.75
451.986	135.75
452.207	148.75
452.428	130.75
452.648	136.75
452.869	125.75
453.089	128.75
453.31	125.75
453.53	102.75
453.751	95.75
453.971	94.75
454.192	101.75
454.412	119.75
454.633	112.75
454.853	123.75
455.073	126.75
455.294	113.75
455.514	137.75
455.734	127.75
455.955	112.75
456.175	120.75
456.395	114.75
456.616	111.75
456.836	131.75
457.056	112.75
457.276	104.75
457.497	110.75
457.717	115.75
457.937	106.75
458.157	104.75
458.377	107.75
458.598	90.75
458.818	104.75
459.038	94.75
459.258	90.75
459.478	91.75
459.698	102.75
459.918	103.75
460.138	111.75
460.358	121.75
460.578	116.75
460.798	123.75
461.018	133.75
461.238	127.75
461.458	129.75
461.678	116.75
461.898	111.75
462.118	109.75
462.338	110.75
462.558	105.75
462.777	106.75
462.997	118.75
463.217	116.75
463.437	111.75
463.657	109.75
463.876	113.75
464.096	116.75
464.316	122.75
464.536	118.75
464.755	119.75
464.975	117.75
465.195	96.75
465.414	109.75
465.634	139.75
465.854	131.75
466.073	131.75
466.293	117.75
466.512	135.75
466.732	134.75
466.951	142.75
467.171	156.75
467.391	131.75
467.61	138.75
467.829	164.75
468.049	147.75
468.268	142.75
468.488	141.75
468.707	149.75
468.927	132.75
469.146	147.75
469.365	135.75
469.585	151.75
469.804	145.75
470.023	143.75
470.243	145.75
470.462	156.75
470.681	150.75
470.901	137.75
471.12	150.75
471.339	144.75
471.558	145.75
471.777	147.75
471.997	139.75
472.216	133.75
472.435	130.75
472.654	111.75
472.873	112.75
473.092	110.75
473.311	123.75
473.53	140.75
473.749	139.75
473.968	127.75
474.187	139.75
474.406	135.75
474.625	131.75
474.844	125.75
475.063	133.75
475.282	127.75
475.501	118.75
475.72	123.75
475.939	115.75
476.158	121.75
476.377	128.75
476.596	126.75
476.814	133.75
477.033	103.75
477.252	112.75
477.471	133.75
477.69	140.75
477.908	154.75
478.127	146.75
478.346	150.75
478.564	143.75
478.783	140.75
479.002	159.75
479.22	157.75
479.439	123.75
479.658	131.75
479.876	130.75
480.095	118.75
480.313	119.75
480.532	127.75
480.751	119.75
480.969	80.75
481.188	81.75
481.406	94.75
481.624	85.75
481.843	95.75
482.061	111.75
482.28	111.75
482.498	119.75
482.717	108.75
482.935	123.75
483.153	147.75
483.372	151.75
483.59	155.75
483.808	135.75
484.027	127.75
484.245	139.75
484.463	167.75
484.681	168.75
484.9	150.75
485.118	150.75
485.336	129.75
485.554	127.75
485.772	103.75
485.99	119.75
486.209	127.75
486.427	100.75
486.645	111.75
486.863	138.75
487.081	149.75
487.299	142.75
487.517	149.75
487.735	170.75
487.953	201.75
488.171	196.75
488.389	187.75
488.607	165.75
488.825	151.75
489.043	133.75
489.261	145.75
489.479	143.75
489.696	155.75
489.914	145.75
490.132	135.75
490.35	164.75
490.568	170.75
490.786	169.75
491.003	196.75
491.221	173.75
491.439	195.75
491.657	185.75
491.874	215.75
492.092	236.75
492.31	260.75
492.527	256.75
492.745	209.75
492.963	201.75
493.18	187.75
493.398	185.75
493.615	184.75
493.833	184.75
494.05	180.75
494.268	196.75
494.485	176.75
494.703	187.75
494.92	177.75
495.138	176.75
495.355	184.75
495.573	187.75
495.79	197.75
496.008	188.75
496.225	165.75
496.442	163.75
496.66	166.75
496.877	168.75
497.094	156.75
497.312	178.75
497.529	179.75
497.746	153.75
497.963	151.75
498.181	157.75
498.398	140.75
498.615	122.75
498.832	137.75
499.049	133.75
499.267	122.75
499.484	127.75
499.701	136.75
499.918	135.75
500.135	140.75
500.352	155.75
500.569	163.75
500.786	147.75
501.003	157.75
501.22	151.75
501.437	135.75
501.654	152.75
501.871	149.75
502.088	142.75
502.305	138.75
502.522	123.75
502.739	124.75
502.956	138.75
503.172	126.75
503.389	117.75
503.606	128.75
503.823	122.75
504.04	134.75
504.256	119.75
504.473	134.75
504.69	139.75
504.907	128.75
505.123	133.75
505.34	131.75
505.557	129.75
505.773	134.75
505.99	127.75
506.207	120.75
506.423	114.75
506.64	123.75
506.856	121.75
507.073	124.75
507.289	131.75
507.506	126.75
507.722	114.75
507.939	127.75
508.155	113.75
508.372	115.75
508.588	105.75
508.805	99.75
509.021	113.75
509.238	103.75
509.454	108.75
509.67	100.75
509.887	104.75
510.103	88.75
510.319	102.75
510.536	106.75
510.752	93.75
510.968	82.75
511.184	88.75
511.401	79.75
