Data from Location6.07152019.Energy5.Lamp.07192019.3%Agarose_HRD10591_16-11-39-394.txt Node
Date: Fri Jul 19 16:11:39 EDT 2019
User: cochatt
Spectrometer: HR+D1059
Trigger mode: 1
Integration Time (sec): 1.000000E-1
Scans to average: 1
Electric dark correction enabled: true
Nonlinearity correction enabled: false
Boxcar width: 0
XAxis mode: Wavelengths
Number of Pixels in Spectrum: 2048
>>>>>Begin Spectral Data<<<<<
223.165	-5.88
223.4	-5.88
223.635	-5.88
223.869	-20.88
224.104	-11.88
224.338	-25.88
224.573	-9.88
224.808	-11.88
225.042	-7.88
225.277	-0.88
225.511	1.12
225.746	-5.88
225.98	0.12
226.215	0.12
226.449	20.12
226.683	25.12
226.918	39.12
227.152	15.12
227.387	30.12
227.621	28.12
227.856	29.12
228.09	47.12
228.324	51.12
228.559	49.12
228.793	63.12
229.027	51.12
229.262	58.12
229.496	54.12
229.73	57.12
229.964	73.12
230.199	70.12
230.433	67.12
230.667	71.12
230.901	67.12
231.136	73.12
231.37	68.12
231.604	74.12
231.838	69.12
232.072	73.12
232.306	79.12
232.541	67.12
232.775	63.12
233.009	85.12
233.243	75.12
233.477	81.12
233.711	84.12
233.945	88.12
234.179	85.12
234.413	74.12
234.647	73.12
234.881	73.12
235.115	74.12
235.349	79.12
235.583	83.12
235.817	61.12
236.051	72.12
236.285	72.12
236.519	61.12
236.753	81.12
236.987	67.12
237.221	81.12
237.455	66.12
237.689	53.12
237.922	77.12
238.156	63.12
238.39	65.12
238.624	69.12
238.858	64.12
239.091	69.12
239.325	88.12
239.559	66.12
239.793	77.12
240.027	74.12
240.26	72.12
240.494	53.12
240.728	68.12
240.961	64.12
241.195	84.12
241.429	77.12
241.662	72.12
241.896	72.12
242.13	77.12
242.363	72.12
242.597	77.12
242.83	83.12
243.064	69.12
243.298	83.12
243.531	65.12
243.765	74.12
243.998	70.12
244.232	75.12
244.465	67.12
244.699	72.12
244.932	66.12
245.166	76.12
245.399	69.12
245.633	78.12
245.866	79.12
246.099	81.12
246.333	69.12
246.566	68.12
246.8	70.12
247.033	85.12
247.266	64.12
247.5	86.12
247.733	70.12
247.966	73.12
248.2	66.12
248.433	63.12
248.666	70.12
248.899	72.12
249.133	68.12
249.366	76.12
249.599	73.12
249.832	75.12
250.066	72.12
250.299	71.12
250.532	69.12
250.765	61.12
250.998	62.12
251.231	60.12
251.465	77.12
251.698	73.12
251.931	85.12
252.164	84.12
252.397	80.12
252.63	78.12
252.863	85.12
253.096	62.12
253.329	67.12
253.562	77.12
253.795	81.12
254.028	68.12
254.261	68.12
254.494	73.12
254.727	80.12
254.96	80.12
255.193	77.12
255.426	84.12
255.659	85.12
255.892	86.12
256.124	77.12
256.357	71.12
256.59	75.12
256.823	75.12
257.056	79.12
257.289	81.12
257.521	64.12
257.754	68.12
257.987	60.12
258.22	62.12
258.452	65.12
258.685	73.12
258.918	70.12
259.151	81.12
259.383	80.12
259.616	76.12
259.849	81.12
260.081	73.12
260.314	71.12
260.547	71.12
260.779	68.12
261.012	81.12
261.244	77.12
261.477	80.12
261.71	85.12
261.942	63.12
262.175	83.12
262.407	74.12
262.64	82.12
262.872	75.12
263.105	77.12
263.337	80.12
263.57	72.12
263.802	84.12
264.035	79.12
264.267	88.12
264.499	73.12
264.732	62.12
264.964	77.12
265.197	85.12
265.429	68.12
265.661	72.12
265.894	89.12
266.126	79.12
266.358	80.12
266.591	77.12
266.823	81.12
267.055	74.12
267.287	82.12
267.52	83.12
267.752	84.12
267.984	92.12
268.216	73.12
268.448	64.12
268.681	60.12
268.913	71.12
269.145	76.12
269.377	82.12
269.609	109.12
269.841	75.12
270.073	91.12
270.306	75.12
270.538	80.12
270.77	70.12
271.002	80.12
271.234	74.12
271.466	91.12
271.698	73.12
271.93	80.12
272.162	71.12
272.394	85.12
272.626	78.12
272.858	81.12
273.09	77.12
273.322	74.12
273.553	72.12
273.785	76.12
274.017	75.12
274.249	84.12
274.481	65.12
274.713	84.12
274.945	79.12
275.176	69.12
275.408	87.12
275.64	72.12
275.872	75.12
276.104	65.12
276.335	82.12
276.567	84.12
276.799	57.12
277.031	66.12
277.262	88.12
277.494	79.12
277.726	79.12
277.957	77.12
278.189	101.12
278.421	79.12
278.652	85.12
278.884	76.12
279.115	88.12
279.347	67.12
279.579	77.12
279.81	70.12
280.042	73.12
280.273	73.12
280.505	72.12
280.736	72.12
280.968	85.12
281.199	83.12
281.431	87.12
281.662	77.12
281.894	86.12
282.125	72.12
282.356	77.12
282.588	67.12
282.819	83.12
283.051	80.12
283.282	79.12
283.513	86.12
283.745	84.12
283.976	85.12
284.207	83.12
284.439	81.12
284.67	91.12
284.901	88.12
285.132	86.12
285.364	75.12
285.595	72.12
285.826	69.12
286.057	82.12
286.288	68.12
286.52	68.12
286.751	72.12
286.982	80.12
287.213	88.12
287.444	80.12
287.675	87.12
287.906	84.12
288.138	94.12
288.369	61.12
288.6	81.12
288.831	81.12
289.062	75.12
289.293	88.12
289.524	81.12
289.755	77.12
289.986	71.12
290.217	76.12
290.448	79.12
290.679	80.12
290.91	79.12
291.141	71.12
291.371	78.12
291.602	77.12
291.833	79.12
292.064	83.12
292.295	86.12
292.526	89.12
292.757	65.12
292.987	88.12
293.218	81.12
293.449	77.12
293.68	85.12
293.91	68.12
294.141	85.12
294.372	98.12
294.603	88.12
294.833	76.12
295.064	76.12
295.295	80.12
295.525	73.12
295.756	77.12
295.987	81.12
296.217	86.12
296.448	76.12
296.679	72.12
296.909	98.12
297.14	82.12
297.37	84.12
297.601	71.12
297.831	76.12
298.062	85.12
298.292	71.12
298.523	85.12
298.753	85.12
298.984	83.12
299.214	81.12
299.445	83.12
299.675	74.12
299.905	84.12
300.136	69.12
300.366	77.12
300.597	89.12
300.827	85.12
301.057	72.12
301.288	68.12
301.518	78.12
301.748	83.12
301.979	92.12
302.209	75.12
302.439	84.12
302.669	83.12
302.9	67.12
303.13	86.12
303.36	69.12
303.59	94.12
303.82	78.12
304.051	76.12
304.281	79.12
304.511	88.12
304.741	80.12
304.971	81.12
305.201	78.12
305.431	87.12
305.661	68.12
305.891	75.12
306.121	79.12
306.352	74.12
306.582	78.12
306.812	73.12
307.042	81.12
307.272	81.12
307.502	69.12
307.731	70.12
307.961	74.12
308.191	72.12
308.421	82.12
308.651	101.12
308.881	87.12
309.111	96.12
309.341	80.12
309.571	69.12
309.8	72.12
310.03	88.12
310.26	73.12
310.49	85.12
310.72	93.12
310.949	74.12
311.179	87.12
311.409	68.12
311.639	82.12
311.868	100.12
312.098	76.12
312.328	72.12
312.557	84.12
312.787	77.12
313.017	88.12
313.246	84.12
313.476	62.12
313.706	79.12
313.935	84.12
314.165	84.12
314.394	77.12
314.624	81.12
314.853	80.12
315.083	80.12
315.312	86.12
315.542	59.12
315.771	76.12
316.001	91.12
316.23	69.12
316.46	79.12
316.689	99.12
316.919	96.12
317.148	86.12
317.377	63.12
317.607	76.12
317.836	86.12
318.065	85.12
318.295	100.12
318.524	70.12
318.753	87.12
318.983	78.12
319.212	80.12
319.441	85.12
319.67	77.12
319.9	66.12
320.129	83.12
320.358	76.12
320.587	87.12
320.816	86.12
321.046	92.12
321.275	89.12
321.504	85.12
321.733	84.12
321.962	65.12
322.191	75.12
322.42	88.12
322.649	79.12
322.878	84.12
323.108	81.12
323.337	72.12
323.566	94.12
323.795	77.12
324.024	71.12
324.253	79.12
324.482	84.12
324.71	90.12
324.939	90.12
325.168	82.12
325.397	82.12
325.626	93.12
325.855	84.12
326.084	74.12
326.313	77.12
326.542	89.12
326.77	83.12
326.999	64.12
327.228	79.12
327.457	68.12
327.686	95.12
327.914	77.12
328.143	79.12
328.372	59.12
328.6	70.12
328.829	88.12
329.058	81.12
329.287	71.12
329.515	91.12
329.744	88.12
329.972	93.12
330.201	74.12
330.43	74.12
330.658	75.12
330.887	76.12
331.115	80.12
331.344	61.12
331.572	81.12
331.801	79.12
332.03	79.12
332.258	94.12
332.486	82.12
332.715	83.12
332.943	86.12
333.172	82.12
333.4	86.12
333.629	87.12
333.857	80.12
334.085	86.12
334.314	96.12
334.542	71.12
334.771	80.12
334.999	77.12
335.227	68.12
335.455	73.12
335.684	52.12
335.912	70.12
336.14	79.12
336.369	78.12
336.597	87.12
336.825	83.12
337.053	76.12
337.281	85.12
337.51	69.12
337.738	94.12
337.966	67.12
338.194	81.12
338.422	78.12
338.65	99.12
338.878	85.12
339.106	86.12
339.334	97.12
339.562	93.12
339.79	90.12
340.018	87.12
340.246	77.12
340.474	97.12
340.702	94.12
340.93	61.12
341.158	91.12
341.386	92.12
341.614	89.12
341.842	91.12
342.07	78.12
342.298	74.12
342.526	75.12
342.754	77.12
342.981	77.12
343.209	87.12
343.437	81.12
343.665	86.12
343.893	85.12
344.12	85.12
344.348	73.12
344.576	78.12
344.804	75.12
345.031	75.12
345.259	88.12
345.487	75.12
345.714	85.12
345.942	83.12
346.17	86.12
346.397	75.12
346.625	67.12
346.853	81.12
347.08	77.12
347.308	85.12
347.535	85.12
347.763	79.12
347.99	69.12
348.218	92.12
348.445	83.12
348.673	80.12
348.9	77.12
349.128	71.12
349.355	72.12
349.583	79.12
349.81	73.12
350.037	84.12
350.265	84.12
350.492	87.12
350.72	76.12
350.947	82.12
351.174	92.12
351.402	82.12
351.629	87.12
351.856	87.12
352.083	69.12
352.311	81.12
352.538	85.12
352.765	78.12
352.992	79.12
353.22	63.12
353.447	68.12
353.674	70.12
353.901	85.12
354.128	68.12
354.355	64.12
354.583	76.12
354.81	93.12
355.037	83.12
355.264	80.12
355.491	75.12
355.718	71.12
355.945	69.12
356.172	86.12
356.399	82.12
356.626	75.12
356.853	79.12
357.08	82.12
357.307	84.12
357.534	65.12
357.761	84.12
357.988	85.12
358.215	80.12
358.441	95.12
358.668	76.12
358.895	79.12
359.122	83.12
359.349	77.12
359.576	91.12
359.802	89.12
360.029	88.12
360.256	97.12
360.483	76.12
360.709	79.12
360.936	83.12
361.163	85.12
361.39	85.12
361.616	90.12
361.843	84.12
362.07	95.12
362.296	90.12
362.523	84.12
362.749	74.12
362.976	65.12
363.203	84.12
363.429	81.12
363.656	75.12
363.882	67.12
364.109	85.12
364.335	79.12
364.562	81.12
364.788	76.12
365.015	79.12
365.241	89.12
365.468	91.12
365.694	79.12
365.92	70.12
366.147	87.12
366.373	73.12
366.599	82.12
366.826	73.12
367.052	81.12
367.278	83.12
367.505	85.12
367.731	81.12
367.957	94.12
368.184	85.12
368.41	100.12
368.636	93.12
368.862	101.12
369.089	82.12
369.315	92.12
369.541	98.12
369.767	69.12
369.993	67.12
370.219	81.12
370.445	87.12
370.672	92.12
370.898	82.12
371.124	74.12
371.35	88.12
371.576	87.12
371.802	80.12
372.028	87.12
372.254	94.12
372.48	78.12
372.706	86.12
372.932	81.12
373.158	92.12
373.384	79.12
373.61	91.12
373.835	88.12
374.061	80.12
374.287	87.12
374.513	92.12
374.739	97.12
374.965	95.12
375.191	91.12
375.416	89.12
375.642	115.12
375.868	89.12
376.094	86.12
376.319	94.12
376.545	98.12
376.771	86.12
376.997	88.12
377.222	89.12
377.448	89.12
377.674	87.12
377.899	83.12
378.125	79.12
378.35	86.12
378.576	96.12
378.802	79.12
379.027	93.12
379.253	93.12
379.478	89.12
379.704	101.12
379.929	98.12
380.155	91.12
380.38	83.12
380.606	91.12
380.831	101.12
381.057	99.12
381.282	85.12
381.507	94.12
381.733	89.12
381.958	101.12
382.184	83.12
382.409	93.12
382.634	96.12
382.86	91.12
383.085	115.12
383.31	90.12
383.535	94.12
383.761	103.12
383.986	88.12
384.211	89.12
384.436	82.12
384.662	95.12
384.887	94.12
385.112	94.12
385.337	92.12
385.562	95.12
385.787	97.12
386.013	109.12
386.238	96.12
386.463	92.12
386.688	108.12
386.913	95.12
387.138	97.12
387.363	98.12
387.588	103.12
387.813	91.12
388.038	99.12
388.263	76.12
388.488	110.12
388.713	93.12
388.938	97.12
389.163	74.12
389.387	93.12
389.612	93.12
389.837	92.12
390.062	108.12
390.287	110.12
390.512	100.12
390.736	107.12
390.961	111.12
391.186	101.12
391.411	100.12
391.636	104.12
391.86	97.12
392.085	103.12
392.31	106.12
392.534	84.12
392.759	87.12
392.984	98.12
393.208	99.12
393.433	102.12
393.658	94.12
393.882	100.12
394.107	107.12
394.331	109.12
394.556	108.12
394.78	110.12
395.005	105.12
395.229	93.12
395.454	108.12
395.678	100.12
395.903	118.12
396.127	113.12
396.352	114.12
396.576	109.12
396.801	115.12
397.025	95.12
397.249	123.12
397.474	105.12
397.698	119.12
397.922	113.12
398.147	104.12
398.371	101.12
398.595	111.12
398.82	107.12
399.044	101.12
399.268	95.12
399.492	112.12
399.717	103.12
399.941	105.12
400.165	102.12
400.389	117.12
400.613	97.12
400.837	119.12
401.062	119.12
401.286	116.12
401.51	120.12
401.734	118.12
401.958	116.12
402.182	111.12
402.406	113.12
402.63	107.12
402.854	104.12
403.078	108.12
403.302	107.12
403.526	100.12
403.75	110.12
403.974	114.12
404.198	132.12
404.422	105.12
404.645	115.12
404.869	123.12
405.093	109.12
405.317	114.12
405.541	112.12
405.765	115.12
405.988	119.12
406.212	116.12
406.436	118.12
406.66	123.12
406.883	120.12
407.107	105.12
407.331	118.12
407.555	100.12
407.778	107.12
408.002	115.12
408.226	124.12
408.449	117.12
408.673	118.12
408.896	133.12
409.12	116.12
409.344	122.12
409.567	112.12
409.791	118.12
410.014	122.12
410.238	109.12
410.461	127.12
410.685	121.12
410.908	126.12
411.132	118.12
411.355	115.12
411.578	131.12
411.802	133.12
412.025	130.12
412.249	119.12
412.472	123.12
412.695	115.12
412.919	114.12
413.142	119.12
413.365	128.12
413.589	124.12
413.812	123.12
414.035	131.12
414.258	119.12
414.482	117.12
414.705	133.12
414.928	103.12
415.151	132.12
415.374	122.12
415.597	118.12
415.821	137.12
416.044	125.12
416.267	119.12
416.49	108.12
416.713	118.12
416.936	129.12
417.159	116.12
417.382	120.12
417.605	115.12
417.828	131.12
418.051	126.12
418.274	123.12
418.497	140.12
418.72	111.12
418.943	134.12
419.166	128.12
419.389	125.12
419.611	129.12
419.834	143.12
420.057	131.12
420.28	124.12
420.503	125.12
420.726	144.12
420.948	137.12
421.171	138.12
421.394	142.12
421.617	138.12
421.839	137.12
422.062	148.12
422.285	128.12
422.507	148.12
422.73	138.12
422.953	123.12
423.175	112.12
423.398	125.12
423.621	143.12
423.843	117.12
424.066	129.12
424.288	140.12
424.511	142.12
424.733	157.12
424.956	143.12
425.178	123.12
425.401	125.12
425.623	131.12
425.846	151.12
426.068	140.12
426.291	127.12
426.513	132.12
426.735	128.12
426.958	135.12
427.18	137.12
427.402	137.12
427.625	135.12
427.847	143.12
428.069	136.12
428.292	127.12
428.514	135.12
428.736	136.12
428.958	128.12
429.181	129.12
429.403	128.12
429.625	121.12
429.847	125.12
430.069	122.12
430.292	121.12
430.514	132.12
430.736	134.12
430.958	132.12
431.18	131.12
431.402	126.12
431.624	109.12
431.846	117.12
432.068	107.12
432.29	108.12
432.512	96.12
432.734	127.12
432.956	131.12
433.178	127.12
433.4	144.12
433.622	132.12
433.844	136.12
434.066	112.12
434.287	115.12
434.509	91.12
434.731	93.12
434.953	103.12
435.175	125.12
435.397	124.12
435.618	101.12
435.84	104.12
436.062	115.12
436.284	107.12
436.505	136.12
436.727	141.12
436.949	123.12
437.17	120.12
437.392	145.12
437.614	122.12
437.835	105.12
438.057	97.12
438.278	122.12
438.5	123.12
438.721	137.12
438.943	149.12
439.165	135.12
439.386	147.12
439.608	152.12
439.829	142.12
440.05	123.12
440.272	148.12
440.493	137.12
440.715	141.12
440.936	156.12
441.158	142.12
441.379	135.12
441.6	138.12
441.822	135.12
442.043	161.12
442.264	143.12
442.486	144.12
442.707	145.12
442.928	145.12
443.149	136.12
443.371	148.12
443.592	131.12
443.813	157.12
444.034	138.12
444.255	147.12
444.476	141.12
444.698	139.12
444.919	144.12
445.14	292.12
445.361	213.12
445.582	146.12
445.803	146.12
446.024	143.12
446.245	156.12
446.466	172.12
446.687	155.12
446.908	166.12
447.129	162.12
447.35	151.12
447.571	144.12
447.792	142.12
448.013	125.12
448.234	142.12
448.455	147.12
448.675	143.12
448.896	147.12
449.117	138.12
449.338	142.12
449.559	137.12
449.779	150.12
450	131.12
450.221	138.12
450.442	144.12
450.662	135.12
450.883	129.12
451.104	152.12
451.324	125.12
451.545	123.12
451.766	119.12
451.986	131.12
452.207	119.12
452.428	123.12
452.648	115.12
452.869	128.12
453.089	109.12
453.31	101.12
453.53	119.12
453.751	96.12
453.971	113.12
454.192	109.12
454.412	112.12
454.633	115.12
454.853	117.12
455.073	114.12
455.294	128.12
455.514	129.12
455.734	114.12
455.955	114.12
456.175	113.12
456.395	101.12
456.616	105.12
456.836	105.12
457.056	108.12
457.276	95.12
457.497	88.12
457.717	100.12
457.937	123.12
458.157	110.12
458.377	103.12
458.598	109.12
458.818	109.12
459.038	95.12
459.258	82.12
459.478	83.12
459.698	99.12
459.918	92.12
460.138	103.12
460.358	95.12
460.578	122.12
460.798	125.12
461.018	128.12
461.238	120.12
461.458	134.12
461.678	108.12
461.898	117.12
462.118	107.12
462.338	110.12
462.558	112.12
462.777	114.12
462.997	113.12
463.217	105.12
463.437	101.12
463.657	110.12
463.876	115.12
464.096	108.12
464.316	119.12
464.536	94.12
464.755	106.12
464.975	121.12
465.195	120.12
465.414	130.12
465.634	102.12
465.854	123.12
466.073	128.12
466.293	120.12
466.512	122.12
466.732	130.12
466.951	143.12
467.171	133.12
467.391	135.12
467.61	132.12
467.829	125.12
468.049	130.12
468.268	145.12
468.488	135.12
468.707	143.12
468.927	126.12
469.146	137.12
469.365	136.12
469.585	149.12
469.804	147.12
470.023	137.12
470.243	135.12
470.462	143.12
470.681	138.12
470.901	129.12
471.12	144.12
471.339	138.12
471.558	138.12
471.777	135.12
471.997	137.12
472.216	136.12
472.435	119.12
472.654	107.12
472.873	107.12
473.092	97.12
473.311	124.12
473.53	117.12
473.749	119.12
473.968	140.12
474.187	113.12
474.406	124.12
474.625	123.12
474.844	151.12
475.063	131.12
475.282	121.12
475.501	113.12
475.72	124.12
475.939	118.12
476.158	140.12
476.377	118.12
476.596	116.12
476.814	125.12
477.033	120.12
477.252	96.12
477.471	123.12
477.69	138.12
477.908	138.12
478.127	133.12
478.346	141.12
478.564	135.12
478.783	135.12
479.002	139.12
479.22	135.12
479.439	144.12
479.658	114.12
479.876	117.12
480.095	103.12
480.313	126.12
480.532	119.12
480.751	100.12
480.969	86.12
481.188	101.12
481.406	88.12
481.624	87.12
481.843	78.12
482.061	113.12
482.28	121.12
482.498	112.12
482.717	104.12
482.935	118.12
483.153	143.12
483.372	159.12
483.59	159.12
483.808	137.12
484.027	134.12
484.245	142.12
484.463	150.12
484.681	175.12
484.9	149.12
485.118	141.12
485.336	128.12
485.554	118.12
485.772	100.12
485.99	105.12
486.209	109.12
486.427	99.12
486.645	123.12
486.863	146.12
487.081	153.12
487.299	148.12
487.517	141.12
487.735	182.12
487.953	183.12
488.171	177.12
488.389	167.12
488.607	163.12
488.825	150.12
489.043	141.12
489.261	132.12
489.479	139.12
489.696	123.12
489.914	127.12
490.132	145.12
490.35	144.12
490.568	148.12
490.786	165.12
491.003	170.12
491.221	177.12
491.439	190.12
491.657	184.12
491.874	212.12
492.092	238.12
492.31	227.12
492.527	231.12
492.745	210.12
492.963	199.12
493.18	185.12
493.398	159.12
493.615	173.12
493.833	168.12
494.05	183.12
494.268	163.12
494.485	187.12
494.703	172.12
494.92	182.12
495.138	179.12
495.355	190.12
495.573	179.12
495.79	157.12
496.008	171.12
496.225	169.12
496.442	160.12
496.66	186.12
496.877	173.12
497.094	151.12
497.312	154.12
497.529	174.12
497.746	152.12
497.963	143.12
498.181	141.12
498.398	127.12
498.615	125.12
498.832	111.12
499.049	111.12
499.267	128.12
499.484	125.12
499.701	124.12
499.918	139.12
500.135	145.12
500.352	141.12
500.569	136.12
500.786	151.12
501.003	146.12
501.22	157.12
501.437	144.12
501.654	127.12
501.871	136.12
502.088	125.12
502.305	146.12
502.522	129.12
502.739	116.12
502.956	133.12
503.172	137.12
503.389	124.12
503.606	119.12
503.823	131.12
504.04	120.12
504.256	125.12
504.473	130.12
504.69	121.12
504.907	118.12
505.123	116.12
505.34	126.12
505.557	122.12
505.773	135.12
505.99	124.12
506.207	126.12
506.423	116.12
506.64	131.12
506.856	112.12
507.073	119.12
507.289	135.12
507.506	125.12
507.722	120.12
507.939	120.12
508.155	109.12
508.372	111.12
508.588	112.12
508.805	118.12
509.021	123.12
509.238	102.12
509.454	104.12
509.67	94.12
509.887	85.12
510.103	97.12
510.319	91.12
510.536	110.12
510.752	91.12
510.968	88.12
511.184	82.12
511.401	85.12
511.617	93.12
511.833	96.12
512.049	71.12
