Data from Location6.07152019.Energy5.Lamp.07192019.3%Agarose_HRD10591_16-12-46-395.txt Node
Date: Fri Jul 19 16:12:46 EDT 2019
User: cochatt
Spectrometer: HR+D1059
Trigger mode: 1
Integration Time (sec): 1.000000E-1
Scans to average: 1
Electric dark correction enabled: true
Nonlinearity correction enabled: false
Boxcar width: 0
XAxis mode: Wavelengths
Number of Pixels in Spectrum: 2048
>>>>>Begin Spectral Data<<<<<
223.165	0.94
223.4	0.94
223.635	0.94
223.869	-19.06
224.104	-18.06
224.338	-14.06
224.573	-27.06
224.808	-13.06
225.042	-0.06
225.277	0.94
225.511	2.94
225.746	-4.06
225.98	-2.06
226.215	18.94
226.449	6.94
226.683	25.94
226.918	24.94
227.152	15.94
227.387	39.94
227.621	38.94
227.856	38.94
228.09	43.94
228.324	58.94
228.559	57.94
228.793	54.94
229.027	43.94
229.262	67.94
229.496	71.94
229.73	70.94
229.964	75.94
230.199	71.94
230.433	83.94
230.667	83.94
230.901	76.94
231.136	90.94
231.37	87.94
231.604	79.94
231.838	85.94
232.072	86.94
232.306	91.94
232.541	75.94
232.775	97.94
233.009	92.94
233.243	80.94
233.477	84.94
233.711	77.94
233.945	83.94
234.179	81.94
234.413	83.94
234.647	91.94
234.881	84.94
235.115	92.94
235.349	92.94
235.583	90.94
235.817	98.94
236.051	75.94
236.285	72.94
236.519	78.94
236.753	71.94
236.987	78.94
237.221	83.94
237.455	89.94
237.689	89.94
237.922	74.94
238.156	77.94
238.39	87.94
238.624	77.94
238.858	79.94
239.091	67.94
239.325	82.94
239.559	66.94
239.793	94.94
240.027	79.94
240.26	91.94
240.494	92.94
240.728	73.94
240.961	82.94
241.195	83.94
241.429	75.94
241.662	91.94
241.896	79.94
242.13	78.94
242.363	87.94
242.597	95.94
242.83	72.94
243.064	69.94
243.298	71.94
243.531	82.94
243.765	86.94
243.998	76.94
244.232	77.94
244.465	79.94
244.699	88.94
244.932	83.94
245.166	85.94
245.399	72.94
245.633	71.94
245.866	78.94
246.099	91.94
246.333	88.94
246.566	78.94
246.8	88.94
247.033	80.94
247.266	85.94
247.5	87.94
247.733	78.94
247.966	78.94
248.2	82.94
248.433	80.94
248.666	85.94
248.899	68.94
249.133	75.94
249.366	86.94
249.599	81.94
249.832	79.94
250.066	92.94
250.299	76.94
250.532	77.94
250.765	85.94
250.998	84.94
251.231	70.94
251.465	80.94
251.698	94.94
251.931	93.94
252.164	89.94
252.397	90.94
252.63	78.94
252.863	84.94
253.096	78.94
253.329	85.94
253.562	93.94
253.795	82.94
254.028	82.94
254.261	66.94
254.494	89.94
254.727	79.94
254.96	85.94
255.193	77.94
255.426	82.94
255.659	80.94
255.892	90.94
256.124	80.94
256.357	82.94
256.59	82.94
256.823	91.94
257.056	97.94
257.289	81.94
257.521	78.94
257.754	84.94
257.987	76.94
258.22	82.94
258.452	85.94
258.685	68.94
258.918	79.94
259.151	84.94
259.383	78.94
259.616	75.94
259.849	82.94
260.081	82.94
260.314	67.94
260.547	78.94
260.779	73.94
261.012	74.94
261.244	78.94
261.477	75.94
261.71	76.94
261.942	80.94
262.175	84.94
262.407	93.94
262.64	99.94
262.872	82.94
263.105	96.94
263.337	80.94
263.57	75.94
263.802	96.94
264.035	99.94
264.267	82.94
264.499	86.94
264.732	82.94
264.964	89.94
265.197	69.94
265.429	89.94
265.661	83.94
265.894	79.94
266.126	74.94
266.358	86.94
266.591	87.94
266.823	72.94
267.055	82.94
267.287	85.94
267.52	70.94
267.752	93.94
267.984	97.94
268.216	77.94
268.448	89.94
268.681	78.94
268.913	87.94
269.145	79.94
269.377	92.94
269.609	89.94
269.841	97.94
270.073	84.94
270.306	79.94
270.538	85.94
270.77	82.94
271.002	82.94
271.234	78.94
271.466	86.94
271.698	91.94
271.93	81.94
272.162	95.94
272.394	88.94
272.626	83.94
272.858	73.94
273.09	98.94
273.322	89.94
273.553	92.94
273.785	89.94
274.017	85.94
274.249	95.94
274.481	92.94
274.713	86.94
274.945	89.94
275.176	59.94
275.408	87.94
275.64	91.94
275.872	81.94
276.104	92.94
276.335	95.94
276.567	84.94
276.799	72.94
277.031	94.94
277.262	84.94
277.494	87.94
277.726	82.94
277.957	101.94
278.189	92.94
278.421	91.94
278.652	98.94
278.884	87.94
279.115	97.94
279.347	93.94
279.579	87.94
279.81	76.94
280.042	85.94
280.273	90.94
280.505	90.94
280.736	86.94
280.968	89.94
281.199	84.94
281.431	74.94
281.662	81.94
281.894	75.94
282.125	91.94
282.356	77.94
282.588	85.94
282.819	88.94
283.051	93.94
283.282	81.94
283.513	87.94
283.745	84.94
283.976	85.94
284.207	73.94
284.439	74.94
284.67	85.94
284.901	91.94
285.132	97.94
285.364	83.94
285.595	82.94
285.826	82.94
286.057	73.94
286.288	73.94
286.52	89.94
286.751	77.94
286.982	86.94
287.213	92.94
287.444	80.94
287.675	82.94
287.906	84.94
288.138	91.94
288.369	79.94
288.6	71.94
288.831	87.94
289.062	83.94
289.293	82.94
289.524	84.94
289.755	72.94
289.986	91.94
290.217	85.94
290.448	84.94
290.679	87.94
290.91	82.94
291.141	89.94
291.371	78.94
291.602	97.94
291.833	87.94
292.064	91.94
292.295	111.94
292.526	79.94
292.757	93.94
292.987	80.94
293.218	85.94
293.449	83.94
293.68	96.94
293.91	79.94
294.141	101.94
294.372	89.94
294.603	96.94
294.833	65.94
295.064	90.94
295.295	83.94
295.525	77.94
295.756	86.94
295.987	87.94
296.217	90.94
296.448	88.94
296.679	86.94
296.909	81.94
297.14	89.94
297.37	97.94
297.601	86.94
297.831	101.94
298.062	74.94
298.292	85.94
298.523	90.94
298.753	79.94
298.984	70.94
299.214	100.94
299.445	92.94
299.675	90.94
299.905	85.94
300.136	79.94
300.366	77.94
300.597	88.94
300.827	83.94
301.057	84.94
301.288	92.94
301.518	91.94
301.748	100.94
301.979	83.94
302.209	83.94
302.439	78.94
302.669	81.94
302.9	85.94
303.13	85.94
303.36	94.94
303.59	84.94
303.82	93.94
304.051	90.94
304.281	97.94
304.511	97.94
304.741	93.94
304.971	90.94
305.201	98.94
305.431	90.94
305.661	69.94
305.891	69.94
306.121	91.94
306.352	95.94
306.582	88.94
306.812	84.94
307.042	98.94
307.272	88.94
307.502	97.94
307.731	86.94
307.961	86.94
308.191	79.94
308.421	74.94
308.651	85.94
308.881	92.94
309.111	83.94
309.341	79.94
309.571	92.94
309.8	77.94
310.03	99.94
310.26	83.94
310.49	90.94
310.72	83.94
310.949	90.94
311.179	83.94
311.409	70.94
311.639	72.94
311.868	90.94
312.098	92.94
312.328	70.94
312.557	81.94
312.787	85.94
313.017	85.94
313.246	90.94
313.476	77.94
313.706	67.94
313.935	62.94
314.165	94.94
314.394	97.94
314.624	105.94
314.853	98.94
315.083	91.94
315.312	84.94
315.542	85.94
315.771	86.94
316.001	88.94
316.23	86.94
316.46	84.94
316.689	93.94
316.919	94.94
317.148	86.94
317.377	85.94
317.607	84.94
317.836	79.94
318.065	86.94
318.295	103.94
318.524	93.94
318.753	89.94
318.983	91.94
319.212	86.94
319.441	80.94
319.67	100.94
319.9	80.94
320.129	90.94
320.358	91.94
320.587	86.94
320.816	86.94
321.046	89.94
321.275	100.94
321.504	85.94
321.733	85.94
321.962	93.94
322.191	91.94
322.42	89.94
322.649	85.94
322.878	86.94
323.108	68.94
323.337	87.94
323.566	86.94
323.795	91.94
324.024	85.94
324.253	88.94
324.482	84.94
324.71	78.94
324.939	96.94
325.168	96.94
325.397	97.94
325.626	101.94
325.855	83.94
326.084	101.94
326.313	91.94
326.542	91.94
326.77	80.94
326.999	82.94
327.228	85.94
327.457	87.94
327.686	79.94
327.914	85.94
328.143	85.94
328.372	98.94
328.6	90.94
328.829	84.94
329.058	87.94
329.287	103.94
329.515	89.94
329.744	83.94
329.972	107.94
330.201	77.94
330.43	90.94
330.658	79.94
330.887	86.94
331.115	85.94
331.344	91.94
331.572	87.94
331.801	97.94
332.03	93.94
332.258	80.94
332.486	85.94
332.715	86.94
332.943	94.94
333.172	94.94
333.4	69.94
333.629	83.94
333.857	85.94
334.085	89.94
334.314	77.94
334.542	98.94
334.771	88.94
334.999	93.94
335.227	75.94
335.455	84.94
335.684	81.94
335.912	103.94
336.14	91.94
336.369	93.94
336.597	85.94
336.825	71.94
337.053	81.94
337.281	87.94
337.51	78.94
337.738	79.94
337.966	85.94
338.194	93.94
338.422	83.94
338.65	105.94
338.878	82.94
339.106	83.94
339.334	83.94
339.562	77.94
339.79	86.94
340.018	94.94
340.246	86.94
340.474	87.94
340.702	82.94
340.93	79.94
341.158	83.94
341.386	78.94
341.614	71.94
341.842	89.94
342.07	84.94
342.298	89.94
342.526	89.94
342.754	78.94
342.981	86.94
343.209	97.94
343.437	87.94
343.665	99.94
343.893	90.94
344.12	81.94
344.348	75.94
344.576	88.94
344.804	88.94
345.031	68.94
345.259	84.94
345.487	99.94
345.714	94.94
345.942	84.94
346.17	94.94
346.397	90.94
346.625	87.94
346.853	94.94
347.08	91.94
347.308	93.94
347.535	92.94
347.763	92.94
347.99	78.94
348.218	74.94
348.445	78.94
348.673	90.94
348.9	93.94
349.128	93.94
349.355	88.94
349.583	79.94
349.81	89.94
350.037	89.94
350.265	85.94
350.492	87.94
350.72	81.94
350.947	83.94
351.174	90.94
351.402	92.94
351.629	83.94
351.856	95.94
352.083	89.94
352.311	90.94
352.538	82.94
352.765	81.94
352.992	89.94
353.22	75.94
353.447	74.94
353.674	89.94
353.901	100.94
354.128	80.94
354.355	85.94
354.583	79.94
354.81	71.94
355.037	99.94
355.264	67.94
355.491	75.94
355.718	89.94
355.945	80.94
356.172	87.94
356.399	90.94
356.626	62.94
356.853	83.94
357.08	74.94
357.307	79.94
357.534	89.94
357.761	94.94
357.988	88.94
358.215	82.94
358.441	70.94
358.668	87.94
358.895	92.94
359.122	78.94
359.349	81.94
359.576	97.94
359.802	74.94
360.029	100.94
360.256	85.94
360.483	85.94
360.709	114.94
360.936	95.94
361.163	87.94
361.39	85.94
361.616	84.94
361.843	101.94
362.07	99.94
362.296	77.94
362.523	86.94
362.749	92.94
362.976	101.94
363.203	89.94
363.429	91.94
363.656	81.94
363.882	83.94
364.109	94.94
364.335	90.94
364.562	82.94
364.788	100.94
365.015	85.94
365.241	79.94
365.468	85.94
365.694	71.94
365.92	99.94
366.147	71.94
366.373	87.94
366.599	83.94
366.826	90.94
367.052	100.94
367.278	100.94
367.505	94.94
367.731	94.94
367.957	79.94
368.184	92.94
368.41	95.94
368.636	101.94
368.862	95.94
369.089	76.94
369.315	86.94
369.541	91.94
369.767	104.94
369.993	97.94
370.219	90.94
370.445	94.94
370.672	94.94
370.898	97.94
371.124	97.94
371.35	109.94
371.576	91.94
371.802	98.94
372.028	96.94
372.254	107.94
372.48	97.94
372.706	96.94
372.932	110.94
373.158	98.94
373.384	108.94
373.61	89.94
373.835	103.94
374.061	100.94
374.287	93.94
374.513	101.94
374.739	90.94
374.965	97.94
375.191	93.94
375.416	98.94
375.642	108.94
375.868	100.94
376.094	114.94
376.319	101.94
376.545	96.94
376.771	91.94
376.997	104.94
377.222	97.94
377.448	103.94
377.674	107.94
377.899	97.94
378.125	115.94
378.35	93.94
378.576	98.94
378.802	94.94
379.027	98.94
379.253	84.94
379.478	93.94
379.704	94.94
379.929	105.94
380.155	93.94
380.38	100.94
380.606	98.94
380.831	93.94
381.057	94.94
381.282	94.94
381.507	104.94
381.733	108.94
381.958	100.94
382.184	107.94
382.409	101.94
382.634	96.94
382.86	107.94
383.085	111.94
383.31	115.94
383.535	110.94
383.761	107.94
383.986	113.94
384.211	101.94
384.436	114.94
384.662	95.94
384.887	109.94
385.112	103.94
385.337	101.94
385.562	91.94
385.787	103.94
386.013	107.94
386.238	113.94
386.463	108.94
386.688	103.94
386.913	94.94
387.138	117.94
387.363	108.94
387.588	93.94
387.813	116.94
388.038	120.94
388.263	107.94
388.488	92.94
388.713	110.94
388.938	106.94
389.163	97.94
389.387	123.94
389.612	92.94
389.837	118.94
390.062	107.94
390.287	110.94
390.512	110.94
390.736	123.94
390.961	110.94
391.186	102.94
391.411	105.94
391.636	110.94
391.86	99.94
392.085	107.94
392.31	111.94
392.534	109.94
392.759	117.94
392.984	117.94
393.208	124.94
393.433	106.94
393.658	107.94
393.882	126.94
394.107	112.94
394.331	97.94
394.556	106.94
394.78	88.94
395.005	102.94
395.229	106.94
395.454	113.94
395.678	107.94
395.903	109.94
396.127	122.94
396.352	115.94
396.576	110.94
396.801	111.94
397.025	100.94
397.249	132.94
397.474	110.94
397.698	129.94
397.922	118.94
398.147	117.94
398.371	119.94
398.595	99.94
398.82	114.94
399.044	110.94
399.268	134.94
399.492	116.94
399.717	114.94
399.941	117.94
400.165	109.94
400.389	121.94
400.613	135.94
400.837	121.94
401.062	115.94
401.286	106.94
401.51	102.94
401.734	114.94
401.958	125.94
402.182	120.94
402.406	136.94
402.63	133.94
402.854	137.94
403.078	133.94
403.302	125.94
403.526	117.94
403.75	125.94
403.974	119.94
404.198	108.94
404.422	139.94
404.645	124.94
404.869	133.94
405.093	124.94
405.317	113.94
405.541	115.94
405.765	119.94
405.988	123.94
406.212	127.94
406.436	126.94
406.66	125.94
406.883	119.94
407.107	122.94
407.331	126.94
407.555	123.94
407.778	119.94
408.002	134.94
408.226	126.94
408.449	120.94
408.673	121.94
408.896	111.94
409.12	123.94
409.344	128.94
409.567	120.94
409.791	123.94
410.014	133.94
410.238	123.94
410.461	127.94
410.685	131.94
410.908	136.94
411.132	143.94
411.355	144.94
411.578	132.94
411.802	119.94
412.025	122.94
412.249	124.94
412.472	141.94
412.695	130.94
412.919	126.94
413.142	128.94
413.365	134.94
413.589	134.94
413.812	134.94
414.035	131.94
414.258	119.94
414.482	133.94
414.705	126.94
414.928	133.94
415.151	132.94
415.374	132.94
415.597	146.94
415.821	139.94
416.044	131.94
416.267	146.94
416.49	144.94
416.713	123.94
416.936	135.94
417.159	136.94
417.382	146.94
417.605	139.94
417.828	129.94
418.051	127.94
418.274	148.94
418.497	138.94
418.72	140.94
418.943	147.94
419.166	130.94
419.389	149.94
419.611	147.94
419.834	146.94
420.057	147.94
420.28	146.94
420.503	141.94
420.726	136.94
420.948	143.94
421.171	123.94
421.394	133.94
421.617	155.94
421.839	145.94
422.062	147.94
422.285	154.94
422.507	132.94
422.73	134.94
422.953	142.94
423.175	130.94
423.398	147.94
423.621	145.94
423.843	150.94
424.066	139.94
424.288	146.94
424.511	161.94
424.733	163.94
424.956	159.94
425.178	143.94
425.401	130.94
425.623	144.94
425.846	136.94
426.068	141.94
426.291	137.94
426.513	148.94
426.735	152.94
426.958	134.94
427.18	138.94
427.402	135.94
427.625	115.94
427.847	140.94
428.069	131.94
428.292	130.94
428.514	146.94
428.736	131.94
428.958	145.94
429.181	140.94
429.403	137.94
429.625	152.94
429.847	150.94
430.069	138.94
430.292	147.94
430.514	139.94
430.736	132.94
430.958	152.94
431.18	125.94
431.402	132.94
431.624	139.94
431.846	119.94
432.068	94.94
432.29	98.94
432.512	118.94
432.734	133.94
432.956	131.94
433.178	146.94
433.4	160.94
433.622	142.94
433.844	146.94
434.066	147.94
434.287	121.94
434.509	90.94
434.731	83.94
434.953	124.94
435.175	146.94
435.397	118.94
435.618	120.94
435.84	118.94
436.062	112.94
436.284	117.94
436.505	129.94
436.727	137.94
436.949	135.94
437.17	139.94
437.392	137.94
437.614	133.94
437.835	131.94
438.057	117.94
438.278	133.94
438.5	138.94
438.721	155.94
438.943	145.94
439.165	142.94
439.386	153.94
439.608	152.94
439.829	158.94
440.05	154.94
440.272	146.94
440.493	154.94
440.715	166.94
440.936	162.94
441.158	149.94
441.379	151.94
441.6	147.94
441.822	154.94
442.043	146.94
442.264	143.94
442.486	145.94
442.707	153.94
442.928	155.94
443.149	147.94
443.371	155.94
443.592	138.94
443.813	143.94
444.034	154.94
444.255	135.94
444.476	134.94
444.698	149.94
444.919	149.94
445.14	271.94
445.361	199.94
445.582	150.94
445.803	173.94
446.024	161.94
446.245	159.94
446.466	169.94
446.687	181.94
446.908	167.94
447.129	174.94
447.35	169.94
447.571	170.94
447.792	147.94
448.013	172.94
448.234	153.94
448.455	146.94
448.675	157.94
448.896	149.94
449.117	140.94
449.338	137.94
449.559	137.94
449.779	138.94
450	125.94
450.221	159.94
450.442	141.94
450.662	141.94
450.883	142.94
451.104	139.94
451.324	149.94
451.545	141.94
451.766	126.94
451.986	139.94
452.207	130.94
452.428	133.94
452.648	141.94
452.869	145.94
453.089	126.94
453.31	119.94
453.53	125.94
453.751	104.94
453.971	107.94
454.192	102.94
454.412	114.94
454.633	122.94
454.853	131.94
455.073	131.94
455.294	122.94
455.514	125.94
455.734	135.94
455.955	133.94
456.175	115.94
456.395	113.94
456.616	118.94
456.836	132.94
457.056	123.94
457.276	115.94
457.497	107.94
457.717	121.94
457.937	106.94
458.157	106.94
458.377	119.94
458.598	113.94
458.818	101.94
459.038	94.94
459.258	99.94
459.478	102.94
459.698	96.94
459.918	109.94
460.138	104.94
460.358	113.94
460.578	121.94
460.798	107.94
461.018	119.94
461.238	121.94
461.458	132.94
461.678	114.94
461.898	129.94
462.118	129.94
462.338	132.94
462.558	128.94
462.777	117.94
462.997	125.94
463.217	120.94
463.437	118.94
463.657	120.94
463.876	104.94
464.096	114.94
464.316	109.94
464.536	111.94
464.755	133.94
464.975	111.94
465.195	126.94
465.414	121.94
465.634	116.94
465.854	121.94
466.073	121.94
466.293	117.94
466.512	146.94
466.732	142.94
466.951	158.94
467.171	162.94
467.391	143.94
467.61	128.94
467.829	140.94
468.049	151.94
468.268	135.94
468.488	146.94
468.707	150.94
468.927	147.94
469.146	150.94
469.365	139.94
469.585	141.94
469.804	145.94
470.023	157.94
470.243	150.94
470.462	165.94
470.681	147.94
470.901	149.94
471.12	153.94
471.339	139.94
471.558	144.94
471.777	139.94
471.997	139.94
472.216	141.94
472.435	118.94
472.654	111.94
472.873	117.94
473.092	117.94
473.311	120.94
473.53	113.94
473.749	131.94
473.968	139.94
474.187	135.94
474.406	132.94
474.625	134.94
474.844	141.94
475.063	136.94
475.282	137.94
475.501	120.94
475.72	131.94
475.939	139.94
476.158	142.94
476.377	113.94
476.596	139.94
476.814	119.94
477.033	118.94
477.252	121.94
477.471	110.94
477.69	137.94
477.908	149.94
478.127	156.94
478.346	135.94
478.564	132.94
478.783	142.94
479.002	141.94
479.22	157.94
479.439	137.94
479.658	128.94
479.876	135.94
480.095	113.94
480.313	114.94
480.532	123.94
480.751	116.94
480.969	108.94
481.188	97.94
481.406	101.94
481.624	81.94
481.843	102.94
482.061	98.94
482.28	120.94
482.498	124.94
482.717	122.94
482.935	129.94
483.153	150.94
483.372	166.94
483.59	179.94
483.808	155.94
484.027	125.94
484.245	147.94
484.463	153.94
484.681	170.94
484.9	160.94
485.118	154.94
485.336	139.94
485.554	124.94
485.772	116.94
485.99	102.94
486.209	100.94
486.427	114.94
486.645	129.94
486.863	142.94
487.081	133.94
487.299	155.94
487.517	138.94
487.735	165.94
487.953	197.94
488.171	194.94
488.389	205.94
488.607	164.94
488.825	164.94
489.043	142.94
489.261	133.94
489.479	151.94
489.696	153.94
489.914	145.94
490.132	147.94
490.35	184.94
490.568	178.94
490.786	176.94
491.003	202.94
491.221	191.94
491.439	193.94
491.657	190.94
491.874	232.94
492.092	241.94
492.31	271.94
492.527	242.94
492.745	218.94
492.963	211.94
493.18	205.94
493.398	195.94
493.615	186.94
493.833	204.94
494.05	193.94
494.268	180.94
494.485	183.94
494.703	181.94
494.92	173.94
495.138	165.94
495.355	180.94
495.573	182.94
495.79	176.94
496.008	191.94
496.225	169.94
496.442	183.94
496.66	192.94
496.877	166.94
497.094	175.94
497.312	163.94
497.529	178.94
497.746	166.94
497.963	143.94
498.181	158.94
498.398	136.94
498.615	141.94
498.832	125.94
499.049	133.94
499.267	132.94
499.484	125.94
499.701	133.94
499.918	148.94
500.135	158.94
500.352	145.94
500.569	154.94
500.786	145.94
501.003	159.94
501.22	147.94
501.437	141.94
501.654	153.94
501.871	139.94
502.088	129.94
502.305	131.94
502.522	150.94
502.739	136.94
502.956	134.94
503.172	149.94
503.389	125.94
503.606	119.94
503.823	123.94
504.04	123.94
504.256	137.94
504.473	143.94
504.69	117.94
504.907	119.94
505.123	123.94
505.34	128.94
505.557	136.94
505.773	126.94
505.99	126.94
506.207	122.94
506.423	119.94
506.64	126.94
506.856	108.94
507.073	128.94
507.289	128.94
507.506	130.94
507.722	125.94
507.939	147.94
508.155	115.94
508.372	132.94
508.588	125.94
508.805	119.94
509.021	124.94
509.238	107.94
509.454	123.94
509.67	125.94
509.887	105.94
510.103	91.94
510.319	118.94
510.536	102.94
510.752	92.94
510.968	78.94
