Data from Location6.07152019.Energy5.Lamp.07192019.3%Agarose_HRD10591_16-13-02-399.txt Node
Date: Fri Jul 19 16:13:02 EDT 2019
User: cochatt
Spectrometer: HR+D1059
Trigger mode: 1
Integration Time (sec): 1.000000E-1
Scans to average: 1
Electric dark correction enabled: true
Nonlinearity correction enabled: false
Boxcar width: 0
XAxis mode: Wavelengths
Number of Pixels in Spectrum: 2048
>>>>>Begin Spectral Data<<<<<
223.165	-5.12
223.4	-5.12
223.635	-5.12
223.869	-12.12
224.104	-11.12
224.338	-17.12
224.573	-11.12
224.808	-16.12
225.042	-7.12
225.277	-5.12
225.511	-14.12
225.746	4.88
225.98	-2.12
226.215	-1.12
226.449	25.88
226.683	23.88
226.918	23.88
227.152	23.88
227.387	27.88
227.621	33.88
227.856	12.88
228.09	44.88
228.324	58.88
228.559	67.88
228.793	53.88
229.027	59.88
229.262	61.88
229.496	66.88
229.73	66.88
229.964	65.88
230.199	87.88
230.433	82.88
230.667	70.88
230.901	70.88
231.136	84.88
231.37	85.88
231.604	84.88
231.838	84.88
232.072	65.88
232.306	86.88
232.541	72.88
232.775	80.88
233.009	87.88
233.243	79.88
233.477	84.88
233.711	97.88
233.945	82.88
234.179	90.88
234.413	72.88
234.647	77.88
234.881	76.88
235.115	75.88
235.349	73.88
235.583	87.88
235.817	80.88
236.051	73.88
236.285	70.88
236.519	80.88
236.753	77.88
236.987	75.88
237.221	82.88
237.455	76.88
237.689	76.88
237.922	89.88
238.156	82.88
238.39	81.88
238.624	73.88
238.858	74.88
239.091	73.88
239.325	69.88
239.559	83.88
239.793	84.88
240.027	95.88
240.26	79.88
240.494	74.88
240.728	69.88
240.961	86.88
241.195	76.88
241.429	76.88
241.662	89.88
241.896	76.88
242.13	60.88
242.363	69.88
242.597	64.88
242.83	77.88
243.064	83.88
243.298	74.88
243.531	75.88
243.765	77.88
243.998	76.88
244.232	82.88
244.465	87.88
244.699	78.88
244.932	70.88
245.166	75.88
245.399	76.88
245.633	70.88
245.866	75.88
246.099	68.88
246.333	79.88
246.566	89.88
246.8	80.88
247.033	74.88
247.266	73.88
247.5	74.88
247.733	76.88
247.966	80.88
248.2	74.88
248.433	81.88
248.666	77.88
248.899	87.88
249.133	82.88
249.366	84.88
249.599	82.88
249.832	76.88
250.066	74.88
250.299	79.88
250.532	76.88
250.765	78.88
250.998	86.88
251.231	79.88
251.465	74.88
251.698	85.88
251.931	74.88
252.164	75.88
252.397	87.88
252.63	73.88
252.863	67.88
253.096	73.88
253.329	75.88
253.562	76.88
253.795	75.88
254.028	73.88
254.261	89.88
254.494	80.88
254.727	82.88
254.96	86.88
255.193	67.88
255.426	72.88
255.659	81.88
255.892	90.88
256.124	76.88
256.357	91.88
256.59	94.88
256.823	85.88
257.056	75.88
257.289	84.88
257.521	85.88
257.754	88.88
257.987	79.88
258.22	95.88
258.452	72.88
258.685	85.88
258.918	74.88
259.151	71.88
259.383	80.88
259.616	78.88
259.849	82.88
260.081	77.88
260.314	79.88
260.547	73.88
260.779	89.88
261.012	69.88
261.244	79.88
261.477	84.88
261.71	85.88
261.942	84.88
262.175	70.88
262.407	76.88
262.64	78.88
262.872	71.88
263.105	73.88
263.337	86.88
263.57	87.88
263.802	87.88
264.035	74.88
264.267	88.88
264.499	86.88
264.732	81.88
264.964	76.88
265.197	87.88
265.429	91.88
265.661	78.88
265.894	76.88
266.126	72.88
266.358	87.88
266.591	76.88
266.823	60.88
267.055	82.88
267.287	95.88
267.52	84.88
267.752	80.88
267.984	83.88
268.216	72.88
268.448	73.88
268.681	86.88
268.913	67.88
269.145	94.88
269.377	79.88
269.609	90.88
269.841	82.88
270.073	75.88
270.306	86.88
270.538	94.88
270.77	88.88
271.002	87.88
271.234	89.88
271.466	68.88
271.698	73.88
271.93	74.88
272.162	76.88
272.394	85.88
272.626	88.88
272.858	87.88
273.09	91.88
273.322	76.88
273.553	74.88
273.785	80.88
274.017	80.88
274.249	89.88
274.481	82.88
274.713	81.88
274.945	68.88
275.176	86.88
275.408	82.88
275.64	89.88
275.872	89.88
276.104	87.88
276.335	83.88
276.567	93.88
276.799	86.88
277.031	89.88
277.262	87.88
277.494	75.88
277.726	83.88
277.957	73.88
278.189	75.88
278.421	90.88
278.652	82.88
278.884	96.88
279.115	78.88
279.347	90.88
279.579	93.88
279.81	83.88
280.042	85.88
280.273	80.88
280.505	79.88
280.736	87.88
280.968	87.88
281.199	85.88
281.431	90.88
281.662	89.88
281.894	97.88
282.125	86.88
282.356	84.88
282.588	74.88
282.819	79.88
283.051	78.88
283.282	77.88
283.513	91.88
283.745	82.88
283.976	87.88
284.207	89.88
284.439	73.88
284.67	74.88
284.901	77.88
285.132	87.88
285.364	79.88
285.595	89.88
285.826	86.88
286.057	92.88
286.288	80.88
286.52	82.88
286.751	90.88
286.982	83.88
287.213	70.88
287.444	77.88
287.675	77.88
287.906	82.88
288.138	80.88
288.369	80.88
288.6	76.88
288.831	92.88
289.062	95.88
289.293	64.88
289.524	98.88
289.755	85.88
289.986	89.88
290.217	76.88
290.448	89.88
290.679	86.88
290.91	88.88
291.141	80.88
291.371	90.88
291.602	78.88
291.833	90.88
292.064	75.88
292.295	82.88
292.526	96.88
292.757	92.88
292.987	79.88
293.218	80.88
293.449	93.88
293.68	83.88
293.91	94.88
294.141	72.88
294.372	70.88
294.603	81.88
294.833	74.88
295.064	84.88
295.295	95.88
295.525	82.88
295.756	90.88
295.987	84.88
296.217	79.88
296.448	81.88
296.679	84.88
296.909	89.88
297.14	88.88
297.37	79.88
297.601	79.88
297.831	91.88
298.062	98.88
298.292	86.88
298.523	81.88
298.753	89.88
298.984	85.88
299.214	67.88
299.445	83.88
299.675	89.88
299.905	70.88
300.136	82.88
300.366	74.88
300.597	84.88
300.827	96.88
301.057	86.88
301.288	80.88
301.518	79.88
301.748	78.88
301.979	79.88
302.209	85.88
302.439	70.88
302.669	83.88
302.9	76.88
303.13	87.88
303.36	80.88
303.59	86.88
303.82	94.88
304.051	76.88
304.281	88.88
304.511	82.88
304.741	86.88
304.971	94.88
305.201	83.88
305.431	81.88
305.661	98.88
305.891	76.88
306.121	94.88
306.352	71.88
306.582	89.88
306.812	68.88
307.042	82.88
307.272	73.88
307.502	79.88
307.731	84.88
307.961	84.88
308.191	81.88
308.421	80.88
308.651	85.88
308.881	72.88
309.111	68.88
309.341	82.88
309.571	83.88
309.8	77.88
310.03	89.88
310.26	91.88
310.49	94.88
310.72	96.88
310.949	86.88
311.179	80.88
311.409	67.88
311.639	94.88
311.868	73.88
312.098	81.88
312.328	77.88
312.557	99.88
312.787	81.88
313.017	77.88
313.246	82.88
313.476	100.88
313.706	91.88
313.935	84.88
314.165	83.88
314.394	83.88
314.624	86.88
314.853	92.88
315.083	91.88
315.312	81.88
315.542	90.88
315.771	92.88
316.001	72.88
316.23	77.88
316.46	72.88
316.689	73.88
316.919	91.88
317.148	83.88
317.377	83.88
317.607	72.88
317.836	75.88
318.065	67.88
318.295	81.88
318.524	85.88
318.753	85.88
318.983	76.88
319.212	93.88
319.441	90.88
319.67	85.88
319.9	82.88
320.129	72.88
320.358	81.88
320.587	86.88
320.816	76.88
321.046	86.88
321.275	75.88
321.504	87.88
321.733	76.88
321.962	74.88
322.191	85.88
322.42	89.88
322.649	89.88
322.878	76.88
323.108	81.88
323.337	75.88
323.566	74.88
323.795	83.88
324.024	76.88
324.253	82.88
324.482	78.88
324.71	90.88
324.939	88.88
325.168	71.88
325.397	85.88
325.626	80.88
325.855	76.88
326.084	96.88
326.313	91.88
326.542	78.88
326.77	87.88
326.999	81.88
327.228	77.88
327.457	77.88
327.686	89.88
327.914	70.88
328.143	97.88
328.372	76.88
328.6	80.88
328.829	87.88
329.058	86.88
329.287	60.88
329.515	83.88
329.744	88.88
329.972	64.88
330.201	73.88
330.43	83.88
330.658	83.88
330.887	80.88
331.115	78.88
331.344	84.88
331.572	85.88
331.801	89.88
332.03	88.88
332.258	87.88
332.486	91.88
332.715	81.88
332.943	77.88
333.172	82.88
333.4	80.88
333.629	78.88
333.857	84.88
334.085	88.88
334.314	83.88
334.542	86.88
334.771	91.88
334.999	90.88
335.227	65.88
335.455	81.88
335.684	81.88
335.912	87.88
336.14	86.88
336.369	95.88
336.597	93.88
336.825	73.88
337.053	78.88
337.281	69.88
337.51	84.88
337.738	87.88
337.966	86.88
338.194	70.88
338.422	90.88
338.65	78.88
338.878	76.88
339.106	79.88
339.334	86.88
339.562	76.88
339.79	84.88
340.018	73.88
340.246	89.88
340.474	88.88
340.702	75.88
340.93	87.88
341.158	79.88
341.386	101.88
341.614	87.88
341.842	82.88
342.07	75.88
342.298	81.88
342.526	83.88
342.754	90.88
342.981	85.88
343.209	85.88
343.437	87.88
343.665	79.88
343.893	82.88
344.12	89.88
344.348	95.88
344.576	79.88
344.804	86.88
345.031	77.88
345.259	70.88
345.487	87.88
345.714	85.88
345.942	87.88
346.17	74.88
346.397	87.88
346.625	87.88
346.853	87.88
347.08	82.88
347.308	91.88
347.535	91.88
347.763	88.88
347.99	87.88
348.218	95.88
348.445	98.88
348.673	89.88
348.9	82.88
349.128	83.88
349.355	86.88
349.583	98.88
349.81	82.88
350.037	81.88
350.265	85.88
350.492	72.88
350.72	71.88
350.947	82.88
351.174	62.88
351.402	83.88
351.629	83.88
351.856	90.88
352.083	77.88
352.311	98.88
352.538	92.88
352.765	79.88
352.992	91.88
353.22	89.88
353.447	71.88
353.674	68.88
353.901	90.88
354.128	89.88
354.355	82.88
354.583	65.88
354.81	83.88
355.037	78.88
355.264	88.88
355.491	82.88
355.718	78.88
355.945	100.88
356.172	72.88
356.399	84.88
356.626	75.88
356.853	84.88
357.08	80.88
357.307	76.88
357.534	81.88
357.761	68.88
357.988	71.88
358.215	95.88
358.441	83.88
358.668	88.88
358.895	85.88
359.122	80.88
359.349	83.88
359.576	88.88
359.802	82.88
360.029	78.88
360.256	79.88
360.483	83.88
360.709	78.88
360.936	92.88
361.163	79.88
361.39	100.88
361.616	88.88
361.843	74.88
362.07	78.88
362.296	82.88
362.523	71.88
362.749	71.88
362.976	82.88
363.203	84.88
363.429	60.88
363.656	83.88
363.882	91.88
364.109	76.88
364.335	81.88
364.562	78.88
364.788	81.88
365.015	89.88
365.241	83.88
365.468	83.88
365.694	76.88
365.92	79.88
366.147	84.88
366.373	78.88
366.599	87.88
366.826	60.88
367.052	83.88
367.278	72.88
367.505	85.88
367.731	99.88
367.957	91.88
368.184	84.88
368.41	87.88
368.636	83.88
368.862	100.88
369.089	82.88
369.315	86.88
369.541	87.88
369.767	89.88
369.993	82.88
370.219	96.88
370.445	93.88
370.672	76.88
370.898	95.88
371.124	98.88
371.35	88.88
371.576	98.88
371.802	84.88
372.028	90.88
372.254	92.88
372.48	73.88
372.706	93.88
372.932	102.88
373.158	89.88
373.384	77.88
373.61	85.88
373.835	95.88
374.061	101.88
374.287	104.88
374.513	99.88
374.739	101.88
374.965	86.88
375.191	82.88
375.416	95.88
375.642	89.88
375.868	82.88
376.094	86.88
376.319	100.88
376.545	95.88
376.771	90.88
376.997	92.88
377.222	100.88
377.448	96.88
377.674	93.88
377.899	94.88
378.125	104.88
378.35	99.88
378.576	91.88
378.802	102.88
379.027	104.88
379.253	84.88
379.478	87.88
379.704	94.88
379.929	84.88
380.155	84.88
380.38	83.88
380.606	97.88
380.831	100.88
381.057	95.88
381.282	99.88
381.507	87.88
381.733	87.88
381.958	108.88
382.184	97.88
382.409	83.88
382.634	103.88
382.86	94.88
383.085	90.88
383.31	103.88
383.535	94.88
383.761	104.88
383.986	90.88
384.211	108.88
384.436	104.88
384.662	95.88
384.887	89.88
385.112	86.88
385.337	102.88
385.562	80.88
385.787	104.88
386.013	95.88
386.238	99.88
386.463	85.88
386.688	92.88
386.913	101.88
387.138	114.88
387.363	106.88
387.588	110.88
387.813	99.88
388.038	96.88
388.263	100.88
388.488	97.88
388.713	88.88
388.938	93.88
389.163	99.88
389.387	94.88
389.612	112.88
389.837	107.88
390.062	104.88
390.287	110.88
390.512	114.88
390.736	101.88
390.961	99.88
391.186	104.88
391.411	103.88
391.636	99.88
391.86	96.88
392.085	98.88
392.31	111.88
392.534	114.88
392.759	94.88
392.984	105.88
393.208	101.88
393.433	103.88
393.658	108.88
393.882	103.88
394.107	108.88
394.331	92.88
394.556	99.88
394.78	114.88
395.005	88.88
395.229	97.88
395.454	103.88
395.678	105.88
395.903	113.88
396.127	118.88
396.352	111.88
396.576	105.88
396.801	101.88
397.025	112.88
397.249	104.88
397.474	106.88
397.698	107.88
397.922	100.88
398.147	113.88
398.371	116.88
398.595	122.88
398.82	118.88
399.044	123.88
399.268	113.88
399.492	111.88
399.717	116.88
399.941	112.88
400.165	110.88
400.389	120.88
400.613	107.88
400.837	118.88
401.062	110.88
401.286	105.88
401.51	113.88
401.734	84.88
401.958	107.88
402.182	105.88
402.406	105.88
402.63	99.88
402.854	118.88
403.078	116.88
403.302	125.88
403.526	125.88
403.75	120.88
403.974	118.88
404.198	102.88
404.422	111.88
404.645	128.88
404.869	103.88
405.093	118.88
405.317	121.88
405.541	122.88
405.765	116.88
405.988	106.88
406.212	117.88
406.436	110.88
406.66	121.88
406.883	122.88
407.107	118.88
407.331	113.88
407.555	135.88
407.778	128.88
408.002	122.88
408.226	122.88
408.449	130.88
408.673	117.88
408.896	136.88
409.12	125.88
409.344	125.88
409.567	112.88
409.791	125.88
410.014	123.88
410.238	128.88
410.461	110.88
410.685	125.88
410.908	118.88
411.132	126.88
411.355	115.88
411.578	120.88
411.802	122.88
412.025	120.88
412.249	129.88
412.472	130.88
412.695	129.88
412.919	121.88
413.142	112.88
413.365	117.88
413.589	126.88
413.812	111.88
414.035	133.88
414.258	123.88
414.482	123.88
414.705	127.88
414.928	131.88
415.151	119.88
415.374	123.88
415.597	131.88
415.821	119.88
416.044	127.88
416.267	126.88
416.49	127.88
416.713	146.88
416.936	122.88
417.159	122.88
417.382	138.88
417.605	125.88
417.828	131.88
418.051	143.88
418.274	135.88
418.497	113.88
418.72	137.88
418.943	138.88
419.166	127.88
419.389	148.88
419.611	128.88
419.834	128.88
420.057	130.88
420.28	125.88
420.503	118.88
420.726	127.88
420.948	146.88
421.171	144.88
421.394	143.88
421.617	144.88
421.839	152.88
422.062	156.88
422.285	122.88
422.507	134.88
422.73	129.88
422.953	139.88
423.175	139.88
423.398	134.88
423.621	144.88
423.843	125.88
424.066	140.88
424.288	123.88
424.511	135.88
424.733	149.88
424.956	135.88
425.178	131.88
425.401	143.88
425.623	141.88
425.846	144.88
426.068	130.88
426.291	134.88
426.513	131.88
426.735	142.88
426.958	130.88
427.18	134.88
427.402	130.88
427.625	136.88
427.847	120.88
428.069	137.88
428.292	138.88
428.514	132.88
428.736	141.88
428.958	138.88
429.181	125.88
429.403	133.88
429.625	140.88
429.847	121.88
430.069	122.88
430.292	121.88
430.514	125.88
430.736	141.88
430.958	120.88
431.18	137.88
431.402	128.88
431.624	117.88
431.846	120.88
432.068	108.88
432.29	103.88
432.512	116.88
432.734	118.88
432.956	134.88
433.178	128.88
433.4	137.88
433.622	131.88
433.844	121.88
434.066	128.88
434.287	114.88
434.509	96.88
434.731	102.88
434.953	105.88
435.175	139.88
435.397	119.88
435.618	124.88
435.84	113.88
436.062	119.88
436.284	120.88
436.505	124.88
436.727	153.88
436.949	143.88
437.17	137.88
437.392	138.88
437.614	124.88
437.835	121.88
438.057	105.88
438.278	128.88
438.5	148.88
438.721	132.88
438.943	128.88
439.165	141.88
439.386	130.88
439.608	140.88
439.829	130.88
440.05	160.88
440.272	155.88
440.493	154.88
440.715	148.88
440.936	164.88
441.158	154.88
441.379	153.88
441.6	145.88
441.822	157.88
442.043	157.88
442.264	148.88
442.486	150.88
442.707	144.88
442.928	148.88
443.149	151.88
443.371	154.88
443.592	149.88
443.813	133.88
444.034	144.88
444.255	149.88
444.476	138.88
444.698	136.88
444.919	149.88
445.14	288.88
445.361	210.88
445.582	143.88
445.803	140.88
446.024	155.88
446.245	152.88
446.466	153.88
446.687	151.88
446.908	153.88
447.129	162.88
447.35	156.88
447.571	154.88
447.792	169.88
448.013	156.88
448.234	149.88
448.455	135.88
448.675	150.88
448.896	142.88
449.117	160.88
449.338	151.88
449.559	139.88
449.779	136.88
450	140.88
450.221	139.88
450.442	139.88
450.662	151.88
450.883	133.88
451.104	140.88
451.324	130.88
451.545	121.88
451.766	129.88
451.986	134.88
452.207	133.88
452.428	139.88
452.648	136.88
452.869	112.88
453.089	116.88
453.31	112.88
453.53	119.88
453.751	114.88
453.971	102.88
454.192	101.88
454.412	102.88
454.633	124.88
454.853	114.88
455.073	130.88
455.294	117.88
455.514	114.88
455.734	119.88
455.955	121.88
456.175	126.88
456.395	117.88
456.616	104.88
456.836	110.88
457.056	115.88
457.276	120.88
457.497	112.88
457.717	105.88
457.937	115.88
458.157	113.88
458.377	113.88
458.598	104.88
458.818	89.88
459.038	74.88
459.258	96.88
459.478	82.88
459.698	84.88
459.918	107.88
460.138	107.88
460.358	123.88
460.578	106.88
460.798	110.88
461.018	116.88
461.238	108.88
461.458	117.88
461.678	127.88
461.898	111.88
462.118	124.88
462.338	112.88
462.558	112.88
462.777	114.88
462.997	117.88
463.217	117.88
463.437	106.88
463.657	114.88
463.876	95.88
464.096	117.88
464.316	118.88
464.536	108.88
464.755	114.88
464.975	121.88
465.195	115.88
465.414	119.88
465.634	101.88
465.854	110.88
466.073	134.88
466.293	121.88
466.512	128.88
466.732	149.88
466.951	143.88
467.171	126.88
467.391	144.88
467.61	153.88
467.829	130.88
468.049	140.88
468.268	130.88
468.488	144.88
468.707	156.88
468.927	138.88
469.146	138.88
469.365	163.88
469.585	136.88
469.804	155.88
470.023	131.88
470.243	160.88
470.462	155.88
470.681	140.88
470.901	137.88
471.12	146.88
471.339	150.88
471.558	144.88
471.777	137.88
471.997	139.88
472.216	128.88
472.435	134.88
472.654	105.88
472.873	110.88
473.092	122.88
473.311	135.88
473.53	128.88
473.749	135.88
473.968	106.88
474.187	118.88
474.406	131.88
474.625	147.88
474.844	145.88
475.063	144.88
475.282	122.88
475.501	120.88
475.72	146.88
475.939	132.88
476.158	132.88
476.377	130.88
476.596	120.88
476.814	110.88
477.033	103.88
477.252	117.88
477.471	128.88
477.69	126.88
477.908	134.88
478.127	155.88
478.346	161.88
478.564	140.88
478.783	147.88
479.002	136.88
479.22	131.88
479.439	143.88
479.658	131.88
479.876	125.88
480.095	113.88
480.313	116.88
480.532	124.88
480.751	112.88
480.969	95.88
481.188	94.88
481.406	86.88
481.624	83.88
481.843	83.88
482.061	88.88
482.28	119.88
482.498	124.88
482.717	116.88
482.935	125.88
483.153	138.88
483.372	152.88
483.59	158.88
483.808	158.88
484.027	139.88
484.245	137.88
484.463	146.88
484.681	176.88
484.9	150.88
485.118	151.88
485.336	138.88
485.554	109.88
485.772	104.88
485.99	111.88
486.209	104.88
486.427	117.88
486.645	125.88
486.863	142.88
487.081	148.88
487.299	136.88
487.517	141.88
487.735	166.88
487.953	186.88
488.171	189.88
488.389	191.88
488.607	183.88
488.825	145.88
489.043	159.88
489.261	133.88
489.479	132.88
489.696	151.88
489.914	138.88
490.132	156.88
490.35	141.88
490.568	163.88
490.786	182.88
491.003	180.88
491.221	197.88
491.439	206.88
491.657	188.88
491.874	225.88
492.092	241.88
492.31	254.88
492.527	274.88
492.745	216.88
492.963	196.88
493.18	204.88
493.398	184.88
493.615	174.88
493.833	183.88
494.05	186.88
494.268	165.88
494.485	193.88
494.703	182.88
494.92	193.88
495.138	164.88
495.355	171.88
495.573	171.88
495.79	171.88
496.008	179.88
496.225	166.88
496.442	170.88
496.66	174.88
496.877	174.88
497.094	160.88
497.312	174.88
497.529	154.88
497.746	149.88
497.963	134.88
498.181	136.88
498.398	139.88
498.615	117.88
498.832	118.88
499.049	123.88
499.267	110.88
499.484	125.88
499.701	132.88
499.918	139.88
500.135	147.88
500.352	137.88
500.569	142.88
500.786	152.88
501.003	139.88
501.22	136.88
501.437	153.88
501.654	130.88
501.871	131.88
502.088	126.88
502.305	132.88
502.522	138.88
502.739	138.88
502.956	127.88
503.172	130.88
503.389	124.88
503.606	122.88
503.823	133.88
504.04	143.88
504.256	124.88
504.473	122.88
504.69	119.88
504.907	132.88
505.123	114.88
505.34	119.88
505.557	130.88
505.773	120.88
505.99	124.88
506.207	132.88
506.423	135.88
506.64	124.88
506.856	117.88
507.073	119.88
507.289	116.88
507.506	120.88
507.722	131.88
507.939	126.88
508.155	116.88
508.372	132.88
508.588	97.88
508.805	118.88
509.021	118.88
509.238	112.88
509.454	101.88
509.67	92.88
509.887	112.88
510.103	99.88
510.319	91.88
510.536	97.88
510.752	95.88
510.968	75.88
511.184	81.88
511.401	90.88
511.617	80.88
