Data from Location6.07152019.Energy5.Lamp.07192019.3%Agarose_HRD10591_16-12-13-395.txt Node
Date: Fri Jul 19 16:12:13 EDT 2019
User: cochatt
Spectrometer: HR+D1059
Trigger mode: 1
Integration Time (sec): 1.000000E-1
Scans to average: 1
Electric dark correction enabled: true
Nonlinearity correction enabled: false
Boxcar width: 0
XAxis mode: Wavelengths
Number of Pixels in Spectrum: 2048
>>>>>Begin Spectral Data<<<<<
223.165	-32.56
223.4	-32.56
223.635	-32.56
223.869	-6.56
224.104	-15.56
224.338	-16.56
224.573	-10.56
224.808	-10.56
225.042	5.44
225.277	-12.56
225.511	-9.56
225.746	2.44
225.98	18.44
226.215	8.44
226.449	17.44
226.683	9.44
226.918	15.44
227.152	37.44
227.387	32.44
227.621	35.44
227.856	33.44
228.09	48.44
228.324	57.44
228.559	50.44
228.793	63.44
229.027	78.44
229.262	70.44
229.496	60.44
229.73	70.44
229.964	55.44
230.199	84.44
230.433	81.44
230.667	77.44
230.901	75.44
231.136	81.44
231.37	68.44
231.604	73.44
231.838	85.44
232.072	81.44
232.306	67.44
232.541	85.44
232.775	77.44
233.009	80.44
233.243	86.44
233.477	68.44
233.711	92.44
233.945	82.44
234.179	72.44
234.413	71.44
234.647	72.44
234.881	81.44
235.115	72.44
235.349	79.44
235.583	67.44
235.817	85.44
236.051	82.44
236.285	61.44
236.519	85.44
236.753	78.44
236.987	79.44
237.221	72.44
237.455	87.44
237.689	76.44
237.922	79.44
238.156	71.44
238.39	74.44
238.624	78.44
238.858	82.44
239.091	92.44
239.325	71.44
239.559	70.44
239.793	76.44
240.027	82.44
240.26	68.44
240.494	74.44
240.728	71.44
240.961	57.44
241.195	89.44
241.429	81.44
241.662	82.44
241.896	80.44
242.13	82.44
242.363	83.44
242.597	81.44
242.83	80.44
243.064	92.44
243.298	69.44
243.531	71.44
243.765	78.44
243.998	74.44
244.232	74.44
244.465	66.44
244.699	88.44
244.932	76.44
245.166	85.44
245.399	82.44
245.633	88.44
245.866	70.44
246.099	81.44
246.333	71.44
246.566	78.44
246.8	80.44
247.033	86.44
247.266	77.44
247.5	85.44
247.733	73.44
247.966	82.44
248.2	79.44
248.433	73.44
248.666	81.44
248.899	66.44
249.133	78.44
249.366	84.44
249.599	75.44
249.832	82.44
250.066	71.44
250.299	67.44
250.532	86.44
250.765	80.44
250.998	75.44
251.231	80.44
251.465	93.44
251.698	77.44
251.931	86.44
252.164	71.44
252.397	86.44
252.63	78.44
252.863	89.44
253.096	77.44
253.329	66.44
253.562	67.44
253.795	83.44
254.028	96.44
254.261	91.44
254.494	78.44
254.727	70.44
254.96	75.44
255.193	93.44
255.426	78.44
255.659	79.44
255.892	80.44
256.124	69.44
256.357	75.44
256.59	77.44
256.823	75.44
257.056	75.44
257.289	90.44
257.521	90.44
257.754	71.44
257.987	78.44
258.22	75.44
258.452	74.44
258.685	86.44
258.918	77.44
259.151	74.44
259.383	76.44
259.616	65.44
259.849	100.44
260.081	69.44
260.314	81.44
260.547	86.44
260.779	91.44
261.012	79.44
261.244	85.44
261.477	79.44
261.71	86.44
261.942	88.44
262.175	73.44
262.407	94.44
262.64	81.44
262.872	83.44
263.105	81.44
263.337	83.44
263.57	73.44
263.802	68.44
264.035	78.44
264.267	82.44
264.499	75.44
264.732	90.44
264.964	75.44
265.197	86.44
265.429	80.44
265.661	85.44
265.894	71.44
266.126	84.44
266.358	86.44
266.591	86.44
266.823	77.44
267.055	92.44
267.287	84.44
267.52	87.44
267.752	82.44
267.984	78.44
268.216	79.44
268.448	83.44
268.681	70.44
268.913	79.44
269.145	90.44
269.377	74.44
269.609	84.44
269.841	90.44
270.073	75.44
270.306	96.44
270.538	84.44
270.77	97.44
271.002	85.44
271.234	83.44
271.466	80.44
271.698	76.44
271.93	75.44
272.162	90.44
272.394	90.44
272.626	85.44
272.858	91.44
273.09	82.44
273.322	88.44
273.553	96.44
273.785	84.44
274.017	101.44
274.249	93.44
274.481	101.44
274.713	82.44
274.945	85.44
275.176	83.44
275.408	88.44
275.64	79.44
275.872	82.44
276.104	78.44
276.335	79.44
276.567	97.44
276.799	86.44
277.031	67.44
277.262	83.44
277.494	89.44
277.726	85.44
277.957	87.44
278.189	93.44
278.421	84.44
278.652	76.44
278.884	85.44
279.115	90.44
279.347	81.44
279.579	85.44
279.81	69.44
280.042	87.44
280.273	89.44
280.505	82.44
280.736	89.44
280.968	81.44
281.199	82.44
281.431	81.44
281.662	85.44
281.894	77.44
282.125	85.44
282.356	88.44
282.588	91.44
282.819	86.44
283.051	99.44
283.282	75.44
283.513	96.44
283.745	88.44
283.976	90.44
284.207	80.44
284.439	74.44
284.67	83.44
284.901	66.44
285.132	89.44
285.364	80.44
285.595	80.44
285.826	91.44
286.057	87.44
286.288	85.44
286.52	77.44
286.751	96.44
286.982	82.44
287.213	87.44
287.444	89.44
287.675	87.44
287.906	89.44
288.138	87.44
288.369	88.44
288.6	86.44
288.831	82.44
289.062	86.44
289.293	86.44
289.524	96.44
289.755	90.44
289.986	85.44
290.217	75.44
290.448	80.44
290.679	82.44
290.91	89.44
291.141	70.44
291.371	86.44
291.602	77.44
291.833	86.44
292.064	84.44
292.295	90.44
292.526	94.44
292.757	85.44
292.987	91.44
293.218	70.44
293.449	70.44
293.68	70.44
293.91	82.44
294.141	91.44
294.372	71.44
294.603	84.44
294.833	95.44
295.064	87.44
295.295	76.44
295.525	92.44
295.756	74.44
295.987	83.44
296.217	77.44
296.448	96.44
296.679	93.44
296.909	72.44
297.14	87.44
297.37	76.44
297.601	84.44
297.831	88.44
298.062	80.44
298.292	92.44
298.523	83.44
298.753	80.44
298.984	75.44
299.214	78.44
299.445	71.44
299.675	86.44
299.905	95.44
300.136	93.44
300.366	81.44
300.597	87.44
300.827	98.44
301.057	84.44
301.288	93.44
301.518	74.44
301.748	81.44
301.979	85.44
302.209	74.44
302.439	82.44
302.669	76.44
302.9	85.44
303.13	92.44
303.36	88.44
303.59	96.44
303.82	89.44
304.051	87.44
304.281	93.44
304.511	83.44
304.741	85.44
304.971	70.44
305.201	84.44
305.431	81.44
305.661	72.44
305.891	77.44
306.121	95.44
306.352	92.44
306.582	87.44
306.812	88.44
307.042	81.44
307.272	80.44
307.502	75.44
307.731	93.44
307.961	79.44
308.191	80.44
308.421	69.44
308.651	76.44
308.881	88.44
309.111	99.44
309.341	68.44
309.571	96.44
309.8	79.44
310.03	86.44
310.26	77.44
310.49	76.44
310.72	81.44
310.949	78.44
311.179	75.44
311.409	82.44
311.639	97.44
311.868	94.44
312.098	82.44
312.328	97.44
312.557	76.44
312.787	74.44
313.017	77.44
313.246	73.44
313.476	83.44
313.706	83.44
313.935	73.44
314.165	88.44
314.394	84.44
314.624	68.44
314.853	79.44
315.083	104.44
315.312	82.44
315.542	75.44
315.771	86.44
316.001	70.44
316.23	81.44
316.46	63.44
316.689	70.44
316.919	85.44
317.148	66.44
317.377	91.44
317.607	88.44
317.836	94.44
318.065	81.44
318.295	79.44
318.524	84.44
318.753	81.44
318.983	74.44
319.212	96.44
319.441	87.44
319.67	69.44
319.9	96.44
320.129	85.44
320.358	79.44
320.587	91.44
320.816	88.44
321.046	91.44
321.275	88.44
321.504	82.44
321.733	94.44
321.962	91.44
322.191	88.44
322.42	78.44
322.649	85.44
322.878	73.44
323.108	73.44
323.337	73.44
323.566	84.44
323.795	90.44
324.024	82.44
324.253	79.44
324.482	83.44
324.71	80.44
324.939	88.44
325.168	87.44
325.397	67.44
325.626	74.44
325.855	83.44
326.084	90.44
326.313	73.44
326.542	95.44
326.77	81.44
326.999	80.44
327.228	73.44
327.457	73.44
327.686	76.44
327.914	80.44
328.143	82.44
328.372	77.44
328.6	89.44
328.829	95.44
329.058	88.44
329.287	89.44
329.515	96.44
329.744	81.44
329.972	80.44
330.201	82.44
330.43	82.44
330.658	75.44
330.887	93.44
331.115	83.44
331.344	84.44
331.572	82.44
331.801	77.44
332.03	82.44
332.258	89.44
332.486	70.44
332.715	76.44
332.943	80.44
333.172	79.44
333.4	91.44
333.629	86.44
333.857	78.44
334.085	84.44
334.314	91.44
334.542	88.44
334.771	89.44
334.999	89.44
335.227	85.44
335.455	87.44
335.684	78.44
335.912	83.44
336.14	87.44
336.369	84.44
336.597	80.44
336.825	85.44
337.053	86.44
337.281	81.44
337.51	79.44
337.738	93.44
337.966	94.44
338.194	82.44
338.422	91.44
338.65	81.44
338.878	82.44
339.106	88.44
339.334	94.44
339.562	84.44
339.79	94.44
340.018	100.44
340.246	89.44
340.474	72.44
340.702	87.44
340.93	89.44
341.158	91.44
341.386	81.44
341.614	81.44
341.842	81.44
342.07	70.44
342.298	78.44
342.526	80.44
342.754	73.44
342.981	85.44
343.209	72.44
343.437	84.44
343.665	86.44
343.893	91.44
344.12	77.44
344.348	69.44
344.576	85.44
344.804	73.44
345.031	77.44
345.259	87.44
345.487	102.44
345.714	82.44
345.942	88.44
346.17	80.44
346.397	81.44
346.625	65.44
346.853	99.44
347.08	87.44
347.308	77.44
347.535	88.44
347.763	83.44
347.99	85.44
348.218	70.44
348.445	85.44
348.673	88.44
348.9	90.44
349.128	90.44
349.355	97.44
349.583	87.44
349.81	83.44
350.037	97.44
350.265	91.44
350.492	84.44
350.72	93.44
350.947	93.44
351.174	99.44
351.402	79.44
351.629	92.44
351.856	89.44
352.083	70.44
352.311	84.44
352.538	87.44
352.765	75.44
352.992	75.44
353.22	86.44
353.447	86.44
353.674	83.44
353.901	70.44
354.128	83.44
354.355	90.44
354.583	80.44
354.81	69.44
355.037	95.44
355.264	79.44
355.491	75.44
355.718	81.44
355.945	85.44
356.172	85.44
356.399	92.44
356.626	87.44
356.853	71.44
357.08	88.44
357.307	82.44
357.534	76.44
357.761	74.44
357.988	80.44
358.215	87.44
358.441	88.44
358.668	87.44
358.895	89.44
359.122	94.44
359.349	87.44
359.576	85.44
359.802	97.44
360.029	81.44
360.256	69.44
360.483	86.44
360.709	89.44
360.936	99.44
361.163	86.44
361.39	76.44
361.616	83.44
361.843	76.44
362.07	83.44
362.296	83.44
362.523	70.44
362.749	72.44
362.976	83.44
363.203	95.44
363.429	96.44
363.656	87.44
363.882	82.44
364.109	83.44
364.335	86.44
364.562	84.44
364.788	95.44
365.015	93.44
365.241	68.44
365.468	89.44
365.694	77.44
365.92	79.44
366.147	84.44
366.373	73.44
366.599	83.44
366.826	79.44
367.052	89.44
367.278	94.44
367.505	90.44
367.731	113.44
367.957	90.44
368.184	86.44
368.41	97.44
368.636	89.44
368.862	88.44
369.089	87.44
369.315	97.44
369.541	83.44
369.767	98.44
369.993	99.44
370.219	97.44
370.445	77.44
370.672	93.44
370.898	95.44
371.124	94.44
371.35	91.44
371.576	90.44
371.802	78.44
372.028	87.44
372.254	93.44
372.48	91.44
372.706	93.44
372.932	75.44
373.158	92.44
373.384	83.44
373.61	77.44
373.835	90.44
374.061	81.44
374.287	98.44
374.513	94.44
374.739	111.44
374.965	80.44
375.191	96.44
375.416	89.44
375.642	94.44
375.868	105.44
376.094	101.44
376.319	100.44
376.545	94.44
376.771	91.44
376.997	94.44
377.222	104.44
377.448	97.44
377.674	102.44
377.899	111.44
378.125	107.44
378.35	87.44
378.576	105.44
378.802	100.44
379.027	93.44
379.253	86.44
379.478	99.44
379.704	101.44
379.929	108.44
380.155	94.44
380.38	99.44
380.606	107.44
380.831	110.44
381.057	111.44
381.282	102.44
381.507	84.44
381.733	87.44
381.958	89.44
382.184	91.44
382.409	101.44
382.634	101.44
382.86	88.44
383.085	109.44
383.31	91.44
383.535	111.44
383.761	85.44
383.986	103.44
384.211	87.44
384.436	85.44
384.662	90.44
384.887	94.44
385.112	83.44
385.337	93.44
385.562	113.44
385.787	85.44
386.013	104.44
386.238	91.44
386.463	94.44
386.688	93.44
386.913	109.44
387.138	90.44
387.363	88.44
387.588	111.44
387.813	106.44
388.038	98.44
388.263	100.44
388.488	100.44
388.713	103.44
388.938	108.44
389.163	93.44
389.387	107.44
389.612	105.44
389.837	104.44
390.062	91.44
390.287	118.44
390.512	118.44
390.736	102.44
390.961	97.44
391.186	104.44
391.411	106.44
391.636	100.44
391.86	109.44
392.085	110.44
392.31	109.44
392.534	109.44
392.759	119.44
392.984	89.44
393.208	110.44
393.433	103.44
393.658	104.44
393.882	106.44
394.107	122.44
394.331	101.44
394.556	114.44
394.78	111.44
395.005	103.44
395.229	95.44
395.454	104.44
395.678	103.44
395.903	114.44
396.127	107.44
396.352	110.44
396.576	105.44
396.801	111.44
397.025	95.44
397.249	109.44
397.474	115.44
397.698	109.44
397.922	123.44
398.147	113.44
398.371	111.44
398.595	115.44
398.82	111.44
399.044	108.44
399.268	103.44
399.492	110.44
399.717	127.44
399.941	84.44
400.165	133.44
400.389	107.44
400.613	122.44
400.837	116.44
401.062	126.44
401.286	109.44
401.51	121.44
401.734	114.44
401.958	118.44
402.182	115.44
402.406	123.44
402.63	123.44
402.854	114.44
403.078	111.44
403.302	120.44
403.526	118.44
403.75	118.44
403.974	113.44
404.198	135.44
404.422	128.44
404.645	118.44
404.869	138.44
405.093	126.44
405.317	109.44
405.541	119.44
405.765	126.44
405.988	114.44
406.212	123.44
406.436	114.44
406.66	117.44
406.883	130.44
407.107	133.44
407.331	119.44
407.555	116.44
407.778	107.44
408.002	127.44
408.226	134.44
408.449	121.44
408.673	133.44
408.896	123.44
409.12	121.44
409.344	125.44
409.567	129.44
409.791	118.44
410.014	129.44
410.238	123.44
410.461	128.44
410.685	124.44
410.908	123.44
411.132	131.44
411.355	125.44
411.578	117.44
411.802	121.44
412.025	124.44
412.249	127.44
412.472	118.44
412.695	128.44
412.919	121.44
413.142	113.44
413.365	117.44
413.589	125.44
413.812	120.44
414.035	123.44
414.258	115.44
414.482	122.44
414.705	127.44
414.928	125.44
415.151	133.44
415.374	139.44
415.597	125.44
415.821	131.44
416.044	137.44
416.267	124.44
416.49	125.44
416.713	133.44
416.936	129.44
417.159	127.44
417.382	129.44
417.605	137.44
417.828	127.44
418.051	133.44
418.274	133.44
418.497	136.44
418.72	148.44
418.943	138.44
419.166	139.44
419.389	151.44
419.611	123.44
419.834	132.44
420.057	141.44
420.28	135.44
420.503	126.44
420.726	121.44
420.948	131.44
421.171	137.44
421.394	133.44
421.617	132.44
421.839	154.44
422.062	131.44
422.285	132.44
422.507	123.44
422.73	122.44
422.953	133.44
423.175	135.44
423.398	122.44
423.621	139.44
423.843	142.44
424.066	149.44
424.288	131.44
424.511	142.44
424.733	130.44
424.956	145.44
425.178	141.44
425.401	146.44
425.623	144.44
425.846	146.44
426.068	121.44
426.291	144.44
426.513	133.44
426.735	135.44
426.958	131.44
427.18	136.44
427.402	134.44
427.625	139.44
427.847	136.44
428.069	133.44
428.292	121.44
428.514	112.44
428.736	128.44
428.958	136.44
429.181	138.44
429.403	140.44
429.625	126.44
429.847	122.44
430.069	132.44
430.292	121.44
430.514	119.44
430.736	123.44
430.958	122.44
431.18	140.44
431.402	128.44
431.624	127.44
431.846	113.44
432.068	93.44
432.29	88.44
432.512	113.44
432.734	133.44
432.956	136.44
433.178	133.44
433.4	139.44
433.622	145.44
433.844	137.44
434.066	126.44
434.287	119.44
434.509	84.44
434.731	104.44
434.953	108.44
435.175	120.44
435.397	140.44
435.618	109.44
435.84	122.44
436.062	115.44
436.284	129.44
436.505	130.44
436.727	133.44
436.949	134.44
437.17	117.44
437.392	128.44
437.614	125.44
437.835	114.44
438.057	114.44
438.278	128.44
438.5	133.44
438.721	119.44
438.943	142.44
439.165	149.44
439.386	145.44
439.608	144.44
439.829	140.44
440.05	158.44
440.272	162.44
440.493	165.44
440.715	146.44
440.936	128.44
441.158	151.44
441.379	153.44
441.6	149.44
441.822	152.44
442.043	142.44
442.264	127.44
442.486	138.44
442.707	149.44
442.928	147.44
443.149	138.44
443.371	151.44
443.592	144.44
443.813	155.44
444.034	142.44
444.255	148.44
444.476	164.44
444.698	159.44
444.919	150.44
445.14	266.44
445.361	212.44
445.582	157.44
445.803	145.44
446.024	155.44
446.245	147.44
446.466	154.44
446.687	161.44
446.908	168.44
447.129	156.44
447.35	148.44
447.571	172.44
447.792	147.44
448.013	139.44
448.234	143.44
448.455	155.44
448.675	135.44
448.896	152.44
449.117	145.44
449.338	149.44
449.559	146.44
449.779	130.44
450	146.44
450.221	133.44
450.442	134.44
450.662	147.44
450.883	143.44
451.104	134.44
451.324	133.44
451.545	131.44
451.766	130.44
451.986	124.44
452.207	118.44
452.428	123.44
452.648	126.44
452.869	128.44
453.089	116.44
453.31	111.44
453.53	118.44
453.751	115.44
453.971	114.44
454.192	109.44
454.412	114.44
454.633	128.44
454.853	123.44
455.073	143.44
455.294	121.44
455.514	113.44
455.734	120.44
455.955	117.44
456.175	129.44
456.395	108.44
456.616	121.44
456.836	106.44
457.056	109.44
457.276	120.44
457.497	117.44
457.717	106.44
457.937	103.44
458.157	107.44
458.377	112.44
458.598	100.44
458.818	91.44
459.038	86.44
459.258	90.44
459.478	86.44
459.698	99.44
459.918	101.44
460.138	109.44
460.358	123.44
460.578	129.44
460.798	111.44
461.018	126.44
461.238	114.44
461.458	117.44
461.678	110.44
461.898	109.44
462.118	121.44
462.338	116.44
462.558	122.44
462.777	101.44
462.997	95.44
463.217	102.44
463.437	125.44
463.657	112.44
463.876	105.44
464.096	109.44
464.316	88.44
464.536	109.44
464.755	112.44
464.975	121.44
465.195	134.44
465.414	136.44
465.634	121.44
465.854	132.44
466.073	117.44
466.293	111.44
466.512	130.44
466.732	135.44
466.951	132.44
467.171	138.44
467.391	142.44
467.61	147.44
467.829	129.44
468.049	137.44
468.268	125.44
468.488	137.44
468.707	132.44
468.927	134.44
469.146	142.44
469.365	148.44
469.585	141.44
469.804	160.44
470.023	143.44
470.243	148.44
470.462	157.44
470.681	163.44
470.901	153.44
471.12	138.44
471.339	137.44
471.558	135.44
471.777	157.44
471.997	151.44
472.216	118.44
472.435	123.44
472.654	103.44
472.873	104.44
473.092	114.44
473.311	119.44
473.53	147.44
473.749	137.44
473.968	121.44
474.187	137.44
474.406	126.44
474.625	125.44
474.844	130.44
475.063	134.44
475.282	121.44
475.501	117.44
475.72	136.44
475.939	133.44
476.158	124.44
476.377	112.44
476.596	119.44
476.814	121.44
477.033	106.44
477.252	117.44
477.471	119.44
477.69	136.44
477.908	141.44
478.127	140.44
478.346	135.44
478.564	152.44
478.783	137.44
479.002	144.44
479.22	126.44
479.439	147.44
479.658	133.44
479.876	128.44
480.095	133.44
480.313	121.44
480.532	125.44
480.751	111.44
480.969	86.44
481.188	97.44
481.406	103.44
481.624	90.44
481.843	99.44
482.061	100.44
482.28	125.44
482.498	121.44
482.717	115.44
482.935	128.44
483.153	145.44
483.372	159.44
483.59	153.44
483.808	146.44
484.027	130.44
484.245	143.44
484.463	155.44
484.681	175.44
484.9	165.44
485.118	138.44
485.336	127.44
485.554	110.44
485.772	104.44
485.99	114.44
486.209	114.44
486.427	96.44
486.645	123.44
486.863	139.44
487.081	143.44
487.299	135.44
487.517	138.44
487.735	183.44
487.953	205.44
488.171	187.44
488.389	185.44
488.607	169.44
488.825	156.44
489.043	134.44
489.261	138.44
489.479	138.44
489.696	155.44
489.914	158.44
490.132	150.44
490.35	143.44
490.568	184.44
490.786	181.44
491.003	178.44
491.221	176.44
491.439	177.44
491.657	191.44
491.874	218.44
492.092	231.44
492.31	273.44
492.527	228.44
492.745	222.44
492.963	204.44
493.18	194.44
493.398	178.44
493.615	194.44
493.833	197.44
494.05	192.44
494.268	171.44
494.485	175.44
494.703	176.44
494.92	170.44
495.138	180.44
495.355	160.44
495.573	164.44
495.79	169.44
496.008	184.44
496.225	165.44
496.442	197.44
496.66	177.44
496.877	171.44
497.094	193.44
497.312	176.44
497.529	176.44
497.746	164.44
497.963	157.44
498.181	162.44
498.398	127.44
498.615	128.44
498.832	133.44
499.049	127.44
499.267	138.44
499.484	138.44
499.701	113.44
499.918	131.44
500.135	138.44
500.352	140.44
500.569	149.44
500.786	146.44
501.003	142.44
501.22	145.44
501.437	126.44
501.654	140.44
501.871	144.44
502.088	127.44
502.305	145.44
502.522	128.44
502.739	123.44
502.956	136.44
503.172	130.44
503.389	142.44
503.606	113.44
503.823	132.44
504.04	124.44
504.256	127.44
504.473	131.44
504.69	139.44
504.907	112.44
505.123	113.44
505.34	131.44
505.557	129.44
505.773	119.44
505.99	131.44
506.207	130.44
506.423	106.44
506.64	118.44
506.856	109.44
507.073	118.44
507.289	105.44
507.506	116.44
507.722	125.44
507.939	128.44
508.155	125.44
508.372	129.44
508.588	110.44
508.805	119.44
509.021	97.44
509.238	107.44
509.454	116.44
509.67	105.44
509.887	113.44
510.103	98.44
510.319	97.44
510.536	103.44
510.752	88.44
510.968	94.44
511.184	81.44
511.401	80.44
