Data from Location6.07152019.Energy5.Lamp.07192019.3%Agarose_HRD10591_16-12-33-395.txt Node
Date: Fri Jul 19 16:12:33 EDT 2019
User: cochatt
Spectrometer: HR+D1059
Trigger mode: 1
Integration Time (sec): 1.000000E-1
Scans to average: 1
Electric dark correction enabled: true
Nonlinearity correction enabled: false
Boxcar width: 0
XAxis mode: Wavelengths
Number of Pixels in Spectrum: 2048
>>>>>Begin Spectral Data<<<<<
223.165	-19.31
223.4	-19.31
223.635	-19.31
223.869	-31.31
224.104	-21.31
224.338	0.69
224.573	-17.31
224.808	-9.31
225.042	-1.31
225.277	-0.31
225.511	-0.31
225.746	-11.31
225.98	11.69
226.215	4.69
226.449	16.69
226.683	14.69
226.918	15.69
227.152	47.69
227.387	39.69
227.621	38.69
227.856	35.69
228.09	47.69
228.324	41.69
228.559	43.69
228.793	45.69
229.027	62.69
229.262	62.69
229.496	67.69
229.73	72.69
229.964	75.69
230.199	73.69
230.433	69.69
230.667	84.69
230.901	66.69
231.136	82.69
231.37	82.69
231.604	91.69
231.838	73.69
232.072	86.69
232.306	74.69
232.541	84.69
232.775	74.69
233.009	80.69
233.243	81.69
233.477	86.69
233.711	95.69
233.945	89.69
234.179	83.69
234.413	85.69
234.647	82.69
234.881	85.69
235.115	98.69
235.349	65.69
235.583	80.69
235.817	79.69
236.051	87.69
236.285	100.69
236.519	87.69
236.753	84.69
236.987	71.69
237.221	81.69
237.455	69.69
237.689	73.69
237.922	77.69
238.156	79.69
238.39	68.69
238.624	57.69
238.858	84.69
239.091	75.69
239.325	73.69
239.559	75.69
239.793	76.69
240.027	82.69
240.26	82.69
240.494	82.69
240.728	73.69
240.961	80.69
241.195	86.69
241.429	61.69
241.662	77.69
241.896	69.69
242.13	72.69
242.363	74.69
242.597	78.69
242.83	64.69
243.064	76.69
243.298	69.69
243.531	76.69
243.765	72.69
243.998	72.69
244.232	68.69
244.465	78.69
244.699	65.69
244.932	66.69
245.166	77.69
245.399	76.69
245.633	83.69
245.866	90.69
246.099	87.69
246.333	89.69
246.566	89.69
246.8	84.69
247.033	88.69
247.266	80.69
247.5	79.69
247.733	83.69
247.966	79.69
248.2	83.69
248.433	76.69
248.666	82.69
248.899	81.69
249.133	80.69
249.366	86.69
249.599	75.69
249.832	87.69
250.066	89.69
250.299	75.69
250.532	88.69
250.765	81.69
250.998	81.69
251.231	79.69
251.465	86.69
251.698	89.69
251.931	81.69
252.164	80.69
252.397	75.69
252.63	61.69
252.863	87.69
253.096	83.69
253.329	80.69
253.562	82.69
253.795	77.69
254.028	76.69
254.261	77.69
254.494	82.69
254.727	74.69
254.96	68.69
255.193	93.69
255.426	77.69
255.659	79.69
255.892	69.69
256.124	71.69
256.357	94.69
256.59	88.69
256.823	85.69
257.056	82.69
257.289	81.69
257.521	72.69
257.754	80.69
257.987	82.69
258.22	71.69
258.452	80.69
258.685	82.69
258.918	97.69
259.151	84.69
259.383	83.69
259.616	63.69
259.849	67.69
260.081	80.69
260.314	88.69
260.547	63.69
260.779	69.69
261.012	73.69
261.244	81.69
261.477	83.69
261.71	85.69
261.942	87.69
262.175	80.69
262.407	76.69
262.64	70.69
262.872	75.69
263.105	73.69
263.337	91.69
263.57	71.69
263.802	76.69
264.035	92.69
264.267	88.69
264.499	82.69
264.732	77.69
264.964	83.69
265.197	72.69
265.429	94.69
265.661	82.69
265.894	88.69
266.126	84.69
266.358	76.69
266.591	79.69
266.823	74.69
267.055	79.69
267.287	87.69
267.52	73.69
267.752	87.69
267.984	82.69
268.216	75.69
268.448	86.69
268.681	81.69
268.913	82.69
269.145	78.69
269.377	95.69
269.609	89.69
269.841	73.69
270.073	72.69
270.306	83.69
270.538	88.69
270.77	96.69
271.002	83.69
271.234	84.69
271.466	74.69
271.698	81.69
271.93	81.69
272.162	75.69
272.394	95.69
272.626	68.69
272.858	81.69
273.09	87.69
273.322	74.69
273.553	76.69
273.785	81.69
274.017	81.69
274.249	72.69
274.481	82.69
274.713	78.69
274.945	85.69
275.176	88.69
275.408	77.69
275.64	97.69
275.872	81.69
276.104	80.69
276.335	100.69
276.567	88.69
276.799	81.69
277.031	80.69
277.262	75.69
277.494	84.69
277.726	74.69
277.957	82.69
278.189	91.69
278.421	74.69
278.652	70.69
278.884	87.69
279.115	89.69
279.347	82.69
279.579	88.69
279.81	66.69
280.042	83.69
280.273	86.69
280.505	82.69
280.736	81.69
280.968	89.69
281.199	95.69
281.431	77.69
281.662	83.69
281.894	82.69
282.125	74.69
282.356	92.69
282.588	80.69
282.819	74.69
283.051	77.69
283.282	81.69
283.513	99.69
283.745	110.69
283.976	78.69
284.207	92.69
284.439	85.69
284.67	92.69
284.901	83.69
285.132	89.69
285.364	88.69
285.595	85.69
285.826	72.69
286.057	84.69
286.288	77.69
286.52	83.69
286.751	82.69
286.982	100.69
287.213	76.69
287.444	86.69
287.675	75.69
287.906	79.69
288.138	80.69
288.369	87.69
288.6	67.69
288.831	79.69
289.062	76.69
289.293	85.69
289.524	91.69
289.755	86.69
289.986	83.69
290.217	81.69
290.448	99.69
290.679	89.69
290.91	83.69
291.141	86.69
291.371	85.69
291.602	91.69
291.833	92.69
292.064	91.69
292.295	87.69
292.526	77.69
292.757	83.69
292.987	81.69
293.218	88.69
293.449	85.69
293.68	83.69
293.91	82.69
294.141	87.69
294.372	78.69
294.603	92.69
294.833	95.69
295.064	74.69
295.295	79.69
295.525	89.69
295.756	95.69
295.987	78.69
296.217	84.69
296.448	74.69
296.679	79.69
296.909	83.69
297.14	77.69
297.37	89.69
297.601	91.69
297.831	80.69
298.062	87.69
298.292	82.69
298.523	90.69
298.753	85.69
298.984	87.69
299.214	95.69
299.445	98.69
299.675	90.69
299.905	88.69
300.136	87.69
300.366	80.69
300.597	84.69
300.827	87.69
301.057	89.69
301.288	84.69
301.518	83.69
301.748	88.69
301.979	92.69
302.209	72.69
302.439	89.69
302.669	79.69
302.9	90.69
303.13	78.69
303.36	86.69
303.59	83.69
303.82	98.69
304.051	91.69
304.281	97.69
304.511	84.69
304.741	96.69
304.971	97.69
305.201	78.69
305.431	66.69
305.661	76.69
305.891	76.69
306.121	78.69
306.352	83.69
306.582	75.69
306.812	74.69
307.042	83.69
307.272	92.69
307.502	87.69
307.731	73.69
307.961	78.69
308.191	87.69
308.421	82.69
308.651	88.69
308.881	78.69
309.111	84.69
309.341	79.69
309.571	88.69
309.8	90.69
310.03	76.69
310.26	96.69
310.49	80.69
310.72	84.69
310.949	88.69
311.179	94.69
311.409	87.69
311.639	80.69
311.868	91.69
312.098	89.69
312.328	87.69
312.557	76.69
312.787	90.69
313.017	76.69
313.246	80.69
313.476	86.69
313.706	76.69
313.935	95.69
314.165	84.69
314.394	89.69
314.624	82.69
314.853	77.69
315.083	93.69
315.312	95.69
315.542	76.69
315.771	85.69
316.001	100.69
316.23	96.69
316.46	74.69
316.689	85.69
316.919	99.69
317.148	90.69
317.377	103.69
317.607	89.69
317.836	88.69
318.065	82.69
318.295	82.69
318.524	81.69
318.753	84.69
318.983	86.69
319.212	79.69
319.441	92.69
319.67	95.69
319.9	77.69
320.129	80.69
320.358	65.69
320.587	90.69
320.816	85.69
321.046	82.69
321.275	81.69
321.504	78.69
321.733	90.69
321.962	98.69
322.191	79.69
322.42	82.69
322.649	80.69
322.878	76.69
323.108	68.69
323.337	90.69
323.566	88.69
323.795	89.69
324.024	95.69
324.253	87.69
324.482	84.69
324.71	96.69
324.939	90.69
325.168	95.69
325.397	83.69
325.626	83.69
325.855	82.69
326.084	85.69
326.313	82.69
326.542	83.69
326.77	89.69
326.999	63.69
327.228	87.69
327.457	97.69
327.686	77.69
327.914	81.69
328.143	82.69
328.372	85.69
328.6	87.69
328.829	75.69
329.058	80.69
329.287	86.69
329.515	61.69
329.744	82.69
329.972	85.69
330.201	89.69
330.43	93.69
330.658	91.69
330.887	88.69
331.115	89.69
331.344	78.69
331.572	76.69
331.801	81.69
332.03	75.69
332.258	81.69
332.486	89.69
332.715	99.69
332.943	79.69
333.172	86.69
333.4	91.69
333.629	81.69
333.857	103.69
334.085	78.69
334.314	95.69
334.542	83.69
334.771	90.69
334.999	73.69
335.227	80.69
335.455	91.69
335.684	90.69
335.912	74.69
336.14	101.69
336.369	79.69
336.597	84.69
336.825	102.69
337.053	90.69
337.281	83.69
337.51	84.69
337.738	93.69
337.966	80.69
338.194	89.69
338.422	81.69
338.65	84.69
338.878	93.69
339.106	85.69
339.334	91.69
339.562	95.69
339.79	89.69
340.018	85.69
340.246	80.69
340.474	76.69
340.702	89.69
340.93	79.69
341.158	74.69
341.386	84.69
341.614	81.69
341.842	81.69
342.07	91.69
342.298	83.69
342.526	87.69
342.754	82.69
342.981	77.69
343.209	78.69
343.437	97.69
343.665	83.69
343.893	82.69
344.12	96.69
344.348	89.69
344.576	76.69
344.804	77.69
345.031	84.69
345.259	84.69
345.487	85.69
345.714	83.69
345.942	83.69
346.17	91.69
346.397	77.69
346.625	95.69
346.853	88.69
347.08	79.69
347.308	79.69
347.535	99.69
347.763	84.69
347.99	79.69
348.218	82.69
348.445	89.69
348.673	94.69
348.9	88.69
349.128	82.69
349.355	84.69
349.583	94.69
349.81	83.69
350.037	89.69
350.265	93.69
350.492	87.69
350.72	99.69
350.947	87.69
351.174	82.69
351.402	88.69
351.629	76.69
351.856	63.69
352.083	74.69
352.311	81.69
352.538	98.69
352.765	83.69
352.992	92.69
353.22	76.69
353.447	86.69
353.674	84.69
353.901	79.69
354.128	64.69
354.355	67.69
354.583	91.69
354.81	83.69
355.037	73.69
355.264	84.69
355.491	92.69
355.718	73.69
355.945	72.69
356.172	76.69
356.399	71.69
356.626	77.69
356.853	86.69
357.08	86.69
357.307	79.69
357.534	74.69
357.761	77.69
357.988	99.69
358.215	85.69
358.441	78.69
358.668	80.69
358.895	87.69
359.122	74.69
359.349	87.69
359.576	88.69
359.802	82.69
360.029	93.69
360.256	78.69
360.483	80.69
360.709	84.69
360.936	84.69
361.163	78.69
361.39	74.69
361.616	91.69
361.843	98.69
362.07	81.69
362.296	87.69
362.523	89.69
362.749	85.69
362.976	85.69
363.203	78.69
363.429	87.69
363.656	81.69
363.882	85.69
364.109	100.69
364.335	90.69
364.562	85.69
364.788	86.69
365.015	101.69
365.241	74.69
365.468	83.69
365.694	70.69
365.92	90.69
366.147	103.69
366.373	81.69
366.599	80.69
366.826	73.69
367.052	105.69
367.278	80.69
367.505	79.69
367.731	93.69
367.957	71.69
368.184	88.69
368.41	101.69
368.636	76.69
368.862	82.69
369.089	80.69
369.315	98.69
369.541	98.69
369.767	91.69
369.993	78.69
370.219	92.69
370.445	89.69
370.672	90.69
370.898	84.69
371.124	90.69
371.35	78.69
371.576	75.69
371.802	89.69
372.028	83.69
372.254	87.69
372.48	95.69
372.706	89.69
372.932	96.69
373.158	92.69
373.384	91.69
373.61	112.69
373.835	93.69
374.061	112.69
374.287	94.69
374.513	97.69
374.739	84.69
374.965	89.69
375.191	92.69
375.416	104.69
375.642	96.69
375.868	84.69
376.094	92.69
376.319	118.69
376.545	84.69
376.771	103.69
376.997	93.69
377.222	89.69
377.448	113.69
377.674	93.69
377.899	95.69
378.125	92.69
378.35	101.69
378.576	108.69
378.802	95.69
379.027	99.69
379.253	94.69
379.478	80.69
379.704	95.69
379.929	96.69
380.155	85.69
380.38	98.69
380.606	97.69
380.831	108.69
381.057	91.69
381.282	109.69
381.507	101.69
381.733	93.69
381.958	104.69
382.184	92.69
382.409	106.69
382.634	100.69
382.86	90.69
383.085	105.69
383.31	103.69
383.535	102.69
383.761	104.69
383.986	116.69
384.211	97.69
384.436	94.69
384.662	105.69
384.887	105.69
385.112	88.69
385.337	92.69
385.562	92.69
385.787	101.69
386.013	101.69
386.238	104.69
386.463	86.69
386.688	96.69
386.913	102.69
387.138	115.69
387.363	95.69
387.588	115.69
387.813	87.69
388.038	102.69
388.263	101.69
388.488	109.69
388.713	114.69
388.938	107.69
389.163	98.69
389.387	116.69
389.612	103.69
389.837	110.69
390.062	102.69
390.287	119.69
390.512	108.69
390.736	117.69
390.961	111.69
391.186	108.69
391.411	105.69
391.636	111.69
391.86	109.69
392.085	103.69
392.31	117.69
392.534	94.69
392.759	97.69
392.984	109.69
393.208	91.69
393.433	99.69
393.658	118.69
393.882	117.69
394.107	106.69
394.331	113.69
394.556	89.69
394.78	103.69
395.005	107.69
395.229	109.69
395.454	94.69
395.678	98.69
395.903	116.69
396.127	99.69
396.352	86.69
396.576	100.69
396.801	112.69
397.025	119.69
397.249	119.69
397.474	116.69
397.698	103.69
397.922	111.69
398.147	131.69
398.371	112.69
398.595	114.69
398.82	102.69
399.044	119.69
399.268	115.69
399.492	118.69
399.717	112.69
399.941	108.69
400.165	116.69
400.389	101.69
400.613	114.69
400.837	113.69
401.062	109.69
401.286	124.69
401.51	123.69
401.734	108.69
401.958	123.69
402.182	115.69
402.406	105.69
402.63	110.69
402.854	123.69
403.078	120.69
403.302	129.69
403.526	119.69
403.75	115.69
403.974	121.69
404.198	123.69
404.422	131.69
404.645	115.69
404.869	125.69
405.093	122.69
405.317	111.69
405.541	110.69
405.765	123.69
405.988	117.69
406.212	115.69
406.436	136.69
406.66	119.69
406.883	129.69
407.107	128.69
407.331	121.69
407.555	108.69
407.778	120.69
408.002	123.69
408.226	121.69
408.449	124.69
408.673	119.69
408.896	102.69
409.12	127.69
409.344	113.69
409.567	115.69
409.791	116.69
410.014	126.69
410.238	125.69
410.461	136.69
410.685	131.69
410.908	115.69
411.132	125.69
411.355	124.69
411.578	124.69
411.802	118.69
412.025	123.69
412.249	137.69
412.472	122.69
412.695	120.69
412.919	133.69
413.142	127.69
413.365	121.69
413.589	119.69
413.812	115.69
414.035	122.69
414.258	131.69
414.482	120.69
414.705	123.69
414.928	132.69
415.151	119.69
415.374	129.69
415.597	135.69
415.821	145.69
416.044	135.69
416.267	125.69
416.49	130.69
416.713	135.69
416.936	138.69
417.159	122.69
417.382	128.69
417.605	134.69
417.828	137.69
418.051	135.69
418.274	116.69
418.497	131.69
418.72	127.69
418.943	131.69
419.166	128.69
419.389	146.69
419.611	139.69
419.834	156.69
420.057	147.69
420.28	125.69
420.503	133.69
420.726	151.69
420.948	135.69
421.171	130.69
421.394	139.69
421.617	145.69
421.839	152.69
422.062	145.69
422.285	129.69
422.507	144.69
422.73	136.69
422.953	130.69
423.175	129.69
423.398	132.69
423.621	137.69
423.843	153.69
424.066	130.69
424.288	145.69
424.511	154.69
424.733	143.69
424.956	160.69
425.178	155.69
425.401	135.69
425.623	137.69
425.846	134.69
426.068	142.69
426.291	129.69
426.513	124.69
426.735	145.69
426.958	134.69
427.18	135.69
427.402	141.69
427.625	125.69
427.847	135.69
428.069	127.69
428.292	122.69
428.514	132.69
428.736	127.69
428.958	131.69
429.181	135.69
429.403	135.69
429.625	132.69
429.847	149.69
430.069	134.69
430.292	139.69
430.514	131.69
430.736	133.69
430.958	125.69
431.18	123.69
431.402	117.69
431.624	114.69
431.846	112.69
432.068	107.69
432.29	116.69
432.512	117.69
432.734	131.69
432.956	144.69
433.178	139.69
433.4	145.69
433.622	139.69
433.844	136.69
434.066	137.69
434.287	108.69
434.509	97.69
434.731	85.69
434.953	122.69
435.175	126.69
435.397	132.69
435.618	123.69
435.84	103.69
436.062	137.69
436.284	142.69
436.505	131.69
436.727	123.69
436.949	140.69
437.17	143.69
437.392	130.69
437.614	130.69
437.835	120.69
438.057	100.69
438.278	131.69
438.5	137.69
438.721	147.69
438.943	137.69
439.165	136.69
439.386	139.69
439.608	151.69
439.829	140.69
440.05	140.69
440.272	148.69
440.493	156.69
440.715	139.69
440.936	153.69
441.158	147.69
441.379	132.69
441.6	143.69
441.822	147.69
442.043	149.69
442.264	154.69
442.486	135.69
442.707	143.69
442.928	150.69
443.149	154.69
443.371	145.69
443.592	134.69
443.813	156.69
444.034	136.69
444.255	143.69
444.476	143.69
444.698	148.69
444.919	151.69
445.14	265.69
445.361	199.69
445.582	169.69
445.803	163.69
446.024	165.69
446.245	164.69
446.466	139.69
446.687	157.69
446.908	161.69
447.129	163.69
447.35	165.69
447.571	154.69
447.792	132.69
448.013	147.69
448.234	161.69
448.455	144.69
448.675	145.69
448.896	138.69
449.117	143.69
449.338	145.69
449.559	137.69
449.779	147.69
450	159.69
450.221	138.69
450.442	141.69
450.662	129.69
450.883	136.69
451.104	139.69
451.324	125.69
451.545	117.69
451.766	124.69
451.986	128.69
452.207	139.69
452.428	139.69
452.648	132.69
452.869	137.69
453.089	119.69
453.31	103.69
453.53	116.69
453.751	101.69
453.971	95.69
454.192	112.69
454.412	114.69
454.633	118.69
454.853	118.69
455.073	130.69
455.294	120.69
455.514	134.69
455.734	139.69
455.955	125.69
456.175	115.69
456.395	122.69
456.616	122.69
456.836	107.69
457.056	121.69
457.276	106.69
457.497	115.69
457.717	115.69
457.937	100.69
458.157	120.69
458.377	119.69
458.598	97.69
458.818	89.69
459.038	88.69
459.258	95.69
459.478	94.69
459.698	98.69
459.918	107.69
460.138	117.69
460.358	108.69
460.578	113.69
460.798	109.69
461.018	115.69
461.238	122.69
461.458	122.69
461.678	110.69
461.898	121.69
462.118	120.69
462.338	114.69
462.558	138.69
462.777	117.69
462.997	129.69
463.217	105.69
463.437	110.69
463.657	107.69
463.876	97.69
464.096	119.69
464.316	106.69
464.536	119.69
464.755	108.69
464.975	122.69
465.195	101.69
465.414	123.69
465.634	116.69
465.854	123.69
466.073	121.69
466.293	118.69
466.512	128.69
466.732	138.69
466.951	135.69
467.171	141.69
467.391	129.69
467.61	125.69
467.829	143.69
468.049	129.69
468.268	126.69
468.488	140.69
468.707	128.69
468.927	132.69
469.146	131.69
469.365	143.69
469.585	129.69
469.804	143.69
470.023	145.69
470.243	153.69
470.462	138.69
470.681	135.69
470.901	145.69
471.12	140.69
471.339	147.69
471.558	150.69
471.777	145.69
471.997	142.69
472.216	135.69
472.435	111.69
472.654	111.69
472.873	125.69
473.092	119.69
473.311	140.69
473.53	119.69
473.749	132.69
473.968	125.69
474.187	125.69
474.406	123.69
474.625	129.69
474.844	127.69
475.063	122.69
475.282	131.69
475.501	114.69
475.72	121.69
475.939	120.69
476.158	132.69
476.377	139.69
476.596	133.69
476.814	113.69
477.033	117.69
477.252	119.69
477.471	140.69
477.69	132.69
477.908	141.69
478.127	156.69
478.346	141.69
478.564	135.69
478.783	125.69
479.002	138.69
479.22	134.69
479.439	153.69
479.658	122.69
479.876	105.69
480.095	105.69
480.313	120.69
480.532	123.69
480.751	115.69
480.969	100.69
481.188	71.69
481.406	97.69
481.624	93.69
481.843	106.69
482.061	109.69
482.28	126.69
482.498	108.69
482.717	99.69
482.935	125.69
483.153	163.69
483.372	156.69
483.59	155.69
483.808	149.69
484.027	150.69
484.245	149.69
484.463	155.69
484.681	168.69
484.9	151.69
485.118	151.69
485.336	146.69
485.554	113.69
485.772	103.69
485.99	103.69
486.209	108.69
486.427	101.69
486.645	126.69
486.863	148.69
487.081	150.69
487.299	131.69
487.517	141.69
487.735	187.69
487.953	200.69
488.171	188.69
488.389	181.69
488.607	151.69
488.825	153.69
489.043	139.69
489.261	147.69
489.479	138.69
489.696	147.69
489.914	139.69
490.132	170.69
490.35	164.69
490.568	171.69
490.786	199.69
491.003	194.69
491.221	185.69
491.439	196.69
491.657	194.69
491.874	224.69
492.092	239.69
492.31	264.69
492.527	227.69
492.745	218.69
492.963	198.69
493.18	200.69
493.398	182.69
493.615	180.69
493.833	196.69
494.05	200.69
494.268	181.69
494.485	179.69
494.703	188.69
494.92	181.69
495.138	186.69
495.355	167.69
495.573	161.69
495.79	172.69
496.008	181.69
496.225	153.69
496.442	181.69
496.66	186.69
496.877	165.69
497.094	159.69
497.312	163.69
497.529	171.69
497.746	156.69
497.963	133.69
498.181	137.69
498.398	139.69
498.615	123.69
498.832	124.69
499.049	119.69
499.267	116.69
499.484	123.69
499.701	128.69
499.918	138.69
500.135	140.69
500.352	145.69
500.569	155.69
500.786	159.69
501.003	135.69
501.22	145.69
501.437	125.69
501.654	138.69
501.871	145.69
502.088	140.69
502.305	139.69
502.522	136.69
502.739	133.69
502.956	123.69
503.172	135.69
503.389	120.69
503.606	118.69
503.823	124.69
504.04	126.69
504.256	129.69
504.473	141.69
504.69	121.69
504.907	134.69
505.123	136.69
505.34	139.69
505.557	125.69
505.773	125.69
505.99	125.69
506.207	132.69
506.423	132.69
506.64	130.69
506.856	130.69
507.073	126.69
507.289	139.69
507.506	121.69
507.722	122.69
507.939	115.69
508.155	129.69
508.372	116.69
508.588	123.69
508.805	119.69
509.021	106.69
509.238	113.69
509.454	121.69
509.67	112.69
509.887	91.69
510.103	99.69
510.319	110.69
510.536	87.69
510.752	91.69
510.968	80.69
511.184	90.69
511.401	83.69
