Data from Location6.07152019.Energy5.Lamp.07192019.3%Agarose_HRD10591_16-12-14-396.txt Node
Date: Fri Jul 19 16:12:14 EDT 2019
User: cochatt
Spectrometer: HR+D1059
Trigger mode: 1
Integration Time (sec): 1.000000E-1
Scans to average: 1
Electric dark correction enabled: true
Nonlinearity correction enabled: false
Boxcar width: 0
XAxis mode: Wavelengths
Number of Pixels in Spectrum: 2048
>>>>>Begin Spectral Data<<<<<
223.165	4.5
223.4	4.5
223.635	4.5
223.869	-20.5
224.104	-7.5
224.338	-37.5
224.573	-10.5
224.808	-14.5
225.042	-13.5
225.277	-23.5
225.511	5.5
225.746	7.5
225.98	14.5
226.215	9.5
226.449	8.5
226.683	32.5
226.918	16.5
227.152	28.5
227.387	42.5
227.621	36.5
227.856	43.5
228.09	44.5
228.324	53.5
228.559	57.5
228.793	71.5
229.027	60.5
229.262	77.5
229.496	56.5
229.73	63.5
229.964	74.5
230.199	69.5
230.433	77.5
230.667	92.5
230.901	83.5
231.136	77.5
231.37	79.5
231.604	89.5
231.838	78.5
232.072	73.5
232.306	72.5
232.541	92.5
232.775	71.5
233.009	83.5
233.243	77.5
233.477	83.5
233.711	83.5
233.945	86.5
234.179	83.5
234.413	67.5
234.647	75.5
234.881	76.5
235.115	79.5
235.349	97.5
235.583	84.5
235.817	87.5
236.051	71.5
236.285	80.5
236.519	83.5
236.753	82.5
236.987	96.5
237.221	71.5
237.455	79.5
237.689	79.5
237.922	84.5
238.156	69.5
238.39	74.5
238.624	81.5
238.858	77.5
239.091	68.5
239.325	84.5
239.559	69.5
239.793	81.5
240.027	90.5
240.26	80.5
240.494	80.5
240.728	79.5
240.961	79.5
241.195	72.5
241.429	74.5
241.662	72.5
241.896	86.5
242.13	74.5
242.363	90.5
242.597	92.5
242.83	84.5
243.064	75.5
243.298	60.5
243.531	68.5
243.765	72.5
243.998	80.5
244.232	78.5
244.465	86.5
244.699	79.5
244.932	83.5
245.166	73.5
245.399	73.5
245.633	73.5
245.866	73.5
246.099	58.5
246.333	86.5
246.566	80.5
246.8	77.5
247.033	74.5
247.266	65.5
247.5	83.5
247.733	89.5
247.966	95.5
248.2	76.5
248.433	67.5
248.666	74.5
248.899	79.5
249.133	72.5
249.366	84.5
249.599	71.5
249.832	84.5
250.066	93.5
250.299	76.5
250.532	81.5
250.765	76.5
250.998	84.5
251.231	85.5
251.465	87.5
251.698	73.5
251.931	80.5
252.164	81.5
252.397	88.5
252.63	74.5
252.863	85.5
253.096	75.5
253.329	73.5
253.562	75.5
253.795	75.5
254.028	86.5
254.261	81.5
254.494	79.5
254.727	80.5
254.96	75.5
255.193	75.5
255.426	81.5
255.659	74.5
255.892	90.5
256.124	82.5
256.357	84.5
256.59	79.5
256.823	80.5
257.056	82.5
257.289	86.5
257.521	83.5
257.754	61.5
257.987	74.5
258.22	77.5
258.452	96.5
258.685	81.5
258.918	82.5
259.151	83.5
259.383	90.5
259.616	79.5
259.849	77.5
260.081	93.5
260.314	73.5
260.547	71.5
260.779	80.5
261.012	96.5
261.244	85.5
261.477	90.5
261.71	82.5
261.942	71.5
262.175	65.5
262.407	71.5
262.64	99.5
262.872	71.5
263.105	86.5
263.337	87.5
263.57	91.5
263.802	90.5
264.035	93.5
264.267	95.5
264.499	72.5
264.732	81.5
264.964	85.5
265.197	92.5
265.429	83.5
265.661	84.5
265.894	81.5
266.126	95.5
266.358	87.5
266.591	77.5
266.823	86.5
267.055	74.5
267.287	75.5
267.52	77.5
267.752	90.5
267.984	83.5
268.216	81.5
268.448	80.5
268.681	70.5
268.913	92.5
269.145	81.5
269.377	100.5
269.609	93.5
269.841	77.5
270.073	82.5
270.306	88.5
270.538	82.5
270.77	94.5
271.002	92.5
271.234	65.5
271.466	78.5
271.698	74.5
271.93	73.5
272.162	91.5
272.394	95.5
272.626	70.5
272.858	87.5
273.09	98.5
273.322	89.5
273.553	92.5
273.785	80.5
274.017	80.5
274.249	69.5
274.481	87.5
274.713	98.5
274.945	86.5
275.176	73.5
275.408	97.5
275.64	84.5
275.872	80.5
276.104	80.5
276.335	77.5
276.567	95.5
276.799	90.5
277.031	93.5
277.262	86.5
277.494	74.5
277.726	89.5
277.957	98.5
278.189	83.5
278.421	82.5
278.652	77.5
278.884	91.5
279.115	87.5
279.347	92.5
279.579	111.5
279.81	87.5
280.042	97.5
280.273	94.5
280.505	65.5
280.736	75.5
280.968	77.5
281.199	73.5
281.431	77.5
281.662	88.5
281.894	85.5
282.125	90.5
282.356	85.5
282.588	78.5
282.819	93.5
283.051	79.5
283.282	83.5
283.513	84.5
283.745	91.5
283.976	81.5
284.207	83.5
284.439	90.5
284.67	80.5
284.901	96.5
285.132	87.5
285.364	97.5
285.595	79.5
285.826	81.5
286.057	101.5
286.288	93.5
286.52	81.5
286.751	82.5
286.982	91.5
287.213	72.5
287.444	95.5
287.675	91.5
287.906	86.5
288.138	83.5
288.369	93.5
288.6	77.5
288.831	81.5
289.062	72.5
289.293	77.5
289.524	83.5
289.755	85.5
289.986	84.5
290.217	92.5
290.448	73.5
290.679	101.5
290.91	96.5
291.141	73.5
291.371	87.5
291.602	74.5
291.833	80.5
292.064	88.5
292.295	85.5
292.526	97.5
292.757	89.5
292.987	92.5
293.218	76.5
293.449	83.5
293.68	81.5
293.91	80.5
294.141	89.5
294.372	80.5
294.603	84.5
294.833	93.5
295.064	84.5
295.295	81.5
295.525	83.5
295.756	80.5
295.987	84.5
296.217	77.5
296.448	82.5
296.679	88.5
296.909	78.5
297.14	87.5
297.37	97.5
297.601	92.5
297.831	95.5
298.062	82.5
298.292	89.5
298.523	89.5
298.753	84.5
298.984	82.5
299.214	84.5
299.445	84.5
299.675	72.5
299.905	93.5
300.136	106.5
300.366	93.5
300.597	94.5
300.827	83.5
301.057	98.5
301.288	88.5
301.518	95.5
301.748	84.5
301.979	92.5
302.209	82.5
302.439	84.5
302.669	97.5
302.9	74.5
303.13	93.5
303.36	97.5
303.59	75.5
303.82	91.5
304.051	86.5
304.281	96.5
304.511	92.5
304.741	92.5
304.971	78.5
305.201	81.5
305.431	74.5
305.661	82.5
305.891	100.5
306.121	86.5
306.352	75.5
306.582	70.5
306.812	87.5
307.042	76.5
307.272	87.5
307.502	85.5
307.731	87.5
307.961	80.5
308.191	83.5
308.421	86.5
308.651	80.5
308.881	81.5
309.111	88.5
309.341	96.5
309.571	82.5
309.8	81.5
310.03	91.5
310.26	88.5
310.49	90.5
310.72	85.5
310.949	65.5
311.179	89.5
311.409	95.5
311.639	93.5
311.868	94.5
312.098	105.5
312.328	75.5
312.557	93.5
312.787	77.5
313.017	95.5
313.246	83.5
313.476	96.5
313.706	99.5
313.935	77.5
314.165	83.5
314.394	79.5
314.624	80.5
314.853	91.5
315.083	80.5
315.312	92.5
315.542	85.5
315.771	92.5
316.001	93.5
316.23	97.5
316.46	82.5
316.689	76.5
316.919	76.5
317.148	91.5
317.377	95.5
317.607	79.5
317.836	87.5
318.065	85.5
318.295	79.5
318.524	74.5
318.753	83.5
318.983	87.5
319.212	90.5
319.441	97.5
319.67	93.5
319.9	86.5
320.129	103.5
320.358	82.5
320.587	86.5
320.816	80.5
321.046	96.5
321.275	75.5
321.504	76.5
321.733	74.5
321.962	68.5
322.191	77.5
322.42	76.5
322.649	89.5
322.878	95.5
323.108	98.5
323.337	95.5
323.566	76.5
323.795	75.5
324.024	76.5
324.253	90.5
324.482	88.5
324.71	88.5
324.939	90.5
325.168	87.5
325.397	76.5
325.626	80.5
325.855	83.5
326.084	82.5
326.313	96.5
326.542	102.5
326.77	74.5
326.999	99.5
327.228	77.5
327.457	88.5
327.686	92.5
327.914	80.5
328.143	84.5
328.372	92.5
328.6	88.5
328.829	89.5
329.058	80.5
329.287	76.5
329.515	85.5
329.744	75.5
329.972	83.5
330.201	73.5
330.43	83.5
330.658	83.5
330.887	82.5
331.115	83.5
331.344	81.5
331.572	77.5
331.801	86.5
332.03	82.5
332.258	85.5
332.486	90.5
332.715	79.5
332.943	84.5
333.172	94.5
333.4	82.5
333.629	88.5
333.857	73.5
334.085	93.5
334.314	91.5
334.542	86.5
334.771	84.5
334.999	86.5
335.227	81.5
335.455	98.5
335.684	91.5
335.912	93.5
336.14	96.5
336.369	87.5
336.597	87.5
336.825	88.5
337.053	86.5
337.281	84.5
337.51	86.5
337.738	71.5
337.966	71.5
338.194	87.5
338.422	72.5
338.65	87.5
338.878	83.5
339.106	90.5
339.334	72.5
339.562	85.5
339.79	81.5
340.018	79.5
340.246	83.5
340.474	88.5
340.702	100.5
340.93	93.5
341.158	75.5
341.386	86.5
341.614	87.5
341.842	85.5
342.07	84.5
342.298	79.5
342.526	78.5
342.754	91.5
342.981	89.5
343.209	99.5
343.437	90.5
343.665	69.5
343.893	89.5
344.12	87.5
344.348	83.5
344.576	89.5
344.804	83.5
345.031	81.5
345.259	77.5
345.487	92.5
345.714	78.5
345.942	69.5
346.17	91.5
346.397	96.5
346.625	71.5
346.853	84.5
347.08	83.5
347.308	76.5
347.535	93.5
347.763	80.5
347.99	77.5
348.218	80.5
348.445	71.5
348.673	92.5
348.9	90.5
349.128	98.5
349.355	83.5
349.583	96.5
349.81	91.5
350.037	81.5
350.265	90.5
350.492	78.5
350.72	89.5
350.947	87.5
351.174	88.5
351.402	101.5
351.629	87.5
351.856	90.5
352.083	94.5
352.311	83.5
352.538	85.5
352.765	99.5
352.992	79.5
353.22	76.5
353.447	88.5
353.674	83.5
353.901	86.5
354.128	96.5
354.355	79.5
354.583	86.5
354.81	90.5
355.037	84.5
355.264	83.5
355.491	76.5
355.718	82.5
355.945	79.5
356.172	78.5
356.399	73.5
356.626	79.5
356.853	87.5
357.08	91.5
357.307	89.5
357.534	101.5
357.761	80.5
357.988	92.5
358.215	95.5
358.441	86.5
358.668	81.5
358.895	80.5
359.122	83.5
359.349	81.5
359.576	69.5
359.802	77.5
360.029	84.5
360.256	90.5
360.483	86.5
360.709	77.5
360.936	99.5
361.163	89.5
361.39	76.5
361.616	81.5
361.843	86.5
362.07	85.5
362.296	90.5
362.523	82.5
362.749	82.5
362.976	89.5
363.203	89.5
363.429	73.5
363.656	67.5
363.882	93.5
364.109	82.5
364.335	77.5
364.562	79.5
364.788	87.5
365.015	96.5
365.241	94.5
365.468	82.5
365.694	96.5
365.92	68.5
366.147	70.5
366.373	70.5
366.599	78.5
366.826	78.5
367.052	73.5
367.278	94.5
367.505	97.5
367.731	90.5
367.957	91.5
368.184	104.5
368.41	93.5
368.636	83.5
368.862	98.5
369.089	71.5
369.315	91.5
369.541	106.5
369.767	101.5
369.993	90.5
370.219	84.5
370.445	105.5
370.672	103.5
370.898	90.5
371.124	87.5
371.35	81.5
371.576	92.5
371.802	96.5
372.028	78.5
372.254	99.5
372.48	93.5
372.706	89.5
372.932	97.5
373.158	90.5
373.384	94.5
373.61	92.5
373.835	102.5
374.061	99.5
374.287	106.5
374.513	112.5
374.739	103.5
374.965	89.5
375.191	95.5
375.416	96.5
375.642	78.5
375.868	113.5
376.094	101.5
376.319	98.5
376.545	96.5
376.771	88.5
376.997	98.5
377.222	104.5
377.448	101.5
377.674	99.5
377.899	106.5
378.125	93.5
378.35	91.5
378.576	91.5
378.802	94.5
379.027	88.5
379.253	94.5
379.478	100.5
379.704	99.5
379.929	98.5
380.155	96.5
380.38	101.5
380.606	89.5
380.831	82.5
381.057	103.5
381.282	101.5
381.507	87.5
381.733	100.5
381.958	101.5
382.184	88.5
382.409	100.5
382.634	83.5
382.86	97.5
383.085	97.5
383.31	107.5
383.535	104.5
383.761	101.5
383.986	113.5
384.211	98.5
384.436	103.5
384.662	93.5
384.887	101.5
385.112	99.5
385.337	89.5
385.562	98.5
385.787	107.5
386.013	99.5
386.238	96.5
386.463	97.5
386.688	95.5
386.913	104.5
387.138	107.5
387.363	99.5
387.588	107.5
387.813	107.5
388.038	91.5
388.263	104.5
388.488	104.5
388.713	95.5
388.938	103.5
389.163	92.5
389.387	111.5
389.612	92.5
389.837	103.5
390.062	102.5
390.287	110.5
390.512	121.5
390.736	122.5
390.961	101.5
391.186	103.5
391.411	115.5
391.636	102.5
391.86	95.5
392.085	109.5
392.31	111.5
392.534	115.5
392.759	109.5
392.984	93.5
393.208	104.5
393.433	105.5
393.658	106.5
393.882	125.5
394.107	123.5
394.331	114.5
394.556	102.5
394.78	104.5
395.005	109.5
395.229	100.5
395.454	116.5
395.678	105.5
395.903	115.5
396.127	119.5
396.352	101.5
396.576	104.5
396.801	111.5
397.025	96.5
397.249	95.5
397.474	115.5
397.698	97.5
397.922	119.5
398.147	119.5
398.371	107.5
398.595	124.5
398.82	102.5
399.044	98.5
399.268	113.5
399.492	108.5
399.717	97.5
399.941	95.5
400.165	104.5
400.389	117.5
400.613	101.5
400.837	124.5
401.062	120.5
401.286	111.5
401.51	118.5
401.734	115.5
401.958	127.5
402.182	104.5
402.406	121.5
402.63	113.5
402.854	112.5
403.078	116.5
403.302	121.5
403.526	114.5
403.75	122.5
403.974	114.5
404.198	139.5
404.422	124.5
404.645	106.5
404.869	117.5
405.093	123.5
405.317	112.5
405.541	118.5
405.765	120.5
405.988	111.5
406.212	107.5
406.436	123.5
406.66	124.5
406.883	132.5
407.107	122.5
407.331	124.5
407.555	121.5
407.778	137.5
408.002	127.5
408.226	131.5
408.449	128.5
408.673	122.5
408.896	139.5
409.12	133.5
409.344	114.5
409.567	126.5
409.791	128.5
410.014	115.5
410.238	113.5
410.461	117.5
410.685	120.5
410.908	117.5
411.132	135.5
411.355	103.5
411.578	117.5
411.802	123.5
412.025	111.5
412.249	129.5
412.472	122.5
412.695	123.5
412.919	139.5
413.142	132.5
413.365	122.5
413.589	105.5
413.812	128.5
414.035	119.5
414.258	133.5
414.482	134.5
414.705	133.5
414.928	130.5
415.151	112.5
415.374	117.5
415.597	106.5
415.821	137.5
416.044	130.5
416.267	129.5
416.49	120.5
416.713	126.5
416.936	128.5
417.159	129.5
417.382	138.5
417.605	126.5
417.828	124.5
418.051	137.5
418.274	112.5
418.497	133.5
418.72	128.5
418.943	153.5
419.166	139.5
419.389	140.5
419.611	139.5
419.834	139.5
420.057	152.5
420.28	128.5
420.503	146.5
420.726	145.5
420.948	146.5
421.171	141.5
421.394	148.5
421.617	158.5
421.839	140.5
422.062	138.5
422.285	139.5
422.507	140.5
422.73	138.5
422.953	138.5
423.175	133.5
423.398	128.5
423.621	135.5
423.843	139.5
424.066	134.5
424.288	135.5
424.511	166.5
424.733	139.5
424.956	134.5
425.178	155.5
425.401	131.5
425.623	136.5
425.846	123.5
426.068	130.5
426.291	130.5
426.513	146.5
426.735	145.5
426.958	143.5
427.18	131.5
427.402	118.5
427.625	152.5
427.847	138.5
428.069	131.5
428.292	127.5
428.514	121.5
428.736	135.5
428.958	126.5
429.181	138.5
429.403	132.5
429.625	135.5
429.847	146.5
430.069	131.5
430.292	120.5
430.514	131.5
430.736	137.5
430.958	123.5
431.18	125.5
431.402	128.5
431.624	135.5
431.846	120.5
432.068	103.5
432.29	106.5
432.512	119.5
432.734	116.5
432.956	135.5
433.178	154.5
433.4	139.5
433.622	155.5
433.844	137.5
434.066	128.5
434.287	124.5
434.509	105.5
434.731	100.5
434.953	121.5
435.175	123.5
435.397	120.5
435.618	116.5
435.84	132.5
436.062	124.5
436.284	141.5
436.505	138.5
436.727	118.5
436.949	127.5
437.17	126.5
437.392	139.5
437.614	120.5
437.835	119.5
438.057	118.5
438.278	123.5
438.5	131.5
438.721	145.5
438.943	146.5
439.165	151.5
439.386	155.5
439.608	149.5
439.829	154.5
440.05	149.5
440.272	148.5
440.493	153.5
440.715	154.5
440.936	137.5
441.158	155.5
441.379	162.5
441.6	153.5
441.822	155.5
442.043	147.5
442.264	145.5
442.486	138.5
442.707	143.5
442.928	138.5
443.149	142.5
443.371	147.5
443.592	134.5
443.813	143.5
444.034	154.5
444.255	139.5
444.476	155.5
444.698	150.5
444.919	150.5
445.14	285.5
445.361	224.5
445.582	168.5
445.803	157.5
446.024	149.5
446.245	160.5
446.466	160.5
446.687	164.5
446.908	177.5
447.129	171.5
447.35	161.5
447.571	162.5
447.792	140.5
448.013	155.5
448.234	144.5
448.455	146.5
448.675	149.5
448.896	147.5
449.117	149.5
449.338	143.5
449.559	150.5
449.779	139.5
450	149.5
450.221	147.5
450.442	138.5
450.662	127.5
450.883	138.5
451.104	134.5
451.324	144.5
451.545	145.5
451.766	116.5
451.986	129.5
452.207	127.5
452.428	122.5
452.648	131.5
452.869	127.5
453.089	116.5
453.31	119.5
453.53	123.5
453.751	100.5
453.971	116.5
454.192	115.5
454.412	117.5
454.633	121.5
454.853	122.5
455.073	125.5
455.294	126.5
455.514	125.5
455.734	113.5
455.955	147.5
456.175	139.5
456.395	120.5
456.616	114.5
456.836	121.5
457.056	127.5
457.276	125.5
457.497	124.5
457.717	111.5
457.937	125.5
458.157	124.5
458.377	115.5
458.598	102.5
458.818	98.5
459.038	98.5
459.258	92.5
459.478	63.5
459.698	97.5
459.918	88.5
460.138	93.5
460.358	123.5
460.578	119.5
460.798	107.5
461.018	112.5
461.238	121.5
461.458	126.5
461.678	121.5
461.898	124.5
462.118	121.5
462.338	120.5
462.558	128.5
462.777	118.5
462.997	116.5
463.217	103.5
463.437	107.5
463.657	125.5
463.876	127.5
464.096	111.5
464.316	112.5
464.536	110.5
464.755	111.5
464.975	118.5
465.195	129.5
465.414	131.5
465.634	115.5
465.854	121.5
466.073	133.5
466.293	132.5
466.512	146.5
466.732	140.5
466.951	125.5
467.171	142.5
467.391	129.5
467.61	153.5
467.829	130.5
468.049	141.5
468.268	146.5
468.488	149.5
468.707	150.5
468.927	138.5
469.146	151.5
469.365	133.5
469.585	155.5
469.804	136.5
470.023	139.5
470.243	153.5
470.462	137.5
470.681	164.5
470.901	133.5
471.12	146.5
471.339	154.5
471.558	166.5
471.777	151.5
471.997	135.5
472.216	142.5
472.435	120.5
472.654	111.5
472.873	115.5
473.092	136.5
473.311	121.5
473.53	133.5
473.749	132.5
473.968	138.5
474.187	129.5
474.406	133.5
474.625	135.5
474.844	150.5
475.063	153.5
475.282	141.5
475.501	127.5
475.72	137.5
475.939	128.5
476.158	114.5
476.377	144.5
476.596	117.5
476.814	120.5
477.033	112.5
477.252	119.5
477.471	125.5
477.69	127.5
477.908	147.5
478.127	152.5
478.346	140.5
478.564	140.5
478.783	125.5
479.002	129.5
479.22	138.5
479.439	136.5
479.658	129.5
479.876	117.5
480.095	115.5
480.313	119.5
480.532	117.5
480.751	116.5
480.969	84.5
481.188	98.5
481.406	90.5
481.624	88.5
481.843	88.5
482.061	99.5
482.28	117.5
482.498	101.5
482.717	108.5
482.935	127.5
483.153	155.5
483.372	154.5
483.59	148.5
483.808	148.5
484.027	122.5
484.245	136.5
484.463	151.5
484.681	177.5
484.9	157.5
485.118	142.5
485.336	134.5
485.554	119.5
485.772	96.5
485.99	100.5
486.209	126.5
486.427	120.5
486.645	134.5
486.863	150.5
487.081	141.5
487.299	135.5
487.517	140.5
487.735	172.5
487.953	209.5
488.171	198.5
488.389	200.5
488.607	177.5
488.825	149.5
489.043	145.5
489.261	139.5
489.479	138.5
489.696	136.5
489.914	145.5
490.132	145.5
490.35	162.5
490.568	159.5
490.786	171.5
491.003	180.5
491.221	172.5
491.439	187.5
491.657	190.5
491.874	211.5
492.092	248.5
492.31	255.5
492.527	240.5
492.745	219.5
492.963	226.5
493.18	216.5
493.398	195.5
493.615	183.5
493.833	199.5
494.05	178.5
494.268	171.5
494.485	185.5
494.703	180.5
494.92	186.5
495.138	185.5
495.355	183.5
495.573	172.5
495.79	178.5
496.008	175.5
496.225	165.5
496.442	184.5
496.66	172.5
496.877	172.5
497.094	170.5
497.312	167.5
497.529	164.5
497.746	142.5
497.963	153.5
498.181	147.5
498.398	122.5
498.615	135.5
498.832	115.5
499.049	127.5
499.267	137.5
499.484	132.5
499.701	148.5
499.918	152.5
500.135	145.5
500.352	147.5
500.569	148.5
500.786	151.5
501.003	145.5
501.22	143.5
501.437	141.5
501.654	135.5
501.871	135.5
502.088	133.5
502.305	141.5
502.522	135.5
502.739	137.5
502.956	136.5
503.172	133.5
503.389	120.5
503.606	129.5
503.823	125.5
504.04	143.5
504.256	135.5
504.473	116.5
504.69	124.5
504.907	132.5
505.123	129.5
505.34	136.5
505.557	140.5
505.773	130.5
505.99	127.5
506.207	135.5
506.423	136.5
506.64	112.5
506.856	131.5
507.073	106.5
507.289	115.5
507.506	123.5
507.722	132.5
507.939	115.5
508.155	127.5
508.372	106.5
508.588	135.5
508.805	110.5
509.021	121.5
509.238	124.5
509.454	105.5
509.67	115.5
509.887	116.5
510.103	95.5
510.319	98.5
510.536	99.5
510.752	87.5
510.968	90.5
511.184	80.5
511.401	93.5
511.617	87.5
511.833	87.5
512.049	96.5
512.265	104.5
512.481	101.5
512.698	90.5
512.914	89.5
513.13	82.5
513.346	92.5
513.562	87.5
513.778	73.5
513.994	91.5
514.21	104.5
514.426	96.5
514.642	104.5
514.858	98.5
515.074	82.5
515.29	79.5
515.506	84.5
515.721	90.5
515.937	93.5
516.153	83.5
516.369	90.5
516.585	83.5
516.801	88.5
517.016	88.5
517.232	85.5
517.448	99.5
517.664	91.5
517.879	91.5
518.095	100.5
518.311	97.5
518.527	104.5
518.742	98.5
518.958	117.5
519.173	100.5
519.389	119.5
519.605	124.5
519.82	119.5
520.036	108.5
520.251	120.5
520.467	119.5
520.682	106.5
520.898	83.5
521.113	105.5
521.329	97.5
521.544	89.5
521.76	99.5
521.975	81.5
522.19	92.5
522.406	96.5
522.621	112.5
522.836	111.5
523.052	102.5
523.267	111.5
523.482	102.5
523.698	95.5
523.913	105.5
524.128	130.5
524.343	107.5
524.559	119.5
524.774	126.5
524.989	130.5
525.204	119.5
525.419	117.5
525.634	117.5
525.849	102.5
526.064	98.5
526.28	115.5
526.495	101.5
526.71	90.5
526.925	91.5
527.14	80.5
527.355	87.5
527.57	98.5
527.785	97.5
527.999	95.5
528.214	88.5
528.429	119.5
528.644	135.5
528.859	137.5
529.074	149.5
529.289	179.5
529.503	162.5
529.718	162.5
529.933	147.5
530.148	116.5
530.363	94.5
530.577	87.5
