Data from Location6.07152019.Energy5.Lamp.07192019.3%Agarose_HRD10591_16-11-40-394.txt Node
Date: Fri Jul 19 16:11:40 EDT 2019
User: cochatt
Spectrometer: HR+D1059
Trigger mode: 1
Integration Time (sec): 1.000000E-1
Scans to average: 1
Electric dark correction enabled: true
Nonlinearity correction enabled: false
Boxcar width: 0
XAxis mode: Wavelengths
Number of Pixels in Spectrum: 2048
>>>>>Begin Spectral Data<<<<<
223.165	-11.88
223.4	-11.88
223.635	-11.88
223.869	-3.88
224.104	-9.88
224.338	-29.88
224.573	0.12
224.808	-20.88
225.042	-13.88
225.277	-3.88
225.511	-0.88
225.746	-7.88
225.98	6.12
226.215	11.12
226.449	23.12
226.683	28.12
226.918	13.12
227.152	21.12
227.387	34.12
227.621	39.12
227.856	36.12
228.09	58.12
228.324	45.12
228.559	36.12
228.793	52.12
229.027	55.12
229.262	66.12
229.496	64.12
229.73	71.12
229.964	73.12
230.199	71.12
230.433	67.12
230.667	71.12
230.901	75.12
231.136	86.12
231.37	85.12
231.604	73.12
231.838	83.12
232.072	70.12
232.306	80.12
232.541	77.12
232.775	72.12
233.009	84.12
233.243	81.12
233.477	68.12
233.711	84.12
233.945	72.12
234.179	72.12
234.413	75.12
234.647	80.12
234.881	81.12
235.115	81.12
235.349	90.12
235.583	75.12
235.817	89.12
236.051	80.12
236.285	96.12
236.519	94.12
236.753	77.12
236.987	74.12
237.221	67.12
237.455	89.12
237.689	67.12
237.922	86.12
238.156	85.12
238.39	79.12
238.624	96.12
238.858	88.12
239.091	72.12
239.325	84.12
239.559	71.12
239.793	86.12
240.027	86.12
240.26	90.12
240.494	93.12
240.728	86.12
240.961	77.12
241.195	83.12
241.429	75.12
241.662	83.12
241.896	83.12
242.13	72.12
242.363	73.12
242.597	70.12
242.83	74.12
243.064	67.12
243.298	75.12
243.531	70.12
243.765	76.12
243.998	82.12
244.232	85.12
244.465	82.12
244.699	75.12
244.932	61.12
245.166	86.12
245.399	73.12
245.633	79.12
245.866	79.12
246.099	72.12
246.333	72.12
246.566	76.12
246.8	74.12
247.033	75.12
247.266	80.12
247.5	71.12
247.733	77.12
247.966	82.12
248.2	71.12
248.433	91.12
248.666	82.12
248.899	88.12
249.133	72.12
249.366	90.12
249.599	87.12
249.832	77.12
250.066	82.12
250.299	72.12
250.532	86.12
250.765	84.12
250.998	72.12
251.231	73.12
251.465	71.12
251.698	80.12
251.931	86.12
252.164	91.12
252.397	96.12
252.63	91.12
252.863	86.12
253.096	76.12
253.329	84.12
253.562	76.12
253.795	85.12
254.028	84.12
254.261	79.12
254.494	90.12
254.727	87.12
254.96	72.12
255.193	87.12
255.426	82.12
255.659	83.12
255.892	89.12
256.124	82.12
256.357	88.12
256.59	87.12
256.823	84.12
257.056	88.12
257.289	85.12
257.521	82.12
257.754	78.12
257.987	77.12
258.22	88.12
258.452	86.12
258.685	91.12
258.918	81.12
259.151	88.12
259.383	69.12
259.616	79.12
259.849	79.12
260.081	87.12
260.314	79.12
260.547	76.12
260.779	81.12
261.012	75.12
261.244	78.12
261.477	92.12
261.71	83.12
261.942	73.12
262.175	77.12
262.407	64.12
262.64	83.12
262.872	77.12
263.105	84.12
263.337	83.12
263.57	85.12
263.802	83.12
264.035	85.12
264.267	83.12
264.499	90.12
264.732	86.12
264.964	78.12
265.197	91.12
265.429	81.12
265.661	89.12
265.894	90.12
266.126	86.12
266.358	88.12
266.591	85.12
266.823	81.12
267.055	76.12
267.287	76.12
267.52	71.12
267.752	77.12
267.984	76.12
268.216	76.12
268.448	92.12
268.681	93.12
268.913	78.12
269.145	75.12
269.377	72.12
269.609	75.12
269.841	102.12
270.073	76.12
270.306	85.12
270.538	71.12
270.77	97.12
271.002	89.12
271.234	98.12
271.466	81.12
271.698	86.12
271.93	86.12
272.162	85.12
272.394	100.12
272.626	91.12
272.858	88.12
273.09	87.12
273.322	77.12
273.553	84.12
273.785	94.12
274.017	92.12
274.249	85.12
274.481	92.12
274.713	90.12
274.945	97.12
275.176	88.12
275.408	85.12
275.64	72.12
275.872	73.12
276.104	74.12
276.335	75.12
276.567	82.12
276.799	90.12
277.031	66.12
277.262	72.12
277.494	72.12
277.726	79.12
277.957	87.12
278.189	89.12
278.421	73.12
278.652	82.12
278.884	76.12
279.115	80.12
279.347	89.12
279.579	75.12
279.81	87.12
280.042	80.12
280.273	79.12
280.505	74.12
280.736	86.12
280.968	71.12
281.199	88.12
281.431	80.12
281.662	85.12
281.894	89.12
282.125	85.12
282.356	83.12
282.588	71.12
282.819	76.12
283.051	79.12
283.282	91.12
283.513	87.12
283.745	91.12
283.976	89.12
284.207	85.12
284.439	82.12
284.67	70.12
284.901	81.12
285.132	85.12
285.364	88.12
285.595	84.12
285.826	89.12
286.057	89.12
286.288	81.12
286.52	84.12
286.751	89.12
286.982	78.12
287.213	68.12
287.444	61.12
287.675	71.12
287.906	87.12
288.138	73.12
288.369	90.12
288.6	88.12
288.831	80.12
289.062	86.12
289.293	85.12
289.524	89.12
289.755	84.12
289.986	87.12
290.217	82.12
290.448	92.12
290.679	82.12
290.91	90.12
291.141	86.12
291.371	67.12
291.602	83.12
291.833	88.12
292.064	74.12
292.295	73.12
292.526	88.12
292.757	79.12
292.987	82.12
293.218	70.12
293.449	79.12
293.68	77.12
293.91	85.12
294.141	71.12
294.372	84.12
294.603	78.12
294.833	77.12
295.064	79.12
295.295	86.12
295.525	76.12
295.756	86.12
295.987	88.12
296.217	88.12
296.448	86.12
296.679	87.12
296.909	87.12
297.14	81.12
297.37	78.12
297.601	81.12
297.831	75.12
298.062	72.12
298.292	83.12
298.523	97.12
298.753	85.12
298.984	85.12
299.214	77.12
299.445	87.12
299.675	86.12
299.905	85.12
300.136	80.12
300.366	90.12
300.597	102.12
300.827	84.12
301.057	96.12
301.288	81.12
301.518	87.12
301.748	79.12
301.979	82.12
302.209	100.12
302.439	91.12
302.669	77.12
302.9	70.12
303.13	87.12
303.36	74.12
303.59	85.12
303.82	76.12
304.051	92.12
304.281	82.12
304.511	81.12
304.741	90.12
304.971	81.12
305.201	78.12
305.431	62.12
305.661	82.12
305.891	86.12
306.121	94.12
306.352	88.12
306.582	97.12
306.812	98.12
307.042	84.12
307.272	85.12
307.502	83.12
307.731	86.12
307.961	84.12
308.191	94.12
308.421	86.12
308.651	75.12
308.881	67.12
309.111	83.12
309.341	99.12
309.571	82.12
309.8	84.12
310.03	88.12
310.26	83.12
310.49	83.12
310.72	100.12
310.949	86.12
311.179	94.12
311.409	85.12
311.639	88.12
311.868	89.12
312.098	84.12
312.328	88.12
312.557	97.12
312.787	86.12
313.017	90.12
313.246	90.12
313.476	86.12
313.706	91.12
313.935	78.12
314.165	100.12
314.394	87.12
314.624	82.12
314.853	81.12
315.083	85.12
315.312	81.12
315.542	86.12
315.771	90.12
316.001	79.12
316.23	96.12
316.46	76.12
316.689	85.12
316.919	96.12
317.148	89.12
317.377	104.12
317.607	75.12
317.836	92.12
318.065	80.12
318.295	80.12
318.524	84.12
318.753	84.12
318.983	97.12
319.212	82.12
319.441	84.12
319.67	83.12
319.9	82.12
320.129	80.12
320.358	75.12
320.587	70.12
320.816	81.12
321.046	82.12
321.275	85.12
321.504	84.12
321.733	95.12
321.962	75.12
322.191	83.12
322.42	91.12
322.649	80.12
322.878	95.12
323.108	72.12
323.337	89.12
323.566	94.12
323.795	89.12
324.024	89.12
324.253	92.12
324.482	81.12
324.71	87.12
324.939	72.12
325.168	99.12
325.397	90.12
325.626	86.12
325.855	83.12
326.084	91.12
326.313	92.12
326.542	84.12
326.77	92.12
326.999	85.12
327.228	81.12
327.457	83.12
327.686	90.12
327.914	83.12
328.143	76.12
328.372	72.12
328.6	87.12
328.829	85.12
329.058	74.12
329.287	91.12
329.515	81.12
329.744	80.12
329.972	84.12
330.201	82.12
330.43	87.12
330.658	78.12
330.887	82.12
331.115	85.12
331.344	82.12
331.572	87.12
331.801	96.12
332.03	80.12
332.258	89.12
332.486	77.12
332.715	95.12
332.943	92.12
333.172	86.12
333.4	90.12
333.629	83.12
333.857	82.12
334.085	74.12
334.314	84.12
334.542	82.12
334.771	86.12
334.999	79.12
335.227	80.12
335.455	81.12
335.684	85.12
335.912	99.12
336.14	86.12
336.369	93.12
336.597	92.12
336.825	77.12
337.053	75.12
337.281	86.12
337.51	83.12
337.738	74.12
337.966	92.12
338.194	82.12
338.422	75.12
338.65	92.12
338.878	93.12
339.106	74.12
339.334	85.12
339.562	70.12
339.79	83.12
340.018	86.12
340.246	76.12
340.474	85.12
340.702	72.12
340.93	84.12
341.158	74.12
341.386	97.12
341.614	80.12
341.842	84.12
342.07	70.12
342.298	93.12
342.526	85.12
342.754	83.12
342.981	80.12
343.209	83.12
343.437	102.12
343.665	99.12
343.893	93.12
344.12	87.12
344.348	88.12
344.576	104.12
344.804	90.12
345.031	95.12
345.259	81.12
345.487	86.12
345.714	90.12
345.942	96.12
346.17	91.12
346.397	86.12
346.625	92.12
346.853	103.12
347.08	90.12
347.308	96.12
347.535	84.12
347.763	86.12
347.99	94.12
348.218	79.12
348.445	72.12
348.673	77.12
348.9	73.12
349.128	85.12
349.355	84.12
349.583	86.12
349.81	80.12
350.037	73.12
350.265	91.12
350.492	88.12
350.72	76.12
350.947	84.12
351.174	84.12
351.402	87.12
351.629	83.12
351.856	92.12
352.083	83.12
352.311	91.12
352.538	86.12
352.765	86.12
352.992	98.12
353.22	89.12
353.447	86.12
353.674	86.12
353.901	86.12
354.128	80.12
354.355	89.12
354.583	64.12
354.81	84.12
355.037	83.12
355.264	68.12
355.491	80.12
355.718	79.12
355.945	81.12
356.172	72.12
356.399	89.12
356.626	91.12
356.853	87.12
357.08	90.12
357.307	87.12
357.534	76.12
357.761	82.12
357.988	90.12
358.215	92.12
358.441	83.12
358.668	82.12
358.895	71.12
359.122	89.12
359.349	86.12
359.576	85.12
359.802	76.12
360.029	92.12
360.256	89.12
360.483	94.12
360.709	75.12
360.936	79.12
361.163	83.12
361.39	79.12
361.616	78.12
361.843	82.12
362.07	80.12
362.296	95.12
362.523	83.12
362.749	92.12
362.976	88.12
363.203	88.12
363.429	71.12
363.656	74.12
363.882	67.12
364.109	80.12
364.335	90.12
364.562	96.12
364.788	91.12
365.015	89.12
365.241	88.12
365.468	91.12
365.694	82.12
365.92	90.12
366.147	89.12
366.373	84.12
366.599	85.12
366.826	75.12
367.052	92.12
367.278	99.12
367.505	101.12
367.731	82.12
367.957	91.12
368.184	89.12
368.41	84.12
368.636	81.12
368.862	77.12
369.089	68.12
369.315	101.12
369.541	98.12
369.767	91.12
369.993	80.12
370.219	86.12
370.445	100.12
370.672	85.12
370.898	93.12
371.124	88.12
371.35	84.12
371.576	92.12
371.802	91.12
372.028	88.12
372.254	84.12
372.48	90.12
372.706	87.12
372.932	86.12
373.158	98.12
373.384	102.12
373.61	86.12
373.835	85.12
374.061	87.12
374.287	89.12
374.513	92.12
374.739	77.12
374.965	88.12
375.191	101.12
375.416	86.12
375.642	99.12
375.868	94.12
376.094	94.12
376.319	93.12
376.545	86.12
376.771	95.12
376.997	94.12
377.222	91.12
377.448	93.12
377.674	99.12
377.899	93.12
378.125	86.12
378.35	97.12
378.576	100.12
378.802	96.12
379.027	90.12
379.253	96.12
379.478	87.12
379.704	102.12
379.929	91.12
380.155	94.12
380.38	86.12
380.606	88.12
380.831	98.12
381.057	102.12
381.282	109.12
381.507	76.12
381.733	100.12
381.958	103.12
382.184	96.12
382.409	87.12
382.634	99.12
382.86	99.12
383.085	102.12
383.31	90.12
383.535	92.12
383.761	93.12
383.986	103.12
384.211	100.12
384.436	94.12
384.662	86.12
384.887	99.12
385.112	105.12
385.337	84.12
385.562	96.12
385.787	89.12
386.013	97.12
386.238	100.12
386.463	91.12
386.688	105.12
386.913	96.12
387.138	87.12
387.363	92.12
387.588	103.12
387.813	99.12
388.038	116.12
388.263	92.12
388.488	110.12
388.713	96.12
388.938	104.12
389.163	101.12
389.387	110.12
389.612	102.12
389.837	112.12
390.062	107.12
390.287	112.12
390.512	114.12
390.736	94.12
390.961	105.12
391.186	96.12
391.411	101.12
391.636	106.12
391.86	101.12
392.085	95.12
392.31	111.12
392.534	123.12
392.759	113.12
392.984	107.12
393.208	106.12
393.433	95.12
393.658	103.12
393.882	110.12
394.107	110.12
394.331	114.12
394.556	119.12
394.78	103.12
395.005	124.12
395.229	112.12
395.454	100.12
395.678	92.12
395.903	101.12
396.127	110.12
396.352	108.12
396.576	124.12
396.801	126.12
397.025	108.12
397.249	118.12
397.474	106.12
397.698	112.12
397.922	107.12
398.147	119.12
398.371	111.12
398.595	111.12
398.82	113.12
399.044	112.12
399.268	121.12
399.492	125.12
399.717	115.12
399.941	107.12
400.165	119.12
400.389	104.12
400.613	124.12
400.837	133.12
401.062	104.12
401.286	128.12
401.51	112.12
401.734	114.12
401.958	106.12
402.182	121.12
402.406	113.12
402.63	115.12
402.854	131.12
403.078	128.12
403.302	120.12
403.526	115.12
403.75	114.12
403.974	119.12
404.198	116.12
404.422	116.12
404.645	117.12
404.869	119.12
405.093	105.12
405.317	123.12
405.541	124.12
405.765	117.12
405.988	118.12
406.212	114.12
406.436	119.12
406.66	113.12
406.883	106.12
407.107	108.12
407.331	129.12
407.555	98.12
407.778	116.12
408.002	133.12
408.226	124.12
408.449	118.12
408.673	123.12
408.896	141.12
409.12	128.12
409.344	114.12
409.567	121.12
409.791	128.12
410.014	122.12
410.238	131.12
410.461	132.12
410.685	134.12
410.908	118.12
411.132	134.12
411.355	139.12
411.578	124.12
411.802	119.12
412.025	122.12
412.249	124.12
412.472	122.12
412.695	115.12
412.919	130.12
413.142	126.12
413.365	127.12
413.589	119.12
413.812	116.12
414.035	130.12
414.258	125.12
414.482	135.12
414.705	126.12
414.928	130.12
415.151	114.12
415.374	131.12
415.597	124.12
415.821	129.12
416.044	118.12
416.267	122.12
416.49	145.12
416.713	132.12
416.936	136.12
417.159	120.12
417.382	122.12
417.605	133.12
417.828	137.12
418.051	134.12
418.274	132.12
418.497	139.12
418.72	145.12
418.943	132.12
419.166	140.12
419.389	136.12
419.611	138.12
419.834	145.12
420.057	139.12
420.28	136.12
420.503	125.12
420.726	122.12
420.948	137.12
421.171	143.12
421.394	131.12
421.617	136.12
421.839	139.12
422.062	155.12
422.285	132.12
422.507	139.12
422.73	135.12
422.953	132.12
423.175	126.12
423.398	148.12
423.621	134.12
423.843	140.12
424.066	130.12
424.288	139.12
424.511	139.12
424.733	144.12
424.956	151.12
425.178	149.12
425.401	146.12
425.623	132.12
425.846	139.12
426.068	134.12
426.291	138.12
426.513	124.12
426.735	133.12
426.958	141.12
427.18	126.12
427.402	128.12
427.625	127.12
427.847	130.12
428.069	136.12
428.292	153.12
428.514	141.12
428.736	125.12
428.958	146.12
429.181	123.12
429.403	140.12
429.625	155.12
429.847	150.12
430.069	144.12
430.292	123.12
430.514	134.12
430.736	130.12
430.958	122.12
431.18	131.12
431.402	126.12
431.624	133.12
431.846	102.12
432.068	100.12
432.29	94.12
432.512	101.12
432.734	123.12
432.956	113.12
433.178	145.12
433.4	142.12
433.622	137.12
433.844	130.12
434.066	132.12
434.287	128.12
434.509	87.12
434.731	98.12
434.953	115.12
435.175	114.12
435.397	133.12
435.618	116.12
435.84	112.12
436.062	113.12
436.284	132.12
436.505	132.12
436.727	140.12
436.949	121.12
437.17	126.12
437.392	137.12
437.614	120.12
437.835	93.12
438.057	124.12
438.278	130.12
438.5	128.12
438.721	140.12
438.943	151.12
439.165	155.12
439.386	140.12
439.608	137.12
439.829	149.12
440.05	138.12
440.272	148.12
440.493	139.12
440.715	166.12
440.936	153.12
441.158	152.12
441.379	154.12
441.6	152.12
441.822	139.12
442.043	137.12
442.264	158.12
442.486	128.12
442.707	143.12
442.928	147.12
443.149	154.12
443.371	128.12
443.592	142.12
443.813	113.12
444.034	146.12
444.255	161.12
444.476	155.12
444.698	158.12
444.919	146.12
445.14	279.12
445.361	220.12
445.582	157.12
445.803	154.12
446.024	158.12
446.245	151.12
446.466	162.12
446.687	165.12
446.908	160.12
447.129	150.12
447.35	158.12
447.571	164.12
447.792	141.12
448.013	140.12
448.234	144.12
448.455	158.12
448.675	130.12
448.896	150.12
449.117	147.12
449.338	151.12
449.559	136.12
449.779	134.12
450	134.12
450.221	130.12
450.442	141.12
450.662	138.12
450.883	131.12
451.104	140.12
451.324	113.12
451.545	118.12
451.766	128.12
451.986	120.12
452.207	132.12
452.428	133.12
452.648	132.12
452.869	124.12
453.089	133.12
453.31	112.12
453.53	121.12
453.751	107.12
453.971	112.12
454.192	115.12
454.412	121.12
454.633	119.12
454.853	130.12
455.073	123.12
455.294	128.12
455.514	132.12
455.734	126.12
455.955	123.12
456.175	125.12
456.395	123.12
456.616	92.12
456.836	106.12
457.056	113.12
457.276	100.12
457.497	104.12
457.717	102.12
457.937	102.12
458.157	98.12
458.377	110.12
458.598	97.12
458.818	101.12
459.038	86.12
459.258	85.12
459.478	99.12
459.698	91.12
459.918	115.12
460.138	120.12
460.358	114.12
460.578	131.12
460.798	115.12
461.018	121.12
461.238	123.12
461.458	123.12
461.678	113.12
461.898	109.12
462.118	117.12
462.338	121.12
462.558	98.12
462.777	112.12
462.997	120.12
463.217	108.12
463.437	103.12
463.657	111.12
463.876	120.12
464.096	139.12
464.316	118.12
464.536	118.12
464.755	107.12
464.975	104.12
465.195	107.12
465.414	116.12
465.634	120.12
465.854	117.12
466.073	111.12
466.293	127.12
466.512	132.12
466.732	130.12
466.951	130.12
467.171	144.12
467.391	142.12
467.61	145.12
467.829	139.12
468.049	136.12
468.268	134.12
468.488	137.12
468.707	137.12
468.927	134.12
469.146	150.12
469.365	148.12
469.585	147.12
469.804	135.12
470.023	147.12
470.243	148.12
470.462	156.12
470.681	166.12
470.901	137.12
471.12	137.12
471.339	135.12
471.558	145.12
471.777	141.12
471.997	144.12
472.216	143.12
472.435	126.12
472.654	105.12
472.873	120.12
473.092	123.12
473.311	130.12
473.53	132.12
473.749	131.12
473.968	145.12
474.187	122.12
474.406	122.12
474.625	138.12
474.844	148.12
475.063	121.12
475.282	121.12
475.501	122.12
475.72	123.12
475.939	128.12
476.158	130.12
476.377	134.12
476.596	123.12
476.814	128.12
477.033	113.12
477.252	110.12
477.471	135.12
477.69	147.12
477.908	147.12
478.127	149.12
478.346	133.12
478.564	134.12
478.783	135.12
479.002	132.12
479.22	150.12
479.439	152.12
479.658	132.12
479.876	130.12
480.095	104.12
480.313	112.12
480.532	117.12
480.751	97.12
480.969	97.12
481.188	84.12
481.406	94.12
481.624	101.12
481.843	77.12
482.061	105.12
482.28	121.12
482.498	117.12
482.717	117.12
482.935	122.12
483.153	136.12
483.372	144.12
483.59	172.12
483.808	146.12
484.027	148.12
484.245	136.12
484.463	146.12
484.681	177.12
484.9	164.12
485.118	147.12
485.336	124.12
485.554	122.12
485.772	102.12
485.99	106.12
486.209	105.12
486.427	109.12
486.645	124.12
486.863	161.12
487.081	158.12
487.299	135.12
487.517	115.12
487.735	172.12
487.953	194.12
488.171	194.12
488.389	193.12
488.607	175.12
488.825	139.12
489.043	138.12
489.261	148.12
489.479	146.12
489.696	144.12
489.914	147.12
490.132	134.12
490.35	162.12
490.568	179.12
490.786	176.12
491.003	175.12
491.221	191.12
491.439	192.12
491.657	188.12
491.874	215.12
492.092	233.12
492.31	266.12
492.527	240.12
492.745	206.12
492.963	215.12
493.18	210.12
493.398	192.12
493.615	180.12
493.833	182.12
494.05	187.12
494.268	181.12
494.485	178.12
494.703	168.12
494.92	170.12
495.138	192.12
495.355	203.12
495.573	184.12
495.79	175.12
496.008	183.12
496.225	167.12
496.442	159.12
496.66	172.12
496.877	160.12
497.094	175.12
497.312	180.12
497.529	171.12
497.746	153.12
497.963	140.12
498.181	141.12
498.398	134.12
498.615	117.12
498.832	120.12
499.049	124.12
499.267	132.12
499.484	131.12
499.701	137.12
499.918	134.12
500.135	151.12
500.352	144.12
500.569	146.12
500.786	152.12
501.003	145.12
501.22	146.12
501.437	138.12
501.654	129.12
501.871	144.12
502.088	144.12
502.305	130.12
502.522	122.12
502.739	138.12
502.956	120.12
503.172	132.12
503.389	127.12
503.606	126.12
503.823	130.12
504.04	134.12
504.256	130.12
504.473	120.12
504.69	118.12
504.907	127.12
505.123	127.12
505.34	138.12
505.557	126.12
505.773	130.12
505.99	126.12
506.207	129.12
506.423	134.12
506.64	133.12
506.856	121.12
507.073	129.12
507.289	121.12
507.506	130.12
507.722	131.12
507.939	120.12
508.155	122.12
508.372	122.12
508.588	106.12
508.805	111.12
509.021	112.12
509.238	105.12
509.454	112.12
509.67	103.12
509.887	101.12
510.103	97.12
510.319	107.12
510.536	94.12
510.752	84.12
510.968	85.12
511.184	82.12
511.401	91.12
