Data from Location6.07152019.Energy5.Lamp.07192019.3%Agarose_HRD10591_16-12-19-395.txt Node
Date: Fri Jul 19 16:12:19 EDT 2019
User: cochatt
Spectrometer: HR+D1059
Trigger mode: 1
Integration Time (sec): 1.000000E-1
Scans to average: 1
Electric dark correction enabled: true
Nonlinearity correction enabled: false
Boxcar width: 0
XAxis mode: Wavelengths
Number of Pixels in Spectrum: 2048
>>>>>Begin Spectral Data<<<<<
223.165	-25.38
223.4	-25.38
223.635	-25.38
223.869	-16.38
224.104	-11.38
224.338	-11.38
224.573	-6.38
224.808	-24.38
225.042	-25.38
225.277	1.62
225.511	-7.38
225.746	16.62
225.98	-6.38
226.215	0.62
226.449	13.62
226.683	29.62
226.918	33.62
227.152	38.62
227.387	33.62
227.621	32.62
227.856	39.62
228.09	67.62
228.324	65.62
228.559	60.62
228.793	61.62
229.027	60.62
229.262	72.62
229.496	57.62
229.73	74.62
229.964	86.62
230.199	70.62
230.433	83.62
230.667	83.62
230.901	88.62
231.136	93.62
231.37	82.62
231.604	86.62
231.838	78.62
232.072	73.62
232.306	86.62
232.541	77.62
232.775	75.62
233.009	85.62
233.243	94.62
233.477	80.62
233.711	77.62
233.945	83.62
234.179	81.62
234.413	90.62
234.647	72.62
234.881	85.62
235.115	66.62
235.349	85.62
235.583	84.62
235.817	82.62
236.051	74.62
236.285	86.62
236.519	78.62
236.753	66.62
236.987	80.62
237.221	74.62
237.455	90.62
237.689	89.62
237.922	85.62
238.156	72.62
238.39	74.62
238.624	72.62
238.858	70.62
239.091	85.62
239.325	67.62
239.559	78.62
239.793	77.62
240.027	67.62
240.26	86.62
240.494	94.62
240.728	66.62
240.961	76.62
241.195	74.62
241.429	91.62
241.662	92.62
241.896	76.62
242.13	77.62
242.363	74.62
242.597	79.62
242.83	88.62
243.064	77.62
243.298	83.62
243.531	81.62
243.765	82.62
243.998	88.62
244.232	59.62
244.465	84.62
244.699	82.62
244.932	85.62
245.166	70.62
245.399	69.62
245.633	95.62
245.866	74.62
246.099	75.62
246.333	80.62
246.566	85.62
246.8	71.62
247.033	83.62
247.266	82.62
247.5	85.62
247.733	76.62
247.966	85.62
248.2	62.62
248.433	71.62
248.666	79.62
248.899	80.62
249.133	61.62
249.366	81.62
249.599	99.62
249.832	78.62
250.066	78.62
250.299	72.62
250.532	74.62
250.765	69.62
250.998	85.62
251.231	85.62
251.465	78.62
251.698	68.62
251.931	82.62
252.164	76.62
252.397	64.62
252.63	71.62
252.863	72.62
253.096	78.62
253.329	82.62
253.562	74.62
253.795	86.62
254.028	73.62
254.261	82.62
254.494	71.62
254.727	86.62
254.96	80.62
255.193	90.62
255.426	68.62
255.659	74.62
255.892	74.62
256.124	69.62
256.357	76.62
256.59	72.62
256.823	85.62
257.056	78.62
257.289	80.62
257.521	62.62
257.754	65.62
257.987	77.62
258.22	75.62
258.452	75.62
258.685	83.62
258.918	77.62
259.151	80.62
259.383	85.62
259.616	64.62
259.849	81.62
260.081	73.62
260.314	72.62
260.547	74.62
260.779	77.62
261.012	99.62
261.244	82.62
261.477	93.62
261.71	93.62
261.942	85.62
262.175	76.62
262.407	72.62
262.64	79.62
262.872	84.62
263.105	91.62
263.337	96.62
263.57	76.62
263.802	83.62
264.035	69.62
264.267	76.62
264.499	82.62
264.732	75.62
264.964	84.62
265.197	83.62
265.429	87.62
265.661	83.62
265.894	88.62
266.126	95.62
266.358	76.62
266.591	71.62
266.823	86.62
267.055	75.62
267.287	89.62
267.52	78.62
267.752	88.62
267.984	83.62
268.216	72.62
268.448	76.62
268.681	86.62
268.913	84.62
269.145	79.62
269.377	87.62
269.609	75.62
269.841	80.62
270.073	89.62
270.306	65.62
270.538	70.62
270.77	78.62
271.002	79.62
271.234	82.62
271.466	85.62
271.698	88.62
271.93	75.62
272.162	73.62
272.394	95.62
272.626	79.62
272.858	79.62
273.09	86.62
273.322	88.62
273.553	82.62
273.785	88.62
274.017	80.62
274.249	86.62
274.481	82.62
274.713	97.62
274.945	80.62
275.176	98.62
275.408	80.62
275.64	81.62
275.872	69.62
276.104	72.62
276.335	77.62
276.567	78.62
276.799	81.62
277.031	83.62
277.262	69.62
277.494	94.62
277.726	89.62
277.957	87.62
278.189	75.62
278.421	87.62
278.652	83.62
278.884	96.62
279.115	80.62
279.347	76.62
279.579	82.62
279.81	82.62
280.042	95.62
280.273	87.62
280.505	78.62
280.736	76.62
280.968	92.62
281.199	85.62
281.431	89.62
281.662	63.62
281.894	84.62
282.125	89.62
282.356	96.62
282.588	83.62
282.819	100.62
283.051	94.62
283.282	76.62
283.513	84.62
283.745	86.62
283.976	75.62
284.207	68.62
284.439	77.62
284.67	94.62
284.901	81.62
285.132	88.62
285.364	67.62
285.595	87.62
285.826	75.62
286.057	81.62
286.288	85.62
286.52	86.62
286.751	99.62
286.982	77.62
287.213	75.62
287.444	89.62
287.675	83.62
287.906	81.62
288.138	77.62
288.369	95.62
288.6	85.62
288.831	90.62
289.062	81.62
289.293	91.62
289.524	73.62
289.755	97.62
289.986	88.62
290.217	90.62
290.448	84.62
290.679	87.62
290.91	77.62
291.141	80.62
291.371	90.62
291.602	79.62
291.833	82.62
292.064	96.62
292.295	90.62
292.526	80.62
292.757	72.62
292.987	82.62
293.218	89.62
293.449	82.62
293.68	92.62
293.91	84.62
294.141	86.62
294.372	85.62
294.603	79.62
294.833	81.62
295.064	82.62
295.295	83.62
295.525	81.62
295.756	78.62
295.987	72.62
296.217	85.62
296.448	79.62
296.679	82.62
296.909	81.62
297.14	86.62
297.37	80.62
297.601	84.62
297.831	89.62
298.062	69.62
298.292	84.62
298.523	93.62
298.753	90.62
298.984	88.62
299.214	89.62
299.445	85.62
299.675	82.62
299.905	82.62
300.136	75.62
300.366	77.62
300.597	91.62
300.827	88.62
301.057	81.62
301.288	68.62
301.518	72.62
301.748	82.62
301.979	83.62
302.209	77.62
302.439	79.62
302.669	67.62
302.9	82.62
303.13	72.62
303.36	61.62
303.59	87.62
303.82	104.62
304.051	83.62
304.281	81.62
304.511	103.62
304.741	76.62
304.971	69.62
305.201	85.62
305.431	79.62
305.661	80.62
305.891	78.62
306.121	94.62
306.352	81.62
306.582	94.62
306.812	78.62
307.042	86.62
307.272	93.62
307.502	74.62
307.731	76.62
307.961	90.62
308.191	84.62
308.421	95.62
308.651	82.62
308.881	77.62
309.111	73.62
309.341	75.62
309.571	72.62
309.8	84.62
310.03	76.62
310.26	76.62
310.49	88.62
310.72	97.62
310.949	83.62
311.179	80.62
311.409	82.62
311.639	88.62
311.868	94.62
312.098	88.62
312.328	89.62
312.557	90.62
312.787	81.62
313.017	95.62
313.246	72.62
313.476	96.62
313.706	96.62
313.935	81.62
314.165	79.62
314.394	77.62
314.624	82.62
314.853	81.62
315.083	93.62
315.312	90.62
315.542	92.62
315.771	72.62
316.001	68.62
316.23	95.62
316.46	88.62
316.689	73.62
316.919	80.62
317.148	93.62
317.377	82.62
317.607	84.62
317.836	96.62
318.065	86.62
318.295	80.62
318.524	91.62
318.753	88.62
318.983	87.62
319.212	82.62
319.441	95.62
319.67	86.62
319.9	71.62
320.129	73.62
320.358	90.62
320.587	84.62
320.816	98.62
321.046	93.62
321.275	85.62
321.504	72.62
321.733	95.62
321.962	87.62
322.191	86.62
322.42	76.62
322.649	70.62
322.878	72.62
323.108	80.62
323.337	91.62
323.566	74.62
323.795	75.62
324.024	82.62
324.253	90.62
324.482	85.62
324.71	88.62
324.939	80.62
325.168	100.62
325.397	68.62
325.626	96.62
325.855	68.62
326.084	65.62
326.313	81.62
326.542	79.62
326.77	93.62
326.999	79.62
327.228	84.62
327.457	81.62
327.686	77.62
327.914	85.62
328.143	94.62
328.372	84.62
328.6	82.62
328.829	84.62
329.058	89.62
329.287	94.62
329.515	83.62
329.744	74.62
329.972	82.62
330.201	82.62
330.43	79.62
330.658	76.62
330.887	84.62
331.115	81.62
331.344	72.62
331.572	85.62
331.801	85.62
332.03	68.62
332.258	70.62
332.486	69.62
332.715	88.62
332.943	96.62
333.172	95.62
333.4	94.62
333.629	90.62
333.857	83.62
334.085	87.62
334.314	82.62
334.542	77.62
334.771	86.62
334.999	79.62
335.227	98.62
335.455	66.62
335.684	97.62
335.912	87.62
336.14	82.62
336.369	76.62
336.597	90.62
336.825	92.62
337.053	73.62
337.281	78.62
337.51	83.62
337.738	86.62
337.966	88.62
338.194	94.62
338.422	81.62
338.65	89.62
338.878	86.62
339.106	87.62
339.334	94.62
339.562	92.62
339.79	92.62
340.018	87.62
340.246	66.62
340.474	70.62
340.702	78.62
340.93	75.62
341.158	85.62
341.386	93.62
341.614	84.62
341.842	92.62
342.07	81.62
342.298	77.62
342.526	82.62
342.754	90.62
342.981	77.62
343.209	92.62
343.437	88.62
343.665	83.62
343.893	95.62
344.12	94.62
344.348	81.62
344.576	83.62
344.804	82.62
345.031	97.62
345.259	75.62
345.487	91.62
345.714	83.62
345.942	84.62
346.17	79.62
346.397	84.62
346.625	94.62
346.853	78.62
347.08	92.62
347.308	82.62
347.535	88.62
347.763	84.62
347.99	88.62
348.218	85.62
348.445	84.62
348.673	89.62
348.9	88.62
349.128	93.62
349.355	89.62
349.583	80.62
349.81	78.62
350.037	85.62
350.265	82.62
350.492	83.62
350.72	85.62
350.947	89.62
351.174	77.62
351.402	84.62
351.629	79.62
351.856	95.62
352.083	82.62
352.311	76.62
352.538	88.62
352.765	80.62
352.992	85.62
353.22	79.62
353.447	88.62
353.674	91.62
353.901	90.62
354.128	84.62
354.355	87.62
354.583	85.62
354.81	92.62
355.037	72.62
355.264	81.62
355.491	78.62
355.718	78.62
355.945	89.62
356.172	84.62
356.399	83.62
356.626	77.62
356.853	86.62
357.08	86.62
357.307	76.62
357.534	80.62
357.761	89.62
357.988	88.62
358.215	93.62
358.441	77.62
358.668	89.62
358.895	82.62
359.122	78.62
359.349	70.62
359.576	68.62
359.802	85.62
360.029	78.62
360.256	80.62
360.483	66.62
360.709	76.62
360.936	98.62
361.163	72.62
361.39	81.62
361.616	88.62
361.843	92.62
362.07	96.62
362.296	91.62
362.523	79.62
362.749	91.62
362.976	77.62
363.203	78.62
363.429	76.62
363.656	89.62
363.882	86.62
364.109	90.62
364.335	76.62
364.562	88.62
364.788	79.62
365.015	83.62
365.241	93.62
365.468	98.62
365.694	72.62
365.92	76.62
366.147	82.62
366.373	85.62
366.599	79.62
366.826	89.62
367.052	87.62
367.278	96.62
367.505	89.62
367.731	82.62
367.957	92.62
368.184	82.62
368.41	95.62
368.636	92.62
368.862	97.62
369.089	91.62
369.315	89.62
369.541	102.62
369.767	83.62
369.993	101.62
370.219	104.62
370.445	82.62
370.672	83.62
370.898	77.62
371.124	78.62
371.35	88.62
371.576	86.62
371.802	78.62
372.028	86.62
372.254	91.62
372.48	100.62
372.706	102.62
372.932	87.62
373.158	98.62
373.384	88.62
373.61	93.62
373.835	110.62
374.061	96.62
374.287	86.62
374.513	87.62
374.739	87.62
374.965	100.62
375.191	93.62
375.416	92.62
375.642	89.62
375.868	103.62
376.094	81.62
376.319	100.62
376.545	81.62
376.771	107.62
376.997	96.62
377.222	96.62
377.448	89.62
377.674	82.62
377.899	84.62
378.125	107.62
378.35	107.62
378.576	103.62
378.802	91.62
379.027	104.62
379.253	102.62
379.478	93.62
379.704	97.62
379.929	91.62
380.155	109.62
380.38	96.62
380.606	98.62
380.831	88.62
381.057	105.62
381.282	109.62
381.507	95.62
381.733	116.62
381.958	91.62
382.184	101.62
382.409	110.62
382.634	90.62
382.86	99.62
383.085	90.62
383.31	91.62
383.535	107.62
383.761	96.62
383.986	90.62
384.211	108.62
384.436	96.62
384.662	92.62
384.887	97.62
385.112	97.62
385.337	102.62
385.562	96.62
385.787	98.62
386.013	99.62
386.238	94.62
386.463	108.62
386.688	113.62
386.913	97.62
387.138	114.62
387.363	89.62
387.588	100.62
387.813	105.62
388.038	115.62
388.263	110.62
388.488	100.62
388.713	109.62
388.938	98.62
389.163	97.62
389.387	94.62
389.612	104.62
389.837	96.62
390.062	108.62
390.287	112.62
390.512	109.62
390.736	103.62
390.961	101.62
391.186	106.62
391.411	116.62
391.636	102.62
391.86	111.62
392.085	112.62
392.31	102.62
392.534	103.62
392.759	116.62
392.984	96.62
393.208	109.62
393.433	114.62
393.658	103.62
393.882	101.62
394.107	117.62
394.331	106.62
394.556	109.62
394.78	110.62
395.005	104.62
395.229	106.62
395.454	114.62
395.678	115.62
395.903	119.62
396.127	97.62
396.352	110.62
396.576	109.62
396.801	123.62
397.025	122.62
397.249	114.62
397.474	85.62
397.698	106.62
397.922	98.62
398.147	125.62
398.371	127.62
398.595	110.62
398.82	89.62
399.044	116.62
399.268	116.62
399.492	116.62
399.717	117.62
399.941	114.62
400.165	115.62
400.389	118.62
400.613	109.62
400.837	117.62
401.062	116.62
401.286	99.62
401.51	108.62
401.734	117.62
401.958	112.62
402.182	115.62
402.406	114.62
402.63	126.62
402.854	108.62
403.078	112.62
403.302	118.62
403.526	118.62
403.75	106.62
403.974	114.62
404.198	121.62
404.422	125.62
404.645	107.62
404.869	130.62
405.093	130.62
405.317	114.62
405.541	113.62
405.765	121.62
405.988	113.62
406.212	128.62
406.436	125.62
406.66	126.62
406.883	125.62
407.107	133.62
407.331	131.62
407.555	121.62
407.778	130.62
408.002	128.62
408.226	122.62
408.449	125.62
408.673	119.62
408.896	133.62
409.12	125.62
409.344	134.62
409.567	131.62
409.791	132.62
410.014	125.62
410.238	127.62
410.461	125.62
410.685	124.62
410.908	104.62
411.132	120.62
411.355	126.62
411.578	123.62
411.802	118.62
412.025	123.62
412.249	131.62
412.472	130.62
412.695	129.62
412.919	121.62
413.142	125.62
413.365	130.62
413.589	112.62
413.812	132.62
414.035	130.62
414.258	125.62
414.482	138.62
414.705	129.62
414.928	124.62
415.151	125.62
415.374	116.62
415.597	129.62
415.821	118.62
416.044	127.62
416.267	138.62
416.49	139.62
416.713	140.62
416.936	126.62
417.159	126.62
417.382	123.62
417.605	126.62
417.828	150.62
418.051	131.62
418.274	130.62
418.497	134.62
418.72	152.62
418.943	144.62
419.166	132.62
419.389	142.62
419.611	153.62
419.834	133.62
420.057	137.62
420.28	146.62
420.503	122.62
420.726	143.62
420.948	122.62
421.171	122.62
421.394	131.62
421.617	136.62
421.839	136.62
422.062	134.62
422.285	139.62
422.507	133.62
422.73	125.62
422.953	136.62
423.175	134.62
423.398	137.62
423.621	135.62
423.843	141.62
424.066	148.62
424.288	151.62
424.511	136.62
424.733	140.62
424.956	140.62
425.178	157.62
425.401	140.62
425.623	134.62
425.846	135.62
426.068	133.62
426.291	126.62
426.513	153.62
426.735	143.62
426.958	135.62
427.18	128.62
427.402	125.62
427.625	128.62
427.847	141.62
428.069	136.62
428.292	150.62
428.514	150.62
428.736	132.62
428.958	134.62
429.181	134.62
429.403	119.62
429.625	135.62
429.847	131.62
430.069	132.62
430.292	129.62
430.514	116.62
430.736	120.62
430.958	148.62
431.18	137.62
431.402	137.62
431.624	130.62
431.846	122.62
432.068	104.62
432.29	100.62
432.512	99.62
432.734	126.62
432.956	132.62
433.178	146.62
433.4	138.62
433.622	161.62
433.844	136.62
434.066	117.62
434.287	122.62
434.509	104.62
434.731	97.62
434.953	120.62
435.175	132.62
435.397	136.62
435.618	118.62
435.84	116.62
436.062	128.62
436.284	138.62
436.505	145.62
436.727	142.62
436.949	138.62
437.17	123.62
437.392	126.62
437.614	123.62
437.835	113.62
438.057	114.62
438.278	122.62
438.5	132.62
438.721	132.62
438.943	136.62
439.165	163.62
439.386	151.62
439.608	158.62
439.829	142.62
440.05	148.62
440.272	150.62
440.493	137.62
440.715	147.62
440.936	146.62
441.158	143.62
441.379	146.62
441.6	170.62
441.822	168.62
442.043	153.62
442.264	137.62
442.486	153.62
442.707	141.62
442.928	148.62
443.149	134.62
443.371	147.62
443.592	124.62
443.813	142.62
444.034	139.62
444.255	141.62
444.476	135.62
444.698	142.62
444.919	148.62
445.14	284.62
445.361	216.62
445.582	160.62
445.803	149.62
446.024	151.62
446.245	147.62
446.466	163.62
446.687	151.62
446.908	152.62
447.129	158.62
447.35	161.62
447.571	169.62
447.792	156.62
448.013	159.62
448.234	172.62
448.455	140.62
448.675	162.62
448.896	138.62
449.117	156.62
449.338	149.62
449.559	162.62
449.779	130.62
450	146.62
450.221	145.62
450.442	153.62
450.662	153.62
450.883	148.62
451.104	136.62
451.324	134.62
451.545	151.62
451.766	145.62
451.986	117.62
452.207	143.62
452.428	134.62
452.648	127.62
452.869	136.62
453.089	130.62
453.31	120.62
453.53	113.62
453.751	120.62
453.971	115.62
454.192	104.62
454.412	122.62
454.633	120.62
454.853	125.62
455.073	121.62
455.294	121.62
455.514	131.62
455.734	121.62
455.955	138.62
456.175	117.62
456.395	115.62
456.616	121.62
456.836	107.62
457.056	115.62
457.276	102.62
457.497	114.62
457.717	114.62
457.937	121.62
458.157	117.62
458.377	108.62
458.598	100.62
458.818	74.62
459.038	110.62
459.258	98.62
459.478	82.62
459.698	104.62
459.918	109.62
460.138	100.62
460.358	105.62
460.578	132.62
460.798	124.62
461.018	119.62
461.238	106.62
461.458	124.62
461.678	121.62
461.898	112.62
462.118	124.62
462.338	127.62
462.558	106.62
462.777	122.62
462.997	123.62
463.217	112.62
463.437	115.62
463.657	121.62
463.876	112.62
464.096	124.62
464.316	109.62
464.536	114.62
464.755	120.62
464.975	117.62
465.195	114.62
465.414	131.62
465.634	121.62
465.854	123.62
466.073	137.62
466.293	125.62
466.512	132.62
466.732	137.62
466.951	140.62
467.171	124.62
467.391	122.62
467.61	132.62
467.829	148.62
468.049	127.62
468.268	132.62
468.488	132.62
468.707	137.62
468.927	128.62
469.146	142.62
469.365	153.62
469.585	142.62
469.804	132.62
470.023	138.62
470.243	139.62
470.462	150.62
470.681	150.62
470.901	150.62
471.12	145.62
471.339	138.62
471.558	133.62
471.777	138.62
471.997	142.62
472.216	120.62
472.435	115.62
472.654	104.62
472.873	113.62
473.092	122.62
473.311	125.62
473.53	140.62
473.749	130.62
473.968	139.62
474.187	127.62
474.406	121.62
474.625	131.62
474.844	139.62
475.063	141.62
475.282	134.62
475.501	120.62
475.72	125.62
475.939	146.62
476.158	121.62
476.377	142.62
476.596	121.62
476.814	127.62
477.033	128.62
477.252	129.62
477.471	131.62
477.69	130.62
477.908	144.62
478.127	137.62
478.346	124.62
478.564	136.62
478.783	125.62
479.002	132.62
479.22	122.62
479.439	135.62
479.658	139.62
479.876	128.62
480.095	114.62
480.313	126.62
480.532	126.62
480.751	124.62
480.969	107.62
481.188	106.62
481.406	94.62
481.624	89.62
481.843	93.62
482.061	100.62
482.28	117.62
482.498	108.62
482.717	119.62
482.935	120.62
483.153	152.62
483.372	177.62
483.59	158.62
483.808	139.62
484.027	136.62
484.245	140.62
484.463	149.62
484.681	169.62
484.9	158.62
485.118	128.62
485.336	126.62
485.554	123.62
485.772	119.62
485.99	105.62
486.209	106.62
486.427	112.62
486.645	121.62
486.863	140.62
487.081	134.62
487.299	132.62
487.517	150.62
487.735	173.62
487.953	203.62
488.171	197.62
488.389	189.62
488.607	186.62
488.825	139.62
489.043	128.62
489.261	148.62
489.479	137.62
489.696	167.62
489.914	142.62
490.132	158.62
490.35	163.62
490.568	169.62
490.786	184.62
491.003	181.62
491.221	189.62
491.439	184.62
491.657	200.62
491.874	205.62
492.092	229.62
492.31	265.62
492.527	245.62
492.745	208.62
492.963	211.62
493.18	188.62
493.398	189.62
493.615	188.62
493.833	190.62
494.05	191.62
494.268	188.62
494.485	185.62
494.703	184.62
494.92	174.62
495.138	180.62
495.355	179.62
495.573	177.62
495.79	168.62
496.008	171.62
496.225	170.62
496.442	167.62
496.66	173.62
496.877	163.62
497.094	154.62
497.312	177.62
497.529	169.62
497.746	162.62
497.963	157.62
498.181	146.62
498.398	120.62
498.615	125.62
498.832	124.62
499.049	128.62
499.267	124.62
499.484	131.62
499.701	155.62
499.918	134.62
500.135	128.62
500.352	163.62
500.569	145.62
500.786	146.62
501.003	131.62
501.22	163.62
501.437	137.62
501.654	148.62
501.871	136.62
502.088	150.62
502.305	122.62
502.522	146.62
502.739	130.62
502.956	115.62
503.172	135.62
503.389	133.62
503.606	130.62
503.823	114.62
504.04	113.62
504.256	124.62
504.473	132.62
504.69	125.62
504.907	145.62
505.123	120.62
505.34	130.62
505.557	124.62
505.773	128.62
505.99	118.62
506.207	128.62
506.423	114.62
506.64	117.62
506.856	126.62
507.073	128.62
507.289	108.62
507.506	134.62
507.722	111.62
507.939	128.62
508.155	119.62
508.372	121.62
508.588	127.62
508.805	112.62
509.021	115.62
509.238	114.62
509.454	110.62
509.67	112.62
509.887	96.62
510.103	96.62
510.319	101.62
510.536	89.62
510.752	88.62
510.968	85.62
511.184	92.62
511.401	85.62
