Data from Location6.07152019.Energy5.Lamp.07192019.3%Agarose_HRD10591_16-13-51-396.txt Node
Date: Fri Jul 19 16:13:51 EDT 2019
User: cochatt
Spectrometer: HR+D1059
Trigger mode: 1
Integration Time (sec): 1.000000E-1
Scans to average: 1
Electric dark correction enabled: true
Nonlinearity correction enabled: false
Boxcar width: 0
XAxis mode: Wavelengths
Number of Pixels in Spectrum: 2048
>>>>>Begin Spectral Data<<<<<
223.165	-9.44
223.4	-9.44
223.635	-9.44
223.869	-18.44
224.104	-19.44
224.338	-18.44
224.573	-6.44
224.808	-21.44
225.042	-9.44
225.277	-10.44
225.511	-11.44
225.746	10.56
225.98	7.56
226.215	20.56
226.449	12.56
226.683	15.56
226.918	28.56
227.152	29.56
227.387	25.56
227.621	44.56
227.856	33.56
228.09	37.56
228.324	42.56
228.559	48.56
228.793	59.56
229.027	62.56
229.262	54.56
229.496	61.56
229.73	53.56
229.964	62.56
230.199	67.56
230.433	75.56
230.667	68.56
230.901	66.56
231.136	68.56
231.37	60.56
231.604	69.56
231.838	75.56
232.072	67.56
232.306	79.56
232.541	77.56
232.775	74.56
233.009	83.56
233.243	95.56
233.477	69.56
233.711	77.56
233.945	77.56
234.179	81.56
234.413	78.56
234.647	70.56
234.881	68.56
235.115	82.56
235.349	83.56
235.583	78.56
235.817	78.56
236.051	64.56
236.285	66.56
236.519	74.56
236.753	66.56
236.987	69.56
237.221	66.56
237.455	78.56
237.689	84.56
237.922	75.56
238.156	72.56
238.39	67.56
238.624	71.56
238.858	69.56
239.091	68.56
239.325	58.56
239.559	71.56
239.793	62.56
240.027	83.56
240.26	76.56
240.494	65.56
240.728	59.56
240.961	83.56
241.195	58.56
241.429	62.56
241.662	73.56
241.896	66.56
242.13	65.56
242.363	81.56
242.597	79.56
242.83	69.56
243.064	82.56
243.298	73.56
243.531	65.56
243.765	77.56
243.998	70.56
244.232	61.56
244.465	69.56
244.699	78.56
244.932	59.56
245.166	78.56
245.399	57.56
245.633	68.56
245.866	80.56
246.099	82.56
246.333	76.56
246.566	86.56
246.8	57.56
247.033	58.56
247.266	79.56
247.5	70.56
247.733	73.56
247.966	67.56
248.2	56.56
248.433	71.56
248.666	80.56
248.899	83.56
249.133	78.56
249.366	72.56
249.599	79.56
249.832	83.56
250.066	67.56
250.299	74.56
250.532	62.56
250.765	67.56
250.998	64.56
251.231	72.56
251.465	72.56
251.698	68.56
251.931	70.56
252.164	79.56
252.397	68.56
252.63	67.56
252.863	81.56
253.096	82.56
253.329	76.56
253.562	75.56
253.795	79.56
254.028	79.56
254.261	64.56
254.494	73.56
254.727	70.56
254.96	70.56
255.193	67.56
255.426	68.56
255.659	81.56
255.892	76.56
256.124	72.56
256.357	85.56
256.59	69.56
256.823	80.56
257.056	65.56
257.289	81.56
257.521	73.56
257.754	76.56
257.987	73.56
258.22	76.56
258.452	82.56
258.685	86.56
258.918	71.56
259.151	70.56
259.383	71.56
259.616	73.56
259.849	64.56
260.081	60.56
260.314	70.56
260.547	67.56
260.779	80.56
261.012	85.56
261.244	72.56
261.477	59.56
261.71	64.56
261.942	73.56
262.175	68.56
262.407	76.56
262.64	79.56
262.872	65.56
263.105	83.56
263.337	79.56
263.57	84.56
263.802	65.56
264.035	79.56
264.267	57.56
264.499	70.56
264.732	76.56
264.964	66.56
265.197	72.56
265.429	78.56
265.661	87.56
265.894	80.56
266.126	67.56
266.358	68.56
266.591	75.56
266.823	73.56
267.055	72.56
267.287	66.56
267.52	89.56
267.752	71.56
267.984	78.56
268.216	64.56
268.448	66.56
268.681	81.56
268.913	86.56
269.145	78.56
269.377	88.56
269.609	74.56
269.841	79.56
270.073	73.56
270.306	82.56
270.538	68.56
270.77	83.56
271.002	89.56
271.234	82.56
271.466	70.56
271.698	70.56
271.93	69.56
272.162	63.56
272.394	89.56
272.626	71.56
272.858	81.56
273.09	80.56
273.322	88.56
273.553	65.56
273.785	85.56
274.017	84.56
274.249	81.56
274.481	75.56
274.713	77.56
274.945	88.56
275.176	69.56
275.408	70.56
275.64	70.56
275.872	74.56
276.104	86.56
276.335	73.56
276.567	69.56
276.799	82.56
277.031	72.56
277.262	90.56
277.494	70.56
277.726	77.56
277.957	76.56
278.189	66.56
278.421	68.56
278.652	81.56
278.884	69.56
279.115	88.56
279.347	64.56
279.579	69.56
279.81	86.56
280.042	76.56
280.273	77.56
280.505	70.56
280.736	78.56
280.968	74.56
281.199	64.56
281.431	60.56
281.662	70.56
281.894	76.56
282.125	77.56
282.356	76.56
282.588	85.56
282.819	77.56
283.051	77.56
283.282	74.56
283.513	81.56
283.745	71.56
283.976	78.56
284.207	70.56
284.439	76.56
284.67	67.56
284.901	76.56
285.132	89.56
285.364	79.56
285.595	74.56
285.826	83.56
286.057	74.56
286.288	71.56
286.52	83.56
286.751	74.56
286.982	76.56
287.213	76.56
287.444	82.56
287.675	73.56
287.906	75.56
288.138	90.56
288.369	79.56
288.6	82.56
288.831	78.56
289.062	68.56
289.293	72.56
289.524	86.56
289.755	76.56
289.986	72.56
290.217	79.56
290.448	59.56
290.679	78.56
290.91	77.56
291.141	86.56
291.371	102.56
291.602	70.56
291.833	65.56
292.064	68.56
292.295	83.56
292.526	72.56
292.757	69.56
292.987	79.56
293.218	80.56
293.449	64.56
293.68	85.56
293.91	73.56
294.141	73.56
294.372	90.56
294.603	70.56
294.833	80.56
295.064	82.56
295.295	97.56
295.525	70.56
295.756	90.56
295.987	73.56
296.217	89.56
296.448	76.56
296.679	76.56
296.909	80.56
297.14	75.56
297.37	84.56
297.601	88.56
297.831	78.56
298.062	95.56
298.292	71.56
298.523	71.56
298.753	77.56
298.984	80.56
299.214	77.56
299.445	65.56
299.675	78.56
299.905	87.56
300.136	72.56
300.366	80.56
300.597	75.56
300.827	73.56
301.057	83.56
301.288	73.56
301.518	82.56
301.748	65.56
301.979	85.56
302.209	67.56
302.439	72.56
302.669	52.56
302.9	79.56
303.13	78.56
303.36	70.56
303.59	75.56
303.82	81.56
304.051	85.56
304.281	74.56
304.511	65.56
304.741	76.56
304.971	81.56
305.201	80.56
305.431	73.56
305.661	84.56
305.891	82.56
306.121	82.56
306.352	93.56
306.582	75.56
306.812	69.56
307.042	67.56
307.272	67.56
307.502	89.56
307.731	82.56
307.961	75.56
308.191	77.56
308.421	75.56
308.651	82.56
308.881	75.56
309.111	81.56
309.341	75.56
309.571	76.56
309.8	85.56
310.03	76.56
310.26	65.56
310.49	90.56
310.72	69.56
310.949	74.56
311.179	76.56
311.409	77.56
311.639	80.56
311.868	86.56
312.098	77.56
312.328	80.56
312.557	71.56
312.787	69.56
313.017	87.56
313.246	80.56
313.476	77.56
313.706	61.56
313.935	81.56
314.165	81.56
314.394	78.56
314.624	78.56
314.853	90.56
315.083	79.56
315.312	69.56
315.542	67.56
315.771	71.56
316.001	66.56
316.23	85.56
316.46	82.56
316.689	74.56
316.919	77.56
317.148	78.56
317.377	92.56
317.607	75.56
317.836	76.56
318.065	78.56
318.295	70.56
318.524	65.56
318.753	79.56
318.983	66.56
319.212	88.56
319.441	81.56
319.67	96.56
319.9	64.56
320.129	72.56
320.358	85.56
320.587	77.56
320.816	75.56
321.046	79.56
321.275	75.56
321.504	73.56
321.733	76.56
321.962	88.56
322.191	92.56
322.42	87.56
322.649	88.56
322.878	72.56
323.108	72.56
323.337	73.56
323.566	75.56
323.795	69.56
324.024	70.56
324.253	80.56
324.482	67.56
324.71	65.56
324.939	70.56
325.168	84.56
325.397	89.56
325.626	72.56
325.855	83.56
326.084	88.56
326.313	80.56
326.542	74.56
326.77	78.56
326.999	79.56
327.228	72.56
327.457	72.56
327.686	84.56
327.914	73.56
328.143	82.56
328.372	83.56
328.6	76.56
328.829	90.56
329.058	70.56
329.287	82.56
329.515	69.56
329.744	69.56
329.972	68.56
330.201	68.56
330.43	71.56
330.658	87.56
330.887	69.56
331.115	70.56
331.344	70.56
331.572	93.56
331.801	89.56
332.03	74.56
332.258	74.56
332.486	72.56
332.715	77.56
332.943	92.56
333.172	89.56
333.4	89.56
333.629	100.56
333.857	86.56
334.085	68.56
334.314	57.56
334.542	69.56
334.771	83.56
334.999	69.56
335.227	78.56
335.455	69.56
335.684	72.56
335.912	79.56
336.14	69.56
336.369	80.56
336.597	63.56
336.825	73.56
337.053	88.56
337.281	79.56
337.51	77.56
337.738	64.56
337.966	80.56
338.194	74.56
338.422	72.56
338.65	90.56
338.878	81.56
339.106	71.56
339.334	76.56
339.562	79.56
339.79	82.56
340.018	73.56
340.246	80.56
340.474	72.56
340.702	78.56
340.93	78.56
341.158	61.56
341.386	81.56
341.614	81.56
341.842	82.56
342.07	77.56
342.298	61.56
342.526	77.56
342.754	64.56
342.981	70.56
343.209	84.56
343.437	77.56
343.665	84.56
343.893	69.56
344.12	81.56
344.348	81.56
344.576	78.56
344.804	78.56
345.031	75.56
345.259	73.56
345.487	76.56
345.714	76.56
345.942	77.56
346.17	82.56
346.397	74.56
346.625	77.56
346.853	89.56
347.08	85.56
347.308	78.56
347.535	84.56
347.763	77.56
347.99	72.56
348.218	78.56
348.445	93.56
348.673	88.56
348.9	74.56
349.128	89.56
349.355	68.56
349.583	96.56
349.81	68.56
350.037	73.56
350.265	66.56
350.492	71.56
350.72	70.56
350.947	92.56
351.174	66.56
351.402	68.56
351.629	84.56
351.856	70.56
352.083	77.56
352.311	91.56
352.538	94.56
352.765	77.56
352.992	85.56
353.22	84.56
353.447	83.56
353.674	94.56
353.901	80.56
354.128	78.56
354.355	76.56
354.583	79.56
354.81	78.56
355.037	75.56
355.264	73.56
355.491	72.56
355.718	79.56
355.945	72.56
356.172	72.56
356.399	83.56
356.626	76.56
356.853	80.56
357.08	69.56
357.307	75.56
357.534	66.56
357.761	78.56
357.988	75.56
358.215	97.56
358.441	74.56
358.668	84.56
358.895	76.56
359.122	74.56
359.349	84.56
359.576	77.56
359.802	69.56
360.029	76.56
360.256	92.56
360.483	87.56
360.709	66.56
360.936	87.56
361.163	74.56
361.39	81.56
361.616	74.56
361.843	68.56
362.07	77.56
362.296	80.56
362.523	75.56
362.749	80.56
362.976	69.56
363.203	88.56
363.429	68.56
363.656	65.56
363.882	71.56
364.109	79.56
364.335	77.56
364.562	71.56
364.788	77.56
365.015	82.56
365.241	70.56
365.468	68.56
365.694	76.56
365.92	73.56
366.147	77.56
366.373	75.56
366.599	84.56
366.826	78.56
367.052	75.56
367.278	95.56
367.505	89.56
367.731	91.56
367.957	85.56
368.184	77.56
368.41	81.56
368.636	83.56
368.862	84.56
369.089	84.56
369.315	91.56
369.541	76.56
369.767	84.56
369.993	82.56
370.219	90.56
370.445	85.56
370.672	77.56
370.898	61.56
371.124	74.56
371.35	84.56
371.576	90.56
371.802	88.56
372.028	80.56
372.254	77.56
372.48	78.56
372.706	74.56
372.932	82.56
373.158	89.56
373.384	85.56
373.61	83.56
373.835	84.56
374.061	82.56
374.287	96.56
374.513	79.56
374.739	78.56
374.965	82.56
375.191	90.56
375.416	98.56
375.642	88.56
375.868	85.56
376.094	85.56
376.319	85.56
376.545	99.56
376.771	83.56
376.997	84.56
377.222	89.56
377.448	72.56
377.674	83.56
377.899	70.56
378.125	96.56
378.35	87.56
378.576	89.56
378.802	84.56
379.027	71.56
379.253	98.56
379.478	95.56
379.704	96.56
379.929	89.56
380.155	92.56
380.38	102.56
380.606	89.56
380.831	89.56
381.057	83.56
381.282	83.56
381.507	102.56
381.733	89.56
381.958	96.56
382.184	92.56
382.409	90.56
382.634	98.56
382.86	97.56
383.085	88.56
383.31	84.56
383.535	95.56
383.761	81.56
383.986	97.56
384.211	90.56
384.436	100.56
384.662	81.56
384.887	81.56
385.112	84.56
385.337	82.56
385.562	97.56
385.787	84.56
386.013	95.56
386.238	90.56
386.463	86.56
386.688	105.56
386.913	108.56
387.138	94.56
387.363	96.56
387.588	84.56
387.813	99.56
388.038	95.56
388.263	85.56
388.488	93.56
388.713	85.56
388.938	89.56
389.163	90.56
389.387	100.56
389.612	91.56
389.837	90.56
390.062	97.56
390.287	83.56
390.512	85.56
390.736	100.56
390.961	97.56
391.186	88.56
391.411	105.56
391.636	99.56
391.86	97.56
392.085	97.56
392.31	109.56
392.534	109.56
392.759	96.56
392.984	103.56
393.208	98.56
393.433	97.56
393.658	102.56
393.882	94.56
394.107	92.56
394.331	111.56
394.556	100.56
394.78	107.56
395.005	101.56
395.229	90.56
395.454	110.56
395.678	98.56
395.903	110.56
396.127	103.56
396.352	105.56
396.576	107.56
396.801	92.56
397.025	92.56
397.249	102.56
397.474	94.56
397.698	114.56
397.922	108.56
398.147	106.56
398.371	104.56
398.595	99.56
398.82	96.56
399.044	108.56
399.268	92.56
399.492	107.56
399.717	102.56
399.941	104.56
400.165	114.56
400.389	114.56
400.613	106.56
400.837	113.56
401.062	110.56
401.286	101.56
401.51	108.56
401.734	95.56
401.958	97.56
402.182	110.56
402.406	108.56
402.63	108.56
402.854	114.56
403.078	112.56
403.302	104.56
403.526	94.56
403.75	104.56
403.974	112.56
404.198	107.56
404.422	112.56
404.645	119.56
404.869	107.56
405.093	117.56
405.317	112.56
405.541	104.56
405.765	113.56
405.988	112.56
406.212	112.56
406.436	121.56
406.66	118.56
406.883	110.56
407.107	123.56
407.331	108.56
407.555	114.56
407.778	117.56
408.002	121.56
408.226	105.56
408.449	112.56
408.673	114.56
408.896	117.56
409.12	128.56
409.344	113.56
409.567	112.56
409.791	125.56
410.014	112.56
410.238	122.56
410.461	120.56
410.685	133.56
410.908	122.56
411.132	112.56
411.355	130.56
411.578	120.56
411.802	129.56
412.025	116.56
412.249	108.56
412.472	135.56
412.695	110.56
412.919	126.56
413.142	117.56
413.365	105.56
413.589	103.56
413.812	121.56
414.035	118.56
414.258	111.56
414.482	127.56
414.705	112.56
414.928	134.56
415.151	113.56
415.374	124.56
415.597	118.56
415.821	131.56
416.044	113.56
416.267	122.56
416.49	118.56
416.713	121.56
416.936	119.56
417.159	118.56
417.382	131.56
417.605	125.56
417.828	128.56
418.051	140.56
418.274	131.56
418.497	121.56
418.72	138.56
418.943	129.56
419.166	133.56
419.389	139.56
419.611	121.56
419.834	131.56
420.057	134.56
420.28	144.56
420.503	129.56
420.726	118.56
420.948	122.56
421.171	120.56
421.394	134.56
421.617	134.56
421.839	128.56
422.062	150.56
422.285	132.56
422.507	122.56
422.73	140.56
422.953	145.56
423.175	126.56
423.398	124.56
423.621	116.56
423.843	146.56
424.066	142.56
424.288	144.56
424.511	137.56
424.733	146.56
424.956	138.56
425.178	125.56
425.401	146.56
425.623	111.56
425.846	124.56
426.068	132.56
426.291	120.56
426.513	130.56
426.735	110.56
426.958	137.56
427.18	131.56
427.402	121.56
427.625	129.56
427.847	114.56
428.069	120.56
428.292	114.56
428.514	128.56
428.736	124.56
428.958	121.56
429.181	120.56
429.403	120.56
429.625	121.56
429.847	123.56
430.069	135.56
430.292	125.56
430.514	125.56
430.736	132.56
430.958	140.56
431.18	127.56
431.402	115.56
431.624	129.56
431.846	115.56
432.068	93.56
432.29	100.56
432.512	91.56
432.734	114.56
432.956	128.56
433.178	135.56
433.4	128.56
433.622	144.56
433.844	130.56
434.066	120.56
434.287	102.56
434.509	97.56
434.731	91.56
434.953	111.56
435.175	115.56
435.397	130.56
435.618	114.56
435.84	105.56
436.062	125.56
436.284	113.56
436.505	135.56
436.727	134.56
436.949	120.56
437.17	132.56
437.392	132.56
437.614	117.56
437.835	120.56
438.057	110.56
438.278	117.56
438.5	130.56
438.721	136.56
438.943	126.56
439.165	122.56
439.386	131.56
439.608	139.56
439.829	143.56
440.05	153.56
440.272	145.56
440.493	141.56
440.715	145.56
440.936	146.56
441.158	153.56
441.379	144.56
441.6	145.56
441.822	135.56
442.043	137.56
442.264	134.56
442.486	132.56
442.707	131.56
442.928	141.56
443.149	143.56
443.371	146.56
443.592	149.56
443.813	134.56
444.034	132.56
444.255	147.56
444.476	151.56
444.698	136.56
444.919	149.56
445.14	279.56
445.361	214.56
445.582	152.56
445.803	153.56
446.024	149.56
446.245	152.56
446.466	134.56
446.687	146.56
446.908	160.56
447.129	150.56
447.35	145.56
447.571	149.56
447.792	144.56
448.013	137.56
448.234	133.56
448.455	150.56
448.675	134.56
448.896	132.56
449.117	134.56
449.338	153.56
449.559	137.56
449.779	139.56
450	140.56
450.221	132.56
450.442	120.56
450.662	132.56
450.883	139.56
451.104	140.56
451.324	136.56
451.545	140.56
451.766	120.56
451.986	129.56
452.207	148.56
452.428	120.56
452.648	131.56
452.869	105.56
453.089	109.56
453.31	121.56
453.53	96.56
453.751	114.56
453.971	108.56
454.192	100.56
454.412	114.56
454.633	120.56
454.853	123.56
455.073	139.56
455.294	118.56
455.514	121.56
455.734	120.56
455.955	113.56
456.175	109.56
456.395	108.56
456.616	113.56
456.836	113.56
457.056	105.56
457.276	109.56
457.497	98.56
457.717	102.56
457.937	108.56
458.157	103.56
458.377	121.56
458.598	113.56
458.818	89.56
459.038	95.56
459.258	78.56
459.478	84.56
459.698	92.56
459.918	102.56
460.138	101.56
460.358	105.56
460.578	120.56
460.798	110.56
461.018	113.56
461.238	112.56
461.458	118.56
461.678	115.56
461.898	107.56
462.118	124.56
462.338	115.56
462.558	117.56
462.777	110.56
462.997	116.56
463.217	99.56
463.437	95.56
463.657	108.56
463.876	91.56
464.096	106.56
464.316	103.56
464.536	110.56
464.755	112.56
464.975	101.56
465.195	109.56
465.414	119.56
465.634	114.56
465.854	116.56
466.073	117.56
466.293	115.56
466.512	115.56
466.732	124.56
466.951	117.56
467.171	138.56
467.391	133.56
467.61	137.56
467.829	149.56
468.049	135.56
468.268	143.56
468.488	129.56
468.707	130.56
468.927	135.56
469.146	124.56
469.365	146.56
469.585	156.56
469.804	138.56
470.023	137.56
470.243	126.56
470.462	146.56
470.681	159.56
470.901	147.56
471.12	122.56
471.339	135.56
471.558	130.56
471.777	125.56
471.997	132.56
472.216	124.56
472.435	129.56
472.654	121.56
472.873	125.56
473.092	112.56
473.311	122.56
473.53	122.56
473.749	113.56
473.968	129.56
474.187	117.56
474.406	122.56
474.625	133.56
474.844	139.56
475.063	135.56
475.282	114.56
475.501	130.56
475.72	115.56
475.939	126.56
476.158	128.56
476.377	115.56
476.596	118.56
476.814	123.56
477.033	92.56
477.252	105.56
477.471	111.56
477.69	135.56
477.908	140.56
478.127	134.56
478.346	146.56
478.564	132.56
478.783	129.56
479.002	148.56
479.22	147.56
479.439	141.56
479.658	113.56
479.876	112.56
480.095	105.56
480.313	114.56
480.532	102.56
480.751	100.56
480.969	68.56
481.188	80.56
481.406	93.56
481.624	95.56
481.843	92.56
482.061	92.56
482.28	104.56
482.498	108.56
482.717	107.56
482.935	129.56
483.153	138.56
483.372	150.56
483.59	165.56
483.808	142.56
484.027	138.56
484.245	123.56
484.463	156.56
484.681	176.56
484.9	148.56
485.118	128.56
485.336	135.56
485.554	114.56
485.772	94.56
485.99	106.56
486.209	115.56
486.427	109.56
486.645	113.56
486.863	133.56
487.081	148.56
487.299	126.56
487.517	121.56
487.735	164.56
487.953	183.56
488.171	176.56
488.389	174.56
488.607	170.56
488.825	148.56
489.043	124.56
489.261	133.56
489.479	153.56
489.696	147.56
489.914	155.56
490.132	148.56
490.35	152.56
490.568	171.56
490.786	163.56
491.003	166.56
491.221	171.56
491.439	170.56
491.657	200.56
491.874	216.56
492.092	256.56
492.31	233.56
492.527	236.56
492.745	184.56
492.963	184.56
493.18	190.56
493.398	177.56
493.615	185.56
493.833	180.56
494.05	193.56
494.268	175.56
494.485	175.56
494.703	167.56
494.92	166.56
495.138	172.56
495.355	179.56
495.573	170.56
495.79	173.56
496.008	171.56
496.225	172.56
496.442	179.56
496.66	178.56
496.877	164.56
497.094	181.56
497.312	177.56
497.529	163.56
497.746	172.56
497.963	135.56
498.181	138.56
498.398	128.56
498.615	118.56
498.832	106.56
499.049	122.56
499.267	107.56
499.484	111.56
499.701	148.56
499.918	129.56
500.135	150.56
500.352	135.56
500.569	135.56
500.786	136.56
501.003	128.56
501.22	153.56
501.437	151.56
501.654	132.56
501.871	124.56
502.088	120.56
502.305	129.56
502.522	132.56
502.739	128.56
502.956	123.56
503.172	124.56
503.389	128.56
503.606	124.56
503.823	107.56
504.04	128.56
504.256	115.56
504.473	104.56
504.69	122.56
504.907	128.56
505.123	118.56
505.34	120.56
505.557	122.56
505.773	134.56
505.99	130.56
506.207	125.56
506.423	134.56
506.64	112.56
506.856	125.56
507.073	125.56
507.289	123.56
507.506	124.56
507.722	108.56
507.939	108.56
508.155	113.56
508.372	101.56
508.588	124.56
508.805	99.56
509.021	113.56
509.238	109.56
509.454	94.56
509.67	112.56
509.887	107.56
510.103	98.56
510.319	112.56
510.536	72.56
510.752	82.56
510.968	76.56
511.184	73.56
511.401	83.56
511.617	89.56
511.833	77.56
512.049	93.56
512.265	81.56
