Data from Location6.07152019.Energy5.Lamp.07192019.3%Agarose_HRD10591_16-12-39-395.txt Node
Date: Fri Jul 19 16:12:39 EDT 2019
User: cochatt
Spectrometer: HR+D1059
Trigger mode: 1
Integration Time (sec): 1.000000E-1
Scans to average: 1
Electric dark correction enabled: true
Nonlinearity correction enabled: false
Boxcar width: 0
XAxis mode: Wavelengths
Number of Pixels in Spectrum: 2048
>>>>>Begin Spectral Data<<<<<
223.165	4.06
223.4	4.06
223.635	4.06
223.869	-14.94
224.104	-18.94
224.338	-30.94
224.573	-15.94
224.808	-16.94
225.042	0.06
225.277	-0.94
225.511	-10.94
225.746	-9.94
225.98	-12.94
226.215	18.06
226.449	23.06
226.683	23.06
226.918	29.06
227.152	35.06
227.387	35.06
227.621	60.06
227.856	39.06
228.09	44.06
228.324	51.06
228.559	42.06
228.793	63.06
229.027	68.06
229.262	60.06
229.496	72.06
229.73	76.06
229.964	61.06
230.199	81.06
230.433	75.06
230.667	73.06
230.901	85.06
231.136	68.06
231.37	77.06
231.604	91.06
231.838	94.06
232.072	85.06
232.306	87.06
232.541	74.06
232.775	78.06
233.009	81.06
233.243	90.06
233.477	77.06
233.711	87.06
233.945	83.06
234.179	77.06
234.413	72.06
234.647	68.06
234.881	82.06
235.115	94.06
235.349	80.06
235.583	73.06
235.817	65.06
236.051	72.06
236.285	69.06
236.519	77.06
236.753	83.06
236.987	79.06
237.221	87.06
237.455	77.06
237.689	75.06
237.922	69.06
238.156	87.06
238.39	76.06
238.624	75.06
238.858	73.06
239.091	70.06
239.325	76.06
239.559	71.06
239.793	82.06
240.027	81.06
240.26	82.06
240.494	67.06
240.728	77.06
240.961	77.06
241.195	80.06
241.429	81.06
241.662	68.06
241.896	80.06
242.13	73.06
242.363	77.06
242.597	77.06
242.83	72.06
243.064	78.06
243.298	84.06
243.531	77.06
243.765	86.06
243.998	74.06
244.232	66.06
244.465	88.06
244.699	70.06
244.932	75.06
245.166	70.06
245.399	81.06
245.633	67.06
245.866	89.06
246.099	74.06
246.333	73.06
246.566	87.06
246.8	78.06
247.033	69.06
247.266	77.06
247.5	68.06
247.733	74.06
247.966	72.06
248.2	59.06
248.433	79.06
248.666	70.06
248.899	85.06
249.133	81.06
249.366	69.06
249.599	74.06
249.832	87.06
250.066	72.06
250.299	76.06
250.532	95.06
250.765	81.06
250.998	79.06
251.231	90.06
251.465	74.06
251.698	93.06
251.931	69.06
252.164	72.06
252.397	95.06
252.63	77.06
252.863	73.06
253.096	96.06
253.329	73.06
253.562	79.06
253.795	77.06
254.028	69.06
254.261	88.06
254.494	80.06
254.727	91.06
254.96	91.06
255.193	82.06
255.426	87.06
255.659	81.06
255.892	89.06
256.124	80.06
256.357	71.06
256.59	81.06
256.823	88.06
257.056	76.06
257.289	75.06
257.521	85.06
257.754	75.06
257.987	80.06
258.22	78.06
258.452	81.06
258.685	81.06
258.918	75.06
259.151	86.06
259.383	73.06
259.616	76.06
259.849	85.06
260.081	85.06
260.314	73.06
260.547	80.06
260.779	73.06
261.012	78.06
261.244	84.06
261.477	72.06
261.71	80.06
261.942	77.06
262.175	76.06
262.407	71.06
262.64	92.06
262.872	80.06
263.105	84.06
263.337	92.06
263.57	77.06
263.802	77.06
264.035	92.06
264.267	86.06
264.499	85.06
264.732	80.06
264.964	89.06
265.197	71.06
265.429	96.06
265.661	94.06
265.894	82.06
266.126	88.06
266.358	93.06
266.591	88.06
266.823	81.06
267.055	74.06
267.287	83.06
267.52	76.06
267.752	86.06
267.984	68.06
268.216	79.06
268.448	96.06
268.681	75.06
268.913	77.06
269.145	85.06
269.377	75.06
269.609	93.06
269.841	80.06
270.073	62.06
270.306	84.06
270.538	83.06
270.77	85.06
271.002	77.06
271.234	81.06
271.466	78.06
271.698	88.06
271.93	86.06
272.162	92.06
272.394	77.06
272.626	94.06
272.858	91.06
273.09	84.06
273.322	84.06
273.553	83.06
273.785	72.06
274.017	79.06
274.249	84.06
274.481	79.06
274.713	85.06
274.945	74.06
275.176	83.06
275.408	76.06
275.64	80.06
275.872	75.06
276.104	80.06
276.335	94.06
276.567	75.06
276.799	78.06
277.031	72.06
277.262	74.06
277.494	91.06
277.726	85.06
277.957	74.06
278.189	72.06
278.421	74.06
278.652	91.06
278.884	75.06
279.115	94.06
279.347	75.06
279.579	71.06
279.81	60.06
280.042	79.06
280.273	85.06
280.505	87.06
280.736	66.06
280.968	93.06
281.199	82.06
281.431	63.06
281.662	83.06
281.894	92.06
282.125	68.06
282.356	84.06
282.588	82.06
282.819	69.06
283.051	86.06
283.282	75.06
283.513	94.06
283.745	83.06
283.976	73.06
284.207	76.06
284.439	83.06
284.67	80.06
284.901	80.06
285.132	72.06
285.364	75.06
285.595	96.06
285.826	75.06
286.057	85.06
286.288	69.06
286.52	67.06
286.751	88.06
286.982	75.06
287.213	83.06
287.444	62.06
287.675	86.06
287.906	89.06
288.138	92.06
288.369	86.06
288.6	77.06
288.831	67.06
289.062	95.06
289.293	95.06
289.524	93.06
289.755	91.06
289.986	63.06
290.217	84.06
290.448	75.06
290.679	87.06
290.91	98.06
291.141	101.06
291.371	82.06
291.602	95.06
291.833	90.06
292.064	91.06
292.295	95.06
292.526	85.06
292.757	79.06
292.987	69.06
293.218	83.06
293.449	74.06
293.68	80.06
293.91	82.06
294.141	71.06
294.372	85.06
294.603	87.06
294.833	74.06
295.064	99.06
295.295	80.06
295.525	80.06
295.756	84.06
295.987	90.06
296.217	86.06
296.448	76.06
296.679	81.06
296.909	94.06
297.14	79.06
297.37	89.06
297.601	87.06
297.831	80.06
298.062	80.06
298.292	81.06
298.523	96.06
298.753	79.06
298.984	69.06
299.214	74.06
299.445	83.06
299.675	89.06
299.905	71.06
300.136	86.06
300.366	83.06
300.597	83.06
300.827	84.06
301.057	82.06
301.288	89.06
301.518	90.06
301.748	78.06
301.979	104.06
302.209	91.06
302.439	75.06
302.669	76.06
302.9	79.06
303.13	96.06
303.36	74.06
303.59	78.06
303.82	82.06
304.051	77.06
304.281	95.06
304.511	73.06
304.741	86.06
304.971	83.06
305.201	81.06
305.431	79.06
305.661	95.06
305.891	73.06
306.121	86.06
306.352	81.06
306.582	95.06
306.812	76.06
307.042	84.06
307.272	88.06
307.502	78.06
307.731	88.06
307.961	87.06
308.191	99.06
308.421	84.06
308.651	80.06
308.881	83.06
309.111	80.06
309.341	76.06
309.571	81.06
309.8	81.06
310.03	94.06
310.26	88.06
310.49	88.06
310.72	87.06
310.949	84.06
311.179	84.06
311.409	83.06
311.639	81.06
311.868	87.06
312.098	91.06
312.328	85.06
312.557	82.06
312.787	87.06
313.017	75.06
313.246	85.06
313.476	80.06
313.706	86.06
313.935	92.06
314.165	84.06
314.394	86.06
314.624	74.06
314.853	79.06
315.083	76.06
315.312	74.06
315.542	96.06
315.771	80.06
316.001	85.06
316.23	102.06
316.46	74.06
316.689	86.06
316.919	77.06
317.148	95.06
317.377	93.06
317.607	80.06
317.836	80.06
318.065	83.06
318.295	84.06
318.524	83.06
318.753	85.06
318.983	81.06
319.212	85.06
319.441	73.06
319.67	80.06
319.9	86.06
320.129	77.06
320.358	83.06
320.587	82.06
320.816	69.06
321.046	91.06
321.275	87.06
321.504	74.06
321.733	86.06
321.962	74.06
322.191	95.06
322.42	84.06
322.649	84.06
322.878	79.06
323.108	95.06
323.337	88.06
323.566	74.06
323.795	80.06
324.024	85.06
324.253	91.06
324.482	77.06
324.71	96.06
324.939	92.06
325.168	86.06
325.397	91.06
325.626	81.06
325.855	78.06
326.084	79.06
326.313	84.06
326.542	90.06
326.77	84.06
326.999	75.06
327.228	86.06
327.457	82.06
327.686	80.06
327.914	76.06
328.143	91.06
328.372	64.06
328.6	83.06
328.829	94.06
329.058	77.06
329.287	80.06
329.515	83.06
329.744	81.06
329.972	80.06
330.201	91.06
330.43	91.06
330.658	83.06
330.887	74.06
331.115	73.06
331.344	92.06
331.572	76.06
331.801	86.06
332.03	87.06
332.258	84.06
332.486	82.06
332.715	89.06
332.943	81.06
333.172	76.06
333.4	90.06
333.629	78.06
333.857	77.06
334.085	73.06
334.314	91.06
334.542	92.06
334.771	78.06
334.999	81.06
335.227	98.06
335.455	89.06
335.684	86.06
335.912	90.06
336.14	67.06
336.369	82.06
336.597	76.06
336.825	82.06
337.053	84.06
337.281	87.06
337.51	78.06
337.738	76.06
337.966	83.06
338.194	79.06
338.422	91.06
338.65	103.06
338.878	83.06
339.106	73.06
339.334	73.06
339.562	83.06
339.79	95.06
340.018	85.06
340.246	79.06
340.474	94.06
340.702	96.06
340.93	93.06
341.158	90.06
341.386	87.06
341.614	86.06
341.842	101.06
342.07	75.06
342.298	91.06
342.526	80.06
342.754	78.06
342.981	81.06
343.209	76.06
343.437	85.06
343.665	86.06
343.893	79.06
344.12	87.06
344.348	87.06
344.576	73.06
344.804	79.06
345.031	95.06
345.259	84.06
345.487	76.06
345.714	87.06
345.942	78.06
346.17	96.06
346.397	83.06
346.625	71.06
346.853	98.06
347.08	69.06
347.308	80.06
347.535	98.06
347.763	90.06
347.99	85.06
348.218	90.06
348.445	86.06
348.673	87.06
348.9	90.06
349.128	91.06
349.355	91.06
349.583	76.06
349.81	95.06
350.037	84.06
350.265	87.06
350.492	88.06
350.72	77.06
350.947	95.06
351.174	83.06
351.402	81.06
351.629	93.06
351.856	89.06
352.083	94.06
352.311	92.06
352.538	92.06
352.765	96.06
352.992	96.06
353.22	84.06
353.447	87.06
353.674	84.06
353.901	88.06
354.128	92.06
354.355	100.06
354.583	72.06
354.81	70.06
355.037	77.06
355.264	75.06
355.491	75.06
355.718	82.06
355.945	84.06
356.172	71.06
356.399	73.06
356.626	81.06
356.853	83.06
357.08	71.06
357.307	93.06
357.534	61.06
357.761	71.06
357.988	99.06
358.215	84.06
358.441	87.06
358.668	87.06
358.895	67.06
359.122	89.06
359.349	80.06
359.576	82.06
359.802	81.06
360.029	92.06
360.256	95.06
360.483	89.06
360.709	87.06
360.936	75.06
361.163	88.06
361.39	81.06
361.616	95.06
361.843	77.06
362.07	88.06
362.296	76.06
362.523	79.06
362.749	103.06
362.976	77.06
363.203	97.06
363.429	93.06
363.656	90.06
363.882	86.06
364.109	102.06
364.335	95.06
364.562	83.06
364.788	82.06
365.015	76.06
365.241	98.06
365.468	91.06
365.694	90.06
365.92	78.06
366.147	96.06
366.373	90.06
366.599	85.06
366.826	97.06
367.052	86.06
367.278	81.06
367.505	81.06
367.731	97.06
367.957	88.06
368.184	85.06
368.41	84.06
368.636	89.06
368.862	104.06
369.089	92.06
369.315	90.06
369.541	88.06
369.767	83.06
369.993	96.06
370.219	78.06
370.445	108.06
370.672	114.06
370.898	82.06
371.124	87.06
371.35	106.06
371.576	87.06
371.802	94.06
372.028	84.06
372.254	103.06
372.48	96.06
372.706	100.06
372.932	92.06
373.158	84.06
373.384	92.06
373.61	95.06
373.835	89.06
374.061	92.06
374.287	100.06
374.513	87.06
374.739	79.06
374.965	89.06
375.191	90.06
375.416	91.06
375.642	83.06
375.868	93.06
376.094	96.06
376.319	109.06
376.545	89.06
376.771	99.06
376.997	98.06
377.222	93.06
377.448	96.06
377.674	99.06
377.899	97.06
378.125	96.06
378.35	96.06
378.576	86.06
378.802	94.06
379.027	102.06
379.253	98.06
379.478	82.06
379.704	96.06
379.929	97.06
380.155	102.06
380.38	102.06
380.606	91.06
380.831	96.06
381.057	98.06
381.282	98.06
381.507	100.06
381.733	92.06
381.958	102.06
382.184	108.06
382.409	106.06
382.634	103.06
382.86	100.06
383.085	82.06
383.31	107.06
383.535	86.06
383.761	87.06
383.986	109.06
384.211	96.06
384.436	84.06
384.662	100.06
384.887	101.06
385.112	104.06
385.337	98.06
385.562	96.06
385.787	95.06
386.013	100.06
386.238	121.06
386.463	101.06
386.688	98.06
386.913	102.06
387.138	92.06
387.363	93.06
387.588	97.06
387.813	94.06
388.038	111.06
388.263	98.06
388.488	99.06
388.713	91.06
388.938	96.06
389.163	106.06
389.387	106.06
389.612	98.06
389.837	96.06
390.062	93.06
390.287	115.06
390.512	112.06
390.736	116.06
390.961	105.06
391.186	101.06
391.411	99.06
391.636	99.06
391.86	107.06
392.085	107.06
392.31	101.06
392.534	91.06
392.759	106.06
392.984	99.06
393.208	99.06
393.433	105.06
393.658	117.06
393.882	105.06
394.107	109.06
394.331	106.06
394.556	101.06
394.78	91.06
395.005	121.06
395.229	113.06
395.454	108.06
395.678	107.06
395.903	113.06
396.127	103.06
396.352	116.06
396.576	109.06
396.801	103.06
397.025	105.06
397.249	101.06
397.474	128.06
397.698	109.06
397.922	114.06
398.147	104.06
398.371	117.06
398.595	110.06
398.82	101.06
399.044	103.06
399.268	122.06
399.492	106.06
399.717	107.06
399.941	125.06
400.165	123.06
400.389	111.06
400.613	113.06
400.837	115.06
401.062	112.06
401.286	109.06
401.51	102.06
401.734	112.06
401.958	111.06
402.182	112.06
402.406	98.06
402.63	106.06
402.854	113.06
403.078	123.06
403.302	121.06
403.526	116.06
403.75	99.06
403.974	112.06
404.198	112.06
404.422	132.06
404.645	125.06
404.869	111.06
405.093	118.06
405.317	99.06
405.541	115.06
405.765	108.06
405.988	106.06
406.212	117.06
406.436	123.06
406.66	126.06
406.883	132.06
407.107	115.06
407.331	118.06
407.555	132.06
407.778	112.06
408.002	114.06
408.226	127.06
408.449	112.06
408.673	104.06
408.896	130.06
409.12	119.06
409.344	132.06
409.567	124.06
409.791	117.06
410.014	116.06
410.238	139.06
410.461	127.06
410.685	121.06
410.908	118.06
411.132	135.06
411.355	129.06
411.578	127.06
411.802	125.06
412.025	118.06
412.249	116.06
412.472	129.06
412.695	133.06
412.919	119.06
413.142	126.06
413.365	139.06
413.589	137.06
413.812	123.06
414.035	112.06
414.258	117.06
414.482	127.06
414.705	122.06
414.928	134.06
415.151	124.06
415.374	123.06
415.597	127.06
415.821	119.06
416.044	125.06
416.267	134.06
416.49	129.06
416.713	132.06
416.936	125.06
417.159	125.06
417.382	120.06
417.605	113.06
417.828	119.06
418.051	125.06
418.274	138.06
418.497	133.06
418.72	141.06
418.943	135.06
419.166	141.06
419.389	136.06
419.611	128.06
419.834	124.06
420.057	142.06
420.28	123.06
420.503	127.06
420.726	128.06
420.948	131.06
421.171	140.06
421.394	133.06
421.617	146.06
421.839	148.06
422.062	154.06
422.285	156.06
422.507	134.06
422.73	146.06
422.953	123.06
423.175	127.06
423.398	128.06
423.621	139.06
423.843	150.06
424.066	135.06
424.288	133.06
424.511	147.06
424.733	137.06
424.956	155.06
425.178	144.06
425.401	135.06
425.623	117.06
425.846	139.06
426.068	141.06
426.291	146.06
426.513	150.06
426.735	147.06
426.958	127.06
427.18	130.06
427.402	146.06
427.625	139.06
427.847	131.06
428.069	131.06
428.292	137.06
428.514	149.06
428.736	150.06
428.958	122.06
429.181	138.06
429.403	125.06
429.625	132.06
429.847	137.06
430.069	120.06
430.292	129.06
430.514	139.06
430.736	137.06
430.958	140.06
431.18	126.06
431.402	134.06
431.624	133.06
431.846	127.06
432.068	114.06
432.29	92.06
432.512	122.06
432.734	127.06
432.956	132.06
433.178	142.06
433.4	154.06
433.622	136.06
433.844	135.06
434.066	133.06
434.287	115.06
434.509	95.06
434.731	117.06
434.953	114.06
435.175	132.06
435.397	140.06
435.618	127.06
435.84	120.06
436.062	123.06
436.284	127.06
436.505	130.06
436.727	135.06
436.949	121.06
437.17	135.06
437.392	141.06
437.614	116.06
437.835	116.06
438.057	107.06
438.278	121.06
438.5	123.06
438.721	131.06
438.943	148.06
439.165	153.06
439.386	149.06
439.608	145.06
439.829	144.06
440.05	158.06
440.272	155.06
440.493	145.06
440.715	160.06
440.936	145.06
441.158	157.06
441.379	154.06
441.6	151.06
441.822	149.06
442.043	151.06
442.264	145.06
442.486	155.06
442.707	144.06
442.928	149.06
443.149	140.06
443.371	129.06
443.592	139.06
443.813	153.06
444.034	137.06
444.255	153.06
444.476	155.06
444.698	151.06
444.919	148.06
445.14	279.06
445.361	209.06
445.582	159.06
445.803	156.06
446.024	160.06
446.245	160.06
446.466	151.06
446.687	165.06
446.908	158.06
447.129	156.06
447.35	162.06
447.571	155.06
447.792	152.06
448.013	155.06
448.234	151.06
448.455	139.06
448.675	155.06
448.896	144.06
449.117	143.06
449.338	137.06
449.559	140.06
449.779	138.06
450	156.06
450.221	151.06
450.442	149.06
450.662	122.06
450.883	136.06
451.104	139.06
451.324	135.06
451.545	129.06
451.766	128.06
451.986	127.06
452.207	141.06
452.428	144.06
452.648	127.06
452.869	130.06
453.089	109.06
453.31	129.06
453.53	108.06
453.751	117.06
453.971	119.06
454.192	122.06
454.412	118.06
454.633	124.06
454.853	124.06
455.073	140.06
455.294	127.06
455.514	144.06
455.734	116.06
455.955	115.06
456.175	111.06
456.395	113.06
456.616	118.06
456.836	119.06
457.056	107.06
457.276	107.06
457.497	106.06
457.717	109.06
457.937	107.06
458.157	115.06
458.377	107.06
458.598	86.06
458.818	99.06
459.038	90.06
459.258	95.06
459.478	95.06
459.698	94.06
459.918	88.06
460.138	116.06
460.358	114.06
460.578	120.06
460.798	129.06
461.018	117.06
461.238	139.06
461.458	121.06
461.678	114.06
461.898	107.06
462.118	113.06
462.338	112.06
462.558	104.06
462.777	111.06
462.997	113.06
463.217	117.06
463.437	110.06
463.657	107.06
463.876	112.06
464.096	118.06
464.316	117.06
464.536	114.06
464.755	102.06
464.975	111.06
465.195	120.06
465.414	137.06
465.634	136.06
465.854	134.06
466.073	121.06
466.293	124.06
466.512	143.06
466.732	140.06
466.951	123.06
467.171	134.06
467.391	133.06
467.61	156.06
467.829	132.06
468.049	147.06
468.268	146.06
468.488	146.06
468.707	147.06
468.927	138.06
469.146	145.06
469.365	156.06
469.585	142.06
469.804	137.06
470.023	166.06
470.243	142.06
470.462	147.06
470.681	142.06
470.901	148.06
471.12	146.06
471.339	138.06
471.558	139.06
471.777	136.06
471.997	127.06
472.216	123.06
472.435	124.06
472.654	117.06
472.873	115.06
473.092	119.06
473.311	126.06
473.53	125.06
473.749	149.06
473.968	142.06
474.187	124.06
474.406	136.06
474.625	128.06
474.844	128.06
475.063	135.06
475.282	118.06
475.501	124.06
475.72	122.06
475.939	126.06
476.158	136.06
476.377	133.06
476.596	119.06
476.814	120.06
477.033	102.06
477.252	111.06
477.471	131.06
477.69	142.06
477.908	135.06
478.127	164.06
478.346	146.06
478.564	141.06
478.783	132.06
479.002	150.06
479.22	149.06
479.439	135.06
479.658	119.06
479.876	120.06
480.095	116.06
480.313	112.06
480.532	130.06
480.751	100.06
480.969	86.06
481.188	97.06
481.406	115.06
481.624	108.06
481.843	83.06
482.061	105.06
482.28	115.06
482.498	116.06
482.717	114.06
482.935	124.06
483.153	149.06
483.372	156.06
483.59	160.06
483.808	157.06
484.027	138.06
484.245	137.06
484.463	178.06
484.681	189.06
484.9	160.06
485.118	134.06
485.336	132.06
485.554	125.06
485.772	97.06
485.99	99.06
486.209	112.06
486.427	97.06
486.645	130.06
486.863	131.06
487.081	152.06
487.299	130.06
487.517	147.06
487.735	167.06
487.953	199.06
488.171	203.06
488.389	176.06
488.607	170.06
488.825	157.06
489.043	139.06
489.261	144.06
489.479	150.06
489.696	160.06
489.914	155.06
490.132	153.06
490.35	160.06
490.568	169.06
490.786	177.06
491.003	175.06
491.221	199.06
491.439	187.06
491.657	205.06
491.874	221.06
492.092	243.06
492.31	255.06
492.527	232.06
492.745	223.06
492.963	204.06
493.18	201.06
493.398	204.06
493.615	194.06
493.833	180.06
494.05	189.06
494.268	162.06
494.485	186.06
494.703	171.06
494.92	189.06
495.138	185.06
495.355	171.06
495.573	181.06
495.79	188.06
496.008	182.06
496.225	178.06
496.442	181.06
496.66	175.06
496.877	187.06
497.094	181.06
497.312	162.06
497.529	164.06
497.746	170.06
497.963	165.06
498.181	145.06
498.398	133.06
498.615	121.06
498.832	127.06
499.049	121.06
499.267	133.06
499.484	125.06
499.701	127.06
499.918	128.06
500.135	127.06
500.352	147.06
500.569	166.06
500.786	147.06
501.003	156.06
501.22	145.06
501.437	139.06
501.654	134.06
501.871	145.06
502.088	143.06
502.305	148.06
502.522	140.06
502.739	144.06
502.956	136.06
503.172	140.06
503.389	128.06
503.606	124.06
503.823	137.06
504.04	119.06
504.256	129.06
504.473	115.06
504.69	125.06
504.907	123.06
505.123	126.06
505.34	131.06
505.557	122.06
505.773	140.06
505.99	127.06
506.207	136.06
506.423	125.06
506.64	139.06
506.856	134.06
507.073	113.06
507.289	114.06
507.506	115.06
507.722	126.06
507.939	121.06
508.155	124.06
508.372	119.06
508.588	102.06
508.805	109.06
509.021	119.06
509.238	126.06
509.454	111.06
509.67	114.06
509.887	102.06
510.103	114.06
510.319	100.06
510.536	107.06
510.752	87.06
510.968	86.06
511.184	76.06
511.401	80.06
