Data from Location6.07152019.Energy5.Lamp.07192019.3%Agarose_HRD10591_16-13-45-395.txt Node
Date: Fri Jul 19 16:13:45 EDT 2019
User: cochatt
Spectrometer: HR+D1059
Trigger mode: 1
Integration Time (sec): 1.000000E-1
Scans to average: 1
Electric dark correction enabled: true
Nonlinearity correction enabled: false
Boxcar width: 0
XAxis mode: Wavelengths
Number of Pixels in Spectrum: 2048
>>>>>Begin Spectral Data<<<<<
223.165	-19.38
223.4	-19.38
223.635	-19.38
223.869	-3.38
224.104	-27.38
224.338	-5.38
224.573	-2.38
224.808	-16.38
225.042	-0.38
225.277	-14.38
225.511	1.62
225.746	2.62
225.98	-6.38
226.215	5.62
226.449	15.62
226.683	22.62
226.918	12.62
227.152	34.62
227.387	45.62
227.621	28.62
227.856	51.62
228.09	49.62
228.324	53.62
228.559	66.62
228.793	56.62
229.027	58.62
229.262	69.62
229.496	63.62
229.73	74.62
229.964	75.62
230.199	78.62
230.433	78.62
230.667	81.62
230.901	84.62
231.136	75.62
231.37	73.62
231.604	84.62
231.838	79.62
232.072	91.62
232.306	76.62
232.541	71.62
232.775	68.62
233.009	68.62
233.243	86.62
233.477	94.62
233.711	89.62
233.945	88.62
234.179	95.62
234.413	91.62
234.647	96.62
234.881	100.62
235.115	72.62
235.349	65.62
235.583	73.62
235.817	71.62
236.051	89.62
236.285	74.62
236.519	69.62
236.753	90.62
236.987	99.62
237.221	62.62
237.455	79.62
237.689	83.62
237.922	97.62
238.156	74.62
238.39	76.62
238.624	81.62
238.858	76.62
239.091	78.62
239.325	82.62
239.559	79.62
239.793	76.62
240.027	83.62
240.26	77.62
240.494	89.62
240.728	83.62
240.961	76.62
241.195	81.62
241.429	67.62
241.662	73.62
241.896	72.62
242.13	68.62
242.363	68.62
242.597	88.62
242.83	84.62
243.064	99.62
243.298	76.62
243.531	74.62
243.765	82.62
243.998	60.62
244.232	73.62
244.465	95.62
244.699	82.62
244.932	86.62
245.166	95.62
245.399	79.62
245.633	73.62
245.866	91.62
246.099	89.62
246.333	81.62
246.566	92.62
246.8	94.62
247.033	78.62
247.266	72.62
247.5	74.62
247.733	97.62
247.966	79.62
248.2	86.62
248.433	87.62
248.666	69.62
248.899	69.62
249.133	68.62
249.366	82.62
249.599	85.62
249.832	79.62
250.066	66.62
250.299	61.62
250.532	95.62
250.765	77.62
250.998	70.62
251.231	83.62
251.465	80.62
251.698	82.62
251.931	82.62
252.164	78.62
252.397	74.62
252.63	86.62
252.863	76.62
253.096	100.62
253.329	77.62
253.562	89.62
253.795	89.62
254.028	90.62
254.261	85.62
254.494	97.62
254.727	92.62
254.96	97.62
255.193	86.62
255.426	85.62
255.659	78.62
255.892	87.62
256.124	73.62
256.357	82.62
256.59	82.62
256.823	68.62
257.056	69.62
257.289	90.62
257.521	92.62
257.754	83.62
257.987	103.62
258.22	89.62
258.452	85.62
258.685	76.62
258.918	82.62
259.151	78.62
259.383	82.62
259.616	76.62
259.849	100.62
260.081	77.62
260.314	77.62
260.547	72.62
260.779	83.62
261.012	88.62
261.244	75.62
261.477	80.62
261.71	91.62
261.942	86.62
262.175	76.62
262.407	81.62
262.64	88.62
262.872	75.62
263.105	82.62
263.337	79.62
263.57	79.62
263.802	89.62
264.035	89.62
264.267	87.62
264.499	86.62
264.732	86.62
264.964	87.62
265.197	90.62
265.429	87.62
265.661	91.62
265.894	88.62
266.126	85.62
266.358	79.62
266.591	88.62
266.823	70.62
267.055	71.62
267.287	78.62
267.52	85.62
267.752	85.62
267.984	101.62
268.216	93.62
268.448	87.62
268.681	88.62
268.913	81.62
269.145	89.62
269.377	74.62
269.609	82.62
269.841	76.62
270.073	83.62
270.306	76.62
270.538	92.62
270.77	80.62
271.002	93.62
271.234	81.62
271.466	92.62
271.698	77.62
271.93	94.62
272.162	85.62
272.394	79.62
272.626	86.62
272.858	79.62
273.09	73.62
273.322	81.62
273.553	92.62
273.785	93.62
274.017	80.62
274.249	85.62
274.481	80.62
274.713	81.62
274.945	80.62
275.176	73.62
275.408	90.62
275.64	66.62
275.872	73.62
276.104	91.62
276.335	86.62
276.567	87.62
276.799	62.62
277.031	81.62
277.262	78.62
277.494	79.62
277.726	89.62
277.957	91.62
278.189	82.62
278.421	82.62
278.652	84.62
278.884	80.62
279.115	87.62
279.347	91.62
279.579	84.62
279.81	79.62
280.042	82.62
280.273	89.62
280.505	92.62
280.736	84.62
280.968	82.62
281.199	93.62
281.431	92.62
281.662	97.62
281.894	94.62
282.125	89.62
282.356	91.62
282.588	90.62
282.819	92.62
283.051	91.62
283.282	82.62
283.513	77.62
283.745	94.62
283.976	79.62
284.207	87.62
284.439	89.62
284.67	82.62
284.901	85.62
285.132	94.62
285.364	96.62
285.595	82.62
285.826	77.62
286.057	81.62
286.288	86.62
286.52	92.62
286.751	95.62
286.982	83.62
287.213	99.62
287.444	93.62
287.675	89.62
287.906	89.62
288.138	86.62
288.369	81.62
288.6	88.62
288.831	87.62
289.062	86.62
289.293	93.62
289.524	77.62
289.755	79.62
289.986	91.62
290.217	75.62
290.448	78.62
290.679	85.62
290.91	77.62
291.141	83.62
291.371	96.62
291.602	88.62
291.833	97.62
292.064	82.62
292.295	84.62
292.526	71.62
292.757	76.62
292.987	95.62
293.218	81.62
293.449	85.62
293.68	83.62
293.91	90.62
294.141	88.62
294.372	80.62
294.603	82.62
294.833	90.62
295.064	95.62
295.295	83.62
295.525	85.62
295.756	85.62
295.987	79.62
296.217	87.62
296.448	86.62
296.679	77.62
296.909	86.62
297.14	81.62
297.37	80.62
297.601	89.62
297.831	87.62
298.062	95.62
298.292	85.62
298.523	76.62
298.753	99.62
298.984	91.62
299.214	80.62
299.445	87.62
299.675	91.62
299.905	88.62
300.136	87.62
300.366	95.62
300.597	90.62
300.827	87.62
301.057	98.62
301.288	98.62
301.518	89.62
301.748	83.62
301.979	77.62
302.209	79.62
302.439	93.62
302.669	85.62
302.9	75.62
303.13	100.62
303.36	78.62
303.59	89.62
303.82	95.62
304.051	86.62
304.281	94.62
304.511	95.62
304.741	87.62
304.971	101.62
305.201	86.62
305.431	83.62
305.661	71.62
305.891	83.62
306.121	98.62
306.352	95.62
306.582	88.62
306.812	97.62
307.042	88.62
307.272	76.62
307.502	90.62
307.731	76.62
307.961	89.62
308.191	93.62
308.421	85.62
308.651	89.62
308.881	86.62
309.111	83.62
309.341	101.62
309.571	95.62
309.8	90.62
310.03	78.62
310.26	88.62
310.49	93.62
310.72	89.62
310.949	79.62
311.179	83.62
311.409	81.62
311.639	89.62
311.868	91.62
312.098	96.62
312.328	86.62
312.557	91.62
312.787	83.62
313.017	89.62
313.246	74.62
313.476	93.62
313.706	97.62
313.935	79.62
314.165	71.62
314.394	84.62
314.624	83.62
314.853	78.62
315.083	83.62
315.312	76.62
315.542	81.62
315.771	79.62
316.001	72.62
316.23	93.62
316.46	84.62
316.689	82.62
316.919	96.62
317.148	86.62
317.377	82.62
317.607	90.62
317.836	85.62
318.065	98.62
318.295	74.62
318.524	77.62
318.753	96.62
318.983	91.62
319.212	94.62
319.441	79.62
319.67	77.62
319.9	93.62
320.129	84.62
320.358	83.62
320.587	85.62
320.816	75.62
321.046	80.62
321.275	92.62
321.504	89.62
321.733	75.62
321.962	79.62
322.191	81.62
322.42	85.62
322.649	91.62
322.878	87.62
323.108	74.62
323.337	84.62
323.566	82.62
323.795	79.62
324.024	93.62
324.253	85.62
324.482	90.62
324.71	82.62
324.939	94.62
325.168	91.62
325.397	84.62
325.626	82.62
325.855	78.62
326.084	82.62
326.313	98.62
326.542	88.62
326.77	86.62
326.999	84.62
327.228	80.62
327.457	79.62
327.686	90.62
327.914	93.62
328.143	90.62
328.372	79.62
328.6	74.62
328.829	91.62
329.058	94.62
329.287	82.62
329.515	78.62
329.744	71.62
329.972	93.62
330.201	84.62
330.43	78.62
330.658	79.62
330.887	84.62
331.115	69.62
331.344	89.62
331.572	101.62
331.801	93.62
332.03	87.62
332.258	94.62
332.486	85.62
332.715	87.62
332.943	82.62
333.172	82.62
333.4	73.62
333.629	62.62
333.857	89.62
334.085	85.62
334.314	72.62
334.542	86.62
334.771	76.62
334.999	78.62
335.227	87.62
335.455	79.62
335.684	80.62
335.912	88.62
336.14	81.62
336.369	101.62
336.597	88.62
336.825	91.62
337.053	87.62
337.281	83.62
337.51	107.62
337.738	91.62
337.966	82.62
338.194	92.62
338.422	87.62
338.65	87.62
338.878	93.62
339.106	75.62
339.334	91.62
339.562	83.62
339.79	79.62
340.018	96.62
340.246	80.62
340.474	84.62
340.702	80.62
340.93	87.62
341.158	78.62
341.386	98.62
341.614	83.62
341.842	71.62
342.07	79.62
342.298	77.62
342.526	80.62
342.754	83.62
342.981	74.62
343.209	85.62
343.437	82.62
343.665	81.62
343.893	80.62
344.12	89.62
344.348	79.62
344.576	85.62
344.804	87.62
345.031	94.62
345.259	95.62
345.487	91.62
345.714	96.62
345.942	84.62
346.17	85.62
346.397	97.62
346.625	76.62
346.853	84.62
347.08	89.62
347.308	94.62
347.535	86.62
347.763	90.62
347.99	95.62
348.218	91.62
348.445	102.62
348.673	79.62
348.9	87.62
349.128	79.62
349.355	89.62
349.583	84.62
349.81	78.62
350.037	93.62
350.265	76.62
350.492	90.62
350.72	88.62
350.947	86.62
351.174	92.62
351.402	79.62
351.629	80.62
351.856	83.62
352.083	94.62
352.311	82.62
352.538	106.62
352.765	82.62
352.992	86.62
353.22	77.62
353.447	80.62
353.674	99.62
353.901	91.62
354.128	69.62
354.355	88.62
354.583	90.62
354.81	101.62
355.037	87.62
355.264	95.62
355.491	101.62
355.718	83.62
355.945	79.62
356.172	99.62
356.399	77.62
356.626	86.62
356.853	91.62
357.08	88.62
357.307	85.62
357.534	85.62
357.761	82.62
357.988	93.62
358.215	89.62
358.441	85.62
358.668	86.62
358.895	82.62
359.122	89.62
359.349	89.62
359.576	88.62
359.802	77.62
360.029	97.62
360.256	69.62
360.483	79.62
360.709	87.62
360.936	97.62
361.163	87.62
361.39	109.62
361.616	84.62
361.843	74.62
362.07	94.62
362.296	86.62
362.523	88.62
362.749	94.62
362.976	97.62
363.203	90.62
363.429	105.62
363.656	93.62
363.882	86.62
364.109	77.62
364.335	93.62
364.562	85.62
364.788	81.62
365.015	93.62
365.241	89.62
365.468	78.62
365.694	99.62
365.92	94.62
366.147	99.62
366.373	87.62
366.599	90.62
366.826	85.62
367.052	78.62
367.278	88.62
367.505	97.62
367.731	93.62
367.957	91.62
368.184	101.62
368.41	82.62
368.636	83.62
368.862	85.62
369.089	94.62
369.315	103.62
369.541	103.62
369.767	82.62
369.993	90.62
370.219	97.62
370.445	89.62
370.672	103.62
370.898	91.62
371.124	90.62
371.35	100.62
371.576	98.62
371.802	102.62
372.028	105.62
372.254	98.62
372.48	107.62
372.706	84.62
372.932	84.62
373.158	91.62
373.384	93.62
373.61	85.62
373.835	90.62
374.061	103.62
374.287	92.62
374.513	105.62
374.739	101.62
374.965	90.62
375.191	108.62
375.416	100.62
375.642	89.62
375.868	115.62
376.094	93.62
376.319	99.62
376.545	86.62
376.771	98.62
376.997	99.62
377.222	102.62
377.448	99.62
377.674	95.62
377.899	100.62
378.125	95.62
378.35	97.62
378.576	100.62
378.802	109.62
379.027	103.62
379.253	89.62
379.478	83.62
379.704	98.62
379.929	91.62
380.155	110.62
380.38	92.62
380.606	88.62
380.831	106.62
381.057	90.62
381.282	86.62
381.507	101.62
381.733	86.62
381.958	89.62
382.184	99.62
382.409	106.62
382.634	89.62
382.86	107.62
383.085	102.62
383.31	106.62
383.535	100.62
383.761	98.62
383.986	96.62
384.211	100.62
384.436	103.62
384.662	102.62
384.887	105.62
385.112	94.62
385.337	95.62
385.562	117.62
385.787	98.62
386.013	126.62
386.238	110.62
386.463	93.62
386.688	115.62
386.913	106.62
387.138	89.62
387.363	94.62
387.588	105.62
387.813	104.62
388.038	101.62
388.263	108.62
388.488	105.62
388.713	101.62
388.938	108.62
389.163	99.62
389.387	123.62
389.612	109.62
389.837	95.62
390.062	98.62
390.287	105.62
390.512	105.62
390.736	111.62
390.961	88.62
391.186	99.62
391.411	105.62
391.636	124.62
391.86	92.62
392.085	105.62
392.31	116.62
392.534	115.62
392.759	106.62
392.984	111.62
393.208	117.62
393.433	106.62
393.658	108.62
393.882	116.62
394.107	109.62
394.331	98.62
394.556	100.62
394.78	103.62
395.005	123.62
395.229	123.62
395.454	125.62
395.678	114.62
395.903	114.62
396.127	128.62
396.352	102.62
396.576	113.62
396.801	102.62
397.025	119.62
397.249	118.62
397.474	106.62
397.698	120.62
397.922	95.62
398.147	130.62
398.371	131.62
398.595	119.62
398.82	114.62
399.044	123.62
399.268	123.62
399.492	122.62
399.717	107.62
399.941	121.62
400.165	115.62
400.389	102.62
400.613	117.62
400.837	107.62
401.062	117.62
401.286	118.62
401.51	116.62
401.734	110.62
401.958	123.62
402.182	137.62
402.406	117.62
402.63	121.62
402.854	114.62
403.078	110.62
403.302	129.62
403.526	127.62
403.75	123.62
403.974	113.62
404.198	131.62
404.422	105.62
404.645	107.62
404.869	114.62
405.093	120.62
405.317	116.62
405.541	135.62
405.765	130.62
405.988	128.62
406.212	121.62
406.436	111.62
406.66	127.62
406.883	129.62
407.107	125.62
407.331	122.62
407.555	121.62
407.778	119.62
408.002	128.62
408.226	125.62
408.449	129.62
408.673	134.62
408.896	125.62
409.12	113.62
409.344	134.62
409.567	129.62
409.791	144.62
410.014	129.62
410.238	125.62
410.461	129.62
410.685	132.62
410.908	133.62
411.132	131.62
411.355	124.62
411.578	123.62
411.802	121.62
412.025	122.62
412.249	119.62
412.472	118.62
412.695	125.62
412.919	126.62
413.142	119.62
413.365	137.62
413.589	117.62
413.812	137.62
414.035	129.62
414.258	138.62
414.482	131.62
414.705	140.62
414.928	128.62
415.151	137.62
415.374	123.62
415.597	127.62
415.821	139.62
416.044	130.62
416.267	135.62
416.49	136.62
416.713	124.62
416.936	140.62
417.159	124.62
417.382	115.62
417.605	139.62
417.828	139.62
418.051	129.62
418.274	146.62
418.497	142.62
418.72	149.62
418.943	136.62
419.166	142.62
419.389	150.62
419.611	136.62
419.834	144.62
420.057	134.62
420.28	138.62
420.503	133.62
420.726	130.62
420.948	128.62
421.171	138.62
421.394	144.62
421.617	140.62
421.839	140.62
422.062	145.62
422.285	129.62
422.507	130.62
422.73	140.62
422.953	131.62
423.175	126.62
423.398	134.62
423.621	158.62
423.843	145.62
424.066	150.62
424.288	133.62
424.511	152.62
424.733	147.62
424.956	138.62
425.178	154.62
425.401	151.62
425.623	138.62
425.846	147.62
426.068	133.62
426.291	140.62
426.513	149.62
426.735	145.62
426.958	122.62
427.18	135.62
427.402	128.62
427.625	131.62
427.847	146.62
428.069	126.62
428.292	128.62
428.514	122.62
428.736	134.62
428.958	121.62
429.181	139.62
429.403	129.62
429.625	149.62
429.847	131.62
430.069	151.62
430.292	139.62
430.514	117.62
430.736	130.62
430.958	144.62
431.18	135.62
431.402	125.62
431.624	108.62
431.846	105.62
432.068	115.62
432.29	99.62
432.512	110.62
432.734	133.62
432.956	143.62
433.178	150.62
433.4	157.62
433.622	149.62
433.844	141.62
434.066	139.62
434.287	142.62
434.509	106.62
434.731	101.62
434.953	115.62
435.175	134.62
435.397	133.62
435.618	113.62
435.84	122.62
436.062	119.62
436.284	125.62
436.505	137.62
436.727	142.62
436.949	134.62
437.17	126.62
437.392	142.62
437.614	130.62
437.835	113.62
438.057	129.62
438.278	122.62
438.5	134.62
438.721	138.62
438.943	148.62
439.165	141.62
439.386	150.62
439.608	149.62
439.829	148.62
440.05	148.62
440.272	140.62
440.493	159.62
440.715	155.62
440.936	165.62
441.158	141.62
441.379	153.62
441.6	157.62
441.822	173.62
442.043	165.62
442.264	150.62
442.486	151.62
442.707	163.62
442.928	158.62
443.149	159.62
443.371	151.62
443.592	138.62
443.813	155.62
444.034	145.62
444.255	138.62
444.476	143.62
444.698	165.62
444.919	141.62
445.14	260.62
445.361	226.62
445.582	135.62
445.803	167.62
446.024	157.62
446.245	165.62
446.466	167.62
446.687	160.62
446.908	173.62
447.129	161.62
447.35	165.62
447.571	163.62
447.792	161.62
448.013	163.62
448.234	162.62
448.455	136.62
448.675	142.62
448.896	146.62
449.117	136.62
449.338	154.62
449.559	153.62
449.779	144.62
450	153.62
450.221	146.62
450.442	143.62
450.662	134.62
450.883	135.62
451.104	132.62
451.324	125.62
451.545	136.62
451.766	128.62
451.986	130.62
452.207	134.62
452.428	138.62
452.648	129.62
452.869	126.62
453.089	136.62
453.31	109.62
453.53	118.62
453.751	106.62
453.971	114.62
454.192	116.62
454.412	122.62
454.633	121.62
454.853	115.62
455.073	138.62
455.294	121.62
455.514	134.62
455.734	131.62
455.955	126.62
456.175	108.62
456.395	126.62
456.616	109.62
456.836	116.62
457.056	106.62
457.276	95.62
457.497	118.62
457.717	114.62
457.937	122.62
458.157	123.62
458.377	120.62
458.598	98.62
458.818	87.62
459.038	88.62
459.258	79.62
459.478	86.62
459.698	86.62
459.918	99.62
460.138	99.62
460.358	123.62
460.578	131.62
460.798	122.62
461.018	133.62
461.238	124.62
461.458	122.62
461.678	122.62
461.898	115.62
462.118	110.62
462.338	119.62
462.558	115.62
462.777	111.62
462.997	107.62
463.217	94.62
463.437	118.62
463.657	115.62
463.876	107.62
464.096	119.62
464.316	114.62
464.536	120.62
464.755	117.62
464.975	113.62
465.195	145.62
465.414	120.62
465.634	126.62
465.854	126.62
466.073	131.62
466.293	117.62
466.512	138.62
466.732	136.62
466.951	145.62
467.171	138.62
467.391	143.62
467.61	142.62
467.829	142.62
468.049	142.62
468.268	145.62
468.488	140.62
468.707	151.62
468.927	147.62
469.146	152.62
469.365	155.62
469.585	157.62
469.804	159.62
470.023	156.62
470.243	154.62
470.462	137.62
470.681	169.62
470.901	149.62
471.12	137.62
471.339	153.62
471.558	154.62
471.777	169.62
471.997	153.62
472.216	125.62
472.435	127.62
472.654	118.62
472.873	109.62
473.092	125.62
473.311	130.62
473.53	141.62
473.749	131.62
473.968	133.62
474.187	121.62
474.406	130.62
474.625	130.62
474.844	148.62
475.063	133.62
475.282	136.62
475.501	117.62
475.72	133.62
475.939	127.62
476.158	132.62
476.377	141.62
476.596	128.62
476.814	129.62
477.033	121.62
477.252	114.62
477.471	129.62
477.69	138.62
477.908	152.62
478.127	165.62
478.346	128.62
478.564	144.62
478.783	135.62
479.002	149.62
479.22	149.62
479.439	135.62
479.658	124.62
479.876	119.62
480.095	124.62
480.313	140.62
480.532	123.62
480.751	119.62
480.969	92.62
481.188	95.62
481.406	85.62
481.624	96.62
481.843	93.62
482.061	101.62
482.28	129.62
482.498	130.62
482.717	119.62
482.935	115.62
483.153	154.62
483.372	175.62
483.59	161.62
483.808	144.62
484.027	150.62
484.245	136.62
484.463	153.62
484.681	174.62
484.9	161.62
485.118	135.62
485.336	141.62
485.554	121.62
485.772	101.62
485.99	105.62
486.209	126.62
486.427	119.62
486.645	122.62
486.863	149.62
487.081	158.62
487.299	134.62
487.517	165.62
487.735	171.62
487.953	194.62
488.171	202.62
488.389	195.62
488.607	179.62
488.825	162.62
489.043	141.62
489.261	167.62
489.479	158.62
489.696	164.62
489.914	144.62
490.132	151.62
490.35	160.62
490.568	169.62
490.786	182.62
491.003	177.62
491.221	182.62
491.439	195.62
491.657	211.62
491.874	219.62
492.092	237.62
492.31	259.62
492.527	244.62
492.745	202.62
492.963	200.62
493.18	197.62
493.398	198.62
493.615	200.62
493.833	190.62
494.05	176.62
494.268	183.62
494.485	190.62
494.703	191.62
494.92	172.62
495.138	177.62
495.355	191.62
495.573	194.62
495.79	168.62
496.008	178.62
496.225	207.62
496.442	180.62
496.66	180.62
496.877	178.62
497.094	193.62
497.312	176.62
497.529	171.62
497.746	177.62
497.963	151.62
498.181	142.62
498.398	135.62
498.615	122.62
498.832	115.62
499.049	111.62
499.267	125.62
499.484	133.62
499.701	138.62
499.918	147.62
500.135	148.62
500.352	143.62
500.569	141.62
500.786	169.62
501.003	146.62
501.22	159.62
501.437	145.62
501.654	147.62
501.871	142.62
502.088	138.62
502.305	134.62
502.522	128.62
502.739	132.62
502.956	135.62
503.172	134.62
503.389	138.62
503.606	115.62
503.823	129.62
504.04	137.62
504.256	120.62
504.473	123.62
504.69	127.62
504.907	141.62
505.123	122.62
505.34	114.62
505.557	122.62
505.773	144.62
505.99	126.62
506.207	125.62
506.423	131.62
506.64	139.62
506.856	118.62
507.073	117.62
507.289	125.62
507.506	131.62
507.722	117.62
507.939	133.62
508.155	123.62
508.372	123.62
508.588	120.62
508.805	113.62
509.021	114.62
509.238	114.62
509.454	105.62
509.67	105.62
509.887	103.62
510.103	113.62
510.319	114.62
510.536	88.62
510.752	95.62
510.968	87.62
511.184	90.62
