Data from Location6.07152019.Energy5.Lamp.07192019.3%Agarose_HRD10591_16-12-45-395.txt Node
Date: Fri Jul 19 16:12:45 EDT 2019
User: cochatt
Spectrometer: HR+D1059
Trigger mode: 1
Integration Time (sec): 1.000000E-1
Scans to average: 1
Electric dark correction enabled: true
Nonlinearity correction enabled: false
Boxcar width: 0
XAxis mode: Wavelengths
Number of Pixels in Spectrum: 2048
>>>>>Begin Spectral Data<<<<<
223.165	-13.75
223.4	-13.75
223.635	-13.75
223.869	-11.75
224.104	-19.75
224.338	-16.75
224.573	-13.75
224.808	-16.75
225.042	-6.75
225.277	1.25
225.511	-0.75
225.746	-2.75
225.98	19.25
226.215	18.25
226.449	8.25
226.683	6.25
226.918	26.25
227.152	23.25
227.387	50.25
227.621	32.25
227.856	42.25
228.09	52.25
228.324	40.25
228.559	55.25
228.793	50.25
229.027	58.25
229.262	66.25
229.496	58.25
229.73	75.25
229.964	81.25
230.199	74.25
230.433	81.25
230.667	67.25
230.901	73.25
231.136	89.25
231.37	96.25
231.604	66.25
231.838	76.25
232.072	76.25
232.306	79.25
232.541	89.25
232.775	93.25
233.009	93.25
233.243	80.25
233.477	88.25
233.711	78.25
233.945	92.25
234.179	81.25
234.413	76.25
234.647	89.25
234.881	81.25
235.115	79.25
235.349	77.25
235.583	82.25
235.817	90.25
236.051	76.25
236.285	75.25
236.519	91.25
236.753	78.25
236.987	71.25
237.221	87.25
237.455	77.25
237.689	80.25
237.922	84.25
238.156	88.25
238.39	82.25
238.624	70.25
238.858	77.25
239.091	85.25
239.325	72.25
239.559	77.25
239.793	73.25
240.027	73.25
240.26	78.25
240.494	77.25
240.728	79.25
240.961	85.25
241.195	80.25
241.429	62.25
241.662	76.25
241.896	66.25
242.13	80.25
242.363	91.25
242.597	61.25
242.83	75.25
243.064	84.25
243.298	73.25
243.531	78.25
243.765	60.25
243.998	72.25
244.232	67.25
244.465	74.25
244.699	79.25
244.932	77.25
245.166	85.25
245.399	76.25
245.633	80.25
245.866	72.25
246.099	74.25
246.333	76.25
246.566	66.25
246.8	63.25
247.033	62.25
247.266	71.25
247.5	89.25
247.733	90.25
247.966	81.25
248.2	77.25
248.433	87.25
248.666	77.25
248.899	84.25
249.133	73.25
249.366	70.25
249.599	73.25
249.832	77.25
250.066	86.25
250.299	89.25
250.532	85.25
250.765	82.25
250.998	68.25
251.231	83.25
251.465	80.25
251.698	101.25
251.931	89.25
252.164	81.25
252.397	96.25
252.63	82.25
252.863	88.25
253.096	78.25
253.329	88.25
253.562	69.25
253.795	83.25
254.028	58.25
254.261	76.25
254.494	82.25
254.727	90.25
254.96	91.25
255.193	97.25
255.426	76.25
255.659	76.25
255.892	65.25
256.124	55.25
256.357	80.25
256.59	82.25
256.823	87.25
257.056	81.25
257.289	67.25
257.521	87.25
257.754	94.25
257.987	82.25
258.22	74.25
258.452	92.25
258.685	79.25
258.918	72.25
259.151	78.25
259.383	86.25
259.616	88.25
259.849	72.25
260.081	86.25
260.314	93.25
260.547	76.25
260.779	84.25
261.012	83.25
261.244	80.25
261.477	68.25
261.71	78.25
261.942	87.25
262.175	82.25
262.407	90.25
262.64	79.25
262.872	74.25
263.105	79.25
263.337	80.25
263.57	73.25
263.802	80.25
264.035	81.25
264.267	79.25
264.499	85.25
264.732	78.25
264.964	71.25
265.197	93.25
265.429	76.25
265.661	87.25
265.894	76.25
266.126	84.25
266.358	81.25
266.591	81.25
266.823	88.25
267.055	93.25
267.287	90.25
267.52	66.25
267.752	83.25
267.984	90.25
268.216	70.25
268.448	82.25
268.681	92.25
268.913	92.25
269.145	67.25
269.377	79.25
269.609	73.25
269.841	80.25
270.073	79.25
270.306	77.25
270.538	81.25
270.77	81.25
271.002	74.25
271.234	84.25
271.466	95.25
271.698	95.25
271.93	82.25
272.162	90.25
272.394	86.25
272.626	80.25
272.858	87.25
273.09	78.25
273.322	76.25
273.553	99.25
273.785	72.25
274.017	83.25
274.249	75.25
274.481	97.25
274.713	96.25
274.945	86.25
275.176	78.25
275.408	74.25
275.64	83.25
275.872	85.25
276.104	86.25
276.335	99.25
276.567	72.25
276.799	67.25
277.031	82.25
277.262	99.25
277.494	89.25
277.726	80.25
277.957	91.25
278.189	88.25
278.421	76.25
278.652	70.25
278.884	74.25
279.115	88.25
279.347	94.25
279.579	89.25
279.81	100.25
280.042	83.25
280.273	84.25
280.505	93.25
280.736	80.25
280.968	75.25
281.199	93.25
281.431	80.25
281.662	93.25
281.894	75.25
282.125	85.25
282.356	86.25
282.588	90.25
282.819	87.25
283.051	90.25
283.282	90.25
283.513	90.25
283.745	82.25
283.976	83.25
284.207	78.25
284.439	90.25
284.67	86.25
284.901	83.25
285.132	85.25
285.364	87.25
285.595	85.25
285.826	93.25
286.057	86.25
286.288	84.25
286.52	88.25
286.751	92.25
286.982	81.25
287.213	93.25
287.444	74.25
287.675	81.25
287.906	88.25
288.138	79.25
288.369	83.25
288.6	92.25
288.831	91.25
289.062	88.25
289.293	83.25
289.524	82.25
289.755	78.25
289.986	88.25
290.217	88.25
290.448	87.25
290.679	91.25
290.91	76.25
291.141	96.25
291.371	76.25
291.602	84.25
291.833	94.25
292.064	77.25
292.295	95.25
292.526	84.25
292.757	72.25
292.987	88.25
293.218	90.25
293.449	82.25
293.68	86.25
293.91	86.25
294.141	81.25
294.372	86.25
294.603	94.25
294.833	88.25
295.064	88.25
295.295	83.25
295.525	88.25
295.756	87.25
295.987	85.25
296.217	86.25
296.448	76.25
296.679	79.25
296.909	73.25
297.14	84.25
297.37	73.25
297.601	94.25
297.831	92.25
298.062	75.25
298.292	78.25
298.523	89.25
298.753	80.25
298.984	66.25
299.214	88.25
299.445	82.25
299.675	89.25
299.905	85.25
300.136	84.25
300.366	87.25
300.597	91.25
300.827	85.25
301.057	88.25
301.288	96.25
301.518	100.25
301.748	97.25
301.979	75.25
302.209	84.25
302.439	78.25
302.669	87.25
302.9	78.25
303.13	85.25
303.36	90.25
303.59	91.25
303.82	78.25
304.051	75.25
304.281	85.25
304.511	83.25
304.741	71.25
304.971	76.25
305.201	83.25
305.431	74.25
305.661	86.25
305.891	91.25
306.121	77.25
306.352	74.25
306.582	84.25
306.812	88.25
307.042	80.25
307.272	98.25
307.502	93.25
307.731	93.25
307.961	76.25
308.191	75.25
308.421	85.25
308.651	68.25
308.881	93.25
309.111	80.25
309.341	86.25
309.571	79.25
309.8	94.25
310.03	96.25
310.26	100.25
310.49	85.25
310.72	90.25
310.949	84.25
311.179	86.25
311.409	83.25
311.639	83.25
311.868	71.25
312.098	88.25
312.328	101.25
312.557	87.25
312.787	87.25
313.017	95.25
313.246	69.25
313.476	82.25
313.706	99.25
313.935	92.25
314.165	80.25
314.394	86.25
314.624	97.25
314.853	95.25
315.083	72.25
315.312	81.25
315.542	84.25
315.771	88.25
316.001	86.25
316.23	89.25
316.46	97.25
316.689	95.25
316.919	89.25
317.148	93.25
317.377	73.25
317.607	99.25
317.836	90.25
318.065	79.25
318.295	89.25
318.524	87.25
318.753	91.25
318.983	91.25
319.212	95.25
319.441	78.25
319.67	81.25
319.9	63.25
320.129	73.25
320.358	82.25
320.587	96.25
320.816	83.25
321.046	82.25
321.275	83.25
321.504	98.25
321.733	99.25
321.962	87.25
322.191	102.25
322.42	94.25
322.649	83.25
322.878	84.25
323.108	91.25
323.337	92.25
323.566	78.25
323.795	79.25
324.024	86.25
324.253	73.25
324.482	96.25
324.71	110.25
324.939	106.25
325.168	89.25
325.397	95.25
325.626	69.25
325.855	89.25
326.084	84.25
326.313	76.25
326.542	74.25
326.77	90.25
326.999	71.25
327.228	103.25
327.457	88.25
327.686	80.25
327.914	87.25
328.143	93.25
328.372	98.25
328.6	90.25
328.829	88.25
329.058	72.25
329.287	79.25
329.515	81.25
329.744	96.25
329.972	82.25
330.201	71.25
330.43	79.25
330.658	84.25
330.887	100.25
331.115	74.25
331.344	78.25
331.572	88.25
331.801	94.25
332.03	83.25
332.258	85.25
332.486	90.25
332.715	92.25
332.943	94.25
333.172	93.25
333.4	81.25
333.629	92.25
333.857	74.25
334.085	77.25
334.314	89.25
334.542	83.25
334.771	84.25
334.999	82.25
335.227	102.25
335.455	83.25
335.684	83.25
335.912	81.25
336.14	87.25
336.369	83.25
336.597	95.25
336.825	99.25
337.053	82.25
337.281	93.25
337.51	96.25
337.738	89.25
337.966	86.25
338.194	98.25
338.422	83.25
338.65	81.25
338.878	94.25
339.106	98.25
339.334	84.25
339.562	85.25
339.79	85.25
340.018	70.25
340.246	83.25
340.474	84.25
340.702	81.25
340.93	84.25
341.158	91.25
341.386	90.25
341.614	77.25
341.842	75.25
342.07	84.25
342.298	84.25
342.526	81.25
342.754	79.25
342.981	104.25
343.209	72.25
343.437	91.25
343.665	90.25
343.893	84.25
344.12	88.25
344.348	101.25
344.576	78.25
344.804	62.25
345.031	78.25
345.259	89.25
345.487	84.25
345.714	90.25
345.942	69.25
346.17	80.25
346.397	78.25
346.625	84.25
346.853	89.25
347.08	88.25
347.308	86.25
347.535	79.25
347.763	81.25
347.99	93.25
348.218	100.25
348.445	78.25
348.673	81.25
348.9	88.25
349.128	91.25
349.355	84.25
349.583	92.25
349.81	75.25
350.037	81.25
350.265	77.25
350.492	92.25
350.72	76.25
350.947	83.25
351.174	84.25
351.402	89.25
351.629	82.25
351.856	72.25
352.083	78.25
352.311	86.25
352.538	99.25
352.765	86.25
352.992	89.25
353.22	89.25
353.447	86.25
353.674	70.25
353.901	69.25
354.128	85.25
354.355	70.25
354.583	82.25
354.81	104.25
355.037	88.25
355.264	82.25
355.491	97.25
355.718	99.25
355.945	89.25
356.172	93.25
356.399	92.25
356.626	75.25
356.853	89.25
357.08	81.25
357.307	82.25
357.534	82.25
357.761	77.25
357.988	75.25
358.215	87.25
358.441	66.25
358.668	78.25
358.895	84.25
359.122	85.25
359.349	73.25
359.576	94.25
359.802	93.25
360.029	98.25
360.256	86.25
360.483	79.25
360.709	90.25
360.936	76.25
361.163	83.25
361.39	83.25
361.616	85.25
361.843	90.25
362.07	82.25
362.296	96.25
362.523	83.25
362.749	98.25
362.976	95.25
363.203	97.25
363.429	79.25
363.656	80.25
363.882	87.25
364.109	76.25
364.335	76.25
364.562	96.25
364.788	97.25
365.015	85.25
365.241	99.25
365.468	95.25
365.694	83.25
365.92	99.25
366.147	83.25
366.373	80.25
366.599	76.25
366.826	80.25
367.052	87.25
367.278	94.25
367.505	82.25
367.731	95.25
367.957	94.25
368.184	78.25
368.41	89.25
368.636	88.25
368.862	85.25
369.089	102.25
369.315	98.25
369.541	76.25
369.767	93.25
369.993	94.25
370.219	105.25
370.445	93.25
370.672	88.25
370.898	92.25
371.124	93.25
371.35	97.25
371.576	107.25
371.802	100.25
372.028	90.25
372.254	103.25
372.48	93.25
372.706	92.25
372.932	94.25
373.158	96.25
373.384	87.25
373.61	105.25
373.835	85.25
374.061	91.25
374.287	94.25
374.513	97.25
374.739	93.25
374.965	107.25
375.191	98.25
375.416	93.25
375.642	95.25
375.868	92.25
376.094	78.25
376.319	78.25
376.545	107.25
376.771	94.25
376.997	93.25
377.222	91.25
377.448	80.25
377.674	112.25
377.899	82.25
378.125	103.25
378.35	103.25
378.576	91.25
378.802	87.25
379.027	87.25
379.253	115.25
379.478	92.25
379.704	96.25
379.929	87.25
380.155	95.25
380.38	81.25
380.606	104.25
380.831	91.25
381.057	90.25
381.282	104.25
381.507	98.25
381.733	98.25
381.958	96.25
382.184	107.25
382.409	98.25
382.634	104.25
382.86	94.25
383.085	99.25
383.31	109.25
383.535	114.25
383.761	95.25
383.986	105.25
384.211	115.25
384.436	83.25
384.662	84.25
384.887	95.25
385.112	92.25
385.337	95.25
385.562	109.25
385.787	119.25
386.013	103.25
386.238	89.25
386.463	108.25
386.688	107.25
386.913	98.25
387.138	102.25
387.363	97.25
387.588	105.25
387.813	103.25
388.038	112.25
388.263	106.25
388.488	104.25
388.713	113.25
388.938	101.25
389.163	105.25
389.387	106.25
389.612	114.25
389.837	113.25
390.062	112.25
390.287	129.25
390.512	118.25
390.736	103.25
390.961	112.25
391.186	120.25
391.411	99.25
391.636	95.25
391.86	100.25
392.085	120.25
392.31	101.25
392.534	99.25
392.759	95.25
392.984	110.25
393.208	117.25
393.433	97.25
393.658	111.25
393.882	120.25
394.107	114.25
394.331	112.25
394.556	107.25
394.78	122.25
395.005	111.25
395.229	101.25
395.454	122.25
395.678	95.25
395.903	107.25
396.127	104.25
396.352	120.25
396.576	108.25
396.801	105.25
397.025	121.25
397.249	119.25
397.474	120.25
397.698	121.25
397.922	107.25
398.147	107.25
398.371	105.25
398.595	104.25
398.82	119.25
399.044	132.25
399.268	113.25
399.492	131.25
399.717	114.25
399.941	104.25
400.165	108.25
400.389	114.25
400.613	105.25
400.837	118.25
401.062	104.25
401.286	116.25
401.51	110.25
401.734	116.25
401.958	115.25
402.182	117.25
402.406	123.25
402.63	116.25
402.854	108.25
403.078	126.25
403.302	116.25
403.526	122.25
403.75	139.25
403.974	126.25
404.198	129.25
404.422	138.25
404.645	144.25
404.869	127.25
405.093	115.25
405.317	125.25
405.541	126.25
405.765	129.25
405.988	128.25
406.212	125.25
406.436	128.25
406.66	118.25
406.883	120.25
407.107	134.25
407.331	127.25
407.555	118.25
407.778	117.25
408.002	124.25
408.226	129.25
408.449	109.25
408.673	115.25
408.896	119.25
409.12	124.25
409.344	112.25
409.567	128.25
409.791	128.25
410.014	130.25
410.238	122.25
410.461	140.25
410.685	134.25
410.908	126.25
411.132	123.25
411.355	115.25
411.578	122.25
411.802	116.25
412.025	113.25
412.249	125.25
412.472	116.25
412.695	119.25
412.919	131.25
413.142	132.25
413.365	134.25
413.589	134.25
413.812	129.25
414.035	130.25
414.258	129.25
414.482	137.25
414.705	126.25
414.928	130.25
415.151	135.25
415.374	135.25
415.597	136.25
415.821	129.25
416.044	132.25
416.267	121.25
416.49	143.25
416.713	126.25
416.936	126.25
417.159	138.25
417.382	128.25
417.605	127.25
417.828	124.25
418.051	146.25
418.274	134.25
418.497	124.25
418.72	141.25
418.943	152.25
419.166	146.25
419.389	128.25
419.611	144.25
419.834	137.25
420.057	126.25
420.28	147.25
420.503	140.25
420.726	139.25
420.948	150.25
421.171	148.25
421.394	148.25
421.617	157.25
421.839	168.25
422.062	145.25
422.285	126.25
422.507	129.25
422.73	142.25
422.953	119.25
423.175	146.25
423.398	128.25
423.621	124.25
423.843	126.25
424.066	149.25
424.288	167.25
424.511	152.25
424.733	139.25
424.956	147.25
425.178	124.25
425.401	130.25
425.623	158.25
425.846	149.25
426.068	134.25
426.291	128.25
426.513	134.25
426.735	138.25
426.958	117.25
427.18	145.25
427.402	143.25
427.625	132.25
427.847	154.25
428.069	146.25
428.292	135.25
428.514	142.25
428.736	131.25
428.958	129.25
429.181	149.25
429.403	132.25
429.625	157.25
429.847	140.25
430.069	131.25
430.292	146.25
430.514	136.25
430.736	126.25
430.958	132.25
431.18	128.25
431.402	135.25
431.624	129.25
431.846	115.25
432.068	110.25
432.29	111.25
432.512	112.25
432.734	114.25
432.956	139.25
433.178	141.25
433.4	148.25
433.622	142.25
433.844	150.25
434.066	117.25
434.287	107.25
434.509	96.25
434.731	114.25
434.953	116.25
435.175	114.25
435.397	125.25
435.618	124.25
435.84	109.25
436.062	126.25
436.284	125.25
436.505	138.25
436.727	138.25
436.949	151.25
437.17	154.25
437.392	138.25
437.614	123.25
437.835	112.25
438.057	109.25
438.278	116.25
438.5	130.25
438.721	122.25
438.943	134.25
439.165	132.25
439.386	150.25
439.608	147.25
439.829	137.25
440.05	152.25
440.272	136.25
440.493	136.25
440.715	148.25
440.936	134.25
441.158	172.25
441.379	148.25
441.6	161.25
441.822	168.25
442.043	153.25
442.264	144.25
442.486	141.25
442.707	139.25
442.928	143.25
443.149	133.25
443.371	161.25
443.592	155.25
443.813	150.25
444.034	155.25
444.255	150.25
444.476	136.25
444.698	144.25
444.919	167.25
445.14	265.25
445.361	200.25
445.582	153.25
445.803	174.25
446.024	148.25
446.245	156.25
446.466	166.25
446.687	155.25
446.908	178.25
447.129	164.25
447.35	176.25
447.571	152.25
447.792	148.25
448.013	148.25
448.234	153.25
448.455	144.25
448.675	139.25
448.896	156.25
449.117	131.25
449.338	141.25
449.559	147.25
449.779	160.25
450	156.25
450.221	140.25
450.442	132.25
450.662	147.25
450.883	128.25
451.104	139.25
451.324	154.25
451.545	129.25
451.766	132.25
451.986	142.25
452.207	147.25
452.428	141.25
452.648	138.25
452.869	109.25
453.089	112.25
453.31	106.25
453.53	124.25
453.751	109.25
453.971	118.25
454.192	105.25
454.412	110.25
454.633	125.25
454.853	132.25
455.073	124.25
455.294	123.25
455.514	137.25
455.734	139.25
455.955	130.25
456.175	120.25
456.395	121.25
456.616	128.25
456.836	116.25
457.056	122.25
457.276	108.25
457.497	112.25
457.717	108.25
457.937	98.25
458.157	99.25
458.377	122.25
458.598	113.25
458.818	99.25
459.038	90.25
459.258	100.25
459.478	92.25
459.698	99.25
459.918	100.25
460.138	109.25
460.358	121.25
460.578	118.25
460.798	114.25
461.018	113.25
461.238	118.25
461.458	121.25
461.678	118.25
461.898	126.25
462.118	131.25
462.338	115.25
462.558	125.25
462.777	125.25
462.997	125.25
463.217	109.25
463.437	112.25
463.657	122.25
463.876	117.25
464.096	104.25
464.316	92.25
464.536	116.25
464.755	126.25
464.975	118.25
465.195	114.25
465.414	121.25
465.634	133.25
465.854	123.25
466.073	124.25
466.293	125.25
466.512	137.25
466.732	142.25
466.951	137.25
467.171	158.25
467.391	139.25
467.61	142.25
467.829	136.25
468.049	143.25
468.268	150.25
468.488	147.25
468.707	152.25
468.927	138.25
469.146	150.25
469.365	143.25
469.585	157.25
469.804	136.25
470.023	137.25
470.243	161.25
470.462	157.25
470.681	142.25
470.901	143.25
471.12	154.25
471.339	148.25
471.558	152.25
471.777	152.25
471.997	149.25
472.216	148.25
472.435	131.25
472.654	120.25
472.873	141.25
473.092	116.25
473.311	128.25
473.53	132.25
473.749	148.25
473.968	146.25
474.187	141.25
474.406	131.25
474.625	128.25
474.844	132.25
475.063	133.25
475.282	131.25
475.501	125.25
475.72	122.25
475.939	117.25
476.158	144.25
476.377	140.25
476.596	127.25
476.814	134.25
477.033	104.25
477.252	117.25
477.471	139.25
477.69	137.25
477.908	146.25
478.127	142.25
478.346	149.25
478.564	145.25
478.783	133.25
479.002	153.25
479.22	137.25
479.439	140.25
479.658	134.25
479.876	117.25
480.095	112.25
480.313	128.25
480.532	124.25
480.751	103.25
480.969	90.25
481.188	85.25
481.406	98.25
481.624	87.25
481.843	87.25
482.061	103.25
482.28	125.25
482.498	116.25
482.717	117.25
482.935	133.25
483.153	134.25
483.372	157.25
483.59	158.25
483.808	146.25
484.027	129.25
484.245	147.25
484.463	154.25
484.681	180.25
484.9	166.25
485.118	155.25
485.336	130.25
485.554	118.25
485.772	112.25
485.99	96.25
486.209	103.25
486.427	122.25
486.645	124.25
486.863	125.25
487.081	141.25
487.299	139.25
487.517	149.25
487.735	178.25
487.953	200.25
488.171	184.25
488.389	184.25
488.607	169.25
488.825	157.25
489.043	148.25
489.261	136.25
489.479	132.25
489.696	136.25
489.914	154.25
490.132	130.25
490.35	152.25
490.568	164.25
490.786	177.25
491.003	194.25
491.221	179.25
491.439	190.25
491.657	195.25
491.874	207.25
492.092	244.25
492.31	260.25
492.527	238.25
492.745	206.25
492.963	201.25
493.18	202.25
493.398	198.25
493.615	192.25
493.833	180.25
494.05	188.25
494.268	180.25
494.485	184.25
494.703	178.25
494.92	191.25
495.138	187.25
495.355	184.25
495.573	196.25
495.79	176.25
496.008	189.25
496.225	175.25
496.442	172.25
496.66	177.25
496.877	164.25
497.094	182.25
497.312	167.25
497.529	161.25
497.746	180.25
497.963	150.25
498.181	130.25
498.398	136.25
498.615	124.25
498.832	125.25
499.049	119.25
499.267	129.25
499.484	144.25
499.701	149.25
499.918	127.25
500.135	148.25
500.352	155.25
500.569	153.25
500.786	149.25
501.003	124.25
501.22	142.25
501.437	149.25
501.654	148.25
501.871	148.25
502.088	136.25
502.305	129.25
502.522	126.25
502.739	140.25
502.956	125.25
503.172	133.25
503.389	120.25
503.606	128.25
503.823	121.25
504.04	144.25
504.256	126.25
504.473	114.25
504.69	114.25
504.907	131.25
505.123	130.25
505.34	127.25
505.557	126.25
505.773	140.25
505.99	134.25
506.207	134.25
506.423	123.25
506.64	126.25
506.856	128.25
507.073	122.25
507.289	142.25
507.506	109.25
507.722	133.25
507.939	132.25
508.155	118.25
508.372	125.25
508.588	125.25
508.805	109.25
509.021	115.25
509.238	122.25
509.454	107.25
509.67	107.25
509.887	90.25
510.103	100.25
510.319	107.25
510.536	92.25
510.752	93.25
510.968	88.25
511.184	79.25
