Data from Location6.07152019.Energy5.Lamp.07192019.3%Agarose_HRD10591_16-10-51-393.txt Node
Date: Fri Jul 19 16:10:51 EDT 2019
User: cochatt
Spectrometer: HR+D1059
Trigger mode: 1
Integration Time (sec): 1.000000E-1
Scans to average: 1
Electric dark correction enabled: true
Nonlinearity correction enabled: false
Boxcar width: 0
XAxis mode: Wavelengths
Number of Pixels in Spectrum: 2048
>>>>>Begin Spectral Data<<<<<
223.165	-16.69
223.4	-16.69
223.635	-16.69
223.869	-21.69
224.104	-6.69
224.338	-17.69
224.573	-7.69
224.808	-11.69
225.042	-13.69
225.277	-16.69
225.511	0.31
225.746	-1.69
225.98	14.31
226.215	14.31
226.449	25.31
226.683	16.31
226.918	19.31
227.152	24.31
227.387	29.31
227.621	41.31
227.856	29.31
228.09	39.31
228.324	53.31
228.559	66.31
228.793	65.31
229.027	52.31
229.262	60.31
229.496	68.31
229.73	64.31
229.964	59.31
230.199	67.31
230.433	68.31
230.667	78.31
230.901	85.31
231.136	76.31
231.37	81.31
231.604	86.31
231.838	77.31
232.072	73.31
232.306	79.31
232.541	67.31
232.775	87.31
233.009	79.31
233.243	78.31
233.477	86.31
233.711	100.31
233.945	70.31
234.179	82.31
234.413	89.31
234.647	69.31
234.881	67.31
235.115	78.31
235.349	83.31
235.583	84.31
235.817	81.31
236.051	80.31
236.285	73.31
236.519	75.31
236.753	72.31
236.987	83.31
237.221	74.31
237.455	73.31
237.689	64.31
237.922	81.31
238.156	67.31
238.39	68.31
238.624	65.31
238.858	69.31
239.091	83.31
239.325	65.31
239.559	69.31
239.793	67.31
240.027	68.31
240.26	77.31
240.494	83.31
240.728	81.31
240.961	58.31
241.195	73.31
241.429	73.31
241.662	75.31
241.896	56.31
242.13	73.31
242.363	72.31
242.597	75.31
242.83	75.31
243.064	81.31
243.298	74.31
243.531	74.31
243.765	71.31
243.998	82.31
244.232	77.31
244.465	64.31
244.699	71.31
244.932	66.31
245.166	61.31
245.399	73.31
245.633	63.31
245.866	80.31
246.099	86.31
246.333	71.31
246.566	72.31
246.8	74.31
247.033	73.31
247.266	90.31
247.5	94.31
247.733	87.31
247.966	74.31
248.2	79.31
248.433	84.31
248.666	78.31
248.899	94.31
249.133	102.31
249.366	73.31
249.599	71.31
249.832	79.31
250.066	87.31
250.299	69.31
250.532	80.31
250.765	55.31
250.998	79.31
251.231	87.31
251.465	63.31
251.698	74.31
251.931	61.31
252.164	81.31
252.397	93.31
252.63	88.31
252.863	82.31
253.096	82.31
253.329	81.31
253.562	72.31
253.795	79.31
254.028	79.31
254.261	78.31
254.494	71.31
254.727	62.31
254.96	72.31
255.193	81.31
255.426	65.31
255.659	89.31
255.892	80.31
256.124	94.31
256.357	88.31
256.59	91.31
256.823	95.31
257.056	74.31
257.289	83.31
257.521	81.31
257.754	69.31
257.987	67.31
258.22	78.31
258.452	91.31
258.685	63.31
258.918	75.31
259.151	70.31
259.383	88.31
259.616	87.31
259.849	82.31
260.081	87.31
260.314	78.31
260.547	77.31
260.779	77.31
261.012	68.31
261.244	78.31
261.477	77.31
261.71	83.31
261.942	83.31
262.175	82.31
262.407	74.31
262.64	71.31
262.872	83.31
263.105	86.31
263.337	81.31
263.57	72.31
263.802	81.31
264.035	78.31
264.267	92.31
264.499	88.31
264.732	81.31
264.964	83.31
265.197	92.31
265.429	75.31
265.661	74.31
265.894	65.31
266.126	79.31
266.358	75.31
266.591	79.31
266.823	62.31
267.055	81.31
267.287	81.31
267.52	78.31
267.752	87.31
267.984	73.31
268.216	89.31
268.448	90.31
268.681	81.31
268.913	82.31
269.145	99.31
269.377	94.31
269.609	74.31
269.841	89.31
270.073	74.31
270.306	90.31
270.538	85.31
270.77	75.31
271.002	73.31
271.234	96.31
271.466	95.31
271.698	97.31
271.93	89.31
272.162	83.31
272.394	81.31
272.626	79.31
272.858	93.31
273.09	88.31
273.322	89.31
273.553	72.31
273.785	93.31
274.017	94.31
274.249	94.31
274.481	70.31
274.713	77.31
274.945	81.31
275.176	81.31
275.408	72.31
275.64	90.31
275.872	79.31
276.104	76.31
276.335	89.31
276.567	77.31
276.799	81.31
277.031	78.31
277.262	73.31
277.494	84.31
277.726	82.31
277.957	95.31
278.189	71.31
278.421	81.31
278.652	91.31
278.884	91.31
279.115	101.31
279.347	83.31
279.579	89.31
279.81	86.31
280.042	84.31
280.273	90.31
280.505	88.31
280.736	65.31
280.968	78.31
281.199	83.31
281.431	70.31
281.662	86.31
281.894	88.31
282.125	80.31
282.356	89.31
282.588	83.31
282.819	87.31
283.051	85.31
283.282	69.31
283.513	79.31
283.745	85.31
283.976	93.31
284.207	69.31
284.439	80.31
284.67	90.31
284.901	80.31
285.132	97.31
285.364	74.31
285.595	71.31
285.826	89.31
286.057	70.31
286.288	93.31
286.52	83.31
286.751	74.31
286.982	84.31
287.213	78.31
287.444	92.31
287.675	86.31
287.906	75.31
288.138	72.31
288.369	89.31
288.6	83.31
288.831	87.31
289.062	77.31
289.293	76.31
289.524	84.31
289.755	84.31
289.986	87.31
290.217	91.31
290.448	72.31
290.679	73.31
290.91	83.31
291.141	86.31
291.371	89.31
291.602	93.31
291.833	83.31
292.064	68.31
292.295	76.31
292.526	84.31
292.757	86.31
292.987	81.31
293.218	68.31
293.449	67.31
293.68	90.31
293.91	93.31
294.141	88.31
294.372	78.31
294.603	75.31
294.833	80.31
295.064	93.31
295.295	77.31
295.525	89.31
295.756	101.31
295.987	75.31
296.217	72.31
296.448	79.31
296.679	75.31
296.909	88.31
297.14	85.31
297.37	79.31
297.601	88.31
297.831	75.31
298.062	90.31
298.292	93.31
298.523	81.31
298.753	74.31
298.984	90.31
299.214	70.31
299.445	86.31
299.675	80.31
299.905	75.31
300.136	81.31
300.366	79.31
300.597	81.31
300.827	93.31
301.057	85.31
301.288	71.31
301.518	87.31
301.748	93.31
301.979	82.31
302.209	82.31
302.439	84.31
302.669	74.31
302.9	78.31
303.13	74.31
303.36	70.31
303.59	88.31
303.82	87.31
304.051	83.31
304.281	81.31
304.511	88.31
304.741	89.31
304.971	109.31
305.201	89.31
305.431	89.31
305.661	72.31
305.891	75.31
306.121	82.31
306.352	85.31
306.582	76.31
306.812	85.31
307.042	86.31
307.272	87.31
307.502	88.31
307.731	81.31
307.961	87.31
308.191	78.31
308.421	90.31
308.651	73.31
308.881	85.31
309.111	96.31
309.341	85.31
309.571	75.31
309.8	72.31
310.03	79.31
310.26	71.31
310.49	79.31
310.72	83.31
310.949	78.31
311.179	79.31
311.409	77.31
311.639	73.31
311.868	95.31
312.098	88.31
312.328	74.31
312.557	76.31
312.787	74.31
313.017	82.31
313.246	75.31
313.476	72.31
313.706	86.31
313.935	91.31
314.165	94.31
314.394	75.31
314.624	60.31
314.853	91.31
315.083	88.31
315.312	81.31
315.542	89.31
315.771	85.31
316.001	88.31
316.23	86.31
316.46	83.31
316.689	87.31
316.919	78.31
317.148	82.31
317.377	79.31
317.607	94.31
317.836	84.31
318.065	83.31
318.295	86.31
318.524	70.31
318.753	88.31
318.983	86.31
319.212	78.31
319.441	80.31
319.67	91.31
319.9	78.31
320.129	86.31
320.358	93.31
320.587	77.31
320.816	85.31
321.046	73.31
321.275	88.31
321.504	94.31
321.733	80.31
321.962	91.31
322.191	85.31
322.42	74.31
322.649	81.31
322.878	87.31
323.108	82.31
323.337	87.31
323.566	82.31
323.795	86.31
324.024	80.31
324.253	79.31
324.482	88.31
324.71	88.31
324.939	80.31
325.168	94.31
325.397	85.31
325.626	77.31
325.855	81.31
326.084	72.31
326.313	81.31
326.542	90.31
326.77	72.31
326.999	92.31
327.228	85.31
327.457	93.31
327.686	82.31
327.914	65.31
328.143	77.31
328.372	75.31
328.6	79.31
328.829	91.31
329.058	91.31
329.287	86.31
329.515	73.31
329.744	85.31
329.972	76.31
330.201	58.31
330.43	85.31
330.658	80.31
330.887	69.31
331.115	77.31
331.344	84.31
331.572	84.31
331.801	86.31
332.03	71.31
332.258	89.31
332.486	83.31
332.715	85.31
332.943	75.31
333.172	73.31
333.4	87.31
333.629	81.31
333.857	90.31
334.085	88.31
334.314	93.31
334.542	90.31
334.771	91.31
334.999	73.31
335.227	77.31
335.455	85.31
335.684	87.31
335.912	78.31
336.14	74.31
336.369	89.31
336.597	78.31
336.825	82.31
337.053	90.31
337.281	89.31
337.51	90.31
337.738	98.31
337.966	81.31
338.194	82.31
338.422	96.31
338.65	95.31
338.878	66.31
339.106	79.31
339.334	87.31
339.562	83.31
339.79	82.31
340.018	78.31
340.246	86.31
340.474	90.31
340.702	86.31
340.93	72.31
341.158	90.31
341.386	79.31
341.614	88.31
341.842	79.31
342.07	76.31
342.298	88.31
342.526	93.31
342.754	64.31
342.981	74.31
343.209	68.31
343.437	79.31
343.665	82.31
343.893	88.31
344.12	86.31
344.348	77.31
344.576	79.31
344.804	82.31
345.031	80.31
345.259	84.31
345.487	90.31
345.714	100.31
345.942	95.31
346.17	105.31
346.397	83.31
346.625	93.31
346.853	93.31
347.08	82.31
347.308	78.31
347.535	76.31
347.763	87.31
347.99	91.31
348.218	81.31
348.445	93.31
348.673	76.31
348.9	83.31
349.128	75.31
349.355	72.31
349.583	75.31
349.81	88.31
350.037	80.31
350.265	94.31
350.492	73.31
350.72	78.31
350.947	96.31
351.174	79.31
351.402	78.31
351.629	78.31
351.856	86.31
352.083	85.31
352.311	87.31
352.538	73.31
352.765	79.31
352.992	86.31
353.22	71.31
353.447	85.31
353.674	76.31
353.901	72.31
354.128	96.31
354.355	77.31
354.583	87.31
354.81	85.31
355.037	83.31
355.264	86.31
355.491	88.31
355.718	81.31
355.945	74.31
356.172	84.31
356.399	82.31
356.626	86.31
356.853	87.31
357.08	84.31
357.307	94.31
357.534	89.31
357.761	85.31
357.988	75.31
358.215	89.31
358.441	92.31
358.668	82.31
358.895	85.31
359.122	75.31
359.349	83.31
359.576	83.31
359.802	90.31
360.029	78.31
360.256	99.31
360.483	74.31
360.709	78.31
360.936	70.31
361.163	98.31
361.39	71.31
361.616	79.31
361.843	86.31
362.07	85.31
362.296	84.31
362.523	80.31
362.749	76.31
362.976	83.31
363.203	89.31
363.429	79.31
363.656	73.31
363.882	77.31
364.109	82.31
364.335	73.31
364.562	90.31
364.788	88.31
365.015	85.31
365.241	81.31
365.468	82.31
365.694	70.31
365.92	83.31
366.147	93.31
366.373	89.31
366.599	83.31
366.826	74.31
367.052	87.31
367.278	79.31
367.505	103.31
367.731	89.31
367.957	82.31
368.184	89.31
368.41	78.31
368.636	93.31
368.862	101.31
369.089	98.31
369.315	78.31
369.541	97.31
369.767	95.31
369.993	93.31
370.219	93.31
370.445	97.31
370.672	86.31
370.898	65.31
371.124	88.31
371.35	81.31
371.576	91.31
371.802	94.31
372.028	97.31
372.254	93.31
372.48	98.31
372.706	82.31
372.932	103.31
373.158	101.31
373.384	85.31
373.61	90.31
373.835	93.31
374.061	95.31
374.287	98.31
374.513	83.31
374.739	86.31
374.965	87.31
375.191	102.31
375.416	89.31
375.642	95.31
375.868	86.31
376.094	93.31
376.319	85.31
376.545	81.31
376.771	103.31
376.997	98.31
377.222	89.31
377.448	86.31
377.674	92.31
377.899	92.31
378.125	111.31
378.35	97.31
378.576	93.31
378.802	95.31
379.027	87.31
379.253	94.31
379.478	95.31
379.704	86.31
379.929	90.31
380.155	102.31
380.38	86.31
380.606	92.31
380.831	93.31
381.057	100.31
381.282	82.31
381.507	105.31
381.733	97.31
381.958	102.31
382.184	104.31
382.409	80.31
382.634	96.31
382.86	89.31
383.085	94.31
383.31	93.31
383.535	97.31
383.761	100.31
383.986	85.31
384.211	92.31
384.436	98.31
384.662	84.31
384.887	90.31
385.112	93.31
385.337	95.31
385.562	114.31
385.787	98.31
386.013	107.31
386.238	94.31
386.463	105.31
386.688	114.31
386.913	105.31
387.138	90.31
387.363	97.31
387.588	89.31
387.813	87.31
388.038	93.31
388.263	105.31
388.488	105.31
388.713	101.31
388.938	90.31
389.163	89.31
389.387	98.31
389.612	116.31
389.837	103.31
390.062	105.31
390.287	97.31
390.512	105.31
390.736	110.31
390.961	113.31
391.186	91.31
391.411	105.31
391.636	107.31
391.86	114.31
392.085	108.31
392.31	114.31
392.534	112.31
392.759	120.31
392.984	115.31
393.208	107.31
393.433	103.31
393.658	113.31
393.882	109.31
394.107	98.31
394.331	105.31
394.556	114.31
394.78	112.31
395.005	102.31
395.229	107.31
395.454	112.31
395.678	99.31
395.903	119.31
396.127	115.31
396.352	110.31
396.576	112.31
396.801	110.31
397.025	101.31
397.249	97.31
397.474	118.31
397.698	114.31
397.922	102.31
398.147	113.31
398.371	119.31
398.595	104.31
398.82	96.31
399.044	106.31
399.268	110.31
399.492	112.31
399.717	102.31
399.941	117.31
400.165	111.31
400.389	111.31
400.613	128.31
400.837	112.31
401.062	120.31
401.286	117.31
401.51	113.31
401.734	115.31
401.958	115.31
402.182	114.31
402.406	114.31
402.63	110.31
402.854	124.31
403.078	127.31
403.302	118.31
403.526	106.31
403.75	125.31
403.974	133.31
404.198	110.31
404.422	115.31
404.645	117.31
404.869	113.31
405.093	114.31
405.317	121.31
405.541	122.31
405.765	116.31
405.988	119.31
406.212	122.31
406.436	109.31
406.66	115.31
406.883	118.31
407.107	120.31
407.331	119.31
407.555	135.31
407.778	133.31
408.002	127.31
408.226	121.31
408.449	118.31
408.673	105.31
408.896	127.31
409.12	121.31
409.344	118.31
409.567	127.31
409.791	111.31
410.014	117.31
410.238	131.31
410.461	133.31
410.685	121.31
410.908	114.31
411.132	122.31
411.355	120.31
411.578	125.31
411.802	122.31
412.025	118.31
412.249	130.31
412.472	137.31
412.695	136.31
412.919	121.31
413.142	123.31
413.365	114.31
413.589	129.31
413.812	123.31
414.035	122.31
414.258	129.31
414.482	121.31
414.705	112.31
414.928	124.31
415.151	132.31
415.374	118.31
415.597	132.31
415.821	120.31
416.044	126.31
416.267	137.31
416.49	129.31
416.713	120.31
416.936	144.31
417.159	127.31
417.382	125.31
417.605	138.31
417.828	131.31
418.051	123.31
418.274	138.31
418.497	138.31
418.72	133.31
418.943	145.31
419.166	137.31
419.389	148.31
419.611	135.31
419.834	126.31
420.057	127.31
420.28	149.31
420.503	134.31
420.726	135.31
420.948	131.31
421.171	133.31
421.394	153.31
421.617	148.31
421.839	155.31
422.062	150.31
422.285	119.31
422.507	130.31
422.73	125.31
422.953	135.31
423.175	140.31
423.398	127.31
423.621	121.31
423.843	143.31
424.066	128.31
424.288	138.31
424.511	159.31
424.733	139.31
424.956	133.31
425.178	151.31
425.401	140.31
425.623	126.31
425.846	158.31
426.068	130.31
426.291	138.31
426.513	139.31
426.735	139.31
426.958	142.31
427.18	117.31
427.402	119.31
427.625	144.31
427.847	138.31
428.069	125.31
428.292	126.31
428.514	136.31
428.736	131.31
428.958	132.31
429.181	135.31
429.403	131.31
429.625	131.31
429.847	139.31
430.069	125.31
430.292	132.31
430.514	141.31
430.736	123.31
430.958	116.31
431.18	120.31
431.402	122.31
431.624	132.31
431.846	110.31
432.068	104.31
432.29	83.31
432.512	107.31
432.734	120.31
432.956	118.31
433.178	136.31
433.4	141.31
433.622	130.31
433.844	145.31
434.066	132.31
434.287	95.31
434.509	117.31
434.731	114.31
434.953	117.31
435.175	129.31
435.397	137.31
435.618	116.31
435.84	117.31
436.062	111.31
436.284	128.31
436.505	125.31
436.727	133.31
436.949	130.31
437.17	135.31
437.392	133.31
437.614	130.31
437.835	119.31
438.057	120.31
438.278	130.31
438.5	119.31
438.721	123.31
438.943	144.31
439.165	133.31
439.386	147.31
439.608	143.31
439.829	152.31
440.05	144.31
440.272	150.31
440.493	151.31
440.715	134.31
440.936	146.31
441.158	161.31
441.379	151.31
441.6	147.31
441.822	140.31
442.043	148.31
442.264	129.31
442.486	153.31
442.707	151.31
442.928	146.31
443.149	136.31
443.371	134.31
443.592	144.31
443.813	139.31
444.034	145.31
444.255	146.31
444.476	155.31
444.698	156.31
444.919	152.31
445.14	274.31
445.361	217.31
445.582	163.31
445.803	152.31
446.024	159.31
446.245	157.31
446.466	162.31
446.687	177.31
446.908	160.31
447.129	195.31
447.35	165.31
447.571	150.31
447.792	143.31
448.013	153.31
448.234	144.31
448.455	131.31
448.675	158.31
448.896	145.31
449.117	144.31
449.338	129.31
449.559	135.31
449.779	127.31
450	136.31
450.221	142.31
450.442	135.31
450.662	144.31
450.883	142.31
451.104	135.31
451.324	143.31
451.545	128.31
451.766	135.31
451.986	133.31
452.207	128.31
452.428	116.31
452.648	125.31
452.869	134.31
453.089	101.31
453.31	113.31
453.53	102.31
453.751	113.31
453.971	113.31
454.192	106.31
454.412	102.31
454.633	114.31
454.853	109.31
455.073	126.31
455.294	115.31
455.514	143.31
455.734	115.31
455.955	127.31
456.175	121.31
456.395	107.31
456.616	112.31
456.836	123.31
457.056	119.31
457.276	111.31
457.497	100.31
457.717	101.31
457.937	125.31
458.157	112.31
458.377	116.31
458.598	107.31
458.818	88.31
459.038	82.31
459.258	82.31
459.478	82.31
459.698	91.31
459.918	109.31
460.138	114.31
460.358	110.31
460.578	120.31
460.798	104.31
461.018	120.31
461.238	121.31
461.458	114.31
461.678	117.31
461.898	102.31
462.118	131.31
462.338	119.31
462.558	119.31
462.777	111.31
462.997	109.31
463.217	98.31
463.437	121.31
463.657	112.31
463.876	94.31
464.096	113.31
464.316	117.31
464.536	128.31
464.755	123.31
464.975	129.31
465.195	137.31
465.414	120.31
465.634	125.31
465.854	112.31
466.073	111.31
466.293	118.31
466.512	121.31
466.732	132.31
466.951	149.31
467.171	142.31
467.391	147.31
467.61	149.31
467.829	136.31
468.049	147.31
468.268	125.31
468.488	128.31
468.707	138.31
468.927	139.31
469.146	139.31
469.365	150.31
469.585	139.31
469.804	137.31
470.023	140.31
470.243	144.31
470.462	145.31
470.681	145.31
470.901	163.31
471.12	134.31
471.339	155.31
471.558	126.31
471.777	142.31
471.997	140.31
472.216	127.31
472.435	117.31
472.654	112.31
472.873	117.31
473.092	114.31
473.311	130.31
473.53	127.31
473.749	123.31
473.968	124.31
474.187	131.31
474.406	125.31
474.625	130.31
474.844	129.31
475.063	139.31
475.282	132.31
475.501	133.31
475.72	133.31
475.939	131.31
476.158	132.31
476.377	132.31
476.596	125.31
476.814	125.31
477.033	133.31
477.252	113.31
477.471	124.31
477.69	117.31
477.908	135.31
478.127	132.31
478.346	154.31
478.564	128.31
478.783	143.31
479.002	153.31
479.22	129.31
479.439	130.31
479.658	125.31
479.876	104.31
480.095	121.31
480.313	123.31
480.532	115.31
480.751	111.31
480.969	104.31
481.188	91.31
481.406	103.31
481.624	95.31
481.843	82.31
482.061	106.31
482.28	110.31
482.498	115.31
482.717	103.31
482.935	125.31
483.153	138.31
483.372	144.31
483.59	154.31
483.808	143.31
484.027	128.31
484.245	142.31
484.463	154.31
484.681	168.31
484.9	157.31
485.118	153.31
485.336	129.31
485.554	121.31
485.772	113.31
485.99	97.31
486.209	123.31
486.427	95.31
486.645	139.31
486.863	133.31
487.081	154.31
487.299	143.31
487.517	138.31
487.735	162.31
487.953	189.31
488.171	184.31
488.389	177.31
488.607	161.31
488.825	157.31
489.043	131.31
489.261	131.31
489.479	141.31
489.696	141.31
489.914	138.31
490.132	154.31
490.35	171.31
490.568	179.31
490.786	153.31
491.003	167.31
491.221	207.31
491.439	211.31
491.657	191.31
491.874	211.31
492.092	233.31
492.31	257.31
492.527	249.31
492.745	208.31
492.963	202.31
493.18	194.31
493.398	183.31
493.615	189.31
493.833	201.31
494.05	186.31
494.268	183.31
494.485	186.31
494.703	185.31
494.92	175.31
495.138	158.31
495.355	190.31
495.573	175.31
495.79	181.31
496.008	183.31
496.225	162.31
496.442	162.31
496.66	166.31
496.877	171.31
497.094	173.31
497.312	185.31
497.529	146.31
497.746	157.31
497.963	147.31
498.181	133.31
498.398	134.31
498.615	117.31
498.832	113.31
499.049	126.31
499.267	133.31
499.484	126.31
499.701	141.31
499.918	145.31
500.135	129.31
500.352	143.31
500.569	151.31
500.786	130.31
501.003	137.31
501.22	144.31
501.437	138.31
501.654	147.31
501.871	146.31
502.088	144.31
502.305	138.31
502.522	132.31
502.739	141.31
502.956	119.31
503.172	140.31
503.389	126.31
503.606	127.31
503.823	127.31
504.04	123.31
504.256	119.31
504.473	126.31
504.69	140.31
504.907	134.31
505.123	111.31
505.34	124.31
505.557	129.31
505.773	134.31
505.99	133.31
506.207	142.31
506.423	116.31
506.64	119.31
506.856	125.31
507.073	119.31
507.289	113.31
507.506	111.31
507.722	118.31
507.939	122.31
508.155	114.31
508.372	110.31
508.588	115.31
508.805	110.31
509.021	105.31
509.238	112.31
509.454	101.31
509.67	96.31
509.887	102.31
510.103	111.31
510.319	97.31
510.536	93.31
510.752	82.31
510.968	86.31
511.184	72.31
511.401	82.31
