Data from Location6.07152019.Energy5.Lamp.07192019.3%Agarose_HRD10591_16-13-32-396.txt Node
Date: Fri Jul 19 16:13:32 EDT 2019
User: cochatt
Spectrometer: HR+D1059
Trigger mode: 1
Integration Time (sec): 1.000000E-1
Scans to average: 1
Electric dark correction enabled: true
Nonlinearity correction enabled: false
Boxcar width: 0
XAxis mode: Wavelengths
Number of Pixels in Spectrum: 2048
>>>>>Begin Spectral Data<<<<<
223.165	-18.69
223.4	-18.69
223.635	-18.69
223.869	-21.69
224.104	-19.69
224.338	-16.69
224.573	-12.69
224.808	-10.69
225.042	-11.69
225.277	-7.69
225.511	-6.69
225.746	3.31
225.98	11.31
226.215	8.31
226.449	8.31
226.683	27.31
226.918	29.31
227.152	38.31
227.387	51.31
227.621	52.31
227.856	53.31
228.09	50.31
228.324	62.31
228.559	60.31
228.793	44.31
229.027	70.31
229.262	59.31
229.496	64.31
229.73	76.31
229.964	87.31
230.199	85.31
230.433	92.31
230.667	78.31
230.901	69.31
231.136	75.31
231.37	90.31
231.604	85.31
231.838	80.31
232.072	87.31
232.306	89.31
232.541	99.31
232.775	89.31
233.009	79.31
233.243	91.31
233.477	76.31
233.711	89.31
233.945	83.31
234.179	87.31
234.413	88.31
234.647	85.31
234.881	82.31
235.115	81.31
235.349	96.31
235.583	99.31
235.817	81.31
236.051	76.31
236.285	81.31
236.519	87.31
236.753	73.31
236.987	76.31
237.221	88.31
237.455	88.31
237.689	78.31
237.922	89.31
238.156	86.31
238.39	78.31
238.624	85.31
238.858	82.31
239.091	85.31
239.325	77.31
239.559	73.31
239.793	81.31
240.027	67.31
240.26	69.31
240.494	79.31
240.728	79.31
240.961	79.31
241.195	77.31
241.429	75.31
241.662	62.31
241.896	87.31
242.13	83.31
242.363	89.31
242.597	82.31
242.83	89.31
243.064	94.31
243.298	92.31
243.531	73.31
243.765	78.31
243.998	94.31
244.232	78.31
244.465	88.31
244.699	84.31
244.932	71.31
245.166	87.31
245.399	84.31
245.633	77.31
245.866	78.31
246.099	89.31
246.333	100.31
246.566	85.31
246.8	89.31
247.033	84.31
247.266	77.31
247.5	63.31
247.733	72.31
247.966	60.31
248.2	82.31
248.433	83.31
248.666	80.31
248.899	101.31
249.133	77.31
249.366	80.31
249.599	88.31
249.832	88.31
250.066	97.31
250.299	81.31
250.532	81.31
250.765	77.31
250.998	68.31
251.231	78.31
251.465	88.31
251.698	79.31
251.931	86.31
252.164	100.31
252.397	88.31
252.63	85.31
252.863	73.31
253.096	86.31
253.329	93.31
253.562	75.31
253.795	92.31
254.028	77.31
254.261	87.31
254.494	87.31
254.727	80.31
254.96	88.31
255.193	80.31
255.426	83.31
255.659	76.31
255.892	91.31
256.124	86.31
256.357	94.31
256.59	94.31
256.823	89.31
257.056	81.31
257.289	76.31
257.521	80.31
257.754	74.31
257.987	95.31
258.22	93.31
258.452	93.31
258.685	85.31
258.918	89.31
259.151	83.31
259.383	79.31
259.616	88.31
259.849	79.31
260.081	87.31
260.314	87.31
260.547	87.31
260.779	97.31
261.012	85.31
261.244	81.31
261.477	98.31
261.71	80.31
261.942	81.31
262.175	104.31
262.407	90.31
262.64	83.31
262.872	81.31
263.105	88.31
263.337	80.31
263.57	79.31
263.802	89.31
264.035	88.31
264.267	92.31
264.499	95.31
264.732	89.31
264.964	93.31
265.197	96.31
265.429	78.31
265.661	95.31
265.894	95.31
266.126	86.31
266.358	95.31
266.591	89.31
266.823	94.31
267.055	91.31
267.287	74.31
267.52	77.31
267.752	72.31
267.984	108.31
268.216	81.31
268.448	93.31
268.681	85.31
268.913	88.31
269.145	72.31
269.377	88.31
269.609	97.31
269.841	103.31
270.073	86.31
270.306	82.31
270.538	96.31
270.77	96.31
271.002	88.31
271.234	90.31
271.466	97.31
271.698	88.31
271.93	96.31
272.162	87.31
272.394	95.31
272.626	93.31
272.858	92.31
273.09	88.31
273.322	99.31
273.553	92.31
273.785	88.31
274.017	99.31
274.249	88.31
274.481	72.31
274.713	86.31
274.945	90.31
275.176	84.31
275.408	85.31
275.64	83.31
275.872	86.31
276.104	97.31
276.335	81.31
276.567	81.31
276.799	96.31
277.031	80.31
277.262	87.31
277.494	89.31
277.726	88.31
277.957	84.31
278.189	84.31
278.421	85.31
278.652	88.31
278.884	102.31
279.115	97.31
279.347	94.31
279.579	98.31
279.81	86.31
280.042	98.31
280.273	106.31
280.505	89.31
280.736	83.31
280.968	80.31
281.199	89.31
281.431	78.31
281.662	88.31
281.894	87.31
282.125	96.31
282.356	94.31
282.588	88.31
282.819	87.31
283.051	81.31
283.282	81.31
283.513	96.31
283.745	88.31
283.976	94.31
284.207	96.31
284.439	100.31
284.67	91.31
284.901	80.31
285.132	85.31
285.364	100.31
285.595	85.31
285.826	97.31
286.057	89.31
286.288	87.31
286.52	88.31
286.751	85.31
286.982	87.31
287.213	81.31
287.444	95.31
287.675	95.31
287.906	90.31
288.138	84.31
288.369	100.31
288.6	87.31
288.831	86.31
289.062	79.31
289.293	74.31
289.524	79.31
289.755	90.31
289.986	87.31
290.217	91.31
290.448	81.31
290.679	86.31
290.91	100.31
291.141	89.31
291.371	81.31
291.602	81.31
291.833	87.31
292.064	88.31
292.295	100.31
292.526	93.31
292.757	98.31
292.987	91.31
293.218	80.31
293.449	100.31
293.68	83.31
293.91	96.31
294.141	90.31
294.372	92.31
294.603	95.31
294.833	88.31
295.064	78.31
295.295	81.31
295.525	96.31
295.756	81.31
295.987	87.31
296.217	98.31
296.448	75.31
296.679	80.31
296.909	76.31
297.14	83.31
297.37	89.31
297.601	87.31
297.831	84.31
298.062	99.31
298.292	88.31
298.523	96.31
298.753	96.31
298.984	93.31
299.214	88.31
299.445	97.31
299.675	87.31
299.905	93.31
300.136	78.31
300.366	87.31
300.597	82.31
300.827	85.31
301.057	92.31
301.288	88.31
301.518	84.31
301.748	94.31
301.979	95.31
302.209	83.31
302.439	87.31
302.669	90.31
302.9	83.31
303.13	92.31
303.36	88.31
303.59	86.31
303.82	92.31
304.051	96.31
304.281	88.31
304.511	85.31
304.741	92.31
304.971	91.31
305.201	74.31
305.431	88.31
305.661	85.31
305.891	90.31
306.121	91.31
306.352	84.31
306.582	90.31
306.812	91.31
307.042	89.31
307.272	86.31
307.502	86.31
307.731	84.31
307.961	94.31
308.191	90.31
308.421	106.31
308.651	103.31
308.881	90.31
309.111	78.31
309.341	91.31
309.571	104.31
309.8	103.31
310.03	88.31
310.26	95.31
310.49	89.31
310.72	88.31
310.949	85.31
311.179	95.31
311.409	88.31
311.639	87.31
311.868	83.31
312.098	86.31
312.328	95.31
312.557	99.31
312.787	101.31
313.017	72.31
313.246	87.31
313.476	90.31
313.706	92.31
313.935	103.31
314.165	102.31
314.394	98.31
314.624	96.31
314.853	89.31
315.083	75.31
315.312	90.31
315.542	84.31
315.771	76.31
316.001	81.31
316.23	88.31
316.46	85.31
316.689	70.31
316.919	88.31
317.148	99.31
317.377	87.31
317.607	85.31
317.836	99.31
318.065	97.31
318.295	87.31
318.524	90.31
318.753	87.31
318.983	88.31
319.212	92.31
319.441	97.31
319.67	79.31
319.9	91.31
320.129	91.31
320.358	104.31
320.587	91.31
320.816	88.31
321.046	86.31
321.275	76.31
321.504	73.31
321.733	93.31
321.962	86.31
322.191	76.31
322.42	89.31
322.649	88.31
322.878	91.31
323.108	85.31
323.337	97.31
323.566	81.31
323.795	73.31
324.024	99.31
324.253	94.31
324.482	94.31
324.71	95.31
324.939	71.31
325.168	79.31
325.397	84.31
325.626	90.31
325.855	86.31
326.084	82.31
326.313	97.31
326.542	96.31
326.77	95.31
326.999	87.31
327.228	93.31
327.457	95.31
327.686	88.31
327.914	100.31
328.143	99.31
328.372	96.31
328.6	93.31
328.829	82.31
329.058	89.31
329.287	95.31
329.515	88.31
329.744	90.31
329.972	79.31
330.201	84.31
330.43	85.31
330.658	77.31
330.887	97.31
331.115	101.31
331.344	76.31
331.572	94.31
331.801	102.31
332.03	85.31
332.258	99.31
332.486	100.31
332.715	88.31
332.943	86.31
333.172	92.31
333.4	89.31
333.629	93.31
333.857	78.31
334.085	77.31
334.314	87.31
334.542	87.31
334.771	71.31
334.999	89.31
335.227	93.31
335.455	98.31
335.684	102.31
335.912	91.31
336.14	94.31
336.369	99.31
336.597	77.31
336.825	76.31
337.053	90.31
337.281	86.31
337.51	85.31
337.738	80.31
337.966	76.31
338.194	77.31
338.422	91.31
338.65	74.31
338.878	88.31
339.106	103.31
339.334	100.31
339.562	87.31
339.79	93.31
340.018	99.31
340.246	96.31
340.474	80.31
340.702	88.31
340.93	97.31
341.158	82.31
341.386	88.31
341.614	106.31
341.842	93.31
342.07	92.31
342.298	80.31
342.526	87.31
342.754	109.31
342.981	95.31
343.209	85.31
343.437	78.31
343.665	89.31
343.893	101.31
344.12	89.31
344.348	77.31
344.576	75.31
344.804	84.31
345.031	96.31
345.259	86.31
345.487	87.31
345.714	98.31
345.942	84.31
346.17	88.31
346.397	101.31
346.625	96.31
346.853	86.31
347.08	86.31
347.308	91.31
347.535	86.31
347.763	88.31
347.99	92.31
348.218	96.31
348.445	88.31
348.673	97.31
348.9	97.31
349.128	86.31
349.355	94.31
349.583	89.31
349.81	72.31
350.037	86.31
350.265	98.31
350.492	94.31
350.72	93.31
350.947	81.31
351.174	79.31
351.402	96.31
351.629	95.31
351.856	89.31
352.083	104.31
352.311	101.31
352.538	89.31
352.765	92.31
352.992	90.31
353.22	87.31
353.447	92.31
353.674	82.31
353.901	89.31
354.128	86.31
354.355	84.31
354.583	87.31
354.81	81.31
355.037	103.31
355.264	95.31
355.491	74.31
355.718	77.31
355.945	90.31
356.172	90.31
356.399	79.31
356.626	76.31
356.853	87.31
357.08	101.31
357.307	96.31
357.534	81.31
357.761	85.31
357.988	77.31
358.215	86.31
358.441	81.31
358.668	79.31
358.895	85.31
359.122	103.31
359.349	86.31
359.576	71.31
359.802	88.31
360.029	92.31
360.256	86.31
360.483	91.31
360.709	86.31
360.936	97.31
361.163	96.31
361.39	81.31
361.616	84.31
361.843	95.31
362.07	89.31
362.296	88.31
362.523	89.31
362.749	91.31
362.976	70.31
363.203	104.31
363.429	97.31
363.656	93.31
363.882	85.31
364.109	95.31
364.335	97.31
364.562	77.31
364.788	85.31
365.015	98.31
365.241	92.31
365.468	92.31
365.694	93.31
365.92	100.31
366.147	83.31
366.373	88.31
366.599	87.31
366.826	100.31
367.052	85.31
367.278	101.31
367.505	100.31
367.731	91.31
367.957	89.31
368.184	86.31
368.41	91.31
368.636	103.31
368.862	109.31
369.089	93.31
369.315	96.31
369.541	106.31
369.767	91.31
369.993	93.31
370.219	105.31
370.445	87.31
370.672	95.31
370.898	92.31
371.124	94.31
371.35	96.31
371.576	91.31
371.802	92.31
372.028	94.31
372.254	122.31
372.48	94.31
372.706	90.31
372.932	98.31
373.158	99.31
373.384	98.31
373.61	99.31
373.835	101.31
374.061	88.31
374.287	92.31
374.513	109.31
374.739	88.31
374.965	94.31
375.191	85.31
375.416	94.31
375.642	95.31
375.868	100.31
376.094	100.31
376.319	96.31
376.545	95.31
376.771	93.31
376.997	106.31
377.222	115.31
377.448	102.31
377.674	91.31
377.899	101.31
378.125	99.31
378.35	103.31
378.576	84.31
378.802	107.31
379.027	89.31
379.253	97.31
379.478	103.31
379.704	92.31
379.929	96.31
380.155	112.31
380.38	104.31
380.606	110.31
380.831	118.31
381.057	110.31
381.282	119.31
381.507	93.31
381.733	93.31
381.958	76.31
382.184	103.31
382.409	105.31
382.634	103.31
382.86	101.31
383.085	107.31
383.31	101.31
383.535	104.31
383.761	110.31
383.986	116.31
384.211	107.31
384.436	100.31
384.662	115.31
384.887	105.31
385.112	100.31
385.337	109.31
385.562	97.31
385.787	103.31
386.013	97.31
386.238	103.31
386.463	95.31
386.688	99.31
386.913	111.31
387.138	112.31
387.363	100.31
387.588	107.31
387.813	123.31
388.038	103.31
388.263	107.31
388.488	110.31
388.713	101.31
388.938	106.31
389.163	107.31
389.387	113.31
389.612	104.31
389.837	123.31
390.062	96.31
390.287	108.31
390.512	109.31
390.736	111.31
390.961	95.31
391.186	104.31
391.411	115.31
391.636	102.31
391.86	119.31
392.085	118.31
392.31	101.31
392.534	113.31
392.759	124.31
392.984	121.31
393.208	97.31
393.433	117.31
393.658	119.31
393.882	98.31
394.107	122.31
394.331	118.31
394.556	120.31
394.78	120.31
395.005	110.31
395.229	87.31
395.454	107.31
395.678	103.31
395.903	125.31
396.127	118.31
396.352	108.31
396.576	107.31
396.801	124.31
397.025	125.31
397.249	110.31
397.474	125.31
397.698	123.31
397.922	99.31
398.147	118.31
398.371	120.31
398.595	117.31
398.82	137.31
399.044	122.31
399.268	124.31
399.492	116.31
399.717	118.31
399.941	123.31
400.165	127.31
400.389	117.31
400.613	125.31
400.837	130.31
401.062	131.31
401.286	120.31
401.51	123.31
401.734	102.31
401.958	123.31
402.182	134.31
402.406	123.31
402.63	126.31
402.854	105.31
403.078	113.31
403.302	113.31
403.526	136.31
403.75	117.31
403.974	118.31
404.198	118.31
404.422	119.31
404.645	118.31
404.869	105.31
405.093	121.31
405.317	131.31
405.541	120.31
405.765	138.31
405.988	136.31
406.212	128.31
406.436	122.31
406.66	125.31
406.883	133.31
407.107	131.31
407.331	138.31
407.555	123.31
407.778	134.31
408.002	132.31
408.226	109.31
408.449	136.31
408.673	132.31
408.896	129.31
409.12	135.31
409.344	124.31
409.567	139.31
409.791	129.31
410.014	132.31
410.238	142.31
410.461	137.31
410.685	140.31
410.908	129.31
411.132	125.31
411.355	146.31
411.578	131.31
411.802	122.31
412.025	133.31
412.249	126.31
412.472	136.31
412.695	127.31
412.919	128.31
413.142	137.31
413.365	131.31
413.589	125.31
413.812	116.31
414.035	119.31
414.258	139.31
414.482	134.31
414.705	140.31
414.928	136.31
415.151	132.31
415.374	125.31
415.597	127.31
415.821	119.31
416.044	131.31
416.267	135.31
416.49	126.31
416.713	133.31
416.936	136.31
417.159	124.31
417.382	135.31
417.605	125.31
417.828	126.31
418.051	132.31
418.274	146.31
418.497	130.31
418.72	154.31
418.943	161.31
419.166	143.31
419.389	136.31
419.611	124.31
419.834	145.31
420.057	140.31
420.28	133.31
420.503	138.31
420.726	153.31
420.948	151.31
421.171	140.31
421.394	153.31
421.617	153.31
421.839	145.31
422.062	156.31
422.285	151.31
422.507	149.31
422.73	133.31
422.953	136.31
423.175	123.31
423.398	131.31
423.621	137.31
423.843	127.31
424.066	135.31
424.288	143.31
424.511	154.31
424.733	154.31
424.956	154.31
425.178	144.31
425.401	136.31
425.623	150.31
425.846	140.31
426.068	139.31
426.291	141.31
426.513	142.31
426.735	150.31
426.958	147.31
427.18	144.31
427.402	145.31
427.625	138.31
427.847	132.31
428.069	131.31
428.292	166.31
428.514	138.31
428.736	145.31
428.958	140.31
429.181	125.31
429.403	148.31
429.625	133.31
429.847	139.31
430.069	135.31
430.292	139.31
430.514	134.31
430.736	135.31
430.958	134.31
431.18	121.31
431.402	126.31
431.624	140.31
431.846	117.31
432.068	93.31
432.29	91.31
432.512	117.31
432.734	137.31
432.956	139.31
433.178	153.31
433.4	142.31
433.622	139.31
433.844	133.31
434.066	150.31
434.287	117.31
434.509	117.31
434.731	116.31
434.953	115.31
435.175	128.31
435.397	147.31
435.618	131.31
435.84	132.31
436.062	121.31
436.284	109.31
436.505	118.31
436.727	131.31
436.949	133.31
437.17	148.31
437.392	129.31
437.614	119.31
437.835	116.31
438.057	133.31
438.278	134.31
438.5	136.31
438.721	135.31
438.943	132.31
439.165	149.31
439.386	149.31
439.608	157.31
439.829	153.31
440.05	152.31
440.272	163.31
440.493	147.31
440.715	170.31
440.936	171.31
441.158	167.31
441.379	167.31
441.6	157.31
441.822	149.31
442.043	151.31
442.264	157.31
442.486	129.31
442.707	146.31
442.928	150.31
443.149	136.31
443.371	139.31
443.592	152.31
443.813	142.31
444.034	147.31
444.255	148.31
444.476	158.31
444.698	148.31
444.919	156.31
445.14	283.31
445.361	203.31
445.582	146.31
445.803	154.31
446.024	149.31
446.245	149.31
446.466	151.31
446.687	169.31
446.908	182.31
447.129	168.31
447.35	173.31
447.571	166.31
447.792	151.31
448.013	163.31
448.234	155.31
448.455	154.31
448.675	145.31
448.896	142.31
449.117	131.31
449.338	138.31
449.559	144.31
449.779	154.31
450	156.31
450.221	149.31
450.442	136.31
450.662	129.31
450.883	143.31
451.104	135.31
451.324	151.31
451.545	135.31
451.766	126.31
451.986	134.31
452.207	142.31
452.428	137.31
452.648	152.31
452.869	121.31
453.089	133.31
453.31	127.31
453.53	115.31
453.751	126.31
453.971	120.31
454.192	116.31
454.412	116.31
454.633	121.31
454.853	133.31
455.073	129.31
455.294	131.31
455.514	131.31
455.734	120.31
455.955	148.31
456.175	126.31
456.395	116.31
456.616	117.31
456.836	107.31
457.056	115.31
457.276	114.31
457.497	113.31
457.717	100.31
457.937	117.31
458.157	125.31
458.377	107.31
458.598	109.31
458.818	103.31
459.038	94.31
459.258	82.31
459.478	96.31
459.698	100.31
459.918	95.31
460.138	122.31
460.358	116.31
460.578	117.31
460.798	127.31
461.018	124.31
461.238	120.31
461.458	119.31
461.678	117.31
461.898	123.31
462.118	128.31
462.338	120.31
462.558	118.31
462.777	119.31
462.997	115.31
463.217	120.31
463.437	113.31
463.657	117.31
463.876	112.31
464.096	124.31
464.316	119.31
464.536	107.31
464.755	130.31
464.975	115.31
465.195	125.31
465.414	110.31
465.634	123.31
465.854	131.31
466.073	129.31
466.293	127.31
466.512	134.31
466.732	140.31
466.951	139.31
467.171	134.31
467.391	145.31
467.61	134.31
467.829	142.31
468.049	160.31
468.268	132.31
468.488	137.31
468.707	142.31
468.927	149.31
469.146	140.31
469.365	163.31
469.585	147.31
469.804	157.31
470.023	146.31
470.243	151.31
470.462	144.31
470.681	167.31
470.901	143.31
471.12	150.31
471.339	154.31
471.558	160.31
471.777	153.31
471.997	140.31
472.216	130.31
472.435	133.31
472.654	109.31
472.873	125.31
473.092	121.31
473.311	141.31
473.53	137.31
473.749	149.31
473.968	139.31
474.187	119.31
474.406	126.31
474.625	144.31
474.844	126.31
475.063	128.31
475.282	125.31
475.501	129.31
475.72	129.31
475.939	128.31
476.158	137.31
476.377	136.31
476.596	137.31
476.814	110.31
477.033	112.31
477.252	116.31
477.471	136.31
477.69	149.31
477.908	145.31
478.127	152.31
478.346	139.31
478.564	145.31
478.783	145.31
479.002	161.31
479.22	148.31
479.439	148.31
479.658	133.31
479.876	111.31
480.095	127.31
480.313	131.31
480.532	107.31
480.751	111.31
480.969	93.31
481.188	99.31
481.406	89.31
481.624	92.31
481.843	86.31
482.061	108.31
482.28	125.31
482.498	106.31
482.717	111.31
482.935	127.31
483.153	151.31
483.372	165.31
483.59	177.31
483.808	146.31
484.027	131.31
484.245	161.31
484.463	167.31
484.681	167.31
484.9	159.31
485.118	154.31
485.336	152.31
485.554	111.31
485.772	108.31
485.99	122.31
486.209	108.31
486.427	144.31
486.645	128.31
486.863	155.31
487.081	147.31
487.299	153.31
487.517	161.31
487.735	183.31
487.953	202.31
488.171	188.31
488.389	200.31
488.607	169.31
488.825	167.31
489.043	161.31
489.261	131.31
489.479	146.31
489.696	154.31
489.914	161.31
490.132	150.31
490.35	159.31
490.568	160.31
490.786	200.31
491.003	176.31
491.221	196.31
491.439	209.31
491.657	212.31
491.874	235.31
492.092	244.31
492.31	259.31
492.527	244.31
492.745	227.31
492.963	229.31
493.18	196.31
493.398	197.31
493.615	193.31
493.833	197.31
494.05	176.31
494.268	195.31
494.485	203.31
494.703	182.31
494.92	192.31
495.138	181.31
495.355	197.31
495.573	182.31
495.79	183.31
496.008	176.31
496.225	179.31
496.442	180.31
496.66	178.31
496.877	175.31
497.094	185.31
497.312	188.31
497.529	172.31
497.746	174.31
497.963	151.31
498.181	150.31
498.398	132.31
498.615	120.31
498.832	124.31
499.049	125.31
499.267	138.31
499.484	119.31
499.701	139.31
499.918	139.31
500.135	141.31
500.352	147.31
500.569	157.31
500.786	153.31
501.003	136.31
501.22	160.31
501.437	153.31
501.654	150.31
501.871	148.31
502.088	145.31
502.305	132.31
502.522	134.31
502.739	142.31
502.956	134.31
503.172	145.31
503.389	130.31
503.606	133.31
503.823	138.31
504.04	121.31
504.256	124.31
504.473	127.31
504.69	130.31
504.907	141.31
505.123	128.31
505.34	143.31
505.557	126.31
505.773	121.31
505.99	119.31
506.207	128.31
506.423	124.31
506.64	133.31
506.856	146.31
507.073	157.31
507.289	130.31
507.506	133.31
507.722	124.31
507.939	133.31
508.155	133.31
508.372	131.31
508.588	122.31
508.805	133.31
509.021	115.31
509.238	112.31
509.454	115.31
509.67	106.31
509.887	104.31
510.103	90.31
510.319	98.31
510.536	87.31
