Data from Location6.07152019.Energy5.Lamp.07192019.3%Agarose_HRD10591_16-11-04-394.txt Node
Date: Fri Jul 19 16:11:04 EDT 2019
User: cochatt
Spectrometer: HR+D1059
Trigger mode: 1
Integration Time (sec): 1.000000E-1
Scans to average: 1
Electric dark correction enabled: true
Nonlinearity correction enabled: false
Boxcar width: 0
XAxis mode: Wavelengths
Number of Pixels in Spectrum: 2048
>>>>>Begin Spectral Data<<<<<
223.165	-21.19
223.4	-21.19
223.635	-21.19
223.869	-23.19
224.104	-12.19
224.338	-11.19
224.573	-14.19
224.808	-4.19
225.042	-4.19
225.277	-23.19
225.511	-8.19
225.746	1.81
225.98	13.81
226.215	17.81
226.449	5.81
226.683	23.81
226.918	19.81
227.152	38.81
227.387	35.81
227.621	26.81
227.856	27.81
228.09	46.81
228.324	45.81
228.559	53.81
228.793	49.81
229.027	62.81
229.262	58.81
229.496	89.81
229.73	59.81
229.964	61.81
230.199	76.81
230.433	80.81
230.667	78.81
230.901	78.81
231.136	73.81
231.37	82.81
231.604	73.81
231.838	81.81
232.072	82.81
232.306	84.81
232.541	61.81
232.775	84.81
233.009	91.81
233.243	85.81
233.477	87.81
233.711	86.81
233.945	80.81
234.179	77.81
234.413	79.81
234.647	86.81
234.881	89.81
235.115	76.81
235.349	73.81
235.583	70.81
235.817	80.81
236.051	87.81
236.285	80.81
236.519	74.81
236.753	80.81
236.987	86.81
237.221	67.81
237.455	69.81
237.689	71.81
237.922	74.81
238.156	86.81
238.39	88.81
238.624	78.81
238.858	73.81
239.091	81.81
239.325	61.81
239.559	80.81
239.793	81.81
240.027	67.81
240.26	74.81
240.494	85.81
240.728	70.81
240.961	76.81
241.195	76.81
241.429	71.81
241.662	73.81
241.896	74.81
242.13	78.81
242.363	91.81
242.597	64.81
242.83	99.81
243.064	80.81
243.298	72.81
243.531	76.81
243.765	72.81
243.998	85.81
244.232	78.81
244.465	87.81
244.699	68.81
244.932	73.81
245.166	74.81
245.399	63.81
245.633	85.81
245.866	78.81
246.099	79.81
246.333	84.81
246.566	88.81
246.8	92.81
247.033	80.81
247.266	73.81
247.5	87.81
247.733	77.81
247.966	81.81
248.2	85.81
248.433	82.81
248.666	83.81
248.899	82.81
249.133	86.81
249.366	80.81
249.599	85.81
249.832	91.81
250.066	80.81
250.299	88.81
250.532	71.81
250.765	75.81
250.998	80.81
251.231	82.81
251.465	82.81
251.698	81.81
251.931	70.81
252.164	75.81
252.397	89.81
252.63	74.81
252.863	71.81
253.096	74.81
253.329	74.81
253.562	81.81
253.795	77.81
254.028	69.81
254.261	72.81
254.494	79.81
254.727	87.81
254.96	83.81
255.193	70.81
255.426	79.81
255.659	68.81
255.892	77.81
256.124	85.81
256.357	80.81
256.59	84.81
256.823	76.81
257.056	76.81
257.289	76.81
257.521	96.81
257.754	81.81
257.987	83.81
258.22	90.81
258.452	85.81
258.685	84.81
258.918	80.81
259.151	69.81
259.383	75.81
259.616	69.81
259.849	90.81
260.081	87.81
260.314	92.81
260.547	84.81
260.779	77.81
261.012	88.81
261.244	83.81
261.477	83.81
261.71	76.81
261.942	83.81
262.175	77.81
262.407	63.81
262.64	94.81
262.872	77.81
263.105	78.81
263.337	85.81
263.57	81.81
263.802	77.81
264.035	66.81
264.267	88.81
264.499	84.81
264.732	83.81
264.964	93.81
265.197	86.81
265.429	91.81
265.661	82.81
265.894	88.81
266.126	90.81
266.358	75.81
266.591	89.81
266.823	78.81
267.055	93.81
267.287	86.81
267.52	73.81
267.752	92.81
267.984	83.81
268.216	89.81
268.448	85.81
268.681	75.81
268.913	86.81
269.145	88.81
269.377	85.81
269.609	79.81
269.841	87.81
270.073	61.81
270.306	92.81
270.538	80.81
270.77	71.81
271.002	78.81
271.234	77.81
271.466	73.81
271.698	75.81
271.93	93.81
272.162	75.81
272.394	87.81
272.626	77.81
272.858	82.81
273.09	84.81
273.322	94.81
273.553	87.81
273.785	98.81
274.017	83.81
274.249	86.81
274.481	82.81
274.713	73.81
274.945	76.81
275.176	91.81
275.408	81.81
275.64	95.81
275.872	99.81
276.104	81.81
276.335	73.81
276.567	82.81
276.799	83.81
277.031	73.81
277.262	70.81
277.494	80.81
277.726	83.81
277.957	79.81
278.189	90.81
278.421	79.81
278.652	64.81
278.884	95.81
279.115	83.81
279.347	87.81
279.579	81.81
279.81	77.81
280.042	89.81
280.273	73.81
280.505	73.81
280.736	79.81
280.968	83.81
281.199	92.81
281.431	70.81
281.662	66.81
281.894	91.81
282.125	78.81
282.356	70.81
282.588	102.81
282.819	85.81
283.051	85.81
283.282	78.81
283.513	83.81
283.745	76.81
283.976	87.81
284.207	99.81
284.439	84.81
284.67	72.81
284.901	74.81
285.132	83.81
285.364	77.81
285.595	88.81
285.826	95.81
286.057	95.81
286.288	88.81
286.52	96.81
286.751	82.81
286.982	100.81
287.213	83.81
287.444	75.81
287.675	77.81
287.906	82.81
288.138	81.81
288.369	90.81
288.6	84.81
288.831	87.81
289.062	81.81
289.293	77.81
289.524	82.81
289.755	87.81
289.986	81.81
290.217	72.81
290.448	87.81
290.679	82.81
290.91	86.81
291.141	90.81
291.371	87.81
291.602	82.81
291.833	79.81
292.064	87.81
292.295	88.81
292.526	81.81
292.757	87.81
292.987	83.81
293.218	76.81
293.449	76.81
293.68	79.81
293.91	75.81
294.141	71.81
294.372	71.81
294.603	79.81
294.833	80.81
295.064	86.81
295.295	98.81
295.525	85.81
295.756	81.81
295.987	91.81
296.217	70.81
296.448	83.81
296.679	85.81
296.909	87.81
297.14	81.81
297.37	80.81
297.601	70.81
297.831	84.81
298.062	83.81
298.292	81.81
298.523	81.81
298.753	102.81
298.984	92.81
299.214	84.81
299.445	90.81
299.675	102.81
299.905	81.81
300.136	91.81
300.366	82.81
300.597	76.81
300.827	84.81
301.057	86.81
301.288	79.81
301.518	87.81
301.748	85.81
301.979	96.81
302.209	85.81
302.439	76.81
302.669	85.81
302.9	82.81
303.13	85.81
303.36	86.81
303.59	72.81
303.82	95.81
304.051	89.81
304.281	81.81
304.511	73.81
304.741	96.81
304.971	83.81
305.201	74.81
305.431	76.81
305.661	89.81
305.891	78.81
306.121	83.81
306.352	78.81
306.582	84.81
306.812	91.81
307.042	83.81
307.272	72.81
307.502	74.81
307.731	73.81
307.961	81.81
308.191	78.81
308.421	91.81
308.651	94.81
308.881	87.81
309.111	85.81
309.341	84.81
309.571	69.81
309.8	81.81
310.03	77.81
310.26	89.81
310.49	84.81
310.72	80.81
310.949	77.81
311.179	83.81
311.409	71.81
311.639	91.81
311.868	86.81
312.098	94.81
312.328	96.81
312.557	79.81
312.787	94.81
313.017	72.81
313.246	90.81
313.476	82.81
313.706	85.81
313.935	84.81
314.165	95.81
314.394	88.81
314.624	77.81
314.853	90.81
315.083	77.81
315.312	85.81
315.542	89.81
315.771	83.81
316.001	85.81
316.23	79.81
316.46	77.81
316.689	90.81
316.919	84.81
317.148	89.81
317.377	94.81
317.607	87.81
317.836	82.81
318.065	80.81
318.295	83.81
318.524	79.81
318.753	86.81
318.983	84.81
319.212	92.81
319.441	87.81
319.67	84.81
319.9	88.81
320.129	76.81
320.358	87.81
320.587	82.81
320.816	97.81
321.046	90.81
321.275	91.81
321.504	77.81
321.733	93.81
321.962	76.81
322.191	87.81
322.42	77.81
322.649	91.81
322.878	72.81
323.108	77.81
323.337	98.81
323.566	81.81
323.795	81.81
324.024	95.81
324.253	95.81
324.482	79.81
324.71	69.81
324.939	83.81
325.168	81.81
325.397	77.81
325.626	77.81
325.855	85.81
326.084	72.81
326.313	87.81
326.542	81.81
326.77	98.81
326.999	60.81
327.228	87.81
327.457	78.81
327.686	68.81
327.914	87.81
328.143	88.81
328.372	90.81
328.6	87.81
328.829	83.81
329.058	75.81
329.287	86.81
329.515	58.81
329.744	76.81
329.972	84.81
330.201	79.81
330.43	90.81
330.658	88.81
330.887	73.81
331.115	84.81
331.344	95.81
331.572	85.81
331.801	95.81
332.03	73.81
332.258	79.81
332.486	84.81
332.715	96.81
332.943	89.81
333.172	89.81
333.4	75.81
333.629	77.81
333.857	88.81
334.085	85.81
334.314	74.81
334.542	71.81
334.771	80.81
334.999	80.81
335.227	89.81
335.455	92.81
335.684	80.81
335.912	92.81
336.14	92.81
336.369	86.81
336.597	82.81
336.825	85.81
337.053	81.81
337.281	82.81
337.51	73.81
337.738	84.81
337.966	71.81
338.194	88.81
338.422	87.81
338.65	84.81
338.878	88.81
339.106	83.81
339.334	88.81
339.562	82.81
339.79	76.81
340.018	69.81
340.246	80.81
340.474	83.81
340.702	81.81
340.93	93.81
341.158	75.81
341.386	85.81
341.614	91.81
341.842	82.81
342.07	87.81
342.298	81.81
342.526	92.81
342.754	87.81
342.981	85.81
343.209	82.81
343.437	98.81
343.665	81.81
343.893	83.81
344.12	80.81
344.348	79.81
344.576	69.81
344.804	88.81
345.031	77.81
345.259	77.81
345.487	87.81
345.714	85.81
345.942	88.81
346.17	77.81
346.397	81.81
346.625	81.81
346.853	81.81
347.08	79.81
347.308	98.81
347.535	94.81
347.763	91.81
347.99	88.81
348.218	92.81
348.445	73.81
348.673	75.81
348.9	107.81
349.128	90.81
349.355	80.81
349.583	93.81
349.81	83.81
350.037	74.81
350.265	84.81
350.492	85.81
350.72	77.81
350.947	83.81
351.174	88.81
351.402	84.81
351.629	83.81
351.856	89.81
352.083	96.81
352.311	88.81
352.538	70.81
352.765	86.81
352.992	74.81
353.22	78.81
353.447	92.81
353.674	87.81
353.901	76.81
354.128	97.81
354.355	76.81
354.583	86.81
354.81	87.81
355.037	91.81
355.264	86.81
355.491	92.81
355.718	67.81
355.945	84.81
356.172	79.81
356.399	82.81
356.626	73.81
356.853	90.81
357.08	91.81
357.307	89.81
357.534	81.81
357.761	77.81
357.988	88.81
358.215	87.81
358.441	82.81
358.668	71.81
358.895	88.81
359.122	82.81
359.349	85.81
359.576	94.81
359.802	98.81
360.029	74.81
360.256	89.81
360.483	97.81
360.709	99.81
360.936	79.81
361.163	82.81
361.39	76.81
361.616	92.81
361.843	74.81
362.07	89.81
362.296	87.81
362.523	78.81
362.749	80.81
362.976	83.81
363.203	91.81
363.429	75.81
363.656	67.81
363.882	65.81
364.109	81.81
364.335	92.81
364.562	79.81
364.788	72.81
365.015	73.81
365.241	85.81
365.468	88.81
365.694	85.81
365.92	83.81
366.147	92.81
366.373	83.81
366.599	89.81
366.826	85.81
367.052	100.81
367.278	80.81
367.505	88.81
367.731	91.81
367.957	87.81
368.184	89.81
368.41	102.81
368.636	86.81
368.862	91.81
369.089	90.81
369.315	76.81
369.541	82.81
369.767	83.81
369.993	86.81
370.219	88.81
370.445	68.81
370.672	81.81
370.898	94.81
371.124	85.81
371.35	82.81
371.576	88.81
371.802	85.81
372.028	77.81
372.254	94.81
372.48	89.81
372.706	84.81
372.932	78.81
373.158	85.81
373.384	101.81
373.61	91.81
373.835	90.81
374.061	90.81
374.287	83.81
374.513	104.81
374.739	91.81
374.965	97.81
375.191	96.81
375.416	103.81
375.642	97.81
375.868	102.81
376.094	108.81
376.319	87.81
376.545	90.81
376.771	90.81
376.997	91.81
377.222	105.81
377.448	79.81
377.674	103.81
377.899	98.81
378.125	93.81
378.35	105.81
378.576	93.81
378.802	97.81
379.027	88.81
379.253	86.81
379.478	93.81
379.704	97.81
379.929	98.81
380.155	97.81
380.38	111.81
380.606	95.81
380.831	89.81
381.057	115.81
381.282	101.81
381.507	93.81
381.733	108.81
381.958	86.81
382.184	94.81
382.409	97.81
382.634	109.81
382.86	81.81
383.085	90.81
383.31	95.81
383.535	100.81
383.761	92.81
383.986	97.81
384.211	104.81
384.436	113.81
384.662	85.81
384.887	107.81
385.112	107.81
385.337	88.81
385.562	74.81
385.787	100.81
386.013	104.81
386.238	100.81
386.463	101.81
386.688	101.81
386.913	106.81
387.138	92.81
387.363	95.81
387.588	106.81
387.813	99.81
388.038	96.81
388.263	105.81
388.488	97.81
388.713	98.81
388.938	112.81
389.163	111.81
389.387	101.81
389.612	120.81
389.837	114.81
390.062	94.81
390.287	94.81
390.512	111.81
390.736	98.81
390.961	121.81
391.186	101.81
391.411	109.81
391.636	112.81
391.86	108.81
392.085	114.81
392.31	117.81
392.534	115.81
392.759	109.81
392.984	119.81
393.208	119.81
393.433	123.81
393.658	104.81
393.882	117.81
394.107	105.81
394.331	109.81
394.556	99.81
394.78	115.81
395.005	121.81
395.229	120.81
395.454	98.81
395.678	99.81
395.903	124.81
396.127	99.81
396.352	98.81
396.576	106.81
396.801	105.81
397.025	104.81
397.249	123.81
397.474	113.81
397.698	116.81
397.922	119.81
398.147	118.81
398.371	117.81
398.595	116.81
398.82	113.81
399.044	116.81
399.268	119.81
399.492	133.81
399.717	124.81
399.941	120.81
400.165	123.81
400.389	106.81
400.613	127.81
400.837	118.81
401.062	105.81
401.286	127.81
401.51	117.81
401.734	124.81
401.958	124.81
402.182	127.81
402.406	116.81
402.63	111.81
402.854	117.81
403.078	114.81
403.302	119.81
403.526	120.81
403.75	117.81
403.974	127.81
404.198	116.81
404.422	124.81
404.645	121.81
404.869	117.81
405.093	108.81
405.317	121.81
405.541	136.81
405.765	115.81
405.988	113.81
406.212	132.81
406.436	115.81
406.66	129.81
406.883	131.81
407.107	132.81
407.331	122.81
407.555	127.81
407.778	111.81
408.002	127.81
408.226	125.81
408.449	135.81
408.673	122.81
408.896	120.81
409.12	114.81
409.344	127.81
409.567	123.81
409.791	123.81
410.014	123.81
410.238	128.81
410.461	131.81
410.685	120.81
410.908	125.81
411.132	112.81
411.355	123.81
411.578	127.81
411.802	125.81
412.025	121.81
412.249	111.81
412.472	125.81
412.695	117.81
412.919	119.81
413.142	127.81
413.365	119.81
413.589	127.81
413.812	104.81
414.035	131.81
414.258	122.81
414.482	111.81
414.705	120.81
414.928	127.81
415.151	122.81
415.374	121.81
415.597	127.81
415.821	127.81
416.044	121.81
416.267	124.81
416.49	127.81
416.713	138.81
416.936	145.81
417.159	123.81
417.382	124.81
417.605	127.81
417.828	133.81
418.051	138.81
418.274	133.81
418.497	145.81
418.72	124.81
418.943	137.81
419.166	120.81
419.389	144.81
419.611	137.81
419.834	148.81
420.057	137.81
420.28	119.81
420.503	145.81
420.726	132.81
420.948	133.81
421.171	144.81
421.394	133.81
421.617	132.81
421.839	158.81
422.062	133.81
422.285	134.81
422.507	136.81
422.73	129.81
422.953	130.81
423.175	135.81
423.398	112.81
423.621	147.81
423.843	125.81
424.066	146.81
424.288	160.81
424.511	148.81
424.733	144.81
424.956	152.81
425.178	132.81
425.401	152.81
425.623	148.81
425.846	141.81
426.068	141.81
426.291	136.81
426.513	148.81
426.735	129.81
426.958	125.81
427.18	139.81
427.402	146.81
427.625	123.81
427.847	118.81
428.069	130.81
428.292	127.81
428.514	143.81
428.736	121.81
428.958	134.81
429.181	143.81
429.403	145.81
429.625	139.81
429.847	131.81
430.069	139.81
430.292	120.81
430.514	129.81
430.736	124.81
430.958	128.81
431.18	122.81
431.402	131.81
431.624	128.81
431.846	103.81
432.068	97.81
432.29	103.81
432.512	123.81
432.734	124.81
432.956	142.81
433.178	149.81
433.4	133.81
433.622	142.81
433.844	141.81
434.066	122.81
434.287	111.81
434.509	101.81
434.731	97.81
434.953	123.81
435.175	135.81
435.397	137.81
435.618	132.81
435.84	120.81
436.062	125.81
436.284	136.81
436.505	140.81
436.727	127.81
436.949	135.81
437.17	139.81
437.392	148.81
437.614	123.81
437.835	129.81
438.057	106.81
438.278	108.81
438.5	145.81
438.721	132.81
438.943	148.81
439.165	141.81
439.386	143.81
439.608	143.81
439.829	155.81
440.05	157.81
440.272	156.81
440.493	142.81
440.715	145.81
440.936	149.81
441.158	157.81
441.379	146.81
441.6	162.81
441.822	146.81
442.043	144.81
442.264	158.81
442.486	147.81
442.707	142.81
442.928	156.81
443.149	139.81
443.371	132.81
443.592	145.81
443.813	152.81
444.034	135.81
444.255	154.81
444.476	132.81
444.698	139.81
444.919	155.81
445.14	261.81
445.361	214.81
445.582	163.81
445.803	149.81
446.024	153.81
446.245	149.81
446.466	151.81
446.687	159.81
446.908	143.81
447.129	163.81
447.35	169.81
447.571	150.81
447.792	157.81
448.013	145.81
448.234	147.81
448.455	149.81
448.675	142.81
448.896	148.81
449.117	130.81
449.338	138.81
449.559	136.81
449.779	142.81
450	134.81
450.221	130.81
450.442	147.81
450.662	148.81
450.883	140.81
451.104	151.81
451.324	132.81
451.545	138.81
451.766	125.81
451.986	127.81
452.207	143.81
452.428	131.81
452.648	121.81
452.869	140.81
453.089	116.81
453.31	105.81
453.53	111.81
453.751	104.81
453.971	113.81
454.192	113.81
454.412	114.81
454.633	117.81
454.853	127.81
455.073	139.81
455.294	120.81
455.514	133.81
455.734	127.81
455.955	142.81
456.175	135.81
456.395	114.81
456.616	102.81
456.836	123.81
457.056	115.81
457.276	122.81
457.497	120.81
457.717	111.81
457.937	116.81
458.157	112.81
458.377	103.81
458.598	111.81
458.818	92.81
459.038	97.81
459.258	85.81
459.478	88.81
459.698	87.81
459.918	110.81
460.138	121.81
460.358	132.81
460.578	135.81
460.798	118.81
461.018	120.81
461.238	114.81
461.458	117.81
461.678	115.81
461.898	123.81
462.118	117.81
462.338	108.81
462.558	120.81
462.777	111.81
462.997	123.81
463.217	105.81
463.437	111.81
463.657	115.81
463.876	112.81
464.096	117.81
464.316	119.81
464.536	115.81
464.755	127.81
464.975	118.81
465.195	120.81
465.414	114.81
465.634	125.81
465.854	117.81
466.073	119.81
466.293	125.81
466.512	125.81
466.732	124.81
466.951	137.81
467.171	141.81
467.391	139.81
467.61	129.81
467.829	145.81
468.049	134.81
468.268	143.81
468.488	141.81
468.707	142.81
468.927	143.81
469.146	150.81
469.365	148.81
469.585	149.81
469.804	139.81
470.023	155.81
470.243	149.81
470.462	151.81
470.681	147.81
470.901	149.81
471.12	144.81
471.339	131.81
471.558	141.81
471.777	147.81
471.997	132.81
472.216	131.81
472.435	115.81
472.654	124.81
472.873	108.81
473.092	105.81
473.311	130.81
473.53	134.81
473.749	139.81
473.968	131.81
474.187	130.81
474.406	133.81
474.625	131.81
474.844	133.81
475.063	128.81
475.282	119.81
475.501	121.81
475.72	138.81
475.939	112.81
476.158	124.81
476.377	145.81
476.596	123.81
476.814	123.81
477.033	113.81
477.252	117.81
477.471	114.81
477.69	131.81
477.908	149.81
478.127	134.81
478.346	135.81
478.564	130.81
478.783	145.81
479.002	131.81
479.22	140.81
479.439	141.81
479.658	122.81
479.876	106.81
480.095	111.81
480.313	109.81
480.532	127.81
480.751	109.81
480.969	104.81
481.188	102.81
481.406	94.81
481.624	94.81
481.843	102.81
482.061	92.81
482.28	118.81
482.498	142.81
482.717	90.81
482.935	140.81
483.153	142.81
483.372	159.81
483.59	164.81
483.808	153.81
484.027	135.81
484.245	131.81
484.463	147.81
484.681	171.81
484.9	159.81
485.118	147.81
485.336	141.81
485.554	123.81
485.772	110.81
485.99	112.81
486.209	112.81
486.427	119.81
486.645	118.81
486.863	140.81
487.081	159.81
487.299	137.81
487.517	145.81
487.735	170.81
487.953	184.81
488.171	201.81
488.389	191.81
488.607	177.81
488.825	146.81
489.043	141.81
489.261	139.81
489.479	145.81
489.696	140.81
489.914	150.81
490.132	153.81
490.35	149.81
490.568	152.81
490.786	179.81
491.003	182.81
491.221	196.81
491.439	184.81
491.657	196.81
491.874	217.81
492.092	205.81
492.31	249.81
492.527	267.81
492.745	220.81
492.963	188.81
493.18	192.81
493.398	191.81
493.615	195.81
493.833	183.81
494.05	171.81
494.268	171.81
494.485	185.81
494.703	175.81
494.92	172.81
495.138	189.81
495.355	170.81
495.573	177.81
495.79	191.81
496.008	176.81
496.225	174.81
496.442	176.81
496.66	167.81
496.877	182.81
497.094	177.81
497.312	172.81
497.529	163.81
497.746	138.81
497.963	138.81
498.181	146.81
498.398	138.81
498.615	123.81
498.832	124.81
499.049	121.81
499.267	141.81
499.484	128.81
499.701	120.81
499.918	140.81
500.135	141.81
500.352	139.81
500.569	137.81
500.786	149.81
501.003	152.81
501.22	145.81
501.437	125.81
501.654	124.81
501.871	150.81
502.088	127.81
502.305	128.81
502.522	123.81
502.739	140.81
502.956	124.81
503.172	131.81
503.389	120.81
503.606	130.81
503.823	125.81
504.04	122.81
504.256	117.81
504.473	134.81
504.69	119.81
504.907	143.81
505.123	123.81
505.34	117.81
505.557	135.81
505.773	133.81
505.99	125.81
506.207	120.81
506.423	118.81
506.64	121.81
506.856	125.81
507.073	125.81
507.289	122.81
507.506	122.81
507.722	120.81
507.939	119.81
508.155	123.81
508.372	107.81
508.588	114.81
508.805	115.81
509.021	119.81
509.238	99.81
509.454	115.81
509.67	104.81
509.887	115.81
510.103	85.81
510.319	86.81
510.536	83.81
510.752	93.81
510.968	80.81
511.184	79.81
511.401	92.81
