Data from Location6.07152019.Energy5.Lamp.07192019.3%Agarose_HRD10591_16-13-42-395.txt Node
Date: Fri Jul 19 16:13:42 EDT 2019
User: cochatt
Spectrometer: HR+D1059
Trigger mode: 1
Integration Time (sec): 1.000000E-1
Scans to average: 1
Electric dark correction enabled: true
Nonlinearity correction enabled: false
Boxcar width: 0
XAxis mode: Wavelengths
Number of Pixels in Spectrum: 2048
>>>>>Begin Spectral Data<<<<<
223.165	-0.19
223.4	-0.19
223.635	-0.19
223.869	-23.19
224.104	-12.19
224.338	-11.19
224.573	-12.19
224.808	-13.19
225.042	-3.19
225.277	-16.19
225.511	0.81
225.746	-0.19
225.98	3.81
226.215	15.81
226.449	8.81
226.683	-3.19
226.918	33.81
227.152	31.81
227.387	47.81
227.621	32.81
227.856	31.81
228.09	22.81
228.324	49.81
228.559	54.81
228.793	62.81
229.027	66.81
229.262	66.81
229.496	55.81
229.73	75.81
229.964	74.81
230.199	79.81
230.433	70.81
230.667	71.81
230.901	80.81
231.136	80.81
231.37	75.81
231.604	90.81
231.838	73.81
232.072	96.81
232.306	84.81
232.541	89.81
232.775	83.81
233.009	79.81
233.243	89.81
233.477	84.81
233.711	68.81
233.945	96.81
234.179	94.81
234.413	77.81
234.647	82.81
234.881	76.81
235.115	71.81
235.349	88.81
235.583	81.81
235.817	84.81
236.051	67.81
236.285	82.81
236.519	70.81
236.753	73.81
236.987	74.81
237.221	65.81
237.455	67.81
237.689	87.81
237.922	73.81
238.156	74.81
238.39	75.81
238.624	81.81
238.858	92.81
239.091	74.81
239.325	71.81
239.559	72.81
239.793	63.81
240.027	82.81
240.26	83.81
240.494	67.81
240.728	82.81
240.961	82.81
241.195	81.81
241.429	69.81
241.662	77.81
241.896	82.81
242.13	76.81
242.363	77.81
242.597	86.81
242.83	84.81
243.064	72.81
243.298	91.81
243.531	76.81
243.765	72.81
243.998	79.81
244.232	80.81
244.465	90.81
244.699	54.81
244.932	87.81
245.166	58.81
245.399	78.81
245.633	86.81
245.866	84.81
246.099	82.81
246.333	74.81
246.566	85.81
246.8	68.81
247.033	78.81
247.266	67.81
247.5	74.81
247.733	87.81
247.966	89.81
248.2	58.81
248.433	80.81
248.666	81.81
248.899	87.81
249.133	83.81
249.366	73.81
249.599	78.81
249.832	71.81
250.066	90.81
250.299	83.81
250.532	74.81
250.765	75.81
250.998	76.81
251.231	83.81
251.465	87.81
251.698	79.81
251.931	64.81
252.164	74.81
252.397	81.81
252.63	80.81
252.863	86.81
253.096	71.81
253.329	79.81
253.562	71.81
253.795	83.81
254.028	83.81
254.261	77.81
254.494	86.81
254.727	67.81
254.96	76.81
255.193	70.81
255.426	82.81
255.659	83.81
255.892	86.81
256.124	76.81
256.357	77.81
256.59	78.81
256.823	79.81
257.056	76.81
257.289	62.81
257.521	83.81
257.754	73.81
257.987	75.81
258.22	76.81
258.452	82.81
258.685	76.81
258.918	85.81
259.151	92.81
259.383	92.81
259.616	89.81
259.849	73.81
260.081	75.81
260.314	93.81
260.547	80.81
260.779	87.81
261.012	87.81
261.244	72.81
261.477	95.81
261.71	91.81
261.942	74.81
262.175	74.81
262.407	81.81
262.64	82.81
262.872	85.81
263.105	91.81
263.337	82.81
263.57	85.81
263.802	76.81
264.035	77.81
264.267	76.81
264.499	87.81
264.732	76.81
264.964	85.81
265.197	66.81
265.429	88.81
265.661	102.81
265.894	79.81
266.126	81.81
266.358	81.81
266.591	90.81
266.823	83.81
267.055	77.81
267.287	70.81
267.52	89.81
267.752	78.81
267.984	82.81
268.216	80.81
268.448	77.81
268.681	82.81
268.913	73.81
269.145	93.81
269.377	71.81
269.609	77.81
269.841	83.81
270.073	73.81
270.306	89.81
270.538	78.81
270.77	85.81
271.002	98.81
271.234	74.81
271.466	72.81
271.698	95.81
271.93	82.81
272.162	57.81
272.394	69.81
272.626	87.81
272.858	73.81
273.09	81.81
273.322	83.81
273.553	80.81
273.785	83.81
274.017	81.81
274.249	88.81
274.481	76.81
274.713	74.81
274.945	81.81
275.176	76.81
275.408	86.81
275.64	92.81
275.872	87.81
276.104	82.81
276.335	88.81
276.567	80.81
276.799	90.81
277.031	82.81
277.262	69.81
277.494	99.81
277.726	73.81
277.957	90.81
278.189	81.81
278.421	90.81
278.652	71.81
278.884	80.81
279.115	71.81
279.347	92.81
279.579	77.81
279.81	79.81
280.042	80.81
280.273	76.81
280.505	74.81
280.736	84.81
280.968	71.81
281.199	85.81
281.431	84.81
281.662	75.81
281.894	81.81
282.125	86.81
282.356	84.81
282.588	82.81
282.819	81.81
283.051	81.81
283.282	77.81
283.513	90.81
283.745	82.81
283.976	87.81
284.207	73.81
284.439	85.81
284.67	82.81
284.901	85.81
285.132	77.81
285.364	74.81
285.595	109.81
285.826	76.81
286.057	70.81
286.288	88.81
286.52	95.81
286.751	93.81
286.982	93.81
287.213	89.81
287.444	84.81
287.675	59.81
287.906	83.81
288.138	85.81
288.369	71.81
288.6	77.81
288.831	82.81
289.062	90.81
289.293	75.81
289.524	88.81
289.755	97.81
289.986	68.81
290.217	84.81
290.448	82.81
290.679	77.81
290.91	87.81
291.141	76.81
291.371	97.81
291.602	79.81
291.833	88.81
292.064	79.81
292.295	86.81
292.526	88.81
292.757	89.81
292.987	80.81
293.218	71.81
293.449	86.81
293.68	80.81
293.91	102.81
294.141	77.81
294.372	81.81
294.603	83.81
294.833	86.81
295.064	74.81
295.295	82.81
295.525	74.81
295.756	89.81
295.987	68.81
296.217	82.81
296.448	73.81
296.679	83.81
296.909	95.81
297.14	93.81
297.37	75.81
297.601	89.81
297.831	76.81
298.062	85.81
298.292	72.81
298.523	79.81
298.753	79.81
298.984	89.81
299.214	78.81
299.445	81.81
299.675	82.81
299.905	77.81
300.136	84.81
300.366	89.81
300.597	74.81
300.827	85.81
301.057	102.81
301.288	80.81
301.518	84.81
301.748	95.81
301.979	62.81
302.209	69.81
302.439	75.81
302.669	92.81
302.9	67.81
303.13	90.81
303.36	78.81
303.59	80.81
303.82	83.81
304.051	78.81
304.281	82.81
304.511	86.81
304.741	87.81
304.971	91.81
305.201	88.81
305.431	74.81
305.661	86.81
305.891	69.81
306.121	81.81
306.352	82.81
306.582	86.81
306.812	94.81
307.042	87.81
307.272	84.81
307.502	75.81
307.731	73.81
307.961	79.81
308.191	80.81
308.421	90.81
308.651	91.81
308.881	89.81
309.111	87.81
309.341	80.81
309.571	83.81
309.8	80.81
310.03	94.81
310.26	76.81
310.49	80.81
310.72	87.81
310.949	82.81
311.179	95.81
311.409	83.81
311.639	71.81
311.868	87.81
312.098	80.81
312.328	88.81
312.557	76.81
312.787	90.81
313.017	83.81
313.246	95.81
313.476	73.81
313.706	80.81
313.935	82.81
314.165	97.81
314.394	79.81
314.624	79.81
314.853	83.81
315.083	74.81
315.312	70.81
315.542	84.81
315.771	86.81
316.001	86.81
316.23	79.81
316.46	88.81
316.689	73.81
316.919	85.81
317.148	88.81
317.377	84.81
317.607	90.81
317.836	84.81
318.065	84.81
318.295	83.81
318.524	85.81
318.753	81.81
318.983	92.81
319.212	82.81
319.441	83.81
319.67	73.81
319.9	80.81
320.129	80.81
320.358	74.81
320.587	78.81
320.816	86.81
321.046	84.81
321.275	80.81
321.504	75.81
321.733	83.81
321.962	82.81
322.191	75.81
322.42	79.81
322.649	76.81
322.878	83.81
323.108	83.81
323.337	97.81
323.566	85.81
323.795	79.81
324.024	99.81
324.253	81.81
324.482	79.81
324.71	90.81
324.939	92.81
325.168	78.81
325.397	75.81
325.626	84.81
325.855	77.81
326.084	82.81
326.313	81.81
326.542	82.81
326.77	76.81
326.999	84.81
327.228	81.81
327.457	91.81
327.686	76.81
327.914	95.81
328.143	76.81
328.372	71.81
328.6	71.81
328.829	77.81
329.058	94.81
329.287	82.81
329.515	90.81
329.744	72.81
329.972	102.81
330.201	77.81
330.43	96.81
330.658	87.81
330.887	84.81
331.115	86.81
331.344	67.81
331.572	82.81
331.801	88.81
332.03	83.81
332.258	92.81
332.486	71.81
332.715	80.81
332.943	83.81
333.172	82.81
333.4	69.81
333.629	76.81
333.857	85.81
334.085	92.81
334.314	81.81
334.542	77.81
334.771	90.81
334.999	76.81
335.227	75.81
335.455	86.81
335.684	98.81
335.912	79.81
336.14	88.81
336.369	85.81
336.597	88.81
336.825	85.81
337.053	92.81
337.281	83.81
337.51	79.81
337.738	84.81
337.966	76.81
338.194	75.81
338.422	89.81
338.65	86.81
338.878	86.81
339.106	77.81
339.334	80.81
339.562	81.81
339.79	74.81
340.018	87.81
340.246	83.81
340.474	82.81
340.702	91.81
340.93	80.81
341.158	85.81
341.386	87.81
341.614	90.81
341.842	95.81
342.07	85.81
342.298	72.81
342.526	83.81
342.754	91.81
342.981	90.81
343.209	79.81
343.437	86.81
343.665	79.81
343.893	80.81
344.12	93.81
344.348	82.81
344.576	65.81
344.804	90.81
345.031	76.81
345.259	75.81
345.487	73.81
345.714	74.81
345.942	83.81
346.17	76.81
346.397	84.81
346.625	80.81
346.853	99.81
347.08	75.81
347.308	87.81
347.535	86.81
347.763	86.81
347.99	90.81
348.218	81.81
348.445	91.81
348.673	79.81
348.9	86.81
349.128	60.81
349.355	78.81
349.583	85.81
349.81	80.81
350.037	76.81
350.265	92.81
350.492	80.81
350.72	89.81
350.947	82.81
351.174	90.81
351.402	81.81
351.629	78.81
351.856	89.81
352.083	80.81
352.311	75.81
352.538	74.81
352.765	82.81
352.992	84.81
353.22	83.81
353.447	100.81
353.674	89.81
353.901	88.81
354.128	84.81
354.355	85.81
354.583	89.81
354.81	79.81
355.037	89.81
355.264	93.81
355.491	85.81
355.718	76.81
355.945	87.81
356.172	89.81
356.399	86.81
356.626	83.81
356.853	89.81
357.08	93.81
357.307	93.81
357.534	74.81
357.761	70.81
357.988	92.81
358.215	76.81
358.441	83.81
358.668	75.81
358.895	88.81
359.122	84.81
359.349	88.81
359.576	79.81
359.802	90.81
360.029	86.81
360.256	74.81
360.483	79.81
360.709	86.81
360.936	94.81
361.163	99.81
361.39	84.81
361.616	79.81
361.843	82.81
362.07	85.81
362.296	90.81
362.523	85.81
362.749	83.81
362.976	79.81
363.203	76.81
363.429	83.81
363.656	87.81
363.882	95.81
364.109	90.81
364.335	89.81
364.562	86.81
364.788	85.81
365.015	84.81
365.241	82.81
365.468	90.81
365.694	84.81
365.92	80.81
366.147	78.81
366.373	86.81
366.599	84.81
366.826	99.81
367.052	87.81
367.278	86.81
367.505	80.81
367.731	96.81
367.957	99.81
368.184	92.81
368.41	83.81
368.636	79.81
368.862	88.81
369.089	92.81
369.315	90.81
369.541	108.81
369.767	83.81
369.993	97.81
370.219	82.81
370.445	89.81
370.672	91.81
370.898	79.81
371.124	82.81
371.35	90.81
371.576	80.81
371.802	80.81
372.028	77.81
372.254	102.81
372.48	96.81
372.706	88.81
372.932	96.81
373.158	85.81
373.384	95.81
373.61	106.81
373.835	96.81
374.061	77.81
374.287	86.81
374.513	90.81
374.739	92.81
374.965	91.81
375.191	92.81
375.416	100.81
375.642	87.81
375.868	81.81
376.094	97.81
376.319	86.81
376.545	100.81
376.771	89.81
376.997	95.81
377.222	86.81
377.448	105.81
377.674	85.81
377.899	86.81
378.125	92.81
378.35	92.81
378.576	93.81
378.802	88.81
379.027	104.81
379.253	104.81
379.478	99.81
379.704	92.81
379.929	92.81
380.155	93.81
380.38	94.81
380.606	90.81
380.831	95.81
381.057	96.81
381.282	98.81
381.507	101.81
381.733	98.81
381.958	117.81
382.184	110.81
382.409	93.81
382.634	102.81
382.86	92.81
383.085	97.81
383.31	94.81
383.535	96.81
383.761	96.81
383.986	109.81
384.211	102.81
384.436	105.81
384.662	91.81
384.887	93.81
385.112	91.81
385.337	94.81
385.562	82.81
385.787	95.81
386.013	110.81
386.238	102.81
386.463	98.81
386.688	93.81
386.913	105.81
387.138	110.81
387.363	102.81
387.588	121.81
387.813	101.81
388.038	108.81
388.263	100.81
388.488	104.81
388.713	90.81
388.938	100.81
389.163	104.81
389.387	116.81
389.612	93.81
389.837	104.81
390.062	107.81
390.287	112.81
390.512	101.81
390.736	118.81
390.961	104.81
391.186	106.81
391.411	96.81
391.636	104.81
391.86	104.81
392.085	103.81
392.31	111.81
392.534	116.81
392.759	90.81
392.984	106.81
393.208	100.81
393.433	97.81
393.658	100.81
393.882	106.81
394.107	101.81
394.331	104.81
394.556	100.81
394.78	111.81
395.005	96.81
395.229	94.81
395.454	112.81
395.678	113.81
395.903	119.81
396.127	113.81
396.352	98.81
396.576	101.81
396.801	116.81
397.025	110.81
397.249	101.81
397.474	118.81
397.698	112.81
397.922	103.81
398.147	110.81
398.371	100.81
398.595	110.81
398.82	113.81
399.044	114.81
399.268	117.81
399.492	114.81
399.717	103.81
399.941	120.81
400.165	122.81
400.389	107.81
400.613	110.81
400.837	113.81
401.062	110.81
401.286	116.81
401.51	124.81
401.734	108.81
401.958	131.81
402.182	103.81
402.406	98.81
402.63	96.81
402.854	124.81
403.078	122.81
403.302	116.81
403.526	108.81
403.75	106.81
403.974	121.81
404.198	126.81
404.422	115.81
404.645	123.81
404.869	107.81
405.093	110.81
405.317	126.81
405.541	131.81
405.765	126.81
405.988	115.81
406.212	115.81
406.436	124.81
406.66	123.81
406.883	118.81
407.107	118.81
407.331	129.81
407.555	127.81
407.778	118.81
408.002	111.81
408.226	117.81
408.449	115.81
408.673	138.81
408.896	120.81
409.12	115.81
409.344	124.81
409.567	104.81
409.791	122.81
410.014	128.81
410.238	117.81
410.461	115.81
410.685	128.81
410.908	127.81
411.132	111.81
411.355	118.81
411.578	108.81
411.802	140.81
412.025	122.81
412.249	130.81
412.472	131.81
412.695	117.81
412.919	145.81
413.142	124.81
413.365	115.81
413.589	110.81
413.812	115.81
414.035	125.81
414.258	114.81
414.482	126.81
414.705	116.81
414.928	133.81
415.151	134.81
415.374	124.81
415.597	123.81
415.821	112.81
416.044	134.81
416.267	126.81
416.49	118.81
416.713	114.81
416.936	126.81
417.159	126.81
417.382	132.81
417.605	118.81
417.828	121.81
418.051	135.81
418.274	128.81
418.497	136.81
418.72	138.81
418.943	137.81
419.166	140.81
419.389	132.81
419.611	118.81
419.834	134.81
420.057	149.81
420.28	127.81
420.503	147.81
420.726	128.81
420.948	131.81
421.171	128.81
421.394	134.81
421.617	158.81
421.839	125.81
422.062	145.81
422.285	135.81
422.507	150.81
422.73	128.81
422.953	123.81
423.175	152.81
423.398	125.81
423.621	123.81
423.843	139.81
424.066	135.81
424.288	156.81
424.511	143.81
424.733	146.81
424.956	143.81
425.178	136.81
425.401	138.81
425.623	150.81
425.846	144.81
426.068	141.81
426.291	150.81
426.513	111.81
426.735	126.81
426.958	117.81
427.18	146.81
427.402	140.81
427.625	132.81
427.847	134.81
428.069	132.81
428.292	134.81
428.514	126.81
428.736	133.81
428.958	125.81
429.181	137.81
429.403	130.81
429.625	142.81
429.847	144.81
430.069	130.81
430.292	134.81
430.514	132.81
430.736	143.81
430.958	135.81
431.18	124.81
431.402	114.81
431.624	124.81
431.846	117.81
432.068	108.81
432.29	109.81
432.512	120.81
432.734	119.81
432.956	143.81
433.178	143.81
433.4	137.81
433.622	120.81
433.844	130.81
434.066	139.81
434.287	115.81
434.509	91.81
434.731	99.81
434.953	128.81
435.175	118.81
435.397	124.81
435.618	127.81
435.84	119.81
436.062	106.81
436.284	134.81
436.505	137.81
436.727	150.81
436.949	138.81
437.17	132.81
437.392	121.81
437.614	132.81
437.835	107.81
438.057	107.81
438.278	116.81
438.5	120.81
438.721	130.81
438.943	138.81
439.165	151.81
439.386	146.81
439.608	134.81
439.829	149.81
440.05	150.81
440.272	163.81
440.493	129.81
440.715	154.81
440.936	150.81
441.158	148.81
441.379	145.81
441.6	158.81
441.822	141.81
442.043	146.81
442.264	136.81
442.486	129.81
442.707	136.81
442.928	148.81
443.149	126.81
443.371	165.81
443.592	156.81
443.813	141.81
444.034	133.81
444.255	149.81
444.476	148.81
444.698	164.81
444.919	136.81
445.14	282.81
445.361	204.81
445.582	158.81
445.803	155.81
446.024	162.81
446.245	156.81
446.466	158.81
446.687	163.81
446.908	166.81
447.129	160.81
447.35	164.81
447.571	163.81
447.792	137.81
448.013	161.81
448.234	144.81
448.455	148.81
448.675	136.81
448.896	140.81
449.117	146.81
449.338	139.81
449.559	148.81
449.779	145.81
450	147.81
450.221	134.81
450.442	142.81
450.662	141.81
450.883	147.81
451.104	135.81
451.324	134.81
451.545	119.81
451.766	122.81
451.986	145.81
452.207	150.81
452.428	120.81
452.648	132.81
452.869	123.81
453.089	115.81
453.31	123.81
453.53	115.81
453.751	109.81
453.971	106.81
454.192	99.81
454.412	102.81
454.633	110.81
454.853	119.81
455.073	124.81
455.294	116.81
455.514	117.81
455.734	123.81
455.955	127.81
456.175	116.81
456.395	114.81
456.616	103.81
456.836	122.81
457.056	95.81
457.276	101.81
457.497	108.81
457.717	108.81
457.937	108.81
458.157	92.81
458.377	102.81
458.598	105.81
458.818	87.81
459.038	90.81
459.258	94.81
459.478	87.81
459.698	86.81
459.918	101.81
460.138	115.81
460.358	107.81
460.578	116.81
460.798	126.81
461.018	120.81
461.238	119.81
461.458	112.81
461.678	111.81
461.898	126.81
462.118	119.81
462.338	122.81
462.558	115.81
462.777	116.81
462.997	120.81
463.217	105.81
463.437	110.81
463.657	112.81
463.876	104.81
464.096	110.81
464.316	99.81
464.536	122.81
464.755	125.81
464.975	123.81
465.195	122.81
465.414	113.81
465.634	122.81
465.854	115.81
466.073	125.81
466.293	131.81
466.512	121.81
466.732	113.81
466.951	128.81
467.171	135.81
467.391	152.81
467.61	119.81
467.829	131.81
468.049	148.81
468.268	124.81
468.488	129.81
468.707	132.81
468.927	141.81
469.146	150.81
469.365	135.81
469.585	138.81
469.804	138.81
470.023	134.81
470.243	131.81
470.462	135.81
470.681	144.81
470.901	147.81
471.12	151.81
471.339	153.81
471.558	134.81
471.777	146.81
471.997	124.81
472.216	122.81
472.435	126.81
472.654	99.81
472.873	115.81
473.092	132.81
473.311	125.81
473.53	139.81
473.749	136.81
473.968	131.81
474.187	110.81
474.406	120.81
474.625	131.81
474.844	134.81
475.063	136.81
475.282	127.81
475.501	122.81
475.72	130.81
475.939	130.81
476.158	129.81
476.377	120.81
476.596	138.81
476.814	120.81
477.033	111.81
477.252	122.81
477.471	142.81
477.69	122.81
477.908	154.81
478.127	149.81
478.346	146.81
478.564	149.81
478.783	138.81
479.002	144.81
479.22	128.81
479.439	127.81
479.658	145.81
479.876	125.81
480.095	124.81
480.313	137.81
480.532	132.81
480.751	112.81
480.969	88.81
481.188	80.81
481.406	82.81
481.624	96.81
481.843	89.81
482.061	98.81
482.28	121.81
482.498	119.81
482.717	114.81
482.935	133.81
483.153	138.81
483.372	165.81
483.59	154.81
483.808	144.81
484.027	119.81
484.245	143.81
484.463	163.81
484.681	181.81
484.9	150.81
485.118	156.81
485.336	158.81
485.554	108.81
485.772	104.81
485.99	89.81
486.209	103.81
486.427	123.81
486.645	125.81
486.863	147.81
487.081	153.81
487.299	129.81
487.517	146.81
487.735	181.81
487.953	207.81
488.171	178.81
488.389	184.81
488.607	178.81
488.825	157.81
489.043	150.81
489.261	145.81
489.479	147.81
489.696	150.81
489.914	144.81
490.132	137.81
490.35	156.81
490.568	160.81
490.786	186.81
491.003	189.81
491.221	190.81
491.439	188.81
491.657	203.81
491.874	226.81
492.092	245.81
492.31	256.81
492.527	249.81
492.745	223.81
492.963	203.81
493.18	212.81
493.398	178.81
493.615	193.81
493.833	172.81
494.05	184.81
494.268	185.81
494.485	176.81
494.703	183.81
494.92	187.81
495.138	185.81
495.355	181.81
495.573	170.81
495.79	175.81
496.008	194.81
496.225	162.81
496.442	178.81
496.66	169.81
496.877	184.81
497.094	192.81
497.312	183.81
497.529	168.81
497.746	148.81
497.963	150.81
498.181	129.81
498.398	127.81
498.615	121.81
498.832	126.81
499.049	105.81
499.267	105.81
499.484	123.81
499.701	133.81
499.918	144.81
500.135	124.81
500.352	151.81
500.569	139.81
500.786	150.81
501.003	146.81
501.22	144.81
501.437	146.81
501.654	124.81
501.871	139.81
502.088	124.81
502.305	118.81
502.522	149.81
502.739	146.81
502.956	124.81
503.172	132.81
503.389	131.81
503.606	123.81
503.823	132.81
504.04	129.81
504.256	126.81
504.473	114.81
504.69	106.81
504.907	126.81
505.123	134.81
505.34	114.81
505.557	134.81
505.773	130.81
505.99	129.81
506.207	129.81
506.423	118.81
506.64	122.81
506.856	123.81
507.073	126.81
507.289	122.81
507.506	103.81
507.722	113.81
507.939	114.81
508.155	133.81
508.372	117.81
508.588	111.81
508.805	113.81
509.021	111.81
509.238	123.81
509.454	104.81
509.67	95.81
509.887	100.81
510.103	105.81
510.319	104.81
510.536	91.81
510.752	97.81
510.968	100.81
511.184	88.81
511.401	82.81
511.617	82.81
