Data from Location6.07152019.Energy5.Lamp.07192019.3%Agarose_HRD10591_16-11-35-395.txt Node
Date: Fri Jul 19 16:11:35 EDT 2019
User: cochatt
Spectrometer: HR+D1059
Trigger mode: 1
Integration Time (sec): 1.000000E-1
Scans to average: 1
Electric dark correction enabled: true
Nonlinearity correction enabled: false
Boxcar width: 0
XAxis mode: Wavelengths
Number of Pixels in Spectrum: 2048
>>>>>Begin Spectral Data<<<<<
223.165	-20.12
223.4	-20.12
223.635	-20.12
223.869	-23.12
224.104	-29.12
224.338	-16.12
224.573	-7.12
224.808	-11.12
225.042	-7.12
225.277	0.88
225.511	2.88
225.746	1.88
225.98	7.88
226.215	12.88
226.449	14.88
226.683	28.88
226.918	20.88
227.152	22.88
227.387	31.88
227.621	30.88
227.856	47.88
228.09	50.88
228.324	52.88
228.559	59.88
228.793	58.88
229.027	65.88
229.262	64.88
229.496	71.88
229.73	74.88
229.964	68.88
230.199	80.88
230.433	66.88
230.667	66.88
230.901	85.88
231.136	87.88
231.37	80.88
231.604	76.88
231.838	67.88
232.072	79.88
232.306	75.88
232.541	85.88
232.775	86.88
233.009	92.88
233.243	73.88
233.477	95.88
233.711	96.88
233.945	85.88
234.179	83.88
234.413	86.88
234.647	71.88
234.881	84.88
235.115	78.88
235.349	79.88
235.583	69.88
235.817	68.88
236.051	86.88
236.285	64.88
236.519	82.88
236.753	68.88
236.987	71.88
237.221	87.88
237.455	87.88
237.689	68.88
237.922	79.88
238.156	73.88
238.39	70.88
238.624	68.88
238.858	86.88
239.091	76.88
239.325	84.88
239.559	80.88
239.793	76.88
240.027	70.88
240.26	80.88
240.494	92.88
240.728	84.88
240.961	70.88
241.195	68.88
241.429	87.88
241.662	66.88
241.896	66.88
242.13	82.88
242.363	69.88
242.597	78.88
242.83	70.88
243.064	72.88
243.298	89.88
243.531	86.88
243.765	75.88
243.998	76.88
244.232	86.88
244.465	73.88
244.699	72.88
244.932	68.88
245.166	72.88
245.399	81.88
245.633	84.88
245.866	79.88
246.099	66.88
246.333	70.88
246.566	73.88
246.8	67.88
247.033	85.88
247.266	68.88
247.5	82.88
247.733	82.88
247.966	85.88
248.2	73.88
248.433	74.88
248.666	87.88
248.899	74.88
249.133	88.88
249.366	91.88
249.599	87.88
249.832	80.88
250.066	85.88
250.299	79.88
250.532	76.88
250.765	71.88
250.998	83.88
251.231	69.88
251.465	67.88
251.698	78.88
251.931	87.88
252.164	85.88
252.397	80.88
252.63	84.88
252.863	78.88
253.096	79.88
253.329	64.88
253.562	83.88
253.795	79.88
254.028	78.88
254.261	82.88
254.494	66.88
254.727	68.88
254.96	91.88
255.193	77.88
255.426	83.88
255.659	75.88
255.892	83.88
256.124	70.88
256.357	77.88
256.59	72.88
256.823	81.88
257.056	76.88
257.289	75.88
257.521	78.88
257.754	88.88
257.987	69.88
258.22	89.88
258.452	75.88
258.685	86.88
258.918	89.88
259.151	79.88
259.383	75.88
259.616	73.88
259.849	70.88
260.081	68.88
260.314	87.88
260.547	85.88
260.779	78.88
261.012	86.88
261.244	80.88
261.477	79.88
261.71	82.88
261.942	86.88
262.175	69.88
262.407	78.88
262.64	79.88
262.872	83.88
263.105	86.88
263.337	82.88
263.57	79.88
263.802	84.88
264.035	70.88
264.267	89.88
264.499	66.88
264.732	86.88
264.964	91.88
265.197	88.88
265.429	83.88
265.661	86.88
265.894	71.88
266.126	83.88
266.358	79.88
266.591	72.88
266.823	86.88
267.055	83.88
267.287	77.88
267.52	79.88
267.752	80.88
267.984	86.88
268.216	81.88
268.448	77.88
268.681	82.88
268.913	81.88
269.145	77.88
269.377	81.88
269.609	81.88
269.841	94.88
270.073	94.88
270.306	77.88
270.538	78.88
270.77	80.88
271.002	80.88
271.234	82.88
271.466	86.88
271.698	83.88
271.93	81.88
272.162	85.88
272.394	82.88
272.626	97.88
272.858	72.88
273.09	76.88
273.322	94.88
273.553	75.88
273.785	80.88
274.017	89.88
274.249	83.88
274.481	76.88
274.713	78.88
274.945	75.88
275.176	86.88
275.408	79.88
275.64	80.88
275.872	70.88
276.104	62.88
276.335	78.88
276.567	87.88
276.799	73.88
277.031	79.88
277.262	82.88
277.494	87.88
277.726	85.88
277.957	89.88
278.189	84.88
278.421	92.88
278.652	89.88
278.884	90.88
279.115	83.88
279.347	79.88
279.579	83.88
279.81	83.88
280.042	92.88
280.273	75.88
280.505	82.88
280.736	85.88
280.968	90.88
281.199	77.88
281.431	81.88
281.662	87.88
281.894	91.88
282.125	79.88
282.356	93.88
282.588	75.88
282.819	87.88
283.051	87.88
283.282	81.88
283.513	78.88
283.745	80.88
283.976	82.88
284.207	80.88
284.439	85.88
284.67	91.88
284.901	84.88
285.132	87.88
285.364	81.88
285.595	82.88
285.826	85.88
286.057	81.88
286.288	95.88
286.52	74.88
286.751	84.88
286.982	90.88
287.213	78.88
287.444	80.88
287.675	92.88
287.906	76.88
288.138	85.88
288.369	83.88
288.6	84.88
288.831	89.88
289.062	89.88
289.293	68.88
289.524	81.88
289.755	72.88
289.986	92.88
290.217	88.88
290.448	74.88
290.679	85.88
290.91	85.88
291.141	83.88
291.371	97.88
291.602	88.88
291.833	90.88
292.064	81.88
292.295	92.88
292.526	82.88
292.757	99.88
292.987	84.88
293.218	101.88
293.449	86.88
293.68	75.88
293.91	58.88
294.141	82.88
294.372	78.88
294.603	77.88
294.833	96.88
295.064	75.88
295.295	73.88
295.525	71.88
295.756	91.88
295.987	74.88
296.217	94.88
296.448	91.88
296.679	83.88
296.909	80.88
297.14	90.88
297.37	88.88
297.601	74.88
297.831	76.88
298.062	98.88
298.292	83.88
298.523	97.88
298.753	76.88
298.984	78.88
299.214	100.88
299.445	81.88
299.675	90.88
299.905	65.88
300.136	104.88
300.366	91.88
300.597	100.88
300.827	86.88
301.057	84.88
301.288	95.88
301.518	85.88
301.748	72.88
301.979	90.88
302.209	91.88
302.439	81.88
302.669	90.88
302.9	83.88
303.13	83.88
303.36	73.88
303.59	82.88
303.82	75.88
304.051	83.88
304.281	91.88
304.511	98.88
304.741	80.88
304.971	74.88
305.201	91.88
305.431	77.88
305.661	83.88
305.891	85.88
306.121	96.88
306.352	86.88
306.582	72.88
306.812	97.88
307.042	95.88
307.272	82.88
307.502	79.88
307.731	76.88
307.961	97.88
308.191	80.88
308.421	96.88
308.651	78.88
308.881	76.88
309.111	75.88
309.341	72.88
309.571	92.88
309.8	78.88
310.03	81.88
310.26	71.88
310.49	81.88
310.72	87.88
310.949	93.88
311.179	72.88
311.409	81.88
311.639	72.88
311.868	77.88
312.098	99.88
312.328	81.88
312.557	83.88
312.787	84.88
313.017	89.88
313.246	96.88
313.476	83.88
313.706	75.88
313.935	89.88
314.165	86.88
314.394	93.88
314.624	83.88
314.853	88.88
315.083	79.88
315.312	99.88
315.542	79.88
315.771	95.88
316.001	78.88
316.23	93.88
316.46	89.88
316.689	85.88
316.919	71.88
317.148	90.88
317.377	88.88
317.607	87.88
317.836	74.88
318.065	80.88
318.295	76.88
318.524	97.88
318.753	82.88
318.983	91.88
319.212	96.88
319.441	77.88
319.67	99.88
319.9	94.88
320.129	92.88
320.358	79.88
320.587	86.88
320.816	90.88
321.046	71.88
321.275	84.88
321.504	68.88
321.733	91.88
321.962	87.88
322.191	79.88
322.42	85.88
322.649	84.88
322.878	81.88
323.108	80.88
323.337	83.88
323.566	78.88
323.795	88.88
324.024	81.88
324.253	84.88
324.482	90.88
324.71	76.88
324.939	63.88
325.168	91.88
325.397	97.88
325.626	70.88
325.855	76.88
326.084	72.88
326.313	81.88
326.542	93.88
326.77	83.88
326.999	93.88
327.228	85.88
327.457	80.88
327.686	81.88
327.914	101.88
328.143	86.88
328.372	95.88
328.6	89.88
328.829	82.88
329.058	79.88
329.287	68.88
329.515	85.88
329.744	80.88
329.972	67.88
330.201	76.88
330.43	85.88
330.658	91.88
330.887	91.88
331.115	85.88
331.344	78.88
331.572	70.88
331.801	83.88
332.03	87.88
332.258	72.88
332.486	83.88
332.715	74.88
332.943	86.88
333.172	82.88
333.4	91.88
333.629	90.88
333.857	94.88
334.085	84.88
334.314	93.88
334.542	82.88
334.771	84.88
334.999	86.88
335.227	85.88
335.455	73.88
335.684	76.88
335.912	84.88
336.14	74.88
336.369	91.88
336.597	76.88
336.825	88.88
337.053	76.88
337.281	66.88
337.51	103.88
337.738	86.88
337.966	101.88
338.194	90.88
338.422	71.88
338.65	93.88
338.878	85.88
339.106	71.88
339.334	87.88
339.562	70.88
339.79	91.88
340.018	81.88
340.246	95.88
340.474	95.88
340.702	87.88
340.93	74.88
341.158	84.88
341.386	84.88
341.614	81.88
341.842	90.88
342.07	85.88
342.298	82.88
342.526	102.88
342.754	88.88
342.981	91.88
343.209	89.88
343.437	83.88
343.665	84.88
343.893	81.88
344.12	92.88
344.348	80.88
344.576	86.88
344.804	94.88
345.031	88.88
345.259	87.88
345.487	80.88
345.714	96.88
345.942	95.88
346.17	90.88
346.397	83.88
346.625	85.88
346.853	88.88
347.08	94.88
347.308	73.88
347.535	96.88
347.763	87.88
347.99	82.88
348.218	93.88
348.445	84.88
348.673	84.88
348.9	77.88
349.128	92.88
349.355	85.88
349.583	75.88
349.81	83.88
350.037	90.88
350.265	104.88
350.492	87.88
350.72	97.88
350.947	76.88
351.174	77.88
351.402	89.88
351.629	94.88
351.856	84.88
352.083	88.88
352.311	83.88
352.538	96.88
352.765	88.88
352.992	83.88
353.22	97.88
353.447	84.88
353.674	80.88
353.901	96.88
354.128	82.88
354.355	89.88
354.583	91.88
354.81	91.88
355.037	74.88
355.264	81.88
355.491	90.88
355.718	87.88
355.945	94.88
356.172	75.88
356.399	86.88
356.626	89.88
356.853	66.88
357.08	93.88
357.307	87.88
357.534	79.88
357.761	76.88
357.988	88.88
358.215	80.88
358.441	91.88
358.668	89.88
358.895	82.88
359.122	87.88
359.349	82.88
359.576	73.88
359.802	82.88
360.029	91.88
360.256	83.88
360.483	94.88
360.709	92.88
360.936	81.88
361.163	83.88
361.39	94.88
361.616	87.88
361.843	77.88
362.07	92.88
362.296	91.88
362.523	80.88
362.749	84.88
362.976	73.88
363.203	94.88
363.429	82.88
363.656	83.88
363.882	82.88
364.109	70.88
364.335	77.88
364.562	87.88
364.788	71.88
365.015	84.88
365.241	69.88
365.468	83.88
365.694	81.88
365.92	76.88
366.147	86.88
366.373	71.88
366.599	95.88
366.826	90.88
367.052	97.88
367.278	98.88
367.505	86.88
367.731	75.88
367.957	83.88
368.184	90.88
368.41	86.88
368.636	89.88
368.862	90.88
369.089	83.88
369.315	69.88
369.541	90.88
369.767	100.88
369.993	96.88
370.219	88.88
370.445	84.88
370.672	88.88
370.898	87.88
371.124	89.88
371.35	87.88
371.576	95.88
371.802	104.88
372.028	103.88
372.254	104.88
372.48	97.88
372.706	96.88
372.932	82.88
373.158	83.88
373.384	100.88
373.61	79.88
373.835	89.88
374.061	103.88
374.287	99.88
374.513	90.88
374.739	96.88
374.965	89.88
375.191	87.88
375.416	96.88
375.642	94.88
375.868	98.88
376.094	82.88
376.319	85.88
376.545	104.88
376.771	96.88
376.997	98.88
377.222	81.88
377.448	91.88
377.674	78.88
377.899	98.88
378.125	97.88
378.35	96.88
378.576	91.88
378.802	88.88
379.027	107.88
379.253	97.88
379.478	102.88
379.704	95.88
379.929	91.88
380.155	90.88
380.38	98.88
380.606	88.88
380.831	88.88
381.057	103.88
381.282	89.88
381.507	113.88
381.733	112.88
381.958	101.88
382.184	93.88
382.409	74.88
382.634	100.88
382.86	94.88
383.085	101.88
383.31	100.88
383.535	102.88
383.761	86.88
383.986	104.88
384.211	104.88
384.436	113.88
384.662	86.88
384.887	105.88
385.112	99.88
385.337	95.88
385.562	90.88
385.787	95.88
386.013	107.88
386.238	111.88
386.463	92.88
386.688	92.88
386.913	121.88
387.138	101.88
387.363	88.88
387.588	95.88
387.813	97.88
388.038	98.88
388.263	104.88
388.488	100.88
388.713	87.88
388.938	97.88
389.163	95.88
389.387	103.88
389.612	103.88
389.837	114.88
390.062	103.88
390.287	114.88
390.512	102.88
390.736	103.88
390.961	104.88
391.186	100.88
391.411	103.88
391.636	110.88
391.86	112.88
392.085	115.88
392.31	112.88
392.534	108.88
392.759	104.88
392.984	103.88
393.208	94.88
393.433	98.88
393.658	98.88
393.882	113.88
394.107	112.88
394.331	112.88
394.556	114.88
394.78	118.88
395.005	113.88
395.229	100.88
395.454	100.88
395.678	112.88
395.903	112.88
396.127	128.88
396.352	108.88
396.576	106.88
396.801	103.88
397.025	118.88
397.249	106.88
397.474	114.88
397.698	112.88
397.922	110.88
398.147	103.88
398.371	116.88
398.595	118.88
398.82	113.88
399.044	102.88
399.268	109.88
399.492	118.88
399.717	120.88
399.941	125.88
400.165	115.88
400.389	114.88
400.613	115.88
400.837	93.88
401.062	110.88
401.286	108.88
401.51	111.88
401.734	114.88
401.958	107.88
402.182	113.88
402.406	116.88
402.63	111.88
402.854	118.88
403.078	130.88
403.302	120.88
403.526	115.88
403.75	123.88
403.974	115.88
404.198	112.88
404.422	118.88
404.645	122.88
404.869	115.88
405.093	117.88
405.317	123.88
405.541	111.88
405.765	107.88
405.988	115.88
406.212	124.88
406.436	105.88
406.66	124.88
406.883	114.88
407.107	132.88
407.331	117.88
407.555	131.88
407.778	122.88
408.002	114.88
408.226	119.88
408.449	111.88
408.673	129.88
408.896	130.88
409.12	119.88
409.344	111.88
409.567	125.88
409.791	124.88
410.014	124.88
410.238	126.88
410.461	123.88
410.685	117.88
410.908	120.88
411.132	126.88
411.355	114.88
411.578	127.88
411.802	130.88
412.025	108.88
412.249	115.88
412.472	116.88
412.695	121.88
412.919	118.88
413.142	111.88
413.365	119.88
413.589	127.88
413.812	120.88
414.035	124.88
414.258	129.88
414.482	128.88
414.705	132.88
414.928	115.88
415.151	114.88
415.374	108.88
415.597	133.88
415.821	124.88
416.044	137.88
416.267	121.88
416.49	118.88
416.713	114.88
416.936	132.88
417.159	135.88
417.382	120.88
417.605	118.88
417.828	117.88
418.051	132.88
418.274	130.88
418.497	138.88
418.72	146.88
418.943	139.88
419.166	144.88
419.389	124.88
419.611	144.88
419.834	134.88
420.057	135.88
420.28	134.88
420.503	144.88
420.726	137.88
420.948	128.88
421.171	158.88
421.394	130.88
421.617	137.88
421.839	143.88
422.062	128.88
422.285	140.88
422.507	139.88
422.73	137.88
422.953	138.88
423.175	136.88
423.398	132.88
423.621	133.88
423.843	130.88
424.066	144.88
424.288	144.88
424.511	152.88
424.733	147.88
424.956	152.88
425.178	150.88
425.401	133.88
425.623	141.88
425.846	154.88
426.068	130.88
426.291	139.88
426.513	122.88
426.735	138.88
426.958	130.88
427.18	128.88
427.402	135.88
427.625	112.88
427.847	122.88
428.069	124.88
428.292	133.88
428.514	123.88
428.736	137.88
428.958	134.88
429.181	132.88
429.403	140.88
429.625	127.88
429.847	136.88
430.069	129.88
430.292	149.88
430.514	127.88
430.736	138.88
430.958	123.88
431.18	117.88
431.402	125.88
431.624	124.88
431.846	112.88
432.068	110.88
432.29	89.88
432.512	113.88
432.734	134.88
432.956	135.88
433.178	150.88
433.4	136.88
433.622	144.88
433.844	131.88
434.066	130.88
434.287	105.88
434.509	106.88
434.731	106.88
434.953	111.88
435.175	121.88
435.397	122.88
435.618	116.88
435.84	111.88
436.062	117.88
436.284	127.88
436.505	136.88
436.727	138.88
436.949	130.88
437.17	131.88
437.392	107.88
437.614	129.88
437.835	112.88
438.057	118.88
438.278	110.88
438.5	127.88
438.721	136.88
438.943	150.88
439.165	150.88
439.386	142.88
439.608	148.88
439.829	152.88
440.05	158.88
440.272	143.88
440.493	155.88
440.715	144.88
440.936	146.88
441.158	153.88
441.379	147.88
441.6	154.88
441.822	140.88
442.043	142.88
442.264	145.88
442.486	146.88
442.707	130.88
442.928	145.88
443.149	139.88
443.371	152.88
443.592	158.88
443.813	138.88
444.034	140.88
444.255	132.88
444.476	143.88
444.698	128.88
444.919	141.88
445.14	297.88
445.361	218.88
445.582	180.88
445.803	134.88
446.024	153.88
446.245	160.88
446.466	158.88
446.687	161.88
446.908	165.88
447.129	165.88
447.35	155.88
447.571	151.88
447.792	154.88
448.013	140.88
448.234	159.88
448.455	140.88
448.675	158.88
448.896	145.88
449.117	146.88
449.338	120.88
449.559	126.88
449.779	134.88
450	152.88
450.221	129.88
450.442	136.88
450.662	128.88
450.883	135.88
451.104	138.88
451.324	138.88
451.545	142.88
451.766	126.88
451.986	150.88
452.207	132.88
452.428	136.88
452.648	134.88
452.869	124.88
453.089	104.88
453.31	102.88
453.53	116.88
453.751	103.88
453.971	106.88
454.192	105.88
454.412	108.88
454.633	114.88
454.853	131.88
455.073	114.88
455.294	126.88
455.514	138.88
455.734	120.88
455.955	137.88
456.175	135.88
456.395	106.88
456.616	106.88
456.836	123.88
457.056	107.88
457.276	118.88
457.497	103.88
457.717	106.88
457.937	114.88
458.157	104.88
458.377	100.88
458.598	97.88
458.818	83.88
459.038	97.88
459.258	89.88
459.478	94.88
459.698	102.88
459.918	98.88
460.138	104.88
460.358	132.88
460.578	120.88
460.798	118.88
461.018	115.88
461.238	109.88
461.458	113.88
461.678	128.88
461.898	107.88
462.118	126.88
462.338	130.88
462.558	110.88
462.777	120.88
462.997	100.88
463.217	102.88
463.437	118.88
463.657	102.88
463.876	114.88
464.096	113.88
464.316	116.88
464.536	118.88
464.755	117.88
464.975	127.88
465.195	125.88
465.414	108.88
465.634	127.88
465.854	125.88
466.073	117.88
466.293	133.88
466.512	132.88
466.732	131.88
466.951	140.88
467.171	155.88
467.391	124.88
467.61	135.88
467.829	116.88
468.049	134.88
468.268	142.88
468.488	169.88
468.707	130.88
468.927	152.88
469.146	136.88
469.365	140.88
469.585	148.88
469.804	142.88
470.023	143.88
470.243	147.88
470.462	159.88
470.681	152.88
470.901	155.88
471.12	139.88
471.339	153.88
471.558	146.88
471.777	165.88
471.997	146.88
472.216	129.88
472.435	112.88
472.654	113.88
472.873	124.88
473.092	108.88
473.311	137.88
473.53	135.88
473.749	131.88
473.968	144.88
474.187	124.88
474.406	119.88
474.625	132.88
474.844	160.88
475.063	128.88
475.282	118.88
475.501	112.88
475.72	143.88
475.939	140.88
476.158	143.88
476.377	138.88
476.596	132.88
476.814	132.88
477.033	114.88
477.252	111.88
477.471	118.88
477.69	126.88
477.908	134.88
478.127	155.88
478.346	144.88
478.564	153.88
478.783	143.88
479.002	140.88
479.22	148.88
479.439	146.88
479.658	132.88
479.876	118.88
480.095	106.88
480.313	106.88
480.532	117.88
480.751	113.88
480.969	87.88
481.188	91.88
481.406	84.88
481.624	103.88
481.843	86.88
482.061	92.88
482.28	121.88
482.498	128.88
482.717	110.88
482.935	116.88
483.153	152.88
483.372	142.88
483.59	145.88
483.808	149.88
484.027	143.88
484.245	122.88
484.463	150.88
484.681	166.88
484.9	137.88
485.118	141.88
485.336	131.88
485.554	119.88
485.772	97.88
485.99	116.88
486.209	124.88
486.427	107.88
486.645	119.88
486.863	162.88
487.081	140.88
487.299	145.88
487.517	144.88
487.735	164.88
487.953	192.88
488.171	192.88
488.389	175.88
488.607	172.88
488.825	160.88
489.043	134.88
489.261	135.88
489.479	144.88
489.696	166.88
489.914	145.88
490.132	140.88
490.35	158.88
490.568	176.88
490.786	174.88
491.003	160.88
491.221	183.88
491.439	187.88
491.657	179.88
491.874	229.88
492.092	233.88
492.31	256.88
492.527	234.88
492.745	214.88
492.963	197.88
493.18	197.88
493.398	205.88
493.615	212.88
493.833	167.88
494.05	178.88
494.268	183.88
494.485	160.88
494.703	174.88
494.92	181.88
495.138	187.88
495.355	178.88
495.573	176.88
495.79	166.88
496.008	172.88
496.225	178.88
496.442	174.88
496.66	169.88
496.877	174.88
497.094	189.88
497.312	187.88
497.529	170.88
497.746	155.88
497.963	140.88
498.181	140.88
498.398	128.88
498.615	120.88
498.832	108.88
499.049	115.88
499.267	120.88
499.484	132.88
499.701	139.88
499.918	145.88
500.135	132.88
500.352	142.88
500.569	152.88
500.786	152.88
501.003	153.88
501.22	149.88
501.437	149.88
501.654	136.88
501.871	136.88
502.088	131.88
502.305	133.88
502.522	140.88
502.739	144.88
502.956	129.88
503.172	136.88
503.389	126.88
503.606	126.88
503.823	123.88
504.04	118.88
504.256	114.88
504.473	115.88
504.69	131.88
504.907	114.88
505.123	124.88
505.34	118.88
505.557	132.88
505.773	117.88
505.99	125.88
506.207	120.88
506.423	119.88
506.64	129.88
506.856	115.88
507.073	115.88
507.289	120.88
507.506	124.88
507.722	113.88
507.939	116.88
508.155	125.88
508.372	98.88
508.588	105.88
508.805	102.88
509.021	113.88
509.238	105.88
509.454	114.88
509.67	108.88
509.887	114.88
510.103	100.88
510.319	85.88
510.536	95.88
510.752	97.88
510.968	79.88
511.184	83.88
511.401	80.88
