Data from Location6.07152019.Energy5.Lamp.07192019.3%Agarose_HRD10591_16-11-42-394.txt Node
Date: Fri Jul 19 16:11:42 EDT 2019
User: cochatt
Spectrometer: HR+D1059
Trigger mode: 1
Integration Time (sec): 1.000000E-1
Scans to average: 1
Electric dark correction enabled: true
Nonlinearity correction enabled: false
Boxcar width: 0
XAxis mode: Wavelengths
Number of Pixels in Spectrum: 2048
>>>>>Begin Spectral Data<<<<<
223.165	-19.88
223.4	-19.88
223.635	-19.88
223.869	-22.88
224.104	-17.88
224.338	-9.88
224.573	-9.88
224.808	-18.88
225.042	-13.88
225.277	-2.88
225.511	-8.88
225.746	9.12
225.98	10.12
226.215	-6.88
226.449	24.12
226.683	33.12
226.918	23.12
227.152	32.12
227.387	26.12
227.621	38.12
227.856	53.12
228.09	41.12
228.324	44.12
228.559	59.12
228.793	57.12
229.027	63.12
229.262	83.12
229.496	67.12
229.73	68.12
229.964	72.12
230.199	78.12
230.433	81.12
230.667	92.12
230.901	69.12
231.136	78.12
231.37	80.12
231.604	87.12
231.838	89.12
232.072	85.12
232.306	95.12
232.541	90.12
232.775	61.12
233.009	74.12
233.243	94.12
233.477	86.12
233.711	80.12
233.945	85.12
234.179	94.12
234.413	76.12
234.647	74.12
234.881	65.12
235.115	73.12
235.349	81.12
235.583	76.12
235.817	85.12
236.051	80.12
236.285	82.12
236.519	87.12
236.753	69.12
236.987	67.12
237.221	75.12
237.455	73.12
237.689	84.12
237.922	80.12
238.156	85.12
238.39	74.12
238.624	82.12
238.858	87.12
239.091	75.12
239.325	79.12
239.559	63.12
239.793	68.12
240.027	88.12
240.26	91.12
240.494	91.12
240.728	84.12
240.961	84.12
241.195	74.12
241.429	75.12
241.662	65.12
241.896	84.12
242.13	82.12
242.363	73.12
242.597	82.12
242.83	77.12
243.064	70.12
243.298	91.12
243.531	76.12
243.765	83.12
243.998	74.12
244.232	80.12
244.465	90.12
244.699	66.12
244.932	69.12
245.166	77.12
245.399	81.12
245.633	76.12
245.866	82.12
246.099	83.12
246.333	73.12
246.566	74.12
246.8	79.12
247.033	77.12
247.266	84.12
247.5	75.12
247.733	75.12
247.966	62.12
248.2	97.12
248.433	75.12
248.666	82.12
248.899	72.12
249.133	85.12
249.366	81.12
249.599	101.12
249.832	79.12
250.066	75.12
250.299	75.12
250.532	70.12
250.765	70.12
250.998	81.12
251.231	88.12
251.465	75.12
251.698	86.12
251.931	90.12
252.164	83.12
252.397	86.12
252.63	88.12
252.863	71.12
253.096	81.12
253.329	94.12
253.562	79.12
253.795	78.12
254.028	85.12
254.261	70.12
254.494	74.12
254.727	78.12
254.96	84.12
255.193	81.12
255.426	77.12
255.659	73.12
255.892	76.12
256.124	89.12
256.357	84.12
256.59	66.12
256.823	86.12
257.056	85.12
257.289	89.12
257.521	96.12
257.754	90.12
257.987	74.12
258.22	87.12
258.452	77.12
258.685	78.12
258.918	95.12
259.151	87.12
259.383	87.12
259.616	90.12
259.849	79.12
260.081	77.12
260.314	71.12
260.547	78.12
260.779	89.12
261.012	89.12
261.244	87.12
261.477	86.12
261.71	71.12
261.942	96.12
262.175	71.12
262.407	104.12
262.64	79.12
262.872	83.12
263.105	84.12
263.337	85.12
263.57	76.12
263.802	91.12
264.035	88.12
264.267	75.12
264.499	100.12
264.732	84.12
264.964	65.12
265.197	77.12
265.429	105.12
265.661	92.12
265.894	79.12
266.126	87.12
266.358	87.12
266.591	77.12
266.823	84.12
267.055	82.12
267.287	86.12
267.52	77.12
267.752	93.12
267.984	86.12
268.216	88.12
268.448	83.12
268.681	77.12
268.913	78.12
269.145	98.12
269.377	84.12
269.609	80.12
269.841	80.12
270.073	75.12
270.306	79.12
270.538	77.12
270.77	93.12
271.002	82.12
271.234	82.12
271.466	76.12
271.698	84.12
271.93	92.12
272.162	88.12
272.394	84.12
272.626	83.12
272.858	89.12
273.09	83.12
273.322	83.12
273.553	90.12
273.785	83.12
274.017	68.12
274.249	85.12
274.481	99.12
274.713	80.12
274.945	92.12
275.176	90.12
275.408	93.12
275.64	94.12
275.872	68.12
276.104	82.12
276.335	78.12
276.567	89.12
276.799	83.12
277.031	89.12
277.262	79.12
277.494	91.12
277.726	63.12
277.957	71.12
278.189	81.12
278.421	73.12
278.652	76.12
278.884	89.12
279.115	82.12
279.347	80.12
279.579	90.12
279.81	72.12
280.042	76.12
280.273	73.12
280.505	83.12
280.736	89.12
280.968	80.12
281.199	90.12
281.431	76.12
281.662	85.12
281.894	80.12
282.125	88.12
282.356	98.12
282.588	91.12
282.819	77.12
283.051	78.12
283.282	74.12
283.513	78.12
283.745	86.12
283.976	86.12
284.207	95.12
284.439	77.12
284.67	85.12
284.901	89.12
285.132	88.12
285.364	92.12
285.595	81.12
285.826	86.12
286.057	86.12
286.288	92.12
286.52	87.12
286.751	94.12
286.982	88.12
287.213	91.12
287.444	89.12
287.675	95.12
287.906	78.12
288.138	83.12
288.369	85.12
288.6	79.12
288.831	88.12
289.062	82.12
289.293	87.12
289.524	87.12
289.755	83.12
289.986	75.12
290.217	71.12
290.448	82.12
290.679	84.12
290.91	82.12
291.141	87.12
291.371	75.12
291.602	76.12
291.833	85.12
292.064	84.12
292.295	79.12
292.526	76.12
292.757	85.12
292.987	77.12
293.218	94.12
293.449	85.12
293.68	93.12
293.91	91.12
294.141	66.12
294.372	80.12
294.603	90.12
294.833	89.12
295.064	81.12
295.295	89.12
295.525	87.12
295.756	103.12
295.987	89.12
296.217	83.12
296.448	78.12
296.679	88.12
296.909	75.12
297.14	83.12
297.37	100.12
297.601	90.12
297.831	81.12
298.062	76.12
298.292	81.12
298.523	89.12
298.753	81.12
298.984	82.12
299.214	86.12
299.445	87.12
299.675	81.12
299.905	70.12
300.136	94.12
300.366	83.12
300.597	86.12
300.827	86.12
301.057	86.12
301.288	88.12
301.518	72.12
301.748	87.12
301.979	86.12
302.209	94.12
302.439	86.12
302.669	82.12
302.9	87.12
303.13	86.12
303.36	89.12
303.59	85.12
303.82	81.12
304.051	94.12
304.281	87.12
304.511	81.12
304.741	76.12
304.971	94.12
305.201	86.12
305.431	101.12
305.661	81.12
305.891	84.12
306.121	86.12
306.352	78.12
306.582	91.12
306.812	74.12
307.042	87.12
307.272	94.12
307.502	88.12
307.731	84.12
307.961	81.12
308.191	88.12
308.421	79.12
308.651	84.12
308.881	75.12
309.111	101.12
309.341	90.12
309.571	88.12
309.8	92.12
310.03	85.12
310.26	95.12
310.49	90.12
310.72	88.12
310.949	88.12
311.179	83.12
311.409	89.12
311.639	81.12
311.868	77.12
312.098	82.12
312.328	97.12
312.557	100.12
312.787	69.12
313.017	94.12
313.246	76.12
313.476	90.12
313.706	89.12
313.935	97.12
314.165	86.12
314.394	93.12
314.624	85.12
314.853	80.12
315.083	67.12
315.312	84.12
315.542	81.12
315.771	78.12
316.001	75.12
316.23	70.12
316.46	75.12
316.689	86.12
316.919	88.12
317.148	97.12
317.377	77.12
317.607	82.12
317.836	93.12
318.065	88.12
318.295	85.12
318.524	88.12
318.753	97.12
318.983	86.12
319.212	89.12
319.441	88.12
319.67	81.12
319.9	90.12
320.129	88.12
320.358	88.12
320.587	84.12
320.816	92.12
321.046	82.12
321.275	70.12
321.504	77.12
321.733	79.12
321.962	87.12
322.191	90.12
322.42	86.12
322.649	78.12
322.878	86.12
323.108	89.12
323.337	90.12
323.566	84.12
323.795	87.12
324.024	82.12
324.253	84.12
324.482	86.12
324.71	91.12
324.939	84.12
325.168	84.12
325.397	77.12
325.626	80.12
325.855	94.12
326.084	81.12
326.313	76.12
326.542	95.12
326.77	85.12
326.999	100.12
327.228	85.12
327.457	84.12
327.686	90.12
327.914	87.12
328.143	82.12
328.372	66.12
328.6	77.12
328.829	73.12
329.058	85.12
329.287	84.12
329.515	90.12
329.744	81.12
329.972	74.12
330.201	88.12
330.43	83.12
330.658	83.12
330.887	67.12
331.115	75.12
331.344	80.12
331.572	82.12
331.801	86.12
332.03	85.12
332.258	91.12
332.486	77.12
332.715	83.12
332.943	79.12
333.172	67.12
333.4	92.12
333.629	95.12
333.857	96.12
334.085	78.12
334.314	70.12
334.542	78.12
334.771	92.12
334.999	84.12
335.227	80.12
335.455	82.12
335.684	97.12
335.912	79.12
336.14	82.12
336.369	99.12
336.597	90.12
336.825	99.12
337.053	65.12
337.281	74.12
337.51	84.12
337.738	96.12
337.966	91.12
338.194	70.12
338.422	84.12
338.65	83.12
338.878	92.12
339.106	87.12
339.334	96.12
339.562	70.12
339.79	77.12
340.018	77.12
340.246	85.12
340.474	91.12
340.702	88.12
340.93	81.12
341.158	83.12
341.386	91.12
341.614	82.12
341.842	80.12
342.07	73.12
342.298	73.12
342.526	84.12
342.754	81.12
342.981	89.12
343.209	91.12
343.437	75.12
343.665	88.12
343.893	84.12
344.12	86.12
344.348	79.12
344.576	86.12
344.804	88.12
345.031	73.12
345.259	87.12
345.487	80.12
345.714	86.12
345.942	84.12
346.17	81.12
346.397	95.12
346.625	84.12
346.853	80.12
347.08	89.12
347.308	90.12
347.535	85.12
347.763	90.12
347.99	86.12
348.218	83.12
348.445	85.12
348.673	82.12
348.9	85.12
349.128	87.12
349.355	73.12
349.583	88.12
349.81	79.12
350.037	88.12
350.265	75.12
350.492	89.12
350.72	93.12
350.947	77.12
351.174	93.12
351.402	88.12
351.629	84.12
351.856	78.12
352.083	93.12
352.311	104.12
352.538	74.12
352.765	89.12
352.992	80.12
353.22	78.12
353.447	78.12
353.674	83.12
353.901	82.12
354.128	69.12
354.355	96.12
354.583	87.12
354.81	74.12
355.037	86.12
355.264	89.12
355.491	95.12
355.718	94.12
355.945	85.12
356.172	85.12
356.399	81.12
356.626	92.12
356.853	81.12
357.08	83.12
357.307	90.12
357.534	81.12
357.761	81.12
357.988	75.12
358.215	87.12
358.441	88.12
358.668	88.12
358.895	78.12
359.122	84.12
359.349	76.12
359.576	76.12
359.802	78.12
360.029	75.12
360.256	93.12
360.483	88.12
360.709	87.12
360.936	98.12
361.163	93.12
361.39	87.12
361.616	79.12
361.843	74.12
362.07	88.12
362.296	86.12
362.523	90.12
362.749	91.12
362.976	89.12
363.203	96.12
363.429	75.12
363.656	91.12
363.882	86.12
364.109	93.12
364.335	91.12
364.562	81.12
364.788	100.12
365.015	81.12
365.241	84.12
365.468	98.12
365.694	94.12
365.92	84.12
366.147	88.12
366.373	77.12
366.599	92.12
366.826	86.12
367.052	94.12
367.278	101.12
367.505	102.12
367.731	86.12
367.957	95.12
368.184	78.12
368.41	83.12
368.636	101.12
368.862	86.12
369.089	96.12
369.315	101.12
369.541	92.12
369.767	91.12
369.993	87.12
370.219	81.12
370.445	85.12
370.672	87.12
370.898	87.12
371.124	78.12
371.35	114.12
371.576	85.12
371.802	89.12
372.028	86.12
372.254	82.12
372.48	102.12
372.706	97.12
372.932	107.12
373.158	105.12
373.384	97.12
373.61	75.12
373.835	106.12
374.061	106.12
374.287	94.12
374.513	109.12
374.739	96.12
374.965	100.12
375.191	93.12
375.416	86.12
375.642	88.12
375.868	78.12
376.094	96.12
376.319	97.12
376.545	96.12
376.771	91.12
376.997	96.12
377.222	97.12
377.448	93.12
377.674	86.12
377.899	91.12
378.125	83.12
378.35	93.12
378.576	94.12
378.802	114.12
379.027	104.12
379.253	96.12
379.478	97.12
379.704	105.12
379.929	111.12
380.155	85.12
380.38	93.12
380.606	107.12
380.831	93.12
381.057	104.12
381.282	102.12
381.507	93.12
381.733	94.12
381.958	97.12
382.184	93.12
382.409	108.12
382.634	97.12
382.86	88.12
383.085	97.12
383.31	112.12
383.535	116.12
383.761	97.12
383.986	100.12
384.211	102.12
384.436	107.12
384.662	106.12
384.887	87.12
385.112	96.12
385.337	101.12
385.562	96.12
385.787	88.12
386.013	104.12
386.238	102.12
386.463	97.12
386.688	107.12
386.913	100.12
387.138	92.12
387.363	90.12
387.588	104.12
387.813	99.12
388.038	89.12
388.263	92.12
388.488	95.12
388.713	106.12
388.938	109.12
389.163	104.12
389.387	98.12
389.612	105.12
389.837	89.12
390.062	104.12
390.287	99.12
390.512	101.12
390.736	108.12
390.961	108.12
391.186	125.12
391.411	113.12
391.636	96.12
391.86	114.12
392.085	103.12
392.31	105.12
392.534	83.12
392.759	110.12
392.984	130.12
393.208	93.12
393.433	126.12
393.658	112.12
393.882	106.12
394.107	124.12
394.331	99.12
394.556	113.12
394.78	115.12
395.005	110.12
395.229	109.12
395.454	120.12
395.678	102.12
395.903	110.12
396.127	119.12
396.352	120.12
396.576	107.12
396.801	124.12
397.025	89.12
397.249	103.12
397.474	108.12
397.698	104.12
397.922	115.12
398.147	104.12
398.371	106.12
398.595	101.12
398.82	116.12
399.044	108.12
399.268	118.12
399.492	112.12
399.717	118.12
399.941	120.12
400.165	116.12
400.389	106.12
400.613	114.12
400.837	112.12
401.062	109.12
401.286	116.12
401.51	123.12
401.734	121.12
401.958	116.12
402.182	114.12
402.406	122.12
402.63	126.12
402.854	121.12
403.078	107.12
403.302	127.12
403.526	111.12
403.75	118.12
403.974	120.12
404.198	131.12
404.422	135.12
404.645	120.12
404.869	124.12
405.093	108.12
405.317	124.12
405.541	141.12
405.765	122.12
405.988	112.12
406.212	123.12
406.436	123.12
406.66	127.12
406.883	128.12
407.107	122.12
407.331	114.12
407.555	107.12
407.778	123.12
408.002	124.12
408.226	131.12
408.449	125.12
408.673	116.12
408.896	117.12
409.12	133.12
409.344	121.12
409.567	117.12
409.791	123.12
410.014	126.12
410.238	125.12
410.461	138.12
410.685	133.12
410.908	119.12
411.132	108.12
411.355	125.12
411.578	107.12
411.802	118.12
412.025	126.12
412.249	109.12
412.472	113.12
412.695	117.12
412.919	117.12
413.142	109.12
413.365	124.12
413.589	119.12
413.812	142.12
414.035	112.12
414.258	135.12
414.482	118.12
414.705	122.12
414.928	126.12
415.151	118.12
415.374	118.12
415.597	127.12
415.821	134.12
416.044	116.12
416.267	145.12
416.49	132.12
416.713	138.12
416.936	135.12
417.159	128.12
417.382	129.12
417.605	127.12
417.828	125.12
418.051	127.12
418.274	128.12
418.497	137.12
418.72	147.12
418.943	134.12
419.166	129.12
419.389	143.12
419.611	135.12
419.834	141.12
420.057	132.12
420.28	133.12
420.503	134.12
420.726	135.12
420.948	128.12
421.171	126.12
421.394	126.12
421.617	154.12
421.839	149.12
422.062	149.12
422.285	141.12
422.507	134.12
422.73	132.12
422.953	122.12
423.175	122.12
423.398	134.12
423.621	145.12
423.843	138.12
424.066	142.12
424.288	143.12
424.511	142.12
424.733	141.12
424.956	147.12
425.178	138.12
425.401	144.12
425.623	145.12
425.846	138.12
426.068	145.12
426.291	130.12
426.513	128.12
426.735	139.12
426.958	129.12
427.18	129.12
427.402	125.12
427.625	132.12
427.847	130.12
428.069	139.12
428.292	138.12
428.514	130.12
428.736	145.12
428.958	135.12
429.181	139.12
429.403	141.12
429.625	125.12
429.847	140.12
430.069	133.12
430.292	130.12
430.514	126.12
430.736	134.12
430.958	123.12
431.18	140.12
431.402	131.12
431.624	133.12
431.846	121.12
432.068	116.12
432.29	101.12
432.512	106.12
432.734	119.12
432.956	124.12
433.178	154.12
433.4	153.12
433.622	147.12
433.844	125.12
434.066	117.12
434.287	121.12
434.509	96.12
434.731	101.12
434.953	104.12
435.175	125.12
435.397	130.12
435.618	122.12
435.84	110.12
436.062	116.12
436.284	121.12
436.505	134.12
436.727	120.12
436.949	118.12
437.17	140.12
437.392	133.12
437.614	140.12
437.835	105.12
438.057	112.12
438.278	112.12
438.5	113.12
438.721	140.12
438.943	146.12
439.165	143.12
439.386	135.12
439.608	148.12
439.829	130.12
440.05	152.12
440.272	155.12
440.493	138.12
440.715	158.12
440.936	148.12
441.158	153.12
441.379	128.12
441.6	161.12
441.822	161.12
442.043	150.12
442.264	143.12
442.486	144.12
442.707	135.12
442.928	155.12
443.149	128.12
443.371	156.12
443.592	136.12
443.813	133.12
444.034	145.12
444.255	129.12
444.476	155.12
444.698	140.12
444.919	151.12
445.14	276.12
445.361	198.12
445.582	153.12
445.803	145.12
446.024	145.12
446.245	152.12
446.466	167.12
446.687	155.12
446.908	155.12
447.129	188.12
447.35	160.12
447.571	161.12
447.792	152.12
448.013	162.12
448.234	149.12
448.455	142.12
448.675	136.12
448.896	138.12
449.117	126.12
449.338	140.12
449.559	149.12
449.779	141.12
450	140.12
450.221	141.12
450.442	138.12
450.662	150.12
450.883	139.12
451.104	142.12
451.324	131.12
451.545	136.12
451.766	128.12
451.986	125.12
452.207	131.12
452.428	129.12
452.648	125.12
452.869	122.12
453.089	120.12
453.31	117.12
453.53	108.12
453.751	117.12
453.971	109.12
454.192	106.12
454.412	105.12
454.633	115.12
454.853	128.12
455.073	123.12
455.294	115.12
455.514	107.12
455.734	115.12
455.955	116.12
456.175	113.12
456.395	128.12
456.616	118.12
456.836	103.12
457.056	104.12
457.276	108.12
457.497	97.12
457.717	100.12
457.937	120.12
458.157	102.12
458.377	121.12
458.598	91.12
458.818	114.12
459.038	105.12
459.258	86.12
459.478	86.12
459.698	92.12
459.918	98.12
460.138	114.12
460.358	109.12
460.578	117.12
460.798	110.12
461.018	128.12
461.238	130.12
461.458	121.12
461.678	106.12
461.898	119.12
462.118	116.12
462.338	117.12
462.558	110.12
462.777	112.12
462.997	121.12
463.217	101.12
463.437	101.12
463.657	106.12
463.876	124.12
464.096	123.12
464.316	118.12
464.536	118.12
464.755	121.12
464.975	125.12
465.195	129.12
465.414	124.12
465.634	120.12
465.854	122.12
466.073	124.12
466.293	109.12
466.512	140.12
466.732	136.12
466.951	125.12
467.171	134.12
467.391	149.12
467.61	131.12
467.829	151.12
468.049	142.12
468.268	150.12
468.488	150.12
468.707	144.12
468.927	141.12
469.146	140.12
469.365	154.12
469.585	150.12
469.804	146.12
470.023	157.12
470.243	148.12
470.462	134.12
470.681	154.12
470.901	125.12
471.12	140.12
471.339	157.12
471.558	148.12
471.777	140.12
471.997	135.12
472.216	130.12
472.435	125.12
472.654	111.12
472.873	120.12
473.092	105.12
473.311	118.12
473.53	130.12
473.749	135.12
473.968	131.12
474.187	131.12
474.406	125.12
474.625	131.12
474.844	137.12
475.063	140.12
475.282	124.12
475.501	116.12
475.72	125.12
475.939	112.12
476.158	133.12
476.377	142.12
476.596	125.12
476.814	125.12
477.033	109.12
477.252	114.12
477.471	106.12
477.69	136.12
477.908	136.12
478.127	140.12
478.346	147.12
478.564	136.12
478.783	154.12
479.002	156.12
479.22	145.12
479.439	142.12
479.658	134.12
479.876	124.12
480.095	101.12
480.313	124.12
480.532	131.12
480.751	104.12
480.969	123.12
481.188	85.12
481.406	92.12
481.624	87.12
481.843	91.12
482.061	99.12
482.28	117.12
482.498	126.12
482.717	102.12
482.935	112.12
483.153	129.12
483.372	149.12
483.59	162.12
483.808	141.12
484.027	133.12
484.245	151.12
484.463	152.12
484.681	163.12
484.9	149.12
485.118	123.12
485.336	129.12
485.554	123.12
485.772	104.12
485.99	91.12
486.209	122.12
486.427	119.12
486.645	138.12
486.863	135.12
487.081	133.12
487.299	136.12
487.517	132.12
487.735	155.12
487.953	180.12
488.171	192.12
488.389	183.12
488.607	176.12
488.825	145.12
489.043	153.12
489.261	150.12
489.479	142.12
489.696	130.12
489.914	158.12
490.132	147.12
490.35	153.12
490.568	171.12
490.786	181.12
491.003	180.12
491.221	186.12
491.439	190.12
491.657	214.12
491.874	205.12
492.092	236.12
492.31	262.12
492.527	258.12
492.745	210.12
492.963	209.12
493.18	190.12
493.398	188.12
493.615	182.12
493.833	184.12
494.05	156.12
494.268	180.12
494.485	172.12
494.703	176.12
494.92	172.12
495.138	179.12
495.355	180.12
495.573	195.12
495.79	188.12
496.008	169.12
496.225	176.12
496.442	170.12
496.66	174.12
496.877	164.12
497.094	178.12
497.312	174.12
497.529	159.12
497.746	152.12
497.963	142.12
498.181	128.12
498.398	124.12
498.615	126.12
498.832	119.12
499.049	124.12
499.267	131.12
499.484	116.12
499.701	126.12
499.918	129.12
500.135	158.12
500.352	140.12
500.569	156.12
500.786	138.12
501.003	150.12
501.22	148.12
501.437	137.12
501.654	133.12
501.871	137.12
502.088	157.12
502.305	139.12
502.522	124.12
502.739	121.12
502.956	134.12
503.172	121.12
503.389	128.12
503.606	131.12
503.823	115.12
504.04	123.12
504.256	130.12
504.473	104.12
504.69	141.12
504.907	128.12
505.123	136.12
505.34	132.12
505.557	120.12
505.773	112.12
505.99	120.12
506.207	128.12
506.423	125.12
506.64	127.12
506.856	111.12
507.073	129.12
507.289	124.12
507.506	130.12
507.722	119.12
507.939	130.12
508.155	113.12
508.372	119.12
508.588	116.12
508.805	126.12
509.021	105.12
509.238	112.12
509.454	99.12
509.67	108.12
509.887	96.12
510.103	95.12
510.319	98.12
510.536	77.12
510.752	85.12
510.968	91.12
511.184	101.12
