Data from Location6.07152019.Energy5.Lamp.07192019.3%Agarose_HRD10591_16-13-21-396.txt Node
Date: Fri Jul 19 16:13:21 EDT 2019
User: cochatt
Spectrometer: HR+D1059
Trigger mode: 1
Integration Time (sec): 1.000000E-1
Scans to average: 1
Electric dark correction enabled: true
Nonlinearity correction enabled: false
Boxcar width: 0
XAxis mode: Wavelengths
Number of Pixels in Spectrum: 2048
>>>>>Begin Spectral Data<<<<<
223.165	-16.88
223.4	-16.88
223.635	-16.88
223.869	-14.88
224.104	-1.88
224.338	-3.88
224.573	-8.88
224.808	-15.88
225.042	-8.88
225.277	-8.88
225.511	-4.88
225.746	4.12
225.98	6.12
226.215	16.12
226.449	7.12
226.683	4.12
226.918	29.12
227.152	18.12
227.387	33.12
227.621	40.12
227.856	44.12
228.09	47.12
228.324	56.12
228.559	61.12
228.793	55.12
229.027	71.12
229.262	65.12
229.496	56.12
229.73	68.12
229.964	65.12
230.199	70.12
230.433	58.12
230.667	82.12
230.901	85.12
231.136	82.12
231.37	80.12
231.604	82.12
231.838	85.12
232.072	91.12
232.306	90.12
232.541	89.12
232.775	90.12
233.009	67.12
233.243	89.12
233.477	62.12
233.711	71.12
233.945	87.12
234.179	93.12
234.413	83.12
234.647	79.12
234.881	68.12
235.115	72.12
235.349	80.12
235.583	70.12
235.817	72.12
236.051	65.12
236.285	74.12
236.519	83.12
236.753	86.12
236.987	85.12
237.221	81.12
237.455	69.12
237.689	74.12
237.922	76.12
238.156	73.12
238.39	75.12
238.624	69.12
238.858	75.12
239.091	80.12
239.325	65.12
239.559	66.12
239.793	80.12
240.027	72.12
240.26	70.12
240.494	69.12
240.728	63.12
240.961	75.12
241.195	62.12
241.429	72.12
241.662	72.12
241.896	72.12
242.13	65.12
242.363	78.12
242.597	68.12
242.83	79.12
243.064	69.12
243.298	79.12
243.531	78.12
243.765	73.12
243.998	85.12
244.232	86.12
244.465	78.12
244.699	68.12
244.932	86.12
245.166	75.12
245.399	77.12
245.633	86.12
245.866	72.12
246.099	76.12
246.333	69.12
246.566	65.12
246.8	75.12
247.033	86.12
247.266	75.12
247.5	74.12
247.733	57.12
247.966	65.12
248.2	75.12
248.433	79.12
248.666	70.12
248.899	83.12
249.133	78.12
249.366	93.12
249.599	85.12
249.832	70.12
250.066	90.12
250.299	81.12
250.532	70.12
250.765	80.12
250.998	68.12
251.231	82.12
251.465	79.12
251.698	74.12
251.931	68.12
252.164	84.12
252.397	75.12
252.63	83.12
252.863	71.12
253.096	78.12
253.329	81.12
253.562	84.12
253.795	76.12
254.028	80.12
254.261	82.12
254.494	78.12
254.727	85.12
254.96	71.12
255.193	89.12
255.426	92.12
255.659	78.12
255.892	85.12
256.124	85.12
256.357	90.12
256.59	86.12
256.823	76.12
257.056	87.12
257.289	83.12
257.521	74.12
257.754	76.12
257.987	65.12
258.22	77.12
258.452	70.12
258.685	77.12
258.918	78.12
259.151	74.12
259.383	92.12
259.616	75.12
259.849	70.12
260.081	81.12
260.314	88.12
260.547	82.12
260.779	73.12
261.012	74.12
261.244	82.12
261.477	73.12
261.71	71.12
261.942	74.12
262.175	86.12
262.407	87.12
262.64	71.12
262.872	63.12
263.105	81.12
263.337	96.12
263.57	84.12
263.802	77.12
264.035	75.12
264.267	87.12
264.499	79.12
264.732	82.12
264.964	80.12
265.197	81.12
265.429	78.12
265.661	86.12
265.894	71.12
266.126	85.12
266.358	79.12
266.591	83.12
266.823	78.12
267.055	77.12
267.287	91.12
267.52	73.12
267.752	75.12
267.984	70.12
268.216	88.12
268.448	74.12
268.681	70.12
268.913	90.12
269.145	71.12
269.377	86.12
269.609	88.12
269.841	76.12
270.073	90.12
270.306	82.12
270.538	69.12
270.77	82.12
271.002	67.12
271.234	79.12
271.466	87.12
271.698	90.12
271.93	76.12
272.162	72.12
272.394	87.12
272.626	85.12
272.858	75.12
273.09	77.12
273.322	88.12
273.553	82.12
273.785	82.12
274.017	68.12
274.249	66.12
274.481	69.12
274.713	78.12
274.945	70.12
275.176	89.12
275.408	83.12
275.64	69.12
275.872	86.12
276.104	75.12
276.335	75.12
276.567	72.12
276.799	95.12
277.031	83.12
277.262	79.12
277.494	77.12
277.726	71.12
277.957	85.12
278.189	77.12
278.421	68.12
278.652	77.12
278.884	92.12
279.115	93.12
279.347	79.12
279.579	75.12
279.81	78.12
280.042	82.12
280.273	79.12
280.505	77.12
280.736	93.12
280.968	61.12
281.199	93.12
281.431	81.12
281.662	88.12
281.894	84.12
282.125	71.12
282.356	80.12
282.588	80.12
282.819	74.12
283.051	88.12
283.282	81.12
283.513	70.12
283.745	77.12
283.976	77.12
284.207	81.12
284.439	81.12
284.67	83.12
284.901	80.12
285.132	79.12
285.364	81.12
285.595	84.12
285.826	78.12
286.057	80.12
286.288	73.12
286.52	78.12
286.751	78.12
286.982	90.12
287.213	95.12
287.444	93.12
287.675	89.12
287.906	84.12
288.138	69.12
288.369	78.12
288.6	73.12
288.831	79.12
289.062	86.12
289.293	92.12
289.524	88.12
289.755	88.12
289.986	82.12
290.217	84.12
290.448	70.12
290.679	79.12
290.91	82.12
291.141	70.12
291.371	82.12
291.602	80.12
291.833	72.12
292.064	80.12
292.295	70.12
292.526	87.12
292.757	78.12
292.987	82.12
293.218	80.12
293.449	87.12
293.68	82.12
293.91	86.12
294.141	75.12
294.372	74.12
294.603	74.12
294.833	75.12
295.064	88.12
295.295	90.12
295.525	78.12
295.756	89.12
295.987	63.12
296.217	76.12
296.448	93.12
296.679	87.12
296.909	79.12
297.14	81.12
297.37	77.12
297.601	93.12
297.831	78.12
298.062	109.12
298.292	79.12
298.523	69.12
298.753	77.12
298.984	91.12
299.214	72.12
299.445	79.12
299.675	75.12
299.905	86.12
300.136	88.12
300.366	98.12
300.597	89.12
300.827	94.12
301.057	82.12
301.288	89.12
301.518	82.12
301.748	56.12
301.979	79.12
302.209	77.12
302.439	83.12
302.669	76.12
302.9	78.12
303.13	88.12
303.36	85.12
303.59	86.12
303.82	80.12
304.051	82.12
304.281	95.12
304.511	83.12
304.741	82.12
304.971	90.12
305.201	80.12
305.431	93.12
305.661	85.12
305.891	73.12
306.121	90.12
306.352	65.12
306.582	82.12
306.812	69.12
307.042	80.12
307.272	89.12
307.502	85.12
307.731	91.12
307.961	84.12
308.191	86.12
308.421	72.12
308.651	92.12
308.881	78.12
309.111	77.12
309.341	79.12
309.571	82.12
309.8	82.12
310.03	76.12
310.26	82.12
310.49	76.12
310.72	69.12
310.949	84.12
311.179	80.12
311.409	68.12
311.639	79.12
311.868	84.12
312.098	88.12
312.328	80.12
312.557	69.12
312.787	66.12
313.017	93.12
313.246	85.12
313.476	67.12
313.706	93.12
313.935	95.12
314.165	84.12
314.394	75.12
314.624	80.12
314.853	83.12
315.083	80.12
315.312	73.12
315.542	59.12
315.771	93.12
316.001	85.12
316.23	89.12
316.46	90.12
316.689	71.12
316.919	77.12
317.148	77.12
317.377	85.12
317.607	78.12
317.836	79.12
318.065	82.12
318.295	82.12
318.524	70.12
318.753	82.12
318.983	81.12
319.212	90.12
319.441	75.12
319.67	91.12
319.9	81.12
320.129	78.12
320.358	89.12
320.587	81.12
320.816	82.12
321.046	82.12
321.275	83.12
321.504	75.12
321.733	83.12
321.962	84.12
322.191	87.12
322.42	80.12
322.649	85.12
322.878	73.12
323.108	79.12
323.337	81.12
323.566	68.12
323.795	90.12
324.024	90.12
324.253	66.12
324.482	75.12
324.71	88.12
324.939	98.12
325.168	81.12
325.397	101.12
325.626	91.12
325.855	76.12
326.084	69.12
326.313	81.12
326.542	85.12
326.77	78.12
326.999	84.12
327.228	82.12
327.457	75.12
327.686	81.12
327.914	74.12
328.143	100.12
328.372	85.12
328.6	81.12
328.829	88.12
329.058	71.12
329.287	85.12
329.515	74.12
329.744	73.12
329.972	84.12
330.201	84.12
330.43	78.12
330.658	82.12
330.887	72.12
331.115	77.12
331.344	81.12
331.572	84.12
331.801	75.12
332.03	84.12
332.258	67.12
332.486	69.12
332.715	60.12
332.943	69.12
333.172	76.12
333.4	73.12
333.629	83.12
333.857	78.12
334.085	75.12
334.314	85.12
334.542	78.12
334.771	85.12
334.999	92.12
335.227	84.12
335.455	69.12
335.684	84.12
335.912	79.12
336.14	75.12
336.369	71.12
336.597	98.12
336.825	84.12
337.053	81.12
337.281	81.12
337.51	82.12
337.738	74.12
337.966	73.12
338.194	78.12
338.422	65.12
338.65	86.12
338.878	82.12
339.106	82.12
339.334	90.12
339.562	84.12
339.79	85.12
340.018	84.12
340.246	71.12
340.474	70.12
340.702	76.12
340.93	87.12
341.158	88.12
341.386	82.12
341.614	80.12
341.842	87.12
342.07	78.12
342.298	81.12
342.526	75.12
342.754	80.12
342.981	98.12
343.209	90.12
343.437	82.12
343.665	79.12
343.893	79.12
344.12	100.12
344.348	80.12
344.576	79.12
344.804	78.12
345.031	79.12
345.259	72.12
345.487	85.12
345.714	69.12
345.942	74.12
346.17	55.12
346.397	78.12
346.625	82.12
346.853	78.12
347.08	71.12
347.308	84.12
347.535	95.12
347.763	82.12
347.99	83.12
348.218	79.12
348.445	85.12
348.673	98.12
348.9	82.12
349.128	92.12
349.355	95.12
349.583	90.12
349.81	94.12
350.037	79.12
350.265	86.12
350.492	82.12
350.72	76.12
350.947	88.12
351.174	88.12
351.402	84.12
351.629	83.12
351.856	75.12
352.083	76.12
352.311	61.12
352.538	87.12
352.765	88.12
352.992	80.12
353.22	82.12
353.447	63.12
353.674	85.12
353.901	84.12
354.128	75.12
354.355	78.12
354.583	87.12
354.81	74.12
355.037	83.12
355.264	84.12
355.491	87.12
355.718	78.12
355.945	72.12
356.172	73.12
356.399	77.12
356.626	83.12
356.853	94.12
357.08	56.12
357.307	81.12
357.534	69.12
357.761	98.12
357.988	91.12
358.215	83.12
358.441	80.12
358.668	72.12
358.895	73.12
359.122	83.12
359.349	74.12
359.576	72.12
359.802	77.12
360.029	67.12
360.256	69.12
360.483	71.12
360.709	97.12
360.936	83.12
361.163	82.12
361.39	87.12
361.616	80.12
361.843	68.12
362.07	83.12
362.296	77.12
362.523	71.12
362.749	65.12
362.976	91.12
363.203	84.12
363.429	68.12
363.656	83.12
363.882	82.12
364.109	77.12
364.335	88.12
364.562	86.12
364.788	84.12
365.015	73.12
365.241	70.12
365.468	69.12
365.694	82.12
365.92	72.12
366.147	79.12
366.373	81.12
366.599	78.12
366.826	82.12
367.052	76.12
367.278	70.12
367.505	86.12
367.731	83.12
367.957	85.12
368.184	85.12
368.41	92.12
368.636	96.12
368.862	95.12
369.089	87.12
369.315	108.12
369.541	97.12
369.767	91.12
369.993	88.12
370.219	81.12
370.445	90.12
370.672	80.12
370.898	88.12
371.124	83.12
371.35	99.12
371.576	94.12
371.802	70.12
372.028	88.12
372.254	82.12
372.48	83.12
372.706	77.12
372.932	82.12
373.158	97.12
373.384	93.12
373.61	109.12
373.835	97.12
374.061	81.12
374.287	92.12
374.513	87.12
374.739	96.12
374.965	100.12
375.191	83.12
375.416	89.12
375.642	95.12
375.868	81.12
376.094	86.12
376.319	86.12
376.545	86.12
376.771	83.12
376.997	84.12
377.222	100.12
377.448	97.12
377.674	90.12
377.899	94.12
378.125	92.12
378.35	68.12
378.576	81.12
378.802	99.12
379.027	95.12
379.253	92.12
379.478	91.12
379.704	97.12
379.929	97.12
380.155	104.12
380.38	89.12
380.606	103.12
380.831	77.12
381.057	101.12
381.282	93.12
381.507	95.12
381.733	100.12
381.958	94.12
382.184	92.12
382.409	88.12
382.634	99.12
382.86	110.12
383.085	106.12
383.31	89.12
383.535	105.12
383.761	97.12
383.986	90.12
384.211	100.12
384.436	96.12
384.662	100.12
384.887	98.12
385.112	94.12
385.337	97.12
385.562	102.12
385.787	91.12
386.013	91.12
386.238	102.12
386.463	98.12
386.688	101.12
386.913	93.12
387.138	103.12
387.363	89.12
387.588	97.12
387.813	102.12
388.038	99.12
388.263	95.12
388.488	90.12
388.713	111.12
388.938	110.12
389.163	102.12
389.387	90.12
389.612	106.12
389.837	95.12
390.062	105.12
390.287	101.12
390.512	97.12
390.736	107.12
390.961	93.12
391.186	89.12
391.411	85.12
391.636	98.12
391.86	95.12
392.085	99.12
392.31	98.12
392.534	105.12
392.759	105.12
392.984	109.12
393.208	118.12
393.433	117.12
393.658	105.12
393.882	103.12
394.107	109.12
394.331	109.12
394.556	114.12
394.78	109.12
395.005	99.12
395.229	118.12
395.454	97.12
395.678	101.12
395.903	107.12
396.127	106.12
396.352	105.12
396.576	98.12
396.801	91.12
397.025	96.12
397.249	114.12
397.474	119.12
397.698	104.12
397.922	96.12
398.147	114.12
398.371	99.12
398.595	113.12
398.82	111.12
399.044	114.12
399.268	109.12
399.492	123.12
399.717	111.12
399.941	114.12
400.165	98.12
400.389	118.12
400.613	118.12
400.837	101.12
401.062	98.12
401.286	120.12
401.51	102.12
401.734	119.12
401.958	119.12
402.182	127.12
402.406	106.12
402.63	113.12
402.854	109.12
403.078	129.12
403.302	102.12
403.526	111.12
403.75	121.12
403.974	125.12
404.198	120.12
404.422	111.12
404.645	113.12
404.869	122.12
405.093	109.12
405.317	112.12
405.541	125.12
405.765	119.12
405.988	114.12
406.212	110.12
406.436	111.12
406.66	114.12
406.883	109.12
407.107	117.12
407.331	117.12
407.555	123.12
407.778	114.12
408.002	110.12
408.226	121.12
408.449	129.12
408.673	126.12
408.896	117.12
409.12	105.12
409.344	114.12
409.567	111.12
409.791	118.12
410.014	118.12
410.238	107.12
410.461	127.12
410.685	122.12
410.908	129.12
411.132	115.12
411.355	120.12
411.578	127.12
411.802	111.12
412.025	110.12
412.249	138.12
412.472	122.12
412.695	126.12
412.919	125.12
413.142	127.12
413.365	131.12
413.589	125.12
413.812	106.12
414.035	127.12
414.258	116.12
414.482	120.12
414.705	122.12
414.928	129.12
415.151	124.12
415.374	126.12
415.597	129.12
415.821	122.12
416.044	121.12
416.267	130.12
416.49	132.12
416.713	122.12
416.936	128.12
417.159	119.12
417.382	127.12
417.605	125.12
417.828	122.12
418.051	143.12
418.274	124.12
418.497	121.12
418.72	126.12
418.943	133.12
419.166	119.12
419.389	134.12
419.611	134.12
419.834	130.12
420.057	151.12
420.28	124.12
420.503	145.12
420.726	145.12
420.948	135.12
421.171	127.12
421.394	134.12
421.617	149.12
421.839	158.12
422.062	144.12
422.285	139.12
422.507	143.12
422.73	121.12
422.953	122.12
423.175	134.12
423.398	124.12
423.621	130.12
423.843	141.12
424.066	127.12
424.288	142.12
424.511	137.12
424.733	132.12
424.956	145.12
425.178	145.12
425.401	139.12
425.623	139.12
425.846	132.12
426.068	127.12
426.291	133.12
426.513	138.12
426.735	134.12
426.958	139.12
427.18	123.12
427.402	134.12
427.625	141.12
427.847	130.12
428.069	124.12
428.292	137.12
428.514	138.12
428.736	126.12
428.958	124.12
429.181	133.12
429.403	134.12
429.625	118.12
429.847	144.12
430.069	134.12
430.292	123.12
430.514	135.12
430.736	128.12
430.958	122.12
431.18	135.12
431.402	138.12
431.624	129.12
431.846	123.12
432.068	103.12
432.29	98.12
432.512	117.12
432.734	137.12
432.956	130.12
433.178	129.12
433.4	140.12
433.622	143.12
433.844	127.12
434.066	118.12
434.287	121.12
434.509	93.12
434.731	96.12
434.953	113.12
435.175	129.12
435.397	122.12
435.618	116.12
435.84	119.12
436.062	113.12
436.284	131.12
436.505	144.12
436.727	127.12
436.949	136.12
437.17	131.12
437.392	117.12
437.614	119.12
437.835	123.12
438.057	118.12
438.278	113.12
438.5	145.12
438.721	125.12
438.943	154.12
439.165	151.12
439.386	141.12
439.608	127.12
439.829	145.12
440.05	151.12
440.272	141.12
440.493	152.12
440.715	137.12
440.936	134.12
441.158	152.12
441.379	142.12
441.6	130.12
441.822	149.12
442.043	139.12
442.264	138.12
442.486	140.12
442.707	153.12
442.928	156.12
443.149	143.12
443.371	146.12
443.592	146.12
443.813	133.12
444.034	156.12
444.255	147.12
444.476	152.12
444.698	141.12
444.919	145.12
445.14	278.12
445.361	195.12
445.582	159.12
445.803	157.12
446.024	164.12
446.245	159.12
446.466	161.12
446.687	145.12
446.908	147.12
447.129	151.12
447.35	156.12
447.571	159.12
447.792	149.12
448.013	143.12
448.234	158.12
448.455	141.12
448.675	135.12
448.896	139.12
449.117	131.12
449.338	134.12
449.559	149.12
449.779	133.12
450	142.12
450.221	134.12
450.442	136.12
450.662	146.12
450.883	146.12
451.104	137.12
451.324	124.12
451.545	120.12
451.766	144.12
451.986	138.12
452.207	131.12
452.428	117.12
452.648	145.12
452.869	131.12
453.089	124.12
453.31	113.12
453.53	103.12
453.751	116.12
453.971	103.12
454.192	116.12
454.412	113.12
454.633	115.12
454.853	136.12
455.073	113.12
455.294	130.12
455.514	126.12
455.734	120.12
455.955	118.12
456.175	115.12
456.395	125.12
456.616	105.12
456.836	120.12
457.056	109.12
457.276	110.12
457.497	92.12
457.717	95.12
457.937	110.12
458.157	111.12
458.377	118.12
458.598	93.12
458.818	92.12
459.038	85.12
459.258	83.12
459.478	83.12
459.698	88.12
459.918	103.12
460.138	111.12
460.358	123.12
460.578	117.12
460.798	112.12
461.018	101.12
461.238	127.12
461.458	104.12
461.678	113.12
461.898	117.12
462.118	106.12
462.338	132.12
462.558	119.12
462.777	99.12
462.997	104.12
463.217	93.12
463.437	114.12
463.657	113.12
463.876	111.12
464.096	126.12
464.316	102.12
464.536	95.12
464.755	112.12
464.975	133.12
465.195	122.12
465.414	129.12
465.634	117.12
465.854	111.12
466.073	118.12
466.293	137.12
466.512	127.12
466.732	127.12
466.951	129.12
467.171	130.12
467.391	133.12
467.61	151.12
467.829	143.12
468.049	142.12
468.268	123.12
468.488	133.12
468.707	147.12
468.927	146.12
469.146	129.12
469.365	147.12
469.585	126.12
469.804	145.12
470.023	143.12
470.243	145.12
470.462	136.12
470.681	151.12
470.901	149.12
471.12	151.12
471.339	152.12
471.558	153.12
471.777	136.12
471.997	133.12
472.216	142.12
472.435	121.12
472.654	106.12
472.873	110.12
473.092	133.12
473.311	142.12
473.53	144.12
473.749	131.12
473.968	122.12
474.187	129.12
474.406	118.12
474.625	137.12
474.844	122.12
475.063	118.12
475.282	110.12
475.501	119.12
475.72	134.12
475.939	119.12
476.158	133.12
476.377	124.12
476.596	123.12
476.814	119.12
477.033	111.12
477.252	113.12
477.471	125.12
477.69	140.12
477.908	143.12
478.127	157.12
478.346	142.12
478.564	153.12
478.783	149.12
479.002	133.12
479.22	129.12
479.439	138.12
479.658	129.12
479.876	120.12
480.095	112.12
480.313	112.12
480.532	114.12
480.751	101.12
480.969	94.12
481.188	92.12
481.406	95.12
481.624	83.12
481.843	83.12
482.061	93.12
482.28	119.12
482.498	125.12
482.717	114.12
482.935	121.12
483.153	146.12
483.372	161.12
483.59	142.12
483.808	153.12
484.027	135.12
484.245	138.12
484.463	147.12
484.681	165.12
484.9	159.12
485.118	151.12
485.336	147.12
485.554	122.12
485.772	103.12
485.99	95.12
486.209	119.12
486.427	123.12
486.645	113.12
486.863	134.12
487.081	133.12
487.299	134.12
487.517	130.12
487.735	165.12
487.953	195.12
488.171	184.12
488.389	178.12
488.607	161.12
488.825	140.12
489.043	133.12
489.261	135.12
489.479	146.12
489.696	152.12
489.914	147.12
490.132	150.12
490.35	148.12
490.568	157.12
490.786	149.12
491.003	180.12
491.221	181.12
491.439	203.12
491.657	191.12
491.874	216.12
492.092	231.12
492.31	249.12
492.527	247.12
492.745	209.12
492.963	209.12
493.18	211.12
493.398	183.12
493.615	189.12
493.833	189.12
494.05	178.12
494.268	186.12
494.485	179.12
494.703	158.12
494.92	170.12
495.138	185.12
495.355	185.12
495.573	170.12
495.79	171.12
496.008	181.12
496.225	162.12
496.442	166.12
496.66	174.12
496.877	165.12
497.094	163.12
497.312	174.12
497.529	174.12
497.746	144.12
497.963	141.12
498.181	143.12
498.398	133.12
498.615	107.12
498.832	123.12
499.049	135.12
499.267	127.12
499.484	121.12
499.701	139.12
499.918	134.12
500.135	155.12
500.352	139.12
500.569	154.12
500.786	157.12
501.003	149.12
501.22	152.12
501.437	157.12
501.654	156.12
501.871	152.12
502.088	137.12
502.305	113.12
502.522	134.12
502.739	129.12
502.956	120.12
503.172	121.12
503.389	121.12
503.606	114.12
503.823	127.12
504.04	121.12
504.256	135.12
504.473	133.12
504.69	128.12
504.907	133.12
505.123	116.12
505.34	116.12
505.557	124.12
505.773	124.12
505.99	129.12
506.207	104.12
506.423	121.12
506.64	117.12
506.856	120.12
507.073	118.12
507.289	123.12
507.506	115.12
507.722	126.12
507.939	118.12
508.155	117.12
508.372	120.12
508.588	131.12
508.805	117.12
509.021	122.12
509.238	113.12
509.454	78.12
509.67	94.12
509.887	110.12
510.103	101.12
510.319	105.12
510.536	90.12
510.752	87.12
510.968	88.12
511.184	93.12
511.401	105.12
511.617	101.12
511.833	84.12
