Data from Location6.07152019.Energy5.Lamp.07192019.3%Agarose_HRD10591_16-13-54-396.txt Node
Date: Fri Jul 19 16:13:54 EDT 2019
User: cochatt
Spectrometer: HR+D1059
Trigger mode: 1
Integration Time (sec): 1.000000E-1
Scans to average: 1
Electric dark correction enabled: true
Nonlinearity correction enabled: false
Boxcar width: 0
XAxis mode: Wavelengths
Number of Pixels in Spectrum: 2048
>>>>>Begin Spectral Data<<<<<
223.165	-24.81
223.4	-24.81
223.635	-24.81
223.869	-11.81
224.104	-20.81
224.338	-13.81
224.573	-8.81
224.808	-16.81
225.042	-8.81
225.277	-4.81
225.511	-2.81
225.746	11.19
225.98	0.19
226.215	18.19
226.449	13.19
226.683	23.19
226.918	24.19
227.152	23.19
227.387	26.19
227.621	37.19
227.856	47.19
228.09	50.19
228.324	37.19
228.559	60.19
228.793	60.19
229.027	61.19
229.262	65.19
229.496	71.19
229.73	78.19
229.964	66.19
230.199	67.19
230.433	79.19
230.667	77.19
230.901	79.19
231.136	77.19
231.37	92.19
231.604	76.19
231.838	80.19
232.072	77.19
232.306	90.19
232.541	78.19
232.775	83.19
233.009	94.19
233.243	87.19
233.477	101.19
233.711	82.19
233.945	88.19
234.179	81.19
234.413	82.19
234.647	75.19
234.881	72.19
235.115	90.19
235.349	104.19
235.583	81.19
235.817	88.19
236.051	72.19
236.285	81.19
236.519	81.19
236.753	87.19
236.987	85.19
237.221	79.19
237.455	78.19
237.689	71.19
237.922	73.19
238.156	75.19
238.39	79.19
238.624	81.19
238.858	66.19
239.091	73.19
239.325	66.19
239.559	81.19
239.793	84.19
240.027	101.19
240.26	76.19
240.494	86.19
240.728	93.19
240.961	97.19
241.195	90.19
241.429	81.19
241.662	76.19
241.896	84.19
242.13	76.19
242.363	71.19
242.597	81.19
242.83	91.19
243.064	90.19
243.298	88.19
243.531	84.19
243.765	78.19
243.998	85.19
244.232	83.19
244.465	92.19
244.699	81.19
244.932	82.19
245.166	80.19
245.399	82.19
245.633	78.19
245.866	89.19
246.099	77.19
246.333	66.19
246.566	85.19
246.8	82.19
247.033	76.19
247.266	69.19
247.5	79.19
247.733	81.19
247.966	71.19
248.2	79.19
248.433	88.19
248.666	82.19
248.899	92.19
249.133	76.19
249.366	93.19
249.599	89.19
249.832	83.19
250.066	96.19
250.299	84.19
250.532	69.19
250.765	81.19
250.998	91.19
251.231	100.19
251.465	96.19
251.698	80.19
251.931	100.19
252.164	89.19
252.397	80.19
252.63	96.19
252.863	83.19
253.096	84.19
253.329	96.19
253.562	79.19
253.795	85.19
254.028	71.19
254.261	88.19
254.494	86.19
254.727	91.19
254.96	86.19
255.193	86.19
255.426	89.19
255.659	97.19
255.892	85.19
256.124	85.19
256.357	81.19
256.59	89.19
256.823	85.19
257.056	81.19
257.289	72.19
257.521	97.19
257.754	82.19
257.987	92.19
258.22	81.19
258.452	85.19
258.685	97.19
258.918	88.19
259.151	86.19
259.383	87.19
259.616	89.19
259.849	97.19
260.081	86.19
260.314	82.19
260.547	95.19
260.779	81.19
261.012	77.19
261.244	81.19
261.477	83.19
261.71	88.19
261.942	93.19
262.175	81.19
262.407	89.19
262.64	81.19
262.872	90.19
263.105	97.19
263.337	91.19
263.57	95.19
263.802	85.19
264.035	96.19
264.267	88.19
264.499	73.19
264.732	81.19
264.964	98.19
265.197	96.19
265.429	87.19
265.661	82.19
265.894	94.19
266.126	77.19
266.358	89.19
266.591	91.19
266.823	92.19
267.055	79.19
267.287	79.19
267.52	85.19
267.752	76.19
267.984	84.19
268.216	82.19
268.448	90.19
268.681	86.19
268.913	72.19
269.145	76.19
269.377	86.19
269.609	76.19
269.841	88.19
270.073	78.19
270.306	105.19
270.538	90.19
270.77	93.19
271.002	82.19
271.234	89.19
271.466	97.19
271.698	96.19
271.93	84.19
272.162	95.19
272.394	83.19
272.626	91.19
272.858	85.19
273.09	89.19
273.322	96.19
273.553	78.19
273.785	87.19
274.017	91.19
274.249	80.19
274.481	81.19
274.713	102.19
274.945	89.19
275.176	73.19
275.408	95.19
275.64	89.19
275.872	92.19
276.104	90.19
276.335	69.19
276.567	93.19
276.799	90.19
277.031	83.19
277.262	89.19
277.494	91.19
277.726	83.19
277.957	92.19
278.189	82.19
278.421	91.19
278.652	90.19
278.884	82.19
279.115	102.19
279.347	94.19
279.579	82.19
279.81	86.19
280.042	79.19
280.273	92.19
280.505	94.19
280.736	84.19
280.968	81.19
281.199	92.19
281.431	93.19
281.662	71.19
281.894	96.19
282.125	75.19
282.356	87.19
282.588	103.19
282.819	101.19
283.051	78.19
283.282	80.19
283.513	83.19
283.745	92.19
283.976	86.19
284.207	84.19
284.439	80.19
284.67	81.19
284.901	77.19
285.132	92.19
285.364	79.19
285.595	87.19
285.826	87.19
286.057	100.19
286.288	92.19
286.52	84.19
286.751	108.19
286.982	86.19
287.213	92.19
287.444	95.19
287.675	74.19
287.906	93.19
288.138	93.19
288.369	74.19
288.6	77.19
288.831	97.19
289.062	79.19
289.293	91.19
289.524	86.19
289.755	81.19
289.986	89.19
290.217	87.19
290.448	77.19
290.679	100.19
290.91	105.19
291.141	89.19
291.371	92.19
291.602	94.19
291.833	76.19
292.064	91.19
292.295	107.19
292.526	93.19
292.757	94.19
292.987	83.19
293.218	92.19
293.449	82.19
293.68	81.19
293.91	77.19
294.141	82.19
294.372	89.19
294.603	87.19
294.833	90.19
295.064	90.19
295.295	76.19
295.525	92.19
295.756	92.19
295.987	92.19
296.217	82.19
296.448	94.19
296.679	98.19
296.909	97.19
297.14	104.19
297.37	95.19
297.601	78.19
297.831	94.19
298.062	92.19
298.292	94.19
298.523	99.19
298.753	91.19
298.984	94.19
299.214	89.19
299.445	95.19
299.675	88.19
299.905	80.19
300.136	80.19
300.366	88.19
300.597	82.19
300.827	94.19
301.057	83.19
301.288	93.19
301.518	88.19
301.748	98.19
301.979	86.19
302.209	93.19
302.439	102.19
302.669	90.19
302.9	96.19
303.13	99.19
303.36	100.19
303.59	84.19
303.82	96.19
304.051	91.19
304.281	85.19
304.511	105.19
304.741	82.19
304.971	83.19
305.201	90.19
305.431	88.19
305.661	92.19
305.891	87.19
306.121	109.19
306.352	105.19
306.582	89.19
306.812	87.19
307.042	85.19
307.272	83.19
307.502	87.19
307.731	105.19
307.961	101.19
308.191	94.19
308.421	88.19
308.651	100.19
308.881	95.19
309.111	105.19
309.341	101.19
309.571	101.19
309.8	94.19
310.03	90.19
310.26	75.19
310.49	97.19
310.72	98.19
310.949	87.19
311.179	86.19
311.409	77.19
311.639	89.19
311.868	99.19
312.098	97.19
312.328	103.19
312.557	89.19
312.787	79.19
313.017	95.19
313.246	92.19
313.476	104.19
313.706	88.19
313.935	92.19
314.165	96.19
314.394	78.19
314.624	78.19
314.853	93.19
315.083	74.19
315.312	93.19
315.542	97.19
315.771	95.19
316.001	81.19
316.23	97.19
316.46	74.19
316.689	97.19
316.919	102.19
317.148	97.19
317.377	96.19
317.607	93.19
317.836	98.19
318.065	90.19
318.295	86.19
318.524	90.19
318.753	104.19
318.983	92.19
319.212	81.19
319.441	103.19
319.67	85.19
319.9	96.19
320.129	78.19
320.358	99.19
320.587	90.19
320.816	96.19
321.046	87.19
321.275	78.19
321.504	87.19
321.733	79.19
321.962	96.19
322.191	99.19
322.42	92.19
322.649	104.19
322.878	82.19
323.108	92.19
323.337	82.19
323.566	86.19
323.795	92.19
324.024	92.19
324.253	80.19
324.482	73.19
324.71	95.19
324.939	92.19
325.168	88.19
325.397	88.19
325.626	95.19
325.855	72.19
326.084	99.19
326.313	79.19
326.542	89.19
326.77	100.19
326.999	82.19
327.228	101.19
327.457	79.19
327.686	90.19
327.914	82.19
328.143	96.19
328.372	84.19
328.6	101.19
328.829	101.19
329.058	94.19
329.287	84.19
329.515	93.19
329.744	92.19
329.972	88.19
330.201	87.19
330.43	86.19
330.658	88.19
330.887	88.19
331.115	85.19
331.344	86.19
331.572	86.19
331.801	91.19
332.03	96.19
332.258	93.19
332.486	88.19
332.715	97.19
332.943	91.19
333.172	93.19
333.4	97.19
333.629	92.19
333.857	89.19
334.085	86.19
334.314	92.19
334.542	86.19
334.771	86.19
334.999	90.19
335.227	91.19
335.455	89.19
335.684	98.19
335.912	102.19
336.14	97.19
336.369	102.19
336.597	80.19
336.825	90.19
337.053	77.19
337.281	96.19
337.51	82.19
337.738	93.19
337.966	102.19
338.194	87.19
338.422	92.19
338.65	97.19
338.878	96.19
339.106	93.19
339.334	82.19
339.562	94.19
339.79	101.19
340.018	90.19
340.246	92.19
340.474	100.19
340.702	77.19
340.93	82.19
341.158	92.19
341.386	97.19
341.614	95.19
341.842	95.19
342.07	90.19
342.298	93.19
342.526	88.19
342.754	100.19
342.981	87.19
343.209	78.19
343.437	65.19
343.665	87.19
343.893	84.19
344.12	87.19
344.348	83.19
344.576	90.19
344.804	105.19
345.031	92.19
345.259	83.19
345.487	96.19
345.714	95.19
345.942	90.19
346.17	87.19
346.397	82.19
346.625	78.19
346.853	81.19
347.08	79.19
347.308	80.19
347.535	81.19
347.763	90.19
347.99	89.19
348.218	91.19
348.445	88.19
348.673	91.19
348.9	84.19
349.128	101.19
349.355	94.19
349.583	93.19
349.81	98.19
350.037	88.19
350.265	89.19
350.492	90.19
350.72	85.19
350.947	87.19
351.174	93.19
351.402	93.19
351.629	91.19
351.856	102.19
352.083	97.19
352.311	100.19
352.538	86.19
352.765	91.19
352.992	91.19
353.22	87.19
353.447	81.19
353.674	90.19
353.901	87.19
354.128	100.19
354.355	102.19
354.583	88.19
354.81	88.19
355.037	88.19
355.264	85.19
355.491	95.19
355.718	87.19
355.945	96.19
356.172	97.19
356.399	96.19
356.626	91.19
356.853	88.19
357.08	84.19
357.307	80.19
357.534	82.19
357.761	70.19
357.988	102.19
358.215	97.19
358.441	94.19
358.668	97.19
358.895	102.19
359.122	97.19
359.349	94.19
359.576	99.19
359.802	88.19
360.029	96.19
360.256	93.19
360.483	84.19
360.709	76.19
360.936	90.19
361.163	106.19
361.39	99.19
361.616	90.19
361.843	90.19
362.07	79.19
362.296	84.19
362.523	83.19
362.749	88.19
362.976	88.19
363.203	90.19
363.429	98.19
363.656	94.19
363.882	84.19
364.109	88.19
364.335	101.19
364.562	100.19
364.788	90.19
365.015	84.19
365.241	86.19
365.468	86.19
365.694	64.19
365.92	92.19
366.147	92.19
366.373	95.19
366.599	87.19
366.826	98.19
367.052	90.19
367.278	90.19
367.505	87.19
367.731	92.19
367.957	103.19
368.184	89.19
368.41	89.19
368.636	98.19
368.862	94.19
369.089	92.19
369.315	98.19
369.541	88.19
369.767	76.19
369.993	85.19
370.219	96.19
370.445	97.19
370.672	91.19
370.898	111.19
371.124	82.19
371.35	99.19
371.576	94.19
371.802	102.19
372.028	100.19
372.254	91.19
372.48	99.19
372.706	85.19
372.932	107.19
373.158	102.19
373.384	86.19
373.61	97.19
373.835	90.19
374.061	91.19
374.287	99.19
374.513	101.19
374.739	104.19
374.965	110.19
375.191	97.19
375.416	106.19
375.642	104.19
375.868	97.19
376.094	101.19
376.319	96.19
376.545	110.19
376.771	92.19
376.997	115.19
377.222	96.19
377.448	100.19
377.674	87.19
377.899	99.19
378.125	93.19
378.35	112.19
378.576	116.19
378.802	105.19
379.027	102.19
379.253	101.19
379.478	95.19
379.704	118.19
379.929	90.19
380.155	86.19
380.38	110.19
380.606	103.19
380.831	103.19
381.057	113.19
381.282	105.19
381.507	97.19
381.733	102.19
381.958	114.19
382.184	116.19
382.409	110.19
382.634	107.19
382.86	87.19
383.085	111.19
383.31	110.19
383.535	117.19
383.761	104.19
383.986	100.19
384.211	101.19
384.436	93.19
384.662	102.19
384.887	103.19
385.112	93.19
385.337	102.19
385.562	106.19
385.787	108.19
386.013	119.19
386.238	99.19
386.463	102.19
386.688	106.19
386.913	104.19
387.138	109.19
387.363	116.19
387.588	108.19
387.813	104.19
388.038	120.19
388.263	110.19
388.488	99.19
388.713	113.19
388.938	110.19
389.163	105.19
389.387	94.19
389.612	114.19
389.837	102.19
390.062	106.19
390.287	115.19
390.512	116.19
390.736	102.19
390.961	107.19
391.186	116.19
391.411	122.19
391.636	109.19
391.86	108.19
392.085	105.19
392.31	114.19
392.534	111.19
392.759	123.19
392.984	114.19
393.208	120.19
393.433	108.19
393.658	110.19
393.882	110.19
394.107	108.19
394.331	91.19
394.556	112.19
394.78	116.19
395.005	108.19
395.229	112.19
395.454	109.19
395.678	109.19
395.903	111.19
396.127	112.19
396.352	119.19
396.576	109.19
396.801	121.19
397.025	124.19
397.249	114.19
397.474	124.19
397.698	123.19
397.922	110.19
398.147	107.19
398.371	107.19
398.595	108.19
398.82	117.19
399.044	108.19
399.268	121.19
399.492	124.19
399.717	116.19
399.941	102.19
400.165	110.19
400.389	119.19
400.613	125.19
400.837	95.19
401.062	121.19
401.286	112.19
401.51	113.19
401.734	124.19
401.958	119.19
402.182	131.19
402.406	121.19
402.63	109.19
402.854	138.19
403.078	116.19
403.302	108.19
403.526	118.19
403.75	122.19
403.974	125.19
404.198	120.19
404.422	137.19
404.645	126.19
404.869	138.19
405.093	124.19
405.317	127.19
405.541	120.19
405.765	118.19
405.988	122.19
406.212	109.19
406.436	118.19
406.66	117.19
406.883	126.19
407.107	122.19
407.331	120.19
407.555	113.19
407.778	129.19
408.002	128.19
408.226	120.19
408.449	111.19
408.673	118.19
408.896	139.19
409.12	130.19
409.344	124.19
409.567	137.19
409.791	136.19
410.014	129.19
410.238	129.19
410.461	113.19
410.685	137.19
410.908	136.19
411.132	136.19
411.355	127.19
411.578	137.19
411.802	141.19
412.025	146.19
412.249	126.19
412.472	135.19
412.695	130.19
412.919	130.19
413.142	132.19
413.365	122.19
413.589	131.19
413.812	122.19
414.035	135.19
414.258	128.19
414.482	128.19
414.705	140.19
414.928	117.19
415.151	129.19
415.374	128.19
415.597	135.19
415.821	143.19
416.044	121.19
416.267	145.19
416.49	134.19
416.713	132.19
416.936	142.19
417.159	138.19
417.382	129.19
417.605	130.19
417.828	141.19
418.051	132.19
418.274	130.19
418.497	140.19
418.72	150.19
418.943	141.19
419.166	137.19
419.389	136.19
419.611	149.19
419.834	125.19
420.057	150.19
420.28	140.19
420.503	134.19
420.726	152.19
420.948	141.19
421.171	134.19
421.394	141.19
421.617	143.19
421.839	162.19
422.062	139.19
422.285	131.19
422.507	139.19
422.73	127.19
422.953	136.19
423.175	130.19
423.398	137.19
423.621	132.19
423.843	130.19
424.066	141.19
424.288	159.19
424.511	135.19
424.733	157.19
424.956	155.19
425.178	154.19
425.401	144.19
425.623	142.19
425.846	152.19
426.068	136.19
426.291	128.19
426.513	130.19
426.735	141.19
426.958	130.19
427.18	145.19
427.402	127.19
427.625	145.19
427.847	145.19
428.069	151.19
428.292	140.19
428.514	137.19
428.736	146.19
428.958	134.19
429.181	136.19
429.403	140.19
429.625	136.19
429.847	137.19
430.069	140.19
430.292	149.19
430.514	132.19
430.736	133.19
430.958	133.19
431.18	123.19
431.402	125.19
431.624	117.19
431.846	121.19
432.068	106.19
432.29	102.19
432.512	95.19
432.734	129.19
432.956	128.19
433.178	150.19
433.4	144.19
433.622	148.19
433.844	140.19
434.066	111.19
434.287	119.19
434.509	110.19
434.731	107.19
434.953	127.19
435.175	109.19
435.397	126.19
435.618	140.19
435.84	120.19
436.062	134.19
436.284	138.19
436.505	121.19
436.727	138.19
436.949	128.19
437.17	140.19
437.392	142.19
437.614	134.19
437.835	118.19
438.057	125.19
438.278	128.19
438.5	130.19
438.721	127.19
438.943	142.19
439.165	129.19
439.386	143.19
439.608	160.19
439.829	144.19
440.05	149.19
440.272	150.19
440.493	141.19
440.715	151.19
440.936	164.19
441.158	149.19
441.379	137.19
441.6	168.19
441.822	176.19
442.043	147.19
442.264	154.19
442.486	158.19
442.707	144.19
442.928	148.19
443.149	148.19
443.371	159.19
443.592	144.19
443.813	143.19
444.034	144.19
444.255	153.19
444.476	140.19
444.698	170.19
444.919	146.19
445.14	287.19
445.361	215.19
445.582	152.19
445.803	157.19
446.024	146.19
446.245	180.19
446.466	164.19
446.687	163.19
446.908	161.19
447.129	166.19
447.35	161.19
447.571	159.19
447.792	164.19
448.013	165.19
448.234	165.19
448.455	146.19
448.675	148.19
448.896	141.19
449.117	138.19
449.338	134.19
449.559	145.19
449.779	144.19
450	159.19
450.221	150.19
450.442	128.19
450.662	142.19
450.883	133.19
451.104	128.19
451.324	134.19
451.545	138.19
451.766	130.19
451.986	145.19
452.207	146.19
452.428	138.19
452.648	132.19
452.869	135.19
453.089	133.19
453.31	133.19
453.53	112.19
453.751	112.19
453.971	100.19
454.192	104.19
454.412	125.19
454.633	128.19
454.853	138.19
455.073	128.19
455.294	144.19
455.514	135.19
455.734	135.19
455.955	133.19
456.175	135.19
456.395	124.19
456.616	117.19
456.836	121.19
457.056	112.19
457.276	102.19
457.497	101.19
457.717	108.19
457.937	117.19
458.157	129.19
458.377	111.19
458.598	106.19
458.818	99.19
459.038	100.19
459.258	75.19
459.478	107.19
459.698	97.19
459.918	121.19
460.138	100.19
460.358	111.19
460.578	127.19
460.798	111.19
461.018	112.19
461.238	128.19
461.458	130.19
461.678	117.19
461.898	124.19
462.118	124.19
462.338	114.19
462.558	110.19
462.777	112.19
462.997	105.19
463.217	116.19
463.437	102.19
463.657	102.19
463.876	130.19
464.096	131.19
464.316	126.19
464.536	115.19
464.755	143.19
464.975	126.19
465.195	123.19
465.414	137.19
465.634	120.19
465.854	120.19
466.073	113.19
466.293	130.19
466.512	143.19
466.732	150.19
466.951	144.19
467.171	141.19
467.391	148.19
467.61	145.19
467.829	152.19
468.049	146.19
468.268	142.19
468.488	140.19
468.707	128.19
468.927	156.19
469.146	149.19
469.365	145.19
469.585	140.19
469.804	146.19
470.023	146.19
470.243	159.19
470.462	165.19
470.681	142.19
470.901	137.19
471.12	151.19
471.339	169.19
471.558	156.19
471.777	153.19
471.997	144.19
472.216	141.19
472.435	125.19
472.654	129.19
472.873	122.19
473.092	129.19
473.311	138.19
473.53	131.19
473.749	124.19
473.968	121.19
474.187	136.19
474.406	125.19
474.625	134.19
474.844	140.19
475.063	124.19
475.282	127.19
475.501	124.19
475.72	125.19
475.939	134.19
476.158	141.19
476.377	145.19
476.596	140.19
476.814	140.19
477.033	104.19
477.252	126.19
477.471	135.19
477.69	142.19
477.908	132.19
478.127	155.19
478.346	135.19
478.564	152.19
478.783	138.19
479.002	151.19
479.22	156.19
479.439	136.19
479.658	126.19
479.876	125.19
480.095	123.19
480.313	123.19
480.532	124.19
480.751	120.19
480.969	98.19
481.188	92.19
481.406	91.19
481.624	89.19
481.843	95.19
482.061	94.19
482.28	129.19
482.498	121.19
482.717	121.19
482.935	128.19
483.153	148.19
483.372	163.19
483.59	165.19
483.808	147.19
484.027	138.19
484.245	149.19
484.463	157.19
484.681	186.19
484.9	164.19
485.118	153.19
485.336	130.19
485.554	128.19
485.772	117.19
485.99	118.19
486.209	121.19
486.427	127.19
486.645	145.19
486.863	146.19
487.081	153.19
487.299	140.19
487.517	131.19
487.735	180.19
487.953	199.19
488.171	200.19
488.389	188.19
488.607	184.19
488.825	162.19
489.043	143.19
489.261	150.19
489.479	138.19
489.696	152.19
489.914	163.19
490.132	166.19
490.35	170.19
490.568	184.19
490.786	192.19
491.003	177.19
491.221	189.19
491.439	202.19
491.657	205.19
491.874	210.19
492.092	237.19
492.31	246.19
492.527	255.19
492.745	229.19
492.963	229.19
493.18	191.19
493.398	204.19
493.615	188.19
493.833	179.19
494.05	209.19
494.268	178.19
494.485	171.19
494.703	171.19
494.92	185.19
495.138	200.19
495.355	190.19
495.573	177.19
495.79	170.19
496.008	168.19
496.225	180.19
496.442	181.19
496.66	179.19
496.877	184.19
497.094	174.19
497.312	170.19
497.529	166.19
497.746	159.19
497.963	160.19
498.181	131.19
498.398	120.19
498.615	132.19
498.832	132.19
499.049	134.19
499.267	125.19
499.484	154.19
499.701	156.19
499.918	146.19
500.135	140.19
500.352	151.19
500.569	144.19
500.786	150.19
501.003	165.19
501.22	158.19
501.437	157.19
501.654	150.19
501.871	146.19
502.088	128.19
502.305	144.19
502.522	119.19
502.739	135.19
502.956	132.19
503.172	134.19
503.389	152.19
503.606	131.19
503.823	112.19
504.04	116.19
504.256	131.19
504.473	121.19
504.69	125.19
504.907	124.19
505.123	104.19
505.34	124.19
505.557	128.19
505.773	151.19
505.99	142.19
506.207	126.19
506.423	117.19
506.64	129.19
506.856	124.19
507.073	137.19
507.289	117.19
507.506	117.19
507.722	122.19
507.939	120.19
508.155	117.19
508.372	119.19
508.588	120.19
508.805	109.19
509.021	111.19
509.238	121.19
509.454	113.19
509.67	124.19
509.887	100.19
510.103	112.19
510.319	96.19
