Data from Location6.07152019.Energy5.Lamp.07192019.3%Agarose_HRD10591_16-10-47-394.txt Node
Date: Fri Jul 19 16:10:47 EDT 2019
User: cochatt
Spectrometer: HR+D1059
Trigger mode: 1
Integration Time (sec): 1.000000E-1
Scans to average: 1
Electric dark correction enabled: true
Nonlinearity correction enabled: false
Boxcar width: 0
XAxis mode: Wavelengths
Number of Pixels in Spectrum: 2048
>>>>>Begin Spectral Data<<<<<
223.165	-13.94
223.4	-13.94
223.635	-13.94
223.869	-16.94
224.104	-15.94
224.338	-12.94
224.573	-16.94
224.808	-22.94
225.042	-4.94
225.277	-14.94
225.511	-11.94
225.746	2.06
225.98	25.06
226.215	12.06
226.449	25.06
226.683	23.06
226.918	13.06
227.152	31.06
227.387	32.06
227.621	31.06
227.856	56.06
228.09	50.06
228.324	40.06
228.559	61.06
228.793	60.06
229.027	55.06
229.262	69.06
229.496	58.06
229.73	64.06
229.964	73.06
230.199	74.06
230.433	69.06
230.667	70.06
230.901	83.06
231.136	85.06
231.37	82.06
231.604	74.06
231.838	72.06
232.072	80.06
232.306	86.06
232.541	74.06
232.775	82.06
233.009	80.06
233.243	80.06
233.477	96.06
233.711	89.06
233.945	74.06
234.179	68.06
234.413	90.06
234.647	84.06
234.881	98.06
235.115	84.06
235.349	77.06
235.583	77.06
235.817	74.06
236.051	68.06
236.285	81.06
236.519	73.06
236.753	82.06
236.987	80.06
237.221	75.06
237.455	90.06
237.689	78.06
237.922	75.06
238.156	81.06
238.39	68.06
238.624	77.06
238.858	83.06
239.091	76.06
239.325	84.06
239.559	84.06
239.793	70.06
240.027	68.06
240.26	67.06
240.494	79.06
240.728	78.06
240.961	70.06
241.195	67.06
241.429	77.06
241.662	77.06
241.896	80.06
242.13	67.06
242.363	73.06
242.597	91.06
242.83	70.06
243.064	83.06
243.298	62.06
243.531	80.06
243.765	78.06
243.998	58.06
244.232	77.06
244.465	89.06
244.699	92.06
244.932	87.06
245.166	86.06
245.399	74.06
245.633	67.06
245.866	66.06
246.099	83.06
246.333	76.06
246.566	80.06
246.8	70.06
247.033	91.06
247.266	66.06
247.5	82.06
247.733	85.06
247.966	75.06
248.2	78.06
248.433	70.06
248.666	76.06
248.899	79.06
249.133	63.06
249.366	92.06
249.599	76.06
249.832	73.06
250.066	85.06
250.299	68.06
250.532	84.06
250.765	77.06
250.998	93.06
251.231	80.06
251.465	76.06
251.698	64.06
251.931	65.06
252.164	83.06
252.397	71.06
252.63	86.06
252.863	82.06
253.096	95.06
253.329	73.06
253.562	100.06
253.795	81.06
254.028	79.06
254.261	83.06
254.494	94.06
254.727	78.06
254.96	88.06
255.193	88.06
255.426	75.06
255.659	86.06
255.892	82.06
256.124	69.06
256.357	95.06
256.59	96.06
256.823	74.06
257.056	79.06
257.289	67.06
257.521	83.06
257.754	81.06
257.987	90.06
258.22	91.06
258.452	89.06
258.685	79.06
258.918	83.06
259.151	85.06
259.383	90.06
259.616	88.06
259.849	81.06
260.081	81.06
260.314	77.06
260.547	88.06
260.779	90.06
261.012	92.06
261.244	88.06
261.477	94.06
261.71	77.06
261.942	74.06
262.175	88.06
262.407	88.06
262.64	81.06
262.872	87.06
263.105	76.06
263.337	86.06
263.57	82.06
263.802	73.06
264.035	82.06
264.267	85.06
264.499	94.06
264.732	93.06
264.964	82.06
265.197	78.06
265.429	90.06
265.661	96.06
265.894	102.06
266.126	80.06
266.358	93.06
266.591	94.06
266.823	90.06
267.055	81.06
267.287	96.06
267.52	82.06
267.752	89.06
267.984	78.06
268.216	81.06
268.448	81.06
268.681	80.06
268.913	85.06
269.145	86.06
269.377	84.06
269.609	83.06
269.841	80.06
270.073	70.06
270.306	86.06
270.538	89.06
270.77	84.06
271.002	87.06
271.234	67.06
271.466	86.06
271.698	80.06
271.93	73.06
272.162	87.06
272.394	87.06
272.626	75.06
272.858	87.06
273.09	94.06
273.322	84.06
273.553	85.06
273.785	72.06
274.017	86.06
274.249	81.06
274.481	68.06
274.713	81.06
274.945	78.06
275.176	90.06
275.408	75.06
275.64	97.06
275.872	85.06
276.104	84.06
276.335	82.06
276.567	85.06
276.799	100.06
277.031	90.06
277.262	78.06
277.494	101.06
277.726	90.06
277.957	80.06
278.189	74.06
278.421	91.06
278.652	76.06
278.884	82.06
279.115	84.06
279.347	86.06
279.579	94.06
279.81	86.06
280.042	73.06
280.273	80.06
280.505	83.06
280.736	67.06
280.968	79.06
281.199	91.06
281.431	85.06
281.662	86.06
281.894	85.06
282.125	87.06
282.356	76.06
282.588	75.06
282.819	85.06
283.051	100.06
283.282	97.06
283.513	90.06
283.745	88.06
283.976	73.06
284.207	86.06
284.439	91.06
284.67	88.06
284.901	92.06
285.132	92.06
285.364	75.06
285.595	74.06
285.826	92.06
286.057	87.06
286.288	80.06
286.52	81.06
286.751	91.06
286.982	99.06
287.213	94.06
287.444	74.06
287.675	87.06
287.906	89.06
288.138	82.06
288.369	82.06
288.6	80.06
288.831	78.06
289.062	81.06
289.293	68.06
289.524	98.06
289.755	91.06
289.986	69.06
290.217	74.06
290.448	91.06
290.679	73.06
290.91	85.06
291.141	74.06
291.371	76.06
291.602	87.06
291.833	72.06
292.064	73.06
292.295	84.06
292.526	73.06
292.757	87.06
292.987	77.06
293.218	78.06
293.449	81.06
293.68	77.06
293.91	84.06
294.141	76.06
294.372	96.06
294.603	82.06
294.833	91.06
295.064	74.06
295.295	81.06
295.525	84.06
295.756	83.06
295.987	84.06
296.217	84.06
296.448	84.06
296.679	97.06
296.909	89.06
297.14	88.06
297.37	90.06
297.601	94.06
297.831	87.06
298.062	88.06
298.292	83.06
298.523	89.06
298.753	105.06
298.984	79.06
299.214	89.06
299.445	83.06
299.675	93.06
299.905	74.06
300.136	84.06
300.366	76.06
300.597	81.06
300.827	73.06
301.057	87.06
301.288	94.06
301.518	92.06
301.748	84.06
301.979	98.06
302.209	83.06
302.439	83.06
302.669	84.06
302.9	91.06
303.13	92.06
303.36	88.06
303.59	87.06
303.82	83.06
304.051	81.06
304.281	92.06
304.511	87.06
304.741	84.06
304.971	76.06
305.201	85.06
305.431	104.06
305.661	74.06
305.891	80.06
306.121	91.06
306.352	90.06
306.582	89.06
306.812	83.06
307.042	88.06
307.272	75.06
307.502	76.06
307.731	71.06
307.961	73.06
308.191	95.06
308.421	73.06
308.651	88.06
308.881	86.06
309.111	75.06
309.341	84.06
309.571	86.06
309.8	89.06
310.03	85.06
310.26	81.06
310.49	85.06
310.72	105.06
310.949	85.06
311.179	87.06
311.409	89.06
311.639	88.06
311.868	95.06
312.098	70.06
312.328	81.06
312.557	88.06
312.787	87.06
313.017	86.06
313.246	92.06
313.476	74.06
313.706	86.06
313.935	79.06
314.165	79.06
314.394	83.06
314.624	93.06
314.853	87.06
315.083	88.06
315.312	105.06
315.542	83.06
315.771	79.06
316.001	85.06
316.23	76.06
316.46	80.06
316.689	91.06
316.919	76.06
317.148	91.06
317.377	80.06
317.607	71.06
317.836	83.06
318.065	95.06
318.295	84.06
318.524	88.06
318.753	82.06
318.983	97.06
319.212	82.06
319.441	74.06
319.67	84.06
319.9	89.06
320.129	73.06
320.358	100.06
320.587	81.06
320.816	79.06
321.046	94.06
321.275	83.06
321.504	77.06
321.733	76.06
321.962	88.06
322.191	85.06
322.42	90.06
322.649	89.06
322.878	82.06
323.108	84.06
323.337	73.06
323.566	79.06
323.795	91.06
324.024	84.06
324.253	76.06
324.482	82.06
324.71	84.06
324.939	94.06
325.168	82.06
325.397	80.06
325.626	89.06
325.855	93.06
326.084	84.06
326.313	86.06
326.542	72.06
326.77	89.06
326.999	94.06
327.228	77.06
327.457	93.06
327.686	92.06
327.914	76.06
328.143	82.06
328.372	97.06
328.6	76.06
328.829	86.06
329.058	83.06
329.287	77.06
329.515	84.06
329.744	78.06
329.972	72.06
330.201	68.06
330.43	95.06
330.658	72.06
330.887	70.06
331.115	93.06
331.344	85.06
331.572	74.06
331.801	89.06
332.03	88.06
332.258	85.06
332.486	89.06
332.715	73.06
332.943	79.06
333.172	92.06
333.4	98.06
333.629	82.06
333.857	86.06
334.085	77.06
334.314	79.06
334.542	75.06
334.771	80.06
334.999	82.06
335.227	95.06
335.455	89.06
335.684	91.06
335.912	81.06
336.14	87.06
336.369	75.06
336.597	78.06
336.825	77.06
337.053	83.06
337.281	77.06
337.51	93.06
337.738	78.06
337.966	78.06
338.194	72.06
338.422	96.06
338.65	91.06
338.878	67.06
339.106	88.06
339.334	77.06
339.562	78.06
339.79	72.06
340.018	77.06
340.246	75.06
340.474	82.06
340.702	79.06
340.93	99.06
341.158	81.06
341.386	73.06
341.614	82.06
341.842	79.06
342.07	82.06
342.298	86.06
342.526	91.06
342.754	82.06
342.981	88.06
343.209	89.06
343.437	79.06
343.665	88.06
343.893	82.06
344.12	76.06
344.348	84.06
344.576	87.06
344.804	76.06
345.031	76.06
345.259	79.06
345.487	98.06
345.714	80.06
345.942	82.06
346.17	83.06
346.397	81.06
346.625	83.06
346.853	83.06
347.08	63.06
347.308	87.06
347.535	87.06
347.763	85.06
347.99	96.06
348.218	85.06
348.445	85.06
348.673	78.06
348.9	82.06
349.128	91.06
349.355	94.06
349.583	85.06
349.81	90.06
350.037	85.06
350.265	75.06
350.492	84.06
350.72	89.06
350.947	94.06
351.174	88.06
351.402	95.06
351.629	70.06
351.856	100.06
352.083	95.06
352.311	93.06
352.538	87.06
352.765	86.06
352.992	91.06
353.22	78.06
353.447	79.06
353.674	85.06
353.901	75.06
354.128	90.06
354.355	78.06
354.583	71.06
354.81	80.06
355.037	96.06
355.264	87.06
355.491	87.06
355.718	85.06
355.945	93.06
356.172	86.06
356.399	76.06
356.626	77.06
356.853	82.06
357.08	89.06
357.307	91.06
357.534	88.06
357.761	90.06
357.988	96.06
358.215	80.06
358.441	88.06
358.668	75.06
358.895	75.06
359.122	85.06
359.349	90.06
359.576	79.06
359.802	79.06
360.029	79.06
360.256	86.06
360.483	96.06
360.709	83.06
360.936	97.06
361.163	87.06
361.39	81.06
361.616	83.06
361.843	72.06
362.07	68.06
362.296	88.06
362.523	71.06
362.749	83.06
362.976	82.06
363.203	89.06
363.429	80.06
363.656	70.06
363.882	85.06
364.109	64.06
364.335	90.06
364.562	94.06
364.788	86.06
365.015	78.06
365.241	72.06
365.468	82.06
365.694	82.06
365.92	86.06
366.147	96.06
366.373	81.06
366.599	78.06
366.826	87.06
367.052	99.06
367.278	87.06
367.505	97.06
367.731	98.06
367.957	88.06
368.184	89.06
368.41	91.06
368.636	80.06
368.862	98.06
369.089	100.06
369.315	92.06
369.541	87.06
369.767	94.06
369.993	92.06
370.219	102.06
370.445	86.06
370.672	83.06
370.898	95.06
371.124	83.06
371.35	79.06
371.576	88.06
371.802	94.06
372.028	94.06
372.254	90.06
372.48	103.06
372.706	87.06
372.932	100.06
373.158	89.06
373.384	93.06
373.61	89.06
373.835	88.06
374.061	87.06
374.287	97.06
374.513	86.06
374.739	97.06
374.965	89.06
375.191	103.06
375.416	112.06
375.642	110.06
375.868	88.06
376.094	97.06
376.319	98.06
376.545	88.06
376.771	89.06
376.997	86.06
377.222	93.06
377.448	102.06
377.674	80.06
377.899	107.06
378.125	107.06
378.35	73.06
378.576	86.06
378.802	97.06
379.027	87.06
379.253	104.06
379.478	87.06
379.704	99.06
379.929	91.06
380.155	107.06
380.38	106.06
380.606	104.06
380.831	100.06
381.057	99.06
381.282	103.06
381.507	93.06
381.733	91.06
381.958	88.06
382.184	77.06
382.409	98.06
382.634	105.06
382.86	85.06
383.085	106.06
383.31	88.06
383.535	102.06
383.761	103.06
383.986	102.06
384.211	90.06
384.436	98.06
384.662	84.06
384.887	101.06
385.112	97.06
385.337	112.06
385.562	114.06
385.787	102.06
386.013	108.06
386.238	98.06
386.463	96.06
386.688	99.06
386.913	87.06
387.138	110.06
387.363	119.06
387.588	107.06
387.813	99.06
388.038	106.06
388.263	94.06
388.488	104.06
388.713	93.06
388.938	98.06
389.163	80.06
389.387	92.06
389.612	95.06
389.837	95.06
390.062	99.06
390.287	106.06
390.512	101.06
390.736	105.06
390.961	113.06
391.186	110.06
391.411	92.06
391.636	112.06
391.86	99.06
392.085	114.06
392.31	98.06
392.534	111.06
392.759	106.06
392.984	125.06
393.208	88.06
393.433	97.06
393.658	103.06
393.882	106.06
394.107	114.06
394.331	110.06
394.556	102.06
394.78	107.06
395.005	100.06
395.229	110.06
395.454	110.06
395.678	118.06
395.903	107.06
396.127	103.06
396.352	110.06
396.576	100.06
396.801	107.06
397.025	96.06
397.249	110.06
397.474	114.06
397.698	105.06
397.922	100.06
398.147	103.06
398.371	113.06
398.595	115.06
398.82	111.06
399.044	110.06
399.268	103.06
399.492	108.06
399.717	125.06
399.941	114.06
400.165	110.06
400.389	118.06
400.613	104.06
400.837	97.06
401.062	115.06
401.286	118.06
401.51	111.06
401.734	120.06
401.958	105.06
402.182	114.06
402.406	113.06
402.63	98.06
402.854	108.06
403.078	128.06
403.302	123.06
403.526	118.06
403.75	116.06
403.974	121.06
404.198	106.06
404.422	120.06
404.645	120.06
404.869	106.06
405.093	120.06
405.317	131.06
405.541	120.06
405.765	132.06
405.988	113.06
406.212	126.06
406.436	116.06
406.66	115.06
406.883	104.06
407.107	114.06
407.331	123.06
407.555	122.06
407.778	114.06
408.002	122.06
408.226	131.06
408.449	129.06
408.673	119.06
408.896	131.06
409.12	143.06
409.344	117.06
409.567	123.06
409.791	128.06
410.014	123.06
410.238	138.06
410.461	138.06
410.685	104.06
410.908	135.06
411.132	130.06
411.355	128.06
411.578	143.06
411.802	120.06
412.025	110.06
412.249	126.06
412.472	120.06
412.695	118.06
412.919	123.06
413.142	123.06
413.365	113.06
413.589	108.06
413.812	126.06
414.035	123.06
414.258	134.06
414.482	124.06
414.705	112.06
414.928	125.06
415.151	116.06
415.374	136.06
415.597	123.06
415.821	132.06
416.044	114.06
416.267	132.06
416.49	143.06
416.713	130.06
416.936	124.06
417.159	146.06
417.382	122.06
417.605	135.06
417.828	128.06
418.051	134.06
418.274	126.06
418.497	136.06
418.72	128.06
418.943	127.06
419.166	156.06
419.389	130.06
419.611	127.06
419.834	139.06
420.057	134.06
420.28	131.06
420.503	135.06
420.726	128.06
420.948	119.06
421.171	133.06
421.394	150.06
421.617	150.06
421.839	143.06
422.062	126.06
422.285	146.06
422.507	126.06
422.73	134.06
422.953	133.06
423.175	119.06
423.398	131.06
423.621	128.06
423.843	138.06
424.066	137.06
424.288	151.06
424.511	147.06
424.733	147.06
424.956	149.06
425.178	145.06
425.401	144.06
425.623	148.06
425.846	132.06
426.068	137.06
426.291	147.06
426.513	133.06
426.735	126.06
426.958	145.06
427.18	147.06
427.402	149.06
427.625	124.06
427.847	127.06
428.069	132.06
428.292	130.06
428.514	127.06
428.736	126.06
428.958	121.06
429.181	126.06
429.403	130.06
429.625	131.06
429.847	128.06
430.069	129.06
430.292	140.06
430.514	132.06
430.736	138.06
430.958	127.06
431.18	128.06
431.402	125.06
431.624	130.06
431.846	111.06
432.068	111.06
432.29	103.06
432.512	110.06
432.734	120.06
432.956	129.06
433.178	130.06
433.4	138.06
433.622	153.06
433.844	130.06
434.066	140.06
434.287	119.06
434.509	97.06
434.731	105.06
434.953	117.06
435.175	127.06
435.397	135.06
435.618	116.06
435.84	114.06
436.062	108.06
436.284	126.06
436.505	124.06
436.727	133.06
436.949	133.06
437.17	121.06
437.392	132.06
437.614	115.06
437.835	105.06
438.057	108.06
438.278	115.06
438.5	127.06
438.721	131.06
438.943	141.06
439.165	136.06
439.386	128.06
439.608	148.06
439.829	152.06
440.05	153.06
440.272	160.06
440.493	156.06
440.715	144.06
440.936	149.06
441.158	159.06
441.379	147.06
441.6	148.06
441.822	147.06
442.043	150.06
442.264	155.06
442.486	144.06
442.707	152.06
442.928	151.06
443.149	148.06
443.371	147.06
443.592	139.06
443.813	126.06
444.034	146.06
444.255	145.06
444.476	146.06
444.698	137.06
444.919	130.06
445.14	278.06
445.361	226.06
445.582	166.06
445.803	154.06
446.024	164.06
446.245	161.06
446.466	168.06
446.687	163.06
446.908	154.06
447.129	162.06
447.35	158.06
447.571	161.06
447.792	158.06
448.013	143.06
448.234	146.06
448.455	133.06
448.675	148.06
448.896	130.06
449.117	151.06
449.338	142.06
449.559	154.06
449.779	140.06
450	156.06
450.221	140.06
450.442	141.06
450.662	138.06
450.883	144.06
451.104	154.06
451.324	135.06
451.545	129.06
451.766	147.06
451.986	137.06
452.207	140.06
452.428	134.06
452.648	116.06
452.869	124.06
453.089	123.06
453.31	121.06
453.53	111.06
453.751	106.06
453.971	122.06
454.192	123.06
454.412	122.06
454.633	124.06
454.853	124.06
455.073	126.06
455.294	121.06
455.514	126.06
455.734	126.06
455.955	132.06
456.175	128.06
456.395	123.06
456.616	106.06
456.836	120.06
457.056	128.06
457.276	102.06
457.497	105.06
457.717	101.06
457.937	114.06
458.157	118.06
458.377	114.06
458.598	95.06
458.818	91.06
459.038	82.06
459.258	101.06
459.478	84.06
459.698	103.06
459.918	115.06
460.138	100.06
460.358	126.06
460.578	126.06
460.798	128.06
461.018	121.06
461.238	112.06
461.458	105.06
461.678	105.06
461.898	111.06
462.118	109.06
462.338	131.06
462.558	128.06
462.777	106.06
462.997	121.06
463.217	102.06
463.437	124.06
463.657	111.06
463.876	112.06
464.096	119.06
464.316	118.06
464.536	122.06
464.755	122.06
464.975	112.06
465.195	122.06
465.414	122.06
465.634	121.06
465.854	122.06
466.073	124.06
466.293	114.06
466.512	118.06
466.732	126.06
466.951	135.06
467.171	132.06
467.391	126.06
467.61	139.06
467.829	132.06
468.049	143.06
468.268	136.06
468.488	150.06
468.707	132.06
468.927	149.06
469.146	156.06
469.365	151.06
469.585	122.06
469.804	153.06
470.023	157.06
470.243	143.06
470.462	148.06
470.681	154.06
470.901	147.06
471.12	143.06
471.339	159.06
471.558	138.06
471.777	145.06
471.997	126.06
472.216	128.06
472.435	128.06
472.654	111.06
472.873	108.06
473.092	128.06
473.311	126.06
473.53	132.06
473.749	134.06
473.968	130.06
474.187	124.06
474.406	130.06
474.625	130.06
474.844	132.06
475.063	126.06
475.282	138.06
475.501	118.06
475.72	124.06
475.939	121.06
476.158	129.06
476.377	147.06
476.596	132.06
476.814	116.06
477.033	104.06
477.252	98.06
477.471	120.06
477.69	147.06
477.908	150.06
478.127	142.06
478.346	127.06
478.564	127.06
478.783	144.06
479.002	140.06
479.22	144.06
479.439	140.06
479.658	126.06
479.876	133.06
480.095	111.06
480.313	112.06
480.532	125.06
480.751	112.06
480.969	94.06
481.188	87.06
481.406	78.06
481.624	95.06
481.843	98.06
482.061	106.06
482.28	126.06
482.498	134.06
482.717	144.06
482.935	131.06
483.153	144.06
483.372	152.06
483.59	160.06
483.808	152.06
484.027	138.06
484.245	141.06
484.463	158.06
484.681	161.06
484.9	151.06
485.118	146.06
485.336	138.06
485.554	120.06
485.772	104.06
485.99	122.06
486.209	112.06
486.427	114.06
486.645	127.06
486.863	156.06
487.081	144.06
487.299	152.06
487.517	151.06
487.735	180.06
487.953	195.06
488.171	204.06
488.389	195.06
488.607	176.06
488.825	158.06
489.043	152.06
489.261	130.06
489.479	144.06
489.696	159.06
489.914	147.06
490.132	144.06
490.35	149.06
490.568	177.06
490.786	182.06
491.003	179.06
491.221	175.06
491.439	183.06
491.657	186.06
491.874	207.06
492.092	241.06
492.31	248.06
492.527	244.06
492.745	210.06
492.963	211.06
493.18	203.06
493.398	185.06
493.615	182.06
493.833	170.06
494.05	174.06
494.268	175.06
494.485	187.06
494.703	175.06
494.92	182.06
495.138	171.06
495.355	170.06
495.573	196.06
495.79	168.06
496.008	183.06
496.225	179.06
496.442	167.06
496.66	154.06
496.877	157.06
497.094	179.06
497.312	182.06
497.529	179.06
497.746	160.06
497.963	146.06
498.181	138.06
498.398	130.06
498.615	124.06
498.832	135.06
499.049	122.06
499.267	119.06
499.484	129.06
499.701	140.06
499.918	126.06
500.135	159.06
500.352	155.06
500.569	152.06
500.786	142.06
501.003	157.06
501.22	145.06
501.437	146.06
501.654	155.06
501.871	138.06
502.088	139.06
502.305	115.06
502.522	124.06
502.739	127.06
502.956	128.06
503.172	133.06
503.389	136.06
503.606	122.06
503.823	127.06
504.04	126.06
504.256	127.06
504.473	134.06
504.69	115.06
504.907	134.06
505.123	124.06
505.34	126.06
505.557	124.06
505.773	122.06
505.99	133.06
506.207	130.06
506.423	120.06
506.64	124.06
506.856	134.06
507.073	125.06
507.289	137.06
507.506	124.06
507.722	137.06
507.939	119.06
508.155	121.06
508.372	132.06
508.588	126.06
508.805	121.06
509.021	107.06
509.238	110.06
509.454	108.06
509.67	107.06
509.887	100.06
510.103	105.06
510.319	94.06
510.536	92.06
510.752	93.06
510.968	83.06
511.184	97.06
