Data from Location6.07152019.Energy5.Lamp.07192019.3%Agarose_HRD10591_16-11-03-394.txt Node
Date: Fri Jul 19 16:11:03 EDT 2019
User: cochatt
Spectrometer: HR+D1059
Trigger mode: 1
Integration Time (sec): 1.000000E-1
Scans to average: 1
Electric dark correction enabled: true
Nonlinearity correction enabled: false
Boxcar width: 0
XAxis mode: Wavelengths
Number of Pixels in Spectrum: 2048
>>>>>Begin Spectral Data<<<<<
223.165	-21.12
223.4	-21.12
223.635	-21.12
223.869	-12.12
224.104	-16.12
224.338	-8.12
224.573	-22.12
224.808	-2.12
225.042	-15.12
225.277	-0.12
225.511	-0.12
225.746	15.88
225.98	3.88
226.215	9.88
226.449	10.88
226.683	22.88
226.918	2.88
227.152	30.88
227.387	39.88
227.621	25.88
227.856	39.88
228.09	41.88
228.324	44.88
228.559	44.88
228.793	55.88
229.027	53.88
229.262	79.88
229.496	49.88
229.73	65.88
229.964	78.88
230.199	68.88
230.433	66.88
230.667	73.88
230.901	76.88
231.136	74.88
231.37	69.88
231.604	85.88
231.838	79.88
232.072	79.88
232.306	88.88
232.541	81.88
232.775	81.88
233.009	80.88
233.243	83.88
233.477	85.88
233.711	74.88
233.945	72.88
234.179	77.88
234.413	74.88
234.647	74.88
234.881	80.88
235.115	62.88
235.349	81.88
235.583	71.88
235.817	82.88
236.051	78.88
236.285	66.88
236.519	79.88
236.753	65.88
236.987	77.88
237.221	71.88
237.455	74.88
237.689	56.88
237.922	81.88
238.156	74.88
238.39	68.88
238.624	75.88
238.858	64.88
239.091	75.88
239.325	64.88
239.559	73.88
239.793	72.88
240.027	79.88
240.26	74.88
240.494	79.88
240.728	83.88
240.961	61.88
241.195	72.88
241.429	75.88
241.662	73.88
241.896	66.88
242.13	66.88
242.363	85.88
242.597	70.88
242.83	62.88
243.064	70.88
243.298	73.88
243.531	71.88
243.765	72.88
243.998	81.88
244.232	62.88
244.465	68.88
244.699	73.88
244.932	81.88
245.166	68.88
245.399	85.88
245.633	76.88
245.866	79.88
246.099	73.88
246.333	77.88
246.566	76.88
246.8	72.88
247.033	84.88
247.266	71.88
247.5	66.88
247.733	78.88
247.966	74.88
248.2	88.88
248.433	72.88
248.666	87.88
248.899	68.88
249.133	73.88
249.366	71.88
249.599	56.88
249.832	53.88
250.066	89.88
250.299	66.88
250.532	85.88
250.765	74.88
250.998	71.88
251.231	78.88
251.465	67.88
251.698	86.88
251.931	85.88
252.164	67.88
252.397	74.88
252.63	80.88
252.863	79.88
253.096	92.88
253.329	70.88
253.562	70.88
253.795	85.88
254.028	65.88
254.261	92.88
254.494	76.88
254.727	85.88
254.96	92.88
255.193	86.88
255.426	77.88
255.659	70.88
255.892	81.88
256.124	85.88
256.357	80.88
256.59	94.88
256.823	75.88
257.056	80.88
257.289	83.88
257.521	81.88
257.754	92.88
257.987	69.88
258.22	70.88
258.452	68.88
258.685	74.88
258.918	71.88
259.151	74.88
259.383	87.88
259.616	81.88
259.849	76.88
260.081	77.88
260.314	85.88
260.547	72.88
260.779	83.88
261.012	70.88
261.244	87.88
261.477	89.88
261.71	80.88
261.942	90.88
262.175	82.88
262.407	82.88
262.64	87.88
262.872	87.88
263.105	84.88
263.337	82.88
263.57	79.88
263.802	86.88
264.035	76.88
264.267	73.88
264.499	75.88
264.732	80.88
264.964	83.88
265.197	70.88
265.429	78.88
265.661	73.88
265.894	84.88
266.126	69.88
266.358	90.88
266.591	73.88
266.823	81.88
267.055	69.88
267.287	78.88
267.52	82.88
267.752	74.88
267.984	82.88
268.216	69.88
268.448	88.88
268.681	80.88
268.913	69.88
269.145	70.88
269.377	94.88
269.609	80.88
269.841	78.88
270.073	86.88
270.306	75.88
270.538	94.88
270.77	82.88
271.002	81.88
271.234	88.88
271.466	87.88
271.698	85.88
271.93	80.88
272.162	80.88
272.394	68.88
272.626	81.88
272.858	75.88
273.09	86.88
273.322	78.88
273.553	72.88
273.785	73.88
274.017	87.88
274.249	84.88
274.481	77.88
274.713	78.88
274.945	82.88
275.176	78.88
275.408	72.88
275.64	81.88
275.872	68.88
276.104	90.88
276.335	82.88
276.567	89.88
276.799	84.88
277.031	67.88
277.262	84.88
277.494	93.88
277.726	93.88
277.957	80.88
278.189	89.88
278.421	89.88
278.652	98.88
278.884	63.88
279.115	88.88
279.347	86.88
279.579	72.88
279.81	83.88
280.042	63.88
280.273	86.88
280.505	83.88
280.736	78.88
280.968	66.88
281.199	81.88
281.431	102.88
281.662	71.88
281.894	95.88
282.125	94.88
282.356	88.88
282.588	77.88
282.819	85.88
283.051	88.88
283.282	95.88
283.513	83.88
283.745	88.88
283.976	81.88
284.207	74.88
284.439	72.88
284.67	77.88
284.901	93.88
285.132	80.88
285.364	82.88
285.595	90.88
285.826	81.88
286.057	79.88
286.288	83.88
286.52	103.88
286.751	71.88
286.982	89.88
287.213	83.88
287.444	90.88
287.675	89.88
287.906	75.88
288.138	78.88
288.369	85.88
288.6	84.88
288.831	85.88
289.062	86.88
289.293	81.88
289.524	71.88
289.755	73.88
289.986	87.88
290.217	92.88
290.448	83.88
290.679	77.88
290.91	92.88
291.141	86.88
291.371	74.88
291.602	88.88
291.833	93.88
292.064	80.88
292.295	87.88
292.526	76.88
292.757	83.88
292.987	74.88
293.218	88.88
293.449	70.88
293.68	82.88
293.91	79.88
294.141	82.88
294.372	70.88
294.603	70.88
294.833	83.88
295.064	80.88
295.295	83.88
295.525	77.88
295.756	89.88
295.987	85.88
296.217	85.88
296.448	82.88
296.679	89.88
296.909	81.88
297.14	88.88
297.37	86.88
297.601	78.88
297.831	81.88
298.062	79.88
298.292	95.88
298.523	84.88
298.753	80.88
298.984	71.88
299.214	86.88
299.445	86.88
299.675	84.88
299.905	84.88
300.136	77.88
300.366	85.88
300.597	74.88
300.827	88.88
301.057	78.88
301.288	84.88
301.518	70.88
301.748	74.88
301.979	88.88
302.209	70.88
302.439	70.88
302.669	64.88
302.9	79.88
303.13	78.88
303.36	81.88
303.59	69.88
303.82	84.88
304.051	91.88
304.281	77.88
304.511	90.88
304.741	70.88
304.971	81.88
305.201	95.88
305.431	89.88
305.661	87.88
305.891	83.88
306.121	82.88
306.352	83.88
306.582	93.88
306.812	86.88
307.042	82.88
307.272	75.88
307.502	81.88
307.731	85.88
307.961	93.88
308.191	72.88
308.421	88.88
308.651	92.88
308.881	89.88
309.111	77.88
309.341	72.88
309.571	73.88
309.8	75.88
310.03	81.88
310.26	81.88
310.49	83.88
310.72	80.88
310.949	87.88
311.179	68.88
311.409	86.88
311.639	85.88
311.868	81.88
312.098	70.88
312.328	84.88
312.557	96.88
312.787	101.88
313.017	104.88
313.246	89.88
313.476	77.88
313.706	73.88
313.935	86.88
314.165	74.88
314.394	91.88
314.624	88.88
314.853	72.88
315.083	77.88
315.312	93.88
315.542	93.88
315.771	90.88
316.001	69.88
316.23	70.88
316.46	84.88
316.689	86.88
316.919	90.88
317.148	85.88
317.377	96.88
317.607	85.88
317.836	90.88
318.065	86.88
318.295	95.88
318.524	80.88
318.753	92.88
318.983	74.88
319.212	93.88
319.441	88.88
319.67	92.88
319.9	68.88
320.129	83.88
320.358	84.88
320.587	87.88
320.816	95.88
321.046	89.88
321.275	73.88
321.504	91.88
321.733	82.88
321.962	86.88
322.191	72.88
322.42	82.88
322.649	77.88
322.878	70.88
323.108	75.88
323.337	96.88
323.566	86.88
323.795	96.88
324.024	96.88
324.253	77.88
324.482	93.88
324.71	89.88
324.939	77.88
325.168	83.88
325.397	76.88
325.626	87.88
325.855	83.88
326.084	80.88
326.313	84.88
326.542	88.88
326.77	93.88
326.999	71.88
327.228	80.88
327.457	78.88
327.686	83.88
327.914	73.88
328.143	80.88
328.372	91.88
328.6	84.88
328.829	87.88
329.058	75.88
329.287	94.88
329.515	80.88
329.744	79.88
329.972	86.88
330.201	89.88
330.43	78.88
330.658	90.88
330.887	79.88
331.115	74.88
331.344	74.88
331.572	81.88
331.801	80.88
332.03	78.88
332.258	83.88
332.486	89.88
332.715	84.88
332.943	91.88
333.172	72.88
333.4	76.88
333.629	84.88
333.857	83.88
334.085	73.88
334.314	66.88
334.542	74.88
334.771	81.88
334.999	84.88
335.227	82.88
335.455	81.88
335.684	70.88
335.912	84.88
336.14	75.88
336.369	93.88
336.597	85.88
336.825	70.88
337.053	73.88
337.281	77.88
337.51	75.88
337.738	82.88
337.966	90.88
338.194	81.88
338.422	71.88
338.65	81.88
338.878	82.88
339.106	78.88
339.334	77.88
339.562	81.88
339.79	80.88
340.018	72.88
340.246	74.88
340.474	68.88
340.702	67.88
340.93	74.88
341.158	91.88
341.386	84.88
341.614	86.88
341.842	79.88
342.07	90.88
342.298	61.88
342.526	82.88
342.754	81.88
342.981	79.88
343.209	63.88
343.437	96.88
343.665	85.88
343.893	86.88
344.12	94.88
344.348	88.88
344.576	80.88
344.804	74.88
345.031	81.88
345.259	92.88
345.487	83.88
345.714	78.88
345.942	89.88
346.17	87.88
346.397	87.88
346.625	84.88
346.853	86.88
347.08	71.88
347.308	88.88
347.535	83.88
347.763	77.88
347.99	86.88
348.218	93.88
348.445	83.88
348.673	71.88
348.9	81.88
349.128	83.88
349.355	77.88
349.583	87.88
349.81	76.88
350.037	69.88
350.265	80.88
350.492	86.88
350.72	86.88
350.947	78.88
351.174	89.88
351.402	91.88
351.629	74.88
351.856	106.88
352.083	81.88
352.311	88.88
352.538	71.88
352.765	82.88
352.992	90.88
353.22	83.88
353.447	77.88
353.674	100.88
353.901	79.88
354.128	84.88
354.355	77.88
354.583	77.88
354.81	80.88
355.037	86.88
355.264	79.88
355.491	74.88
355.718	78.88
355.945	74.88
356.172	74.88
356.399	83.88
356.626	70.88
356.853	88.88
357.08	91.88
357.307	85.88
357.534	83.88
357.761	82.88
357.988	89.88
358.215	90.88
358.441	77.88
358.668	82.88
358.895	91.88
359.122	76.88
359.349	80.88
359.576	87.88
359.802	99.88
360.029	86.88
360.256	78.88
360.483	75.88
360.709	81.88
360.936	84.88
361.163	82.88
361.39	81.88
361.616	77.88
361.843	85.88
362.07	72.88
362.296	90.88
362.523	80.88
362.749	86.88
362.976	75.88
363.203	83.88
363.429	79.88
363.656	78.88
363.882	76.88
364.109	81.88
364.335	78.88
364.562	81.88
364.788	72.88
365.015	96.88
365.241	80.88
365.468	80.88
365.694	100.88
365.92	70.88
366.147	84.88
366.373	94.88
366.599	90.88
366.826	86.88
367.052	76.88
367.278	81.88
367.505	99.88
367.731	81.88
367.957	92.88
368.184	77.88
368.41	85.88
368.636	96.88
368.862	96.88
369.089	81.88
369.315	96.88
369.541	95.88
369.767	83.88
369.993	84.88
370.219	77.88
370.445	85.88
370.672	98.88
370.898	82.88
371.124	90.88
371.35	85.88
371.576	69.88
371.802	99.88
372.028	94.88
372.254	94.88
372.48	92.88
372.706	93.88
372.932	98.88
373.158	84.88
373.384	85.88
373.61	89.88
373.835	88.88
374.061	100.88
374.287	89.88
374.513	83.88
374.739	67.88
374.965	77.88
375.191	78.88
375.416	98.88
375.642	91.88
375.868	96.88
376.094	86.88
376.319	93.88
376.545	85.88
376.771	89.88
376.997	81.88
377.222	81.88
377.448	108.88
377.674	93.88
377.899	83.88
378.125	97.88
378.35	88.88
378.576	86.88
378.802	86.88
379.027	89.88
379.253	98.88
379.478	94.88
379.704	99.88
379.929	107.88
380.155	92.88
380.38	82.88
380.606	98.88
380.831	91.88
381.057	86.88
381.282	85.88
381.507	89.88
381.733	98.88
381.958	88.88
382.184	90.88
382.409	96.88
382.634	94.88
382.86	100.88
383.085	107.88
383.31	87.88
383.535	101.88
383.761	86.88
383.986	103.88
384.211	86.88
384.436	117.88
384.662	100.88
384.887	101.88
385.112	103.88
385.337	97.88
385.562	89.88
385.787	94.88
386.013	101.88
386.238	97.88
386.463	112.88
386.688	108.88
386.913	98.88
387.138	100.88
387.363	94.88
387.588	105.88
387.813	108.88
388.038	93.88
388.263	112.88
388.488	101.88
388.713	105.88
388.938	119.88
389.163	101.88
389.387	77.88
389.612	104.88
389.837	89.88
390.062	110.88
390.287	83.88
390.512	86.88
390.736	100.88
390.961	89.88
391.186	104.88
391.411	92.88
391.636	85.88
391.86	87.88
392.085	105.88
392.31	112.88
392.534	99.88
392.759	100.88
392.984	99.88
393.208	85.88
393.433	104.88
393.658	112.88
393.882	106.88
394.107	97.88
394.331	104.88
394.556	112.88
394.78	90.88
395.005	102.88
395.229	109.88
395.454	106.88
395.678	109.88
395.903	111.88
396.127	117.88
396.352	103.88
396.576	112.88
396.801	99.88
397.025	107.88
397.249	98.88
397.474	109.88
397.698	110.88
397.922	119.88
398.147	101.88
398.371	110.88
398.595	100.88
398.82	87.88
399.044	108.88
399.268	100.88
399.492	102.88
399.717	96.88
399.941	122.88
400.165	113.88
400.389	113.88
400.613	117.88
400.837	116.88
401.062	103.88
401.286	107.88
401.51	88.88
401.734	113.88
401.958	122.88
402.182	121.88
402.406	113.88
402.63	120.88
402.854	121.88
403.078	113.88
403.302	102.88
403.526	113.88
403.75	116.88
403.974	114.88
404.198	114.88
404.422	118.88
404.645	116.88
404.869	129.88
405.093	128.88
405.317	105.88
405.541	120.88
405.765	104.88
405.988	109.88
406.212	121.88
406.436	125.88
406.66	121.88
406.883	127.88
407.107	112.88
407.331	121.88
407.555	123.88
407.778	109.88
408.002	118.88
408.226	108.88
408.449	118.88
408.673	108.88
408.896	109.88
409.12	120.88
409.344	122.88
409.567	113.88
409.791	115.88
410.014	126.88
410.238	118.88
410.461	116.88
410.685	122.88
410.908	126.88
411.132	124.88
411.355	130.88
411.578	118.88
411.802	127.88
412.025	104.88
412.249	119.88
412.472	120.88
412.695	115.88
412.919	118.88
413.142	118.88
413.365	112.88
413.589	114.88
413.812	126.88
414.035	127.88
414.258	113.88
414.482	123.88
414.705	117.88
414.928	124.88
415.151	118.88
415.374	125.88
415.597	128.88
415.821	129.88
416.044	114.88
416.267	137.88
416.49	123.88
416.713	132.88
416.936	125.88
417.159	132.88
417.382	143.88
417.605	116.88
417.828	129.88
418.051	125.88
418.274	135.88
418.497	138.88
418.72	126.88
418.943	148.88
419.166	127.88
419.389	141.88
419.611	137.88
419.834	134.88
420.057	122.88
420.28	130.88
420.503	139.88
420.726	139.88
420.948	149.88
421.171	133.88
421.394	123.88
421.617	137.88
421.839	127.88
422.062	131.88
422.285	138.88
422.507	134.88
422.73	132.88
422.953	124.88
423.175	131.88
423.398	122.88
423.621	136.88
423.843	143.88
424.066	134.88
424.288	126.88
424.511	148.88
424.733	140.88
424.956	150.88
425.178	140.88
425.401	137.88
425.623	137.88
425.846	130.88
426.068	126.88
426.291	131.88
426.513	139.88
426.735	140.88
426.958	125.88
427.18	136.88
427.402	126.88
427.625	126.88
427.847	119.88
428.069	126.88
428.292	129.88
428.514	127.88
428.736	134.88
428.958	133.88
429.181	130.88
429.403	115.88
429.625	136.88
429.847	116.88
430.069	125.88
430.292	128.88
430.514	136.88
430.736	148.88
430.958	132.88
431.18	127.88
431.402	124.88
431.624	120.88
431.846	93.88
432.068	103.88
432.29	109.88
432.512	105.88
432.734	124.88
432.956	140.88
433.178	129.88
433.4	135.88
433.622	142.88
433.844	128.88
434.066	122.88
434.287	118.88
434.509	90.88
434.731	96.88
434.953	113.88
435.175	120.88
435.397	128.88
435.618	120.88
435.84	122.88
436.062	116.88
436.284	128.88
436.505	123.88
436.727	128.88
436.949	122.88
437.17	148.88
437.392	123.88
437.614	116.88
437.835	102.88
438.057	95.88
438.278	113.88
438.5	129.88
438.721	133.88
438.943	135.88
439.165	137.88
439.386	138.88
439.608	136.88
439.829	153.88
440.05	150.88
440.272	159.88
440.493	150.88
440.715	156.88
440.936	145.88
441.158	157.88
441.379	141.88
441.6	139.88
441.822	160.88
442.043	140.88
442.264	122.88
442.486	132.88
442.707	150.88
442.928	133.88
443.149	139.88
443.371	151.88
443.592	134.88
443.813	136.88
444.034	144.88
444.255	156.88
444.476	145.88
444.698	136.88
444.919	151.88
445.14	278.88
445.361	198.88
445.582	158.88
445.803	154.88
446.024	152.88
446.245	150.88
446.466	146.88
446.687	147.88
446.908	169.88
447.129	164.88
447.35	156.88
447.571	145.88
447.792	148.88
448.013	149.88
448.234	145.88
448.455	148.88
448.675	153.88
448.896	153.88
449.117	138.88
449.338	138.88
449.559	144.88
449.779	156.88
450	141.88
450.221	138.88
450.442	144.88
450.662	143.88
450.883	154.88
451.104	140.88
451.324	139.88
451.545	108.88
451.766	128.88
451.986	134.88
452.207	126.88
452.428	132.88
452.648	123.88
452.869	111.88
453.089	103.88
453.31	114.88
453.53	101.88
453.751	112.88
453.971	98.88
454.192	101.88
454.412	103.88
454.633	116.88
454.853	121.88
455.073	126.88
455.294	132.88
455.514	124.88
455.734	124.88
455.955	116.88
456.175	127.88
456.395	113.88
456.616	109.88
456.836	102.88
457.056	113.88
457.276	114.88
457.497	93.88
457.717	93.88
457.937	112.88
458.157	105.88
458.377	102.88
458.598	81.88
458.818	78.88
459.038	106.88
459.258	98.88
459.478	101.88
459.698	86.88
459.918	98.88
460.138	112.88
460.358	112.88
460.578	111.88
460.798	123.88
461.018	115.88
461.238	120.88
461.458	100.88
461.678	118.88
461.898	117.88
462.118	130.88
462.338	115.88
462.558	116.88
462.777	111.88
462.997	96.88
463.217	100.88
463.437	106.88
463.657	112.88
463.876	106.88
464.096	114.88
464.316	110.88
464.536	108.88
464.755	110.88
464.975	103.88
465.195	119.88
465.414	126.88
465.634	106.88
465.854	119.88
466.073	115.88
466.293	109.88
466.512	137.88
466.732	136.88
466.951	129.88
467.171	135.88
467.391	143.88
467.61	123.88
467.829	129.88
468.049	129.88
468.268	132.88
468.488	131.88
468.707	121.88
468.927	129.88
469.146	137.88
469.365	131.88
469.585	121.88
469.804	133.88
470.023	146.88
470.243	144.88
470.462	145.88
470.681	137.88
470.901	152.88
471.12	142.88
471.339	144.88
471.558	138.88
471.777	137.88
471.997	139.88
472.216	127.88
472.435	116.88
472.654	125.88
472.873	123.88
473.092	123.88
473.311	133.88
473.53	137.88
473.749	120.88
473.968	124.88
474.187	121.88
474.406	104.88
474.625	114.88
474.844	136.88
475.063	135.88
475.282	132.88
475.501	120.88
475.72	116.88
475.939	119.88
476.158	129.88
476.377	120.88
476.596	132.88
476.814	121.88
477.033	109.88
477.252	116.88
477.471	118.88
477.69	138.88
477.908	146.88
478.127	149.88
478.346	138.88
478.564	139.88
478.783	131.88
479.002	141.88
479.22	137.88
479.439	135.88
479.658	125.88
479.876	119.88
480.095	106.88
480.313	122.88
480.532	126.88
480.751	110.88
480.969	95.88
481.188	90.88
481.406	82.88
481.624	93.88
481.843	87.88
482.061	92.88
482.28	106.88
482.498	117.88
482.717	104.88
482.935	117.88
483.153	152.88
483.372	174.88
483.59	145.88
483.808	138.88
484.027	142.88
484.245	146.88
484.463	169.88
484.681	144.88
484.9	153.88
485.118	150.88
485.336	133.88
485.554	118.88
485.772	105.88
485.99	102.88
486.209	100.88
486.427	121.88
486.645	124.88
486.863	142.88
487.081	157.88
487.299	131.88
487.517	149.88
487.735	160.88
487.953	180.88
488.171	191.88
488.389	190.88
488.607	180.88
488.825	145.88
489.043	130.88
489.261	138.88
489.479	146.88
489.696	158.88
489.914	153.88
490.132	149.88
490.35	163.88
490.568	162.88
490.786	180.88
491.003	173.88
491.221	182.88
491.439	187.88
491.657	209.88
491.874	207.88
492.092	241.88
492.31	239.88
492.527	227.88
492.745	211.88
492.963	206.88
493.18	185.88
493.398	193.88
493.615	185.88
493.833	178.88
494.05	198.88
494.268	180.88
494.485	180.88
494.703	181.88
494.92	184.88
495.138	180.88
495.355	179.88
495.573	174.88
495.79	183.88
496.008	175.88
496.225	170.88
496.442	168.88
496.66	179.88
496.877	165.88
497.094	163.88
497.312	152.88
497.529	160.88
497.746	170.88
497.963	140.88
498.181	124.88
498.398	120.88
498.615	118.88
498.832	122.88
499.049	122.88
499.267	130.88
499.484	141.88
499.701	138.88
499.918	146.88
500.135	131.88
500.352	134.88
500.569	138.88
500.786	145.88
501.003	143.88
501.22	156.88
501.437	140.88
501.654	129.88
501.871	136.88
502.088	135.88
502.305	139.88
502.522	140.88
502.739	141.88
502.956	135.88
503.172	137.88
503.389	137.88
503.606	131.88
503.823	112.88
504.04	128.88
504.256	133.88
504.473	127.88
504.69	130.88
504.907	118.88
505.123	113.88
505.34	129.88
505.557	113.88
505.773	127.88
505.99	131.88
506.207	133.88
506.423	120.88
506.64	112.88
506.856	117.88
507.073	123.88
507.289	113.88
507.506	128.88
507.722	114.88
507.939	107.88
508.155	111.88
508.372	96.88
508.588	116.88
508.805	115.88
509.021	112.88
509.238	114.88
509.454	90.88
509.67	94.88
509.887	88.88
510.103	102.88
510.319	104.88
510.536	79.88
510.752	82.88
510.968	93.88
511.184	95.88
511.401	86.88
511.617	90.88
511.833	88.88
