Data from Location6.07152019.Energy5.Lamp.07192019.3%Agarose_HRD10591_16-11-22-394.txt Node
Date: Fri Jul 19 16:11:22 EDT 2019
User: cochatt
Spectrometer: HR+D1059
Trigger mode: 1
Integration Time (sec): 1.000000E-1
Scans to average: 1
Electric dark correction enabled: true
Nonlinearity correction enabled: false
Boxcar width: 0
XAxis mode: Wavelengths
Number of Pixels in Spectrum: 2048
>>>>>Begin Spectral Data<<<<<
223.165	-20.38
223.4	-20.38
223.635	-20.38
223.869	-15.38
224.104	-29.38
224.338	-12.38
224.573	-13.38
224.808	-19.38
225.042	8.62
225.277	-7.38
225.511	2.62
225.746	4.62
225.98	5.62
226.215	6.62
226.449	14.62
226.683	18.62
226.918	18.62
227.152	37.62
227.387	35.62
227.621	37.62
227.856	30.62
228.09	41.62
228.324	48.62
228.559	49.62
228.793	65.62
229.027	53.62
229.262	55.62
229.496	69.62
229.73	69.62
229.964	77.62
230.199	72.62
230.433	77.62
230.667	87.62
230.901	67.62
231.136	81.62
231.37	68.62
231.604	75.62
231.838	78.62
232.072	86.62
232.306	76.62
232.541	93.62
232.775	96.62
233.009	79.62
233.243	80.62
233.477	78.62
233.711	74.62
233.945	82.62
234.179	77.62
234.413	96.62
234.647	81.62
234.881	81.62
235.115	79.62
235.349	87.62
235.583	78.62
235.817	69.62
236.051	71.62
236.285	84.62
236.519	83.62
236.753	62.62
236.987	68.62
237.221	88.62
237.455	86.62
237.689	76.62
237.922	72.62
238.156	81.62
238.39	83.62
238.624	81.62
238.858	64.62
239.091	75.62
239.325	83.62
239.559	80.62
239.793	71.62
240.027	82.62
240.26	78.62
240.494	74.62
240.728	83.62
240.961	74.62
241.195	72.62
241.429	88.62
241.662	75.62
241.896	87.62
242.13	77.62
242.363	84.62
242.597	80.62
242.83	64.62
243.064	78.62
243.298	71.62
243.531	62.62
243.765	70.62
243.998	82.62
244.232	74.62
244.465	77.62
244.699	78.62
244.932	74.62
245.166	67.62
245.399	86.62
245.633	82.62
245.866	85.62
246.099	64.62
246.333	88.62
246.566	79.62
246.8	86.62
247.033	71.62
247.266	77.62
247.5	72.62
247.733	77.62
247.966	77.62
248.2	84.62
248.433	83.62
248.666	85.62
248.899	87.62
249.133	82.62
249.366	75.62
249.599	93.62
249.832	84.62
250.066	92.62
250.299	82.62
250.532	93.62
250.765	74.62
250.998	83.62
251.231	91.62
251.465	76.62
251.698	85.62
251.931	74.62
252.164	80.62
252.397	76.62
252.63	75.62
252.863	85.62
253.096	77.62
253.329	77.62
253.562	89.62
253.795	96.62
254.028	86.62
254.261	72.62
254.494	83.62
254.727	82.62
254.96	90.62
255.193	84.62
255.426	93.62
255.659	71.62
255.892	91.62
256.124	78.62
256.357	77.62
256.59	83.62
256.823	77.62
257.056	86.62
257.289	88.62
257.521	71.62
257.754	71.62
257.987	89.62
258.22	97.62
258.452	74.62
258.685	89.62
258.918	84.62
259.151	82.62
259.383	82.62
259.616	74.62
259.849	74.62
260.081	81.62
260.314	81.62
260.547	80.62
260.779	83.62
261.012	67.62
261.244	74.62
261.477	85.62
261.71	88.62
261.942	83.62
262.175	70.62
262.407	77.62
262.64	81.62
262.872	81.62
263.105	89.62
263.337	78.62
263.57	84.62
263.802	90.62
264.035	88.62
264.267	71.62
264.499	90.62
264.732	81.62
264.964	81.62
265.197	89.62
265.429	80.62
265.661	90.62
265.894	90.62
266.126	77.62
266.358	73.62
266.591	87.62
266.823	75.62
267.055	80.62
267.287	88.62
267.52	76.62
267.752	77.62
267.984	82.62
268.216	77.62
268.448	82.62
268.681	78.62
268.913	102.62
269.145	81.62
269.377	88.62
269.609	84.62
269.841	87.62
270.073	94.62
270.306	65.62
270.538	78.62
270.77	89.62
271.002	76.62
271.234	92.62
271.466	96.62
271.698	87.62
271.93	84.62
272.162	70.62
272.394	75.62
272.626	95.62
272.858	76.62
273.09	78.62
273.322	75.62
273.553	68.62
273.785	85.62
274.017	101.62
274.249	91.62
274.481	85.62
274.713	80.62
274.945	87.62
275.176	93.62
275.408	82.62
275.64	81.62
275.872	86.62
276.104	85.62
276.335	87.62
276.567	86.62
276.799	87.62
277.031	88.62
277.262	78.62
277.494	86.62
277.726	90.62
277.957	86.62
278.189	85.62
278.421	75.62
278.652	93.62
278.884	92.62
279.115	86.62
279.347	93.62
279.579	74.62
279.81	97.62
280.042	85.62
280.273	71.62
280.505	85.62
280.736	101.62
280.968	71.62
281.199	80.62
281.431	104.62
281.662	90.62
281.894	79.62
282.125	82.62
282.356	73.62
282.588	80.62
282.819	84.62
283.051	76.62
283.282	83.62
283.513	84.62
283.745	77.62
283.976	84.62
284.207	85.62
284.439	87.62
284.67	79.62
284.901	84.62
285.132	98.62
285.364	82.62
285.595	84.62
285.826	91.62
286.057	94.62
286.288	94.62
286.52	87.62
286.751	84.62
286.982	81.62
287.213	80.62
287.444	93.62
287.675	71.62
287.906	84.62
288.138	86.62
288.369	92.62
288.6	81.62
288.831	83.62
289.062	86.62
289.293	76.62
289.524	86.62
289.755	87.62
289.986	76.62
290.217	103.62
290.448	87.62
290.679	101.62
290.91	102.62
291.141	86.62
291.371	88.62
291.602	85.62
291.833	81.62
292.064	90.62
292.295	85.62
292.526	87.62
292.757	80.62
292.987	89.62
293.218	76.62
293.449	92.62
293.68	93.62
293.91	93.62
294.141	81.62
294.372	87.62
294.603	89.62
294.833	97.62
295.064	73.62
295.295	90.62
295.525	86.62
295.756	75.62
295.987	77.62
296.217	92.62
296.448	79.62
296.679	80.62
296.909	83.62
297.14	79.62
297.37	76.62
297.601	95.62
297.831	92.62
298.062	81.62
298.292	89.62
298.523	92.62
298.753	87.62
298.984	77.62
299.214	84.62
299.445	78.62
299.675	79.62
299.905	86.62
300.136	81.62
300.366	87.62
300.597	78.62
300.827	83.62
301.057	82.62
301.288	92.62
301.518	87.62
301.748	99.62
301.979	81.62
302.209	90.62
302.439	79.62
302.669	77.62
302.9	83.62
303.13	94.62
303.36	82.62
303.59	83.62
303.82	88.62
304.051	91.62
304.281	84.62
304.511	88.62
304.741	83.62
304.971	77.62
305.201	88.62
305.431	81.62
305.661	97.62
305.891	86.62
306.121	73.62
306.352	89.62
306.582	73.62
306.812	81.62
307.042	98.62
307.272	105.62
307.502	83.62
307.731	95.62
307.961	76.62
308.191	78.62
308.421	96.62
308.651	77.62
308.881	82.62
309.111	87.62
309.341	81.62
309.571	80.62
309.8	84.62
310.03	82.62
310.26	85.62
310.49	88.62
310.72	96.62
310.949	84.62
311.179	89.62
311.409	80.62
311.639	93.62
311.868	84.62
312.098	79.62
312.328	86.62
312.557	86.62
312.787	78.62
313.017	91.62
313.246	92.62
313.476	80.62
313.706	92.62
313.935	82.62
314.165	82.62
314.394	98.62
314.624	88.62
314.853	87.62
315.083	84.62
315.312	79.62
315.542	79.62
315.771	82.62
316.001	77.62
316.23	86.62
316.46	82.62
316.689	85.62
316.919	90.62
317.148	86.62
317.377	89.62
317.607	88.62
317.836	81.62
318.065	78.62
318.295	88.62
318.524	86.62
318.753	78.62
318.983	78.62
319.212	107.62
319.441	91.62
319.67	89.62
319.9	83.62
320.129	99.62
320.358	99.62
320.587	78.62
320.816	75.62
321.046	91.62
321.275	89.62
321.504	87.62
321.733	92.62
321.962	85.62
322.191	84.62
322.42	86.62
322.649	84.62
322.878	103.62
323.108	93.62
323.337	70.62
323.566	83.62
323.795	81.62
324.024	96.62
324.253	78.62
324.482	88.62
324.71	87.62
324.939	86.62
325.168	85.62
325.397	92.62
325.626	87.62
325.855	85.62
326.084	82.62
326.313	74.62
326.542	88.62
326.77	85.62
326.999	72.62
327.228	82.62
327.457	91.62
327.686	99.62
327.914	91.62
328.143	93.62
328.372	85.62
328.6	84.62
328.829	81.62
329.058	82.62
329.287	82.62
329.515	76.62
329.744	76.62
329.972	79.62
330.201	77.62
330.43	84.62
330.658	88.62
330.887	84.62
331.115	97.62
331.344	89.62
331.572	101.62
331.801	86.62
332.03	80.62
332.258	96.62
332.486	80.62
332.715	73.62
332.943	88.62
333.172	91.62
333.4	91.62
333.629	74.62
333.857	93.62
334.085	98.62
334.314	88.62
334.542	88.62
334.771	75.62
334.999	91.62
335.227	80.62
335.455	86.62
335.684	94.62
335.912	75.62
336.14	79.62
336.369	86.62
336.597	96.62
336.825	90.62
337.053	86.62
337.281	77.62
337.51	76.62
337.738	81.62
337.966	97.62
338.194	80.62
338.422	78.62
338.65	90.62
338.878	77.62
339.106	70.62
339.334	87.62
339.562	88.62
339.79	96.62
340.018	77.62
340.246	85.62
340.474	82.62
340.702	88.62
340.93	91.62
341.158	101.62
341.386	87.62
341.614	84.62
341.842	79.62
342.07	82.62
342.298	102.62
342.526	94.62
342.754	71.62
342.981	84.62
343.209	96.62
343.437	87.62
343.665	88.62
343.893	80.62
344.12	99.62
344.348	75.62
344.576	90.62
344.804	78.62
345.031	86.62
345.259	82.62
345.487	81.62
345.714	78.62
345.942	90.62
346.17	92.62
346.397	83.62
346.625	86.62
346.853	92.62
347.08	96.62
347.308	84.62
347.535	89.62
347.763	88.62
347.99	82.62
348.218	84.62
348.445	78.62
348.673	75.62
348.9	87.62
349.128	90.62
349.355	77.62
349.583	96.62
349.81	95.62
350.037	86.62
350.265	90.62
350.492	71.62
350.72	80.62
350.947	86.62
351.174	75.62
351.402	86.62
351.629	76.62
351.856	91.62
352.083	84.62
352.311	76.62
352.538	73.62
352.765	81.62
352.992	89.62
353.22	101.62
353.447	78.62
353.674	85.62
353.901	85.62
354.128	99.62
354.355	82.62
354.583	82.62
354.81	98.62
355.037	83.62
355.264	79.62
355.491	95.62
355.718	84.62
355.945	78.62
356.172	82.62
356.399	89.62
356.626	68.62
356.853	86.62
357.08	91.62
357.307	78.62
357.534	88.62
357.761	86.62
357.988	89.62
358.215	74.62
358.441	76.62
358.668	86.62
358.895	87.62
359.122	75.62
359.349	78.62
359.576	81.62
359.802	96.62
360.029	103.62
360.256	77.62
360.483	97.62
360.709	74.62
360.936	97.62
361.163	65.62
361.39	96.62
361.616	91.62
361.843	91.62
362.07	94.62
362.296	86.62
362.523	78.62
362.749	93.62
362.976	83.62
363.203	94.62
363.429	101.62
363.656	92.62
363.882	95.62
364.109	96.62
364.335	90.62
364.562	107.62
364.788	89.62
365.015	84.62
365.241	86.62
365.468	97.62
365.694	89.62
365.92	97.62
366.147	89.62
366.373	96.62
366.599	95.62
366.826	85.62
367.052	98.62
367.278	90.62
367.505	96.62
367.731	105.62
367.957	82.62
368.184	95.62
368.41	82.62
368.636	90.62
368.862	92.62
369.089	78.62
369.315	95.62
369.541	80.62
369.767	97.62
369.993	88.62
370.219	97.62
370.445	88.62
370.672	94.62
370.898	84.62
371.124	97.62
371.35	98.62
371.576	84.62
371.802	101.62
372.028	102.62
372.254	88.62
372.48	88.62
372.706	99.62
372.932	103.62
373.158	102.62
373.384	101.62
373.61	100.62
373.835	92.62
374.061	88.62
374.287	103.62
374.513	81.62
374.739	96.62
374.965	88.62
375.191	78.62
375.416	96.62
375.642	96.62
375.868	94.62
376.094	111.62
376.319	98.62
376.545	76.62
376.771	70.62
376.997	93.62
377.222	99.62
377.448	104.62
377.674	96.62
377.899	99.62
378.125	99.62
378.35	94.62
378.576	91.62
378.802	89.62
379.027	89.62
379.253	94.62
379.478	106.62
379.704	87.62
379.929	100.62
380.155	96.62
380.38	101.62
380.606	79.62
380.831	110.62
381.057	79.62
381.282	86.62
381.507	93.62
381.733	101.62
381.958	86.62
382.184	97.62
382.409	101.62
382.634	106.62
382.86	104.62
383.085	94.62
383.31	104.62
383.535	118.62
383.761	98.62
383.986	94.62
384.211	103.62
384.436	87.62
384.662	97.62
384.887	100.62
385.112	115.62
385.337	104.62
385.562	102.62
385.787	86.62
386.013	112.62
386.238	104.62
386.463	103.62
386.688	108.62
386.913	113.62
387.138	93.62
387.363	100.62
387.588	99.62
387.813	99.62
388.038	103.62
388.263	100.62
388.488	116.62
388.713	100.62
388.938	109.62
389.163	108.62
389.387	102.62
389.612	99.62
389.837	107.62
390.062	102.62
390.287	102.62
390.512	120.62
390.736	107.62
390.961	99.62
391.186	107.62
391.411	102.62
391.636	99.62
391.86	96.62
392.085	105.62
392.31	109.62
392.534	97.62
392.759	92.62
392.984	100.62
393.208	108.62
393.433	95.62
393.658	117.62
393.882	119.62
394.107	112.62
394.331	98.62
394.556	101.62
394.78	99.62
395.005	107.62
395.229	98.62
395.454	105.62
395.678	113.62
395.903	113.62
396.127	125.62
396.352	114.62
396.576	116.62
396.801	105.62
397.025	106.62
397.249	103.62
397.474	103.62
397.698	116.62
397.922	118.62
398.147	109.62
398.371	114.62
398.595	109.62
398.82	116.62
399.044	107.62
399.268	121.62
399.492	110.62
399.717	106.62
399.941	122.62
400.165	107.62
400.389	108.62
400.613	131.62
400.837	118.62
401.062	106.62
401.286	102.62
401.51	110.62
401.734	100.62
401.958	108.62
402.182	122.62
402.406	114.62
402.63	109.62
402.854	125.62
403.078	122.62
403.302	113.62
403.526	118.62
403.75	114.62
403.974	126.62
404.198	115.62
404.422	128.62
404.645	126.62
404.869	120.62
405.093	123.62
405.317	121.62
405.541	132.62
405.765	121.62
405.988	130.62
406.212	130.62
406.436	116.62
406.66	133.62
406.883	120.62
407.107	115.62
407.331	140.62
407.555	117.62
407.778	121.62
408.002	125.62
408.226	118.62
408.449	126.62
408.673	115.62
408.896	111.62
409.12	128.62
409.344	128.62
409.567	125.62
409.791	132.62
410.014	124.62
410.238	123.62
410.461	111.62
410.685	125.62
410.908	128.62
411.132	132.62
411.355	124.62
411.578	123.62
411.802	128.62
412.025	123.62
412.249	133.62
412.472	124.62
412.695	128.62
412.919	145.62
413.142	133.62
413.365	134.62
413.589	137.62
413.812	123.62
414.035	119.62
414.258	137.62
414.482	123.62
414.705	133.62
414.928	122.62
415.151	129.62
415.374	122.62
415.597	123.62
415.821	119.62
416.044	139.62
416.267	129.62
416.49	136.62
416.713	123.62
416.936	126.62
417.159	129.62
417.382	132.62
417.605	128.62
417.828	133.62
418.051	128.62
418.274	147.62
418.497	141.62
418.72	142.62
418.943	136.62
419.166	140.62
419.389	142.62
419.611	133.62
419.834	139.62
420.057	138.62
420.28	157.62
420.503	140.62
420.726	141.62
420.948	136.62
421.171	142.62
421.394	131.62
421.617	138.62
421.839	154.62
422.062	141.62
422.285	128.62
422.507	126.62
422.73	127.62
422.953	132.62
423.175	129.62
423.398	126.62
423.621	147.62
423.843	140.62
424.066	148.62
424.288	139.62
424.511	148.62
424.733	149.62
424.956	142.62
425.178	151.62
425.401	152.62
425.623	142.62
425.846	142.62
426.068	137.62
426.291	148.62
426.513	130.62
426.735	136.62
426.958	117.62
427.18	128.62
427.402	128.62
427.625	133.62
427.847	124.62
428.069	133.62
428.292	133.62
428.514	145.62
428.736	139.62
428.958	124.62
429.181	132.62
429.403	128.62
429.625	132.62
429.847	137.62
430.069	130.62
430.292	143.62
430.514	130.62
430.736	128.62
430.958	132.62
431.18	125.62
431.402	141.62
431.624	129.62
431.846	110.62
432.068	110.62
432.29	97.62
432.512	121.62
432.734	121.62
432.956	132.62
433.178	137.62
433.4	144.62
433.622	137.62
433.844	133.62
434.066	128.62
434.287	122.62
434.509	84.62
434.731	98.62
434.953	125.62
435.175	120.62
435.397	138.62
435.618	130.62
435.84	102.62
436.062	113.62
436.284	123.62
436.505	125.62
436.727	121.62
436.949	137.62
437.17	143.62
437.392	136.62
437.614	136.62
437.835	121.62
438.057	101.62
438.278	113.62
438.5	140.62
438.721	126.62
438.943	136.62
439.165	142.62
439.386	152.62
439.608	152.62
439.829	163.62
440.05	146.62
440.272	148.62
440.493	151.62
440.715	145.62
440.936	130.62
441.158	160.62
441.379	151.62
441.6	150.62
441.822	168.62
442.043	163.62
442.264	146.62
442.486	140.62
442.707	145.62
442.928	162.62
443.149	158.62
443.371	136.62
443.592	143.62
443.813	147.62
444.034	149.62
444.255	163.62
444.476	155.62
444.698	144.62
444.919	170.62
445.14	264.62
445.361	201.62
445.582	169.62
445.803	152.62
446.024	144.62
446.245	169.62
446.466	170.62
446.687	159.62
446.908	170.62
447.129	160.62
447.35	156.62
447.571	154.62
447.792	157.62
448.013	148.62
448.234	160.62
448.455	154.62
448.675	142.62
448.896	133.62
449.117	152.62
449.338	138.62
449.559	136.62
449.779	137.62
450	139.62
450.221	137.62
450.442	145.62
450.662	134.62
450.883	136.62
451.104	150.62
451.324	129.62
451.545	137.62
451.766	137.62
451.986	130.62
452.207	133.62
452.428	126.62
452.648	146.62
452.869	131.62
453.089	131.62
453.31	137.62
453.53	101.62
453.751	98.62
453.971	103.62
454.192	105.62
454.412	114.62
454.633	130.62
454.853	125.62
455.073	126.62
455.294	132.62
455.514	125.62
455.734	118.62
455.955	117.62
456.175	133.62
456.395	115.62
456.616	98.62
456.836	124.62
457.056	118.62
457.276	100.62
457.497	117.62
457.717	92.62
457.937	119.62
458.157	120.62
458.377	109.62
458.598	109.62
458.818	91.62
459.038	89.62
459.258	98.62
459.478	90.62
459.698	102.62
459.918	105.62
460.138	119.62
460.358	121.62
460.578	119.62
460.798	127.62
461.018	113.62
461.238	139.62
461.458	130.62
461.678	128.62
461.898	122.62
462.118	118.62
462.338	122.62
462.558	124.62
462.777	115.62
462.997	115.62
463.217	101.62
463.437	104.62
463.657	112.62
463.876	122.62
464.096	124.62
464.316	106.62
464.536	132.62
464.755	120.62
464.975	116.62
465.195	128.62
465.414	123.62
465.634	107.62
465.854	110.62
466.073	137.62
466.293	123.62
466.512	136.62
466.732	148.62
466.951	121.62
467.171	140.62
467.391	129.62
467.61	148.62
467.829	143.62
468.049	139.62
468.268	149.62
468.488	151.62
468.707	152.62
468.927	148.62
469.146	133.62
469.365	138.62
469.585	154.62
469.804	150.62
470.023	146.62
470.243	152.62
470.462	154.62
470.681	151.62
470.901	167.62
471.12	140.62
471.339	150.62
471.558	141.62
471.777	160.62
471.997	161.62
472.216	126.62
472.435	128.62
472.654	114.62
472.873	109.62
473.092	130.62
473.311	134.62
473.53	131.62
473.749	133.62
473.968	130.62
474.187	133.62
474.406	125.62
474.625	137.62
474.844	136.62
475.063	117.62
475.282	144.62
475.501	138.62
475.72	122.62
475.939	126.62
476.158	130.62
476.377	122.62
476.596	128.62
476.814	137.62
477.033	106.62
477.252	128.62
477.471	134.62
477.69	157.62
477.908	148.62
478.127	156.62
478.346	138.62
478.564	134.62
478.783	129.62
479.002	143.62
479.22	150.62
479.439	142.62
479.658	133.62
479.876	114.62
480.095	113.62
480.313	141.62
480.532	108.62
480.751	110.62
480.969	99.62
481.188	92.62
481.406	84.62
481.624	81.62
481.843	105.62
482.061	113.62
482.28	118.62
482.498	112.62
482.717	116.62
482.935	121.62
483.153	144.62
483.372	141.62
483.59	157.62
483.808	149.62
484.027	133.62
484.245	131.62
484.463	156.62
484.681	178.62
484.9	153.62
485.118	148.62
485.336	130.62
485.554	122.62
485.772	112.62
485.99	113.62
486.209	110.62
486.427	112.62
486.645	121.62
486.863	146.62
487.081	156.62
487.299	141.62
487.517	171.62
487.735	184.62
487.953	197.62
488.171	199.62
488.389	181.62
488.607	164.62
488.825	152.62
489.043	148.62
489.261	123.62
489.479	131.62
489.696	152.62
489.914	130.62
490.132	156.62
490.35	166.62
490.568	177.62
490.786	172.62
491.003	180.62
491.221	186.62
491.439	197.62
491.657	211.62
491.874	220.62
492.092	233.62
492.31	260.62
492.527	258.62
492.745	226.62
492.963	214.62
493.18	202.62
493.398	186.62
493.615	177.62
493.833	191.62
494.05	181.62
494.268	178.62
494.485	180.62
494.703	196.62
494.92	179.62
495.138	188.62
495.355	170.62
495.573	174.62
495.79	170.62
496.008	180.62
496.225	166.62
496.442	157.62
496.66	171.62
496.877	169.62
497.094	173.62
497.312	184.62
497.529	150.62
497.746	160.62
497.963	148.62
498.181	138.62
498.398	126.62
498.615	111.62
498.832	107.62
499.049	131.62
499.267	126.62
499.484	138.62
499.701	154.62
499.918	142.62
500.135	153.62
500.352	158.62
500.569	140.62
500.786	150.62
501.003	145.62
501.22	145.62
501.437	154.62
501.654	141.62
501.871	138.62
502.088	142.62
502.305	144.62
502.522	128.62
502.739	134.62
502.956	143.62
503.172	130.62
503.389	120.62
503.606	135.62
503.823	133.62
504.04	132.62
504.256	130.62
504.473	133.62
504.69	132.62
504.907	142.62
505.123	120.62
505.34	128.62
505.557	142.62
505.773	130.62
505.99	137.62
506.207	118.62
506.423	134.62
506.64	130.62
506.856	126.62
507.073	120.62
507.289	132.62
507.506	127.62
507.722	125.62
507.939	114.62
508.155	131.62
508.372	120.62
508.588	100.62
508.805	116.62
509.021	109.62
509.238	125.62
509.454	118.62
509.67	110.62
509.887	104.62
510.103	104.62
510.319	94.62
510.536	97.62
510.752	91.62
510.968	104.62
511.184	90.62
