Data from Location6.07152019.Energy5.Lamp.07192019.3%Agarose_HRD10591_16-11-00-394.txt Node
Date: Fri Jul 19 16:11:00 EDT 2019
User: cochatt
Spectrometer: HR+D1059
Trigger mode: 1
Integration Time (sec): 1.000000E-1
Scans to average: 1
Electric dark correction enabled: true
Nonlinearity correction enabled: false
Boxcar width: 0
XAxis mode: Wavelengths
Number of Pixels in Spectrum: 2048
>>>>>Begin Spectral Data<<<<<
223.165	-23.88
223.4	-23.88
223.635	-23.88
223.869	-20.88
224.104	-28.88
224.338	-20.88
224.573	-17.88
224.808	-18.88
225.042	10.12
225.277	-0.88
225.511	2.12
225.746	12.12
225.98	11.12
226.215	10.12
226.449	1.12
226.683	22.12
226.918	37.12
227.152	26.12
227.387	24.12
227.621	32.12
227.856	53.12
228.09	53.12
228.324	49.12
228.559	62.12
228.793	59.12
229.027	57.12
229.262	67.12
229.496	56.12
229.73	75.12
229.964	80.12
230.199	67.12
230.433	69.12
230.667	66.12
230.901	82.12
231.136	80.12
231.37	80.12
231.604	69.12
231.838	93.12
232.072	76.12
232.306	79.12
232.541	77.12
232.775	78.12
233.009	89.12
233.243	87.12
233.477	93.12
233.711	88.12
233.945	85.12
234.179	76.12
234.413	85.12
234.647	75.12
234.881	71.12
235.115	74.12
235.349	76.12
235.583	86.12
235.817	89.12
236.051	81.12
236.285	73.12
236.519	82.12
236.753	76.12
236.987	68.12
237.221	76.12
237.455	76.12
237.689	76.12
237.922	82.12
238.156	90.12
238.39	71.12
238.624	76.12
238.858	71.12
239.091	69.12
239.325	87.12
239.559	77.12
239.793	72.12
240.027	78.12
240.26	81.12
240.494	78.12
240.728	79.12
240.961	78.12
241.195	74.12
241.429	88.12
241.662	87.12
241.896	87.12
242.13	83.12
242.363	79.12
242.597	83.12
242.83	71.12
243.064	67.12
243.298	82.12
243.531	77.12
243.765	85.12
243.998	76.12
244.232	98.12
244.465	83.12
244.699	84.12
244.932	64.12
245.166	70.12
245.399	74.12
245.633	81.12
245.866	80.12
246.099	69.12
246.333	76.12
246.566	78.12
246.8	89.12
247.033	68.12
247.266	82.12
247.5	72.12
247.733	73.12
247.966	83.12
248.2	68.12
248.433	71.12
248.666	92.12
248.899	88.12
249.133	89.12
249.366	86.12
249.599	74.12
249.832	82.12
250.066	68.12
250.299	82.12
250.532	84.12
250.765	75.12
250.998	88.12
251.231	95.12
251.465	58.12
251.698	75.12
251.931	77.12
252.164	82.12
252.397	80.12
252.63	79.12
252.863	80.12
253.096	91.12
253.329	81.12
253.562	78.12
253.795	71.12
254.028	89.12
254.261	85.12
254.494	86.12
254.727	77.12
254.96	79.12
255.193	81.12
255.426	60.12
255.659	72.12
255.892	83.12
256.124	86.12
256.357	82.12
256.59	77.12
256.823	80.12
257.056	90.12
257.289	85.12
257.521	79.12
257.754	81.12
257.987	74.12
258.22	90.12
258.452	73.12
258.685	75.12
258.918	79.12
259.151	89.12
259.383	81.12
259.616	69.12
259.849	87.12
260.081	90.12
260.314	92.12
260.547	83.12
260.779	82.12
261.012	76.12
261.244	77.12
261.477	76.12
261.71	94.12
261.942	90.12
262.175	90.12
262.407	77.12
262.64	68.12
262.872	84.12
263.105	82.12
263.337	84.12
263.57	91.12
263.802	99.12
264.035	89.12
264.267	80.12
264.499	76.12
264.732	93.12
264.964	88.12
265.197	77.12
265.429	79.12
265.661	81.12
265.894	88.12
266.126	86.12
266.358	81.12
266.591	95.12
266.823	81.12
267.055	75.12
267.287	96.12
267.52	84.12
267.752	79.12
267.984	101.12
268.216	72.12
268.448	83.12
268.681	68.12
268.913	71.12
269.145	65.12
269.377	86.12
269.609	95.12
269.841	64.12
270.073	95.12
270.306	82.12
270.538	75.12
270.77	87.12
271.002	76.12
271.234	90.12
271.466	82.12
271.698	81.12
271.93	73.12
272.162	71.12
272.394	74.12
272.626	67.12
272.858	71.12
273.09	91.12
273.322	72.12
273.553	78.12
273.785	79.12
274.017	88.12
274.249	91.12
274.481	73.12
274.713	90.12
274.945	86.12
275.176	80.12
275.408	74.12
275.64	85.12
275.872	89.12
276.104	79.12
276.335	81.12
276.567	89.12
276.799	81.12
277.031	100.12
277.262	87.12
277.494	89.12
277.726	86.12
277.957	81.12
278.189	88.12
278.421	84.12
278.652	85.12
278.884	77.12
279.115	83.12
279.347	84.12
279.579	80.12
279.81	86.12
280.042	96.12
280.273	79.12
280.505	88.12
280.736	95.12
280.968	81.12
281.199	86.12
281.431	84.12
281.662	81.12
281.894	89.12
282.125	70.12
282.356	74.12
282.588	85.12
282.819	89.12
283.051	84.12
283.282	89.12
283.513	78.12
283.745	76.12
283.976	84.12
284.207	88.12
284.439	80.12
284.67	81.12
284.901	85.12
285.132	80.12
285.364	85.12
285.595	76.12
285.826	65.12
286.057	89.12
286.288	92.12
286.52	92.12
286.751	77.12
286.982	73.12
287.213	75.12
287.444	94.12
287.675	65.12
287.906	93.12
288.138	100.12
288.369	77.12
288.6	96.12
288.831	82.12
289.062	83.12
289.293	78.12
289.524	91.12
289.755	70.12
289.986	92.12
290.217	90.12
290.448	82.12
290.679	83.12
290.91	79.12
291.141	78.12
291.371	84.12
291.602	79.12
291.833	82.12
292.064	91.12
292.295	72.12
292.526	86.12
292.757	100.12
292.987	90.12
293.218	96.12
293.449	82.12
293.68	65.12
293.91	86.12
294.141	96.12
294.372	88.12
294.603	75.12
294.833	100.12
295.064	95.12
295.295	88.12
295.525	87.12
295.756	85.12
295.987	91.12
296.217	80.12
296.448	88.12
296.679	84.12
296.909	89.12
297.14	86.12
297.37	87.12
297.601	91.12
297.831	95.12
298.062	99.12
298.292	93.12
298.523	87.12
298.753	80.12
298.984	83.12
299.214	79.12
299.445	78.12
299.675	82.12
299.905	92.12
300.136	80.12
300.366	86.12
300.597	91.12
300.827	95.12
301.057	72.12
301.288	81.12
301.518	76.12
301.748	84.12
301.979	86.12
302.209	93.12
302.439	85.12
302.669	99.12
302.9	97.12
303.13	84.12
303.36	88.12
303.59	87.12
303.82	86.12
304.051	91.12
304.281	77.12
304.511	93.12
304.741	76.12
304.971	79.12
305.201	91.12
305.431	82.12
305.661	84.12
305.891	74.12
306.121	73.12
306.352	94.12
306.582	89.12
306.812	73.12
307.042	89.12
307.272	81.12
307.502	85.12
307.731	98.12
307.961	88.12
308.191	81.12
308.421	105.12
308.651	86.12
308.881	86.12
309.111	93.12
309.341	92.12
309.571	74.12
309.8	78.12
310.03	96.12
310.26	78.12
310.49	76.12
310.72	79.12
310.949	90.12
311.179	85.12
311.409	78.12
311.639	85.12
311.868	85.12
312.098	71.12
312.328	79.12
312.557	89.12
312.787	78.12
313.017	86.12
313.246	98.12
313.476	95.12
313.706	83.12
313.935	82.12
314.165	78.12
314.394	79.12
314.624	91.12
314.853	91.12
315.083	63.12
315.312	75.12
315.542	76.12
315.771	89.12
316.001	84.12
316.23	88.12
316.46	87.12
316.689	79.12
316.919	93.12
317.148	84.12
317.377	84.12
317.607	76.12
317.836	86.12
318.065	99.12
318.295	83.12
318.524	88.12
318.753	84.12
318.983	83.12
319.212	106.12
319.441	77.12
319.67	77.12
319.9	86.12
320.129	87.12
320.358	88.12
320.587	88.12
320.816	83.12
321.046	85.12
321.275	75.12
321.504	88.12
321.733	83.12
321.962	84.12
322.191	95.12
322.42	71.12
322.649	68.12
322.878	83.12
323.108	86.12
323.337	77.12
323.566	103.12
323.795	99.12
324.024	86.12
324.253	78.12
324.482	79.12
324.71	94.12
324.939	87.12
325.168	74.12
325.397	87.12
325.626	81.12
325.855	76.12
326.084	82.12
326.313	77.12
326.542	82.12
326.77	84.12
326.999	78.12
327.228	79.12
327.457	91.12
327.686	101.12
327.914	85.12
328.143	85.12
328.372	81.12
328.6	77.12
328.829	96.12
329.058	82.12
329.287	85.12
329.515	84.12
329.744	81.12
329.972	75.12
330.201	80.12
330.43	78.12
330.658	79.12
330.887	89.12
331.115	93.12
331.344	89.12
331.572	82.12
331.801	78.12
332.03	81.12
332.258	77.12
332.486	89.12
332.715	95.12
332.943	80.12
333.172	88.12
333.4	109.12
333.629	79.12
333.857	93.12
334.085	70.12
334.314	79.12
334.542	85.12
334.771	90.12
334.999	84.12
335.227	82.12
335.455	84.12
335.684	92.12
335.912	86.12
336.14	69.12
336.369	86.12
336.597	85.12
336.825	85.12
337.053	75.12
337.281	90.12
337.51	87.12
337.738	97.12
337.966	100.12
338.194	83.12
338.422	78.12
338.65	69.12
338.878	76.12
339.106	78.12
339.334	89.12
339.562	82.12
339.79	73.12
340.018	89.12
340.246	82.12
340.474	90.12
340.702	108.12
340.93	86.12
341.158	93.12
341.386	90.12
341.614	83.12
341.842	100.12
342.07	95.12
342.298	78.12
342.526	89.12
342.754	85.12
342.981	86.12
343.209	78.12
343.437	83.12
343.665	80.12
343.893	92.12
344.12	91.12
344.348	82.12
344.576	101.12
344.804	80.12
345.031	85.12
345.259	75.12
345.487	91.12
345.714	66.12
345.942	76.12
346.17	85.12
346.397	81.12
346.625	84.12
346.853	73.12
347.08	86.12
347.308	80.12
347.535	99.12
347.763	91.12
347.99	95.12
348.218	77.12
348.445	81.12
348.673	74.12
348.9	82.12
349.128	92.12
349.355	78.12
349.583	88.12
349.81	83.12
350.037	97.12
350.265	85.12
350.492	97.12
350.72	85.12
350.947	99.12
351.174	88.12
351.402	82.12
351.629	74.12
351.856	80.12
352.083	75.12
352.311	94.12
352.538	84.12
352.765	88.12
352.992	81.12
353.22	92.12
353.447	71.12
353.674	77.12
353.901	81.12
354.128	83.12
354.355	72.12
354.583	71.12
354.81	84.12
355.037	64.12
355.264	98.12
355.491	89.12
355.718	92.12
355.945	97.12
356.172	93.12
356.399	76.12
356.626	75.12
356.853	79.12
357.08	83.12
357.307	85.12
357.534	97.12
357.761	76.12
357.988	82.12
358.215	84.12
358.441	84.12
358.668	78.12
358.895	69.12
359.122	100.12
359.349	83.12
359.576	86.12
359.802	76.12
360.029	83.12
360.256	85.12
360.483	81.12
360.709	71.12
360.936	82.12
361.163	92.12
361.39	93.12
361.616	78.12
361.843	80.12
362.07	84.12
362.296	85.12
362.523	96.12
362.749	86.12
362.976	77.12
363.203	89.12
363.429	90.12
363.656	76.12
363.882	95.12
364.109	76.12
364.335	92.12
364.562	92.12
364.788	95.12
365.015	91.12
365.241	80.12
365.468	86.12
365.694	88.12
365.92	69.12
366.147	81.12
366.373	77.12
366.599	84.12
366.826	76.12
367.052	86.12
367.278	91.12
367.505	76.12
367.731	95.12
367.957	90.12
368.184	99.12
368.41	80.12
368.636	89.12
368.862	89.12
369.089	104.12
369.315	90.12
369.541	97.12
369.767	78.12
369.993	88.12
370.219	90.12
370.445	90.12
370.672	84.12
370.898	87.12
371.124	104.12
371.35	84.12
371.576	77.12
371.802	95.12
372.028	103.12
372.254	119.12
372.48	84.12
372.706	109.12
372.932	86.12
373.158	96.12
373.384	88.12
373.61	81.12
373.835	85.12
374.061	94.12
374.287	96.12
374.513	102.12
374.739	93.12
374.965	85.12
375.191	92.12
375.416	98.12
375.642	89.12
375.868	95.12
376.094	98.12
376.319	89.12
376.545	102.12
376.771	97.12
376.997	90.12
377.222	109.12
377.448	111.12
377.674	98.12
377.899	100.12
378.125	91.12
378.35	122.12
378.576	96.12
378.802	99.12
379.027	87.12
379.253	93.12
379.478	87.12
379.704	99.12
379.929	93.12
380.155	97.12
380.38	95.12
380.606	90.12
380.831	98.12
381.057	107.12
381.282	101.12
381.507	106.12
381.733	107.12
381.958	91.12
382.184	96.12
382.409	113.12
382.634	106.12
382.86	84.12
383.085	97.12
383.31	114.12
383.535	100.12
383.761	102.12
383.986	92.12
384.211	103.12
384.436	112.12
384.662	97.12
384.887	98.12
385.112	104.12
385.337	88.12
385.562	90.12
385.787	99.12
386.013	118.12
386.238	103.12
386.463	88.12
386.688	100.12
386.913	92.12
387.138	114.12
387.363	108.12
387.588	88.12
387.813	114.12
388.038	100.12
388.263	109.12
388.488	106.12
388.713	96.12
388.938	99.12
389.163	88.12
389.387	105.12
389.612	87.12
389.837	112.12
390.062	108.12
390.287	104.12
390.512	95.12
390.736	99.12
390.961	88.12
391.186	128.12
391.411	100.12
391.636	96.12
391.86	107.12
392.085	103.12
392.31	109.12
392.534	109.12
392.759	103.12
392.984	98.12
393.208	114.12
393.433	97.12
393.658	90.12
393.882	111.12
394.107	87.12
394.331	101.12
394.556	112.12
394.78	110.12
395.005	98.12
395.229	109.12
395.454	90.12
395.678	103.12
395.903	105.12
396.127	112.12
396.352	113.12
396.576	114.12
396.801	113.12
397.025	109.12
397.249	107.12
397.474	114.12
397.698	104.12
397.922	102.12
398.147	112.12
398.371	105.12
398.595	107.12
398.82	110.12
399.044	104.12
399.268	118.12
399.492	124.12
399.717	113.12
399.941	127.12
400.165	128.12
400.389	99.12
400.613	96.12
400.837	104.12
401.062	120.12
401.286	109.12
401.51	108.12
401.734	119.12
401.958	103.12
402.182	110.12
402.406	114.12
402.63	113.12
402.854	124.12
403.078	124.12
403.302	114.12
403.526	115.12
403.75	110.12
403.974	118.12
404.198	118.12
404.422	118.12
404.645	117.12
404.869	126.12
405.093	115.12
405.317	122.12
405.541	99.12
405.765	116.12
405.988	110.12
406.212	126.12
406.436	123.12
406.66	128.12
406.883	124.12
407.107	124.12
407.331	121.12
407.555	122.12
407.778	117.12
408.002	118.12
408.226	112.12
408.449	123.12
408.673	123.12
408.896	128.12
409.12	120.12
409.344	133.12
409.567	124.12
409.791	105.12
410.014	123.12
410.238	129.12
410.461	129.12
410.685	134.12
410.908	121.12
411.132	118.12
411.355	126.12
411.578	129.12
411.802	128.12
412.025	115.12
412.249	116.12
412.472	123.12
412.695	120.12
412.919	121.12
413.142	137.12
413.365	127.12
413.589	137.12
413.812	128.12
414.035	135.12
414.258	132.12
414.482	122.12
414.705	130.12
414.928	136.12
415.151	120.12
415.374	128.12
415.597	108.12
415.821	119.12
416.044	123.12
416.267	137.12
416.49	131.12
416.713	128.12
416.936	136.12
417.159	116.12
417.382	114.12
417.605	141.12
417.828	134.12
418.051	133.12
418.274	132.12
418.497	132.12
418.72	126.12
418.943	125.12
419.166	154.12
419.389	134.12
419.611	125.12
419.834	144.12
420.057	143.12
420.28	129.12
420.503	133.12
420.726	136.12
420.948	136.12
421.171	146.12
421.394	152.12
421.617	136.12
421.839	140.12
422.062	139.12
422.285	148.12
422.507	135.12
422.73	127.12
422.953	147.12
423.175	140.12
423.398	155.12
423.621	141.12
423.843	130.12
424.066	136.12
424.288	143.12
424.511	139.12
424.733	164.12
424.956	154.12
425.178	148.12
425.401	148.12
425.623	132.12
425.846	137.12
426.068	150.12
426.291	137.12
426.513	126.12
426.735	138.12
426.958	139.12
427.18	138.12
427.402	149.12
427.625	132.12
427.847	121.12
428.069	140.12
428.292	134.12
428.514	135.12
428.736	121.12
428.958	129.12
429.181	146.12
429.403	132.12
429.625	136.12
429.847	130.12
430.069	148.12
430.292	133.12
430.514	129.12
430.736	143.12
430.958	132.12
431.18	129.12
431.402	123.12
431.624	132.12
431.846	109.12
432.068	93.12
432.29	91.12
432.512	120.12
432.734	118.12
432.956	141.12
433.178	142.12
433.4	152.12
433.622	131.12
433.844	139.12
434.066	134.12
434.287	121.12
434.509	109.12
434.731	109.12
434.953	116.12
435.175	118.12
435.397	133.12
435.618	108.12
435.84	106.12
436.062	120.12
436.284	129.12
436.505	135.12
436.727	133.12
436.949	140.12
437.17	132.12
437.392	129.12
437.614	121.12
437.835	112.12
438.057	112.12
438.278	116.12
438.5	136.12
438.721	132.12
438.943	134.12
439.165	128.12
439.386	154.12
439.608	126.12
439.829	135.12
440.05	159.12
440.272	142.12
440.493	131.12
440.715	160.12
440.936	162.12
441.158	147.12
441.379	165.12
441.6	153.12
441.822	152.12
442.043	153.12
442.264	151.12
442.486	144.12
442.707	154.12
442.928	140.12
443.149	155.12
443.371	135.12
443.592	149.12
443.813	138.12
444.034	154.12
444.255	146.12
444.476	155.12
444.698	145.12
444.919	152.12
445.14	258.12
445.361	201.12
445.582	151.12
445.803	150.12
446.024	160.12
446.245	163.12
446.466	149.12
446.687	149.12
446.908	160.12
447.129	160.12
447.35	167.12
447.571	161.12
447.792	153.12
448.013	150.12
448.234	141.12
448.455	146.12
448.675	140.12
448.896	146.12
449.117	153.12
449.338	150.12
449.559	140.12
449.779	148.12
450	144.12
450.221	143.12
450.442	137.12
450.662	151.12
450.883	137.12
451.104	128.12
451.324	134.12
451.545	146.12
451.766	146.12
451.986	136.12
452.207	138.12
452.428	112.12
452.648	127.12
452.869	125.12
453.089	121.12
453.31	112.12
453.53	125.12
453.751	123.12
453.971	118.12
454.192	120.12
454.412	115.12
454.633	102.12
454.853	116.12
455.073	121.12
455.294	144.12
455.514	128.12
455.734	129.12
455.955	114.12
456.175	122.12
456.395	99.12
456.616	101.12
456.836	108.12
457.056	113.12
457.276	96.12
457.497	124.12
457.717	108.12
457.937	104.12
458.157	108.12
458.377	98.12
458.598	103.12
458.818	95.12
459.038	101.12
459.258	88.12
459.478	87.12
459.698	83.12
459.918	104.12
460.138	120.12
460.358	118.12
460.578	124.12
460.798	107.12
461.018	122.12
461.238	128.12
461.458	127.12
461.678	130.12
461.898	116.12
462.118	129.12
462.338	124.12
462.558	117.12
462.777	122.12
462.997	120.12
463.217	111.12
463.437	108.12
463.657	115.12
463.876	114.12
464.096	104.12
464.316	107.12
464.536	120.12
464.755	116.12
464.975	122.12
465.195	118.12
465.414	128.12
465.634	124.12
465.854	119.12
466.073	122.12
466.293	124.12
466.512	137.12
466.732	136.12
466.951	118.12
467.171	152.12
467.391	123.12
467.61	123.12
467.829	134.12
468.049	151.12
468.268	132.12
468.488	146.12
468.707	142.12
468.927	148.12
469.146	144.12
469.365	142.12
469.585	135.12
469.804	160.12
470.023	143.12
470.243	142.12
470.462	146.12
470.681	150.12
470.901	150.12
471.12	142.12
471.339	156.12
471.558	148.12
471.777	152.12
471.997	134.12
472.216	131.12
472.435	113.12
472.654	120.12
472.873	126.12
473.092	118.12
473.311	135.12
473.53	139.12
473.749	125.12
473.968	126.12
474.187	148.12
474.406	123.12
474.625	139.12
474.844	153.12
475.063	133.12
475.282	141.12
475.501	120.12
475.72	133.12
475.939	136.12
476.158	124.12
476.377	133.12
476.596	128.12
476.814	120.12
477.033	100.12
477.252	107.12
477.471	141.12
477.69	128.12
477.908	136.12
478.127	148.12
478.346	143.12
478.564	141.12
478.783	143.12
479.002	132.12
479.22	142.12
479.439	130.12
479.658	130.12
479.876	108.12
480.095	94.12
480.313	124.12
480.532	114.12
480.751	115.12
480.969	98.12
481.188	104.12
481.406	82.12
481.624	86.12
481.843	90.12
482.061	88.12
482.28	112.12
482.498	117.12
482.717	122.12
482.935	135.12
483.153	153.12
483.372	153.12
483.59	178.12
483.808	148.12
484.027	141.12
484.245	136.12
484.463	162.12
484.681	178.12
484.9	143.12
485.118	132.12
485.336	130.12
485.554	124.12
485.772	99.12
485.99	96.12
486.209	123.12
486.427	120.12
486.645	126.12
486.863	125.12
487.081	152.12
487.299	140.12
487.517	148.12
487.735	177.12
487.953	196.12
488.171	200.12
488.389	190.12
488.607	185.12
488.825	165.12
489.043	145.12
489.261	121.12
489.479	135.12
489.696	171.12
489.914	162.12
490.132	150.12
490.35	158.12
490.568	172.12
490.786	172.12
491.003	190.12
491.221	182.12
491.439	203.12
491.657	202.12
491.874	201.12
492.092	236.12
492.31	248.12
492.527	226.12
492.745	211.12
492.963	197.12
493.18	199.12
493.398	189.12
493.615	175.12
493.833	178.12
494.05	186.12
494.268	191.12
494.485	173.12
494.703	183.12
494.92	172.12
495.138	177.12
495.355	173.12
495.573	180.12
495.79	168.12
496.008	182.12
496.225	178.12
496.442	188.12
496.66	178.12
496.877	174.12
497.094	173.12
497.312	172.12
497.529	182.12
497.746	162.12
497.963	153.12
498.181	140.12
498.398	120.12
498.615	113.12
498.832	125.12
499.049	135.12
499.267	136.12
499.484	144.12
499.701	138.12
499.918	156.12
500.135	140.12
500.352	148.12
500.569	142.12
500.786	156.12
501.003	165.12
501.22	149.12
501.437	137.12
501.654	140.12
501.871	138.12
502.088	130.12
502.305	140.12
502.522	140.12
502.739	137.12
502.956	128.12
503.172	132.12
503.389	122.12
503.606	136.12
503.823	150.12
504.04	122.12
504.256	121.12
504.473	108.12
504.69	122.12
504.907	114.12
505.123	134.12
505.34	119.12
505.557	136.12
505.773	144.12
505.99	124.12
506.207	122.12
506.423	116.12
506.64	118.12
506.856	120.12
507.073	125.12
507.289	133.12
507.506	122.12
507.722	125.12
507.939	121.12
508.155	116.12
508.372	128.12
508.588	117.12
508.805	118.12
509.021	107.12
509.238	114.12
509.454	96.12
509.67	98.12
509.887	106.12
510.103	106.12
510.319	93.12
510.536	87.12
510.752	80.12
510.968	77.12
511.184	78.12
511.401	85.12
