Data from Location6.07152019.Energy5.Lamp.07192019.3%Agarose_HRD10591_16-11-41-394.txt Node
Date: Fri Jul 19 16:11:41 EDT 2019
User: cochatt
Spectrometer: HR+D1059
Trigger mode: 1
Integration Time (sec): 1.000000E-1
Scans to average: 1
Electric dark correction enabled: true
Nonlinearity correction enabled: false
Boxcar width: 0
XAxis mode: Wavelengths
Number of Pixels in Spectrum: 2048
>>>>>Begin Spectral Data<<<<<
223.165	-15.19
223.4	-15.19
223.635	-15.19
223.869	-9.19
224.104	-5.19
224.338	-14.19
224.573	-11.19
224.808	-15.19
225.042	-16.19
225.277	-20.19
225.511	6.81
225.746	15.81
225.98	3.81
226.215	16.81
226.449	3.81
226.683	21.81
226.918	12.81
227.152	24.81
227.387	30.81
227.621	38.81
227.856	32.81
228.09	48.81
228.324	60.81
228.559	46.81
228.793	52.81
229.027	60.81
229.262	56.81
229.496	58.81
229.73	54.81
229.964	65.81
230.199	84.81
230.433	69.81
230.667	76.81
230.901	89.81
231.136	74.81
231.37	85.81
231.604	79.81
231.838	76.81
232.072	82.81
232.306	79.81
232.541	77.81
232.775	84.81
233.009	66.81
233.243	67.81
233.477	89.81
233.711	73.81
233.945	94.81
234.179	77.81
234.413	90.81
234.647	68.81
234.881	65.81
235.115	73.81
235.349	76.81
235.583	77.81
235.817	84.81
236.051	69.81
236.285	64.81
236.519	74.81
236.753	68.81
236.987	76.81
237.221	77.81
237.455	89.81
237.689	80.81
237.922	76.81
238.156	67.81
238.39	73.81
238.624	80.81
238.858	89.81
239.091	97.81
239.325	65.81
239.559	82.81
239.793	86.81
240.027	73.81
240.26	75.81
240.494	71.81
240.728	66.81
240.961	78.81
241.195	85.81
241.429	87.81
241.662	68.81
241.896	74.81
242.13	89.81
242.363	76.81
242.597	71.81
242.83	87.81
243.064	79.81
243.298	60.81
243.531	86.81
243.765	74.81
243.998	75.81
244.232	83.81
244.465	81.81
244.699	72.81
244.932	76.81
245.166	76.81
245.399	87.81
245.633	88.81
245.866	85.81
246.099	78.81
246.333	80.81
246.566	88.81
246.8	86.81
247.033	79.81
247.266	67.81
247.5	80.81
247.733	77.81
247.966	71.81
248.2	73.81
248.433	82.81
248.666	78.81
248.899	85.81
249.133	77.81
249.366	81.81
249.599	73.81
249.832	80.81
250.066	65.81
250.299	82.81
250.532	74.81
250.765	84.81
250.998	78.81
251.231	76.81
251.465	66.81
251.698	72.81
251.931	75.81
252.164	77.81
252.397	79.81
252.63	84.81
252.863	78.81
253.096	81.81
253.329	93.81
253.562	79.81
253.795	72.81
254.028	73.81
254.261	89.81
254.494	79.81
254.727	72.81
254.96	62.81
255.193	70.81
255.426	75.81
255.659	75.81
255.892	84.81
256.124	74.81
256.357	86.81
256.59	71.81
256.823	78.81
257.056	78.81
257.289	72.81
257.521	76.81
257.754	67.81
257.987	75.81
258.22	79.81
258.452	75.81
258.685	94.81
258.918	86.81
259.151	84.81
259.383	60.81
259.616	64.81
259.849	83.81
260.081	75.81
260.314	85.81
260.547	89.81
260.779	70.81
261.012	83.81
261.244	79.81
261.477	78.81
261.71	95.81
261.942	77.81
262.175	83.81
262.407	79.81
262.64	86.81
262.872	60.81
263.105	82.81
263.337	85.81
263.57	84.81
263.802	89.81
264.035	86.81
264.267	92.81
264.499	73.81
264.732	79.81
264.964	78.81
265.197	98.81
265.429	94.81
265.661	84.81
265.894	93.81
266.126	81.81
266.358	86.81
266.591	66.81
266.823	76.81
267.055	90.81
267.287	72.81
267.52	61.81
267.752	81.81
267.984	88.81
268.216	77.81
268.448	81.81
268.681	77.81
268.913	94.81
269.145	79.81
269.377	80.81
269.609	91.81
269.841	96.81
270.073	72.81
270.306	81.81
270.538	85.81
270.77	89.81
271.002	90.81
271.234	79.81
271.466	94.81
271.698	71.81
271.93	72.81
272.162	82.81
272.394	87.81
272.626	87.81
272.858	72.81
273.09	81.81
273.322	89.81
273.553	88.81
273.785	99.81
274.017	73.81
274.249	68.81
274.481	75.81
274.713	88.81
274.945	78.81
275.176	76.81
275.408	70.81
275.64	81.81
275.872	75.81
276.104	75.81
276.335	71.81
276.567	94.81
276.799	86.81
277.031	72.81
277.262	86.81
277.494	95.81
277.726	95.81
277.957	86.81
278.189	78.81
278.421	80.81
278.652	80.81
278.884	96.81
279.115	80.81
279.347	100.81
279.579	76.81
279.81	79.81
280.042	71.81
280.273	84.81
280.505	74.81
280.736	77.81
280.968	90.81
281.199	87.81
281.431	91.81
281.662	96.81
281.894	90.81
282.125	83.81
282.356	86.81
282.588	75.81
282.819	83.81
283.051	91.81
283.282	74.81
283.513	82.81
283.745	81.81
283.976	87.81
284.207	79.81
284.439	79.81
284.67	79.81
284.901	65.81
285.132	78.81
285.364	98.81
285.595	84.81
285.826	82.81
286.057	87.81
286.288	94.81
286.52	86.81
286.751	83.81
286.982	76.81
287.213	87.81
287.444	85.81
287.675	87.81
287.906	83.81
288.138	83.81
288.369	92.81
288.6	79.81
288.831	75.81
289.062	83.81
289.293	85.81
289.524	83.81
289.755	85.81
289.986	95.81
290.217	89.81
290.448	92.81
290.679	82.81
290.91	89.81
291.141	85.81
291.371	82.81
291.602	88.81
291.833	88.81
292.064	76.81
292.295	95.81
292.526	76.81
292.757	67.81
292.987	83.81
293.218	93.81
293.449	79.81
293.68	92.81
293.91	78.81
294.141	84.81
294.372	78.81
294.603	85.81
294.833	75.81
295.064	67.81
295.295	79.81
295.525	82.81
295.756	81.81
295.987	99.81
296.217	81.81
296.448	78.81
296.679	92.81
296.909	92.81
297.14	87.81
297.37	90.81
297.601	89.81
297.831	78.81
298.062	86.81
298.292	78.81
298.523	70.81
298.753	85.81
298.984	81.81
299.214	97.81
299.445	82.81
299.675	87.81
299.905	82.81
300.136	96.81
300.366	91.81
300.597	72.81
300.827	96.81
301.057	97.81
301.288	87.81
301.518	98.81
301.748	73.81
301.979	80.81
302.209	98.81
302.439	84.81
302.669	80.81
302.9	76.81
303.13	85.81
303.36	90.81
303.59	70.81
303.82	84.81
304.051	92.81
304.281	77.81
304.511	73.81
304.741	72.81
304.971	82.81
305.201	83.81
305.431	92.81
305.661	98.81
305.891	82.81
306.121	85.81
306.352	78.81
306.582	75.81
306.812	85.81
307.042	82.81
307.272	92.81
307.502	83.81
307.731	83.81
307.961	86.81
308.191	81.81
308.421	86.81
308.651	90.81
308.881	86.81
309.111	87.81
309.341	86.81
309.571	78.81
309.8	72.81
310.03	75.81
310.26	98.81
310.49	78.81
310.72	82.81
310.949	90.81
311.179	91.81
311.409	87.81
311.639	95.81
311.868	85.81
312.098	97.81
312.328	99.81
312.557	75.81
312.787	88.81
313.017	80.81
313.246	86.81
313.476	65.81
313.706	87.81
313.935	93.81
314.165	80.81
314.394	80.81
314.624	89.81
314.853	87.81
315.083	87.81
315.312	89.81
315.542	78.81
315.771	82.81
316.001	90.81
316.23	91.81
316.46	82.81
316.689	80.81
316.919	81.81
317.148	90.81
317.377	81.81
317.607	92.81
317.836	69.81
318.065	79.81
318.295	85.81
318.524	78.81
318.753	84.81
318.983	80.81
319.212	76.81
319.441	83.81
319.67	72.81
319.9	90.81
320.129	86.81
320.358	84.81
320.587	73.81
320.816	93.81
321.046	84.81
321.275	100.81
321.504	76.81
321.733	73.81
321.962	101.81
322.191	90.81
322.42	77.81
322.649	76.81
322.878	77.81
323.108	81.81
323.337	83.81
323.566	76.81
323.795	72.81
324.024	87.81
324.253	79.81
324.482	88.81
324.71	86.81
324.939	81.81
325.168	83.81
325.397	76.81
325.626	77.81
325.855	80.81
326.084	81.81
326.313	83.81
326.542	84.81
326.77	91.81
326.999	75.81
327.228	82.81
327.457	79.81
327.686	75.81
327.914	75.81
328.143	85.81
328.372	83.81
328.6	98.81
328.829	92.81
329.058	78.81
329.287	83.81
329.515	86.81
329.744	82.81
329.972	95.81
330.201	91.81
330.43	88.81
330.658	80.81
330.887	79.81
331.115	94.81
331.344	84.81
331.572	79.81
331.801	70.81
332.03	94.81
332.258	76.81
332.486	74.81
332.715	77.81
332.943	75.81
333.172	66.81
333.4	91.81
333.629	85.81
333.857	81.81
334.085	86.81
334.314	84.81
334.542	86.81
334.771	76.81
334.999	75.81
335.227	84.81
335.455	70.81
335.684	88.81
335.912	78.81
336.14	80.81
336.369	95.81
336.597	83.81
336.825	71.81
337.053	76.81
337.281	77.81
337.51	88.81
337.738	90.81
337.966	77.81
338.194	72.81
338.422	95.81
338.65	85.81
338.878	77.81
339.106	78.81
339.334	81.81
339.562	90.81
339.79	82.81
340.018	83.81
340.246	95.81
340.474	81.81
340.702	85.81
340.93	70.81
341.158	78.81
341.386	64.81
341.614	76.81
341.842	80.81
342.07	87.81
342.298	79.81
342.526	90.81
342.754	86.81
342.981	89.81
343.209	75.81
343.437	90.81
343.665	81.81
343.893	76.81
344.12	82.81
344.348	87.81
344.576	85.81
344.804	75.81
345.031	82.81
345.259	91.81
345.487	84.81
345.714	98.81
345.942	79.81
346.17	76.81
346.397	90.81
346.625	90.81
346.853	94.81
347.08	86.81
347.308	98.81
347.535	74.81
347.763	80.81
347.99	79.81
348.218	89.81
348.445	69.81
348.673	82.81
348.9	87.81
349.128	74.81
349.355	79.81
349.583	86.81
349.81	79.81
350.037	78.81
350.265	76.81
350.492	66.81
350.72	87.81
350.947	84.81
351.174	79.81
351.402	89.81
351.629	83.81
351.856	81.81
352.083	85.81
352.311	78.81
352.538	73.81
352.765	90.81
352.992	82.81
353.22	83.81
353.447	96.81
353.674	87.81
353.901	90.81
354.128	87.81
354.355	75.81
354.583	78.81
354.81	73.81
355.037	73.81
355.264	86.81
355.491	76.81
355.718	86.81
355.945	84.81
356.172	91.81
356.399	80.81
356.626	95.81
356.853	87.81
357.08	80.81
357.307	87.81
357.534	80.81
357.761	99.81
357.988	82.81
358.215	87.81
358.441	83.81
358.668	79.81
358.895	83.81
359.122	73.81
359.349	81.81
359.576	80.81
359.802	83.81
360.029	61.81
360.256	88.81
360.483	79.81
360.709	87.81
360.936	77.81
361.163	82.81
361.39	72.81
361.616	83.81
361.843	80.81
362.07	79.81
362.296	75.81
362.523	89.81
362.749	97.81
362.976	75.81
363.203	79.81
363.429	76.81
363.656	75.81
363.882	79.81
364.109	93.81
364.335	85.81
364.562	87.81
364.788	68.81
365.015	78.81
365.241	87.81
365.468	92.81
365.694	86.81
365.92	81.81
366.147	73.81
366.373	73.81
366.599	82.81
366.826	85.81
367.052	75.81
367.278	84.81
367.505	93.81
367.731	88.81
367.957	91.81
368.184	87.81
368.41	93.81
368.636	97.81
368.862	84.81
369.089	77.81
369.315	78.81
369.541	88.81
369.767	84.81
369.993	107.81
370.219	90.81
370.445	91.81
370.672	91.81
370.898	102.81
371.124	91.81
371.35	101.81
371.576	88.81
371.802	93.81
372.028	96.81
372.254	95.81
372.48	88.81
372.706	90.81
372.932	80.81
373.158	92.81
373.384	88.81
373.61	90.81
373.835	88.81
374.061	82.81
374.287	88.81
374.513	88.81
374.739	90.81
374.965	88.81
375.191	82.81
375.416	86.81
375.642	95.81
375.868	101.81
376.094	95.81
376.319	94.81
376.545	95.81
376.771	91.81
376.997	85.81
377.222	95.81
377.448	81.81
377.674	99.81
377.899	87.81
378.125	87.81
378.35	98.81
378.576	102.81
378.802	97.81
379.027	90.81
379.253	122.81
379.478	80.81
379.704	91.81
379.929	98.81
380.155	89.81
380.38	95.81
380.606	95.81
380.831	98.81
381.057	80.81
381.282	103.81
381.507	111.81
381.733	91.81
381.958	92.81
382.184	98.81
382.409	90.81
382.634	88.81
382.86	99.81
383.085	103.81
383.31	88.81
383.535	87.81
383.761	104.81
383.986	90.81
384.211	95.81
384.436	103.81
384.662	100.81
384.887	85.81
385.112	90.81
385.337	84.81
385.562	90.81
385.787	95.81
386.013	106.81
386.238	100.81
386.463	103.81
386.688	92.81
386.913	94.81
387.138	121.81
387.363	97.81
387.588	98.81
387.813	104.81
388.038	101.81
388.263	98.81
388.488	111.81
388.713	99.81
388.938	96.81
389.163	101.81
389.387	89.81
389.612	100.81
389.837	106.81
390.062	94.81
390.287	108.81
390.512	101.81
390.736	98.81
390.961	102.81
391.186	104.81
391.411	97.81
391.636	88.81
391.86	94.81
392.085	99.81
392.31	113.81
392.534	112.81
392.759	107.81
392.984	112.81
393.208	102.81
393.433	104.81
393.658	97.81
393.882	122.81
394.107	107.81
394.331	91.81
394.556	105.81
394.78	106.81
395.005	97.81
395.229	97.81
395.454	111.81
395.678	102.81
395.903	107.81
396.127	106.81
396.352	112.81
396.576	105.81
396.801	103.81
397.025	97.81
397.249	106.81
397.474	102.81
397.698	113.81
397.922	115.81
398.147	98.81
398.371	106.81
398.595	102.81
398.82	126.81
399.044	120.81
399.268	109.81
399.492	115.81
399.717	117.81
399.941	110.81
400.165	107.81
400.389	110.81
400.613	102.81
400.837	113.81
401.062	106.81
401.286	112.81
401.51	105.81
401.734	110.81
401.958	101.81
402.182	130.81
402.406	101.81
402.63	122.81
402.854	113.81
403.078	119.81
403.302	119.81
403.526	123.81
403.75	103.81
403.974	126.81
404.198	110.81
404.422	111.81
404.645	113.81
404.869	119.81
405.093	115.81
405.317	118.81
405.541	123.81
405.765	121.81
405.988	113.81
406.212	123.81
406.436	107.81
406.66	130.81
406.883	120.81
407.107	103.81
407.331	123.81
407.555	118.81
407.778	123.81
408.002	114.81
408.226	121.81
408.449	123.81
408.673	126.81
408.896	112.81
409.12	113.81
409.344	119.81
409.567	136.81
409.791	128.81
410.014	113.81
410.238	124.81
410.461	120.81
410.685	125.81
410.908	124.81
411.132	124.81
411.355	124.81
411.578	129.81
411.802	122.81
412.025	133.81
412.249	111.81
412.472	124.81
412.695	125.81
412.919	130.81
413.142	117.81
413.365	120.81
413.589	135.81
413.812	110.81
414.035	124.81
414.258	135.81
414.482	108.81
414.705	145.81
414.928	126.81
415.151	119.81
415.374	120.81
415.597	122.81
415.821	120.81
416.044	126.81
416.267	126.81
416.49	140.81
416.713	134.81
416.936	135.81
417.159	115.81
417.382	113.81
417.605	122.81
417.828	124.81
418.051	130.81
418.274	130.81
418.497	143.81
418.72	142.81
418.943	137.81
419.166	133.81
419.389	144.81
419.611	128.81
419.834	133.81
420.057	135.81
420.28	129.81
420.503	134.81
420.726	143.81
420.948	132.81
421.171	128.81
421.394	132.81
421.617	145.81
421.839	151.81
422.062	146.81
422.285	133.81
422.507	150.81
422.73	141.81
422.953	129.81
423.175	139.81
423.398	131.81
423.621	126.81
423.843	142.81
424.066	125.81
424.288	135.81
424.511	139.81
424.733	148.81
424.956	138.81
425.178	161.81
425.401	136.81
425.623	126.81
425.846	144.81
426.068	136.81
426.291	138.81
426.513	144.81
426.735	136.81
426.958	138.81
427.18	147.81
427.402	133.81
427.625	143.81
427.847	125.81
428.069	134.81
428.292	126.81
428.514	129.81
428.736	128.81
428.958	132.81
429.181	126.81
429.403	134.81
429.625	133.81
429.847	131.81
430.069	146.81
430.292	139.81
430.514	130.81
430.736	138.81
430.958	123.81
431.18	128.81
431.402	121.81
431.624	124.81
431.846	99.81
432.068	108.81
432.29	104.81
432.512	128.81
432.734	138.81
432.956	142.81
433.178	127.81
433.4	147.81
433.622	132.81
433.844	149.81
434.066	119.81
434.287	104.81
434.509	103.81
434.731	98.81
434.953	115.81
435.175	120.81
435.397	131.81
435.618	121.81
435.84	126.81
436.062	121.81
436.284	117.81
436.505	134.81
436.727	131.81
436.949	115.81
437.17	139.81
437.392	140.81
437.614	120.81
437.835	115.81
438.057	120.81
438.278	103.81
438.5	131.81
438.721	148.81
438.943	158.81
439.165	152.81
439.386	132.81
439.608	140.81
439.829	134.81
440.05	144.81
440.272	149.81
440.493	151.81
440.715	149.81
440.936	160.81
441.158	157.81
441.379	161.81
441.6	158.81
441.822	146.81
442.043	140.81
442.264	131.81
442.486	138.81
442.707	154.81
442.928	148.81
443.149	130.81
443.371	138.81
443.592	140.81
443.813	143.81
444.034	148.81
444.255	136.81
444.476	133.81
444.698	130.81
444.919	152.81
445.14	274.81
445.361	224.81
445.582	149.81
445.803	143.81
446.024	156.81
446.245	154.81
446.466	149.81
446.687	153.81
446.908	158.81
447.129	161.81
447.35	151.81
447.571	144.81
447.792	136.81
448.013	148.81
448.234	150.81
448.455	148.81
448.675	125.81
448.896	148.81
449.117	150.81
449.338	149.81
449.559	141.81
449.779	149.81
450	124.81
450.221	155.81
450.442	134.81
450.662	128.81
450.883	131.81
451.104	133.81
451.324	131.81
451.545	134.81
451.766	139.81
451.986	128.81
452.207	133.81
452.428	131.81
452.648	132.81
452.869	127.81
453.089	113.81
453.31	114.81
453.53	111.81
453.751	112.81
453.971	97.81
454.192	102.81
454.412	115.81
454.633	104.81
454.853	119.81
455.073	118.81
455.294	130.81
455.514	136.81
455.734	125.81
455.955	126.81
456.175	127.81
456.395	111.81
456.616	96.81
456.836	118.81
457.056	104.81
457.276	112.81
457.497	107.81
457.717	113.81
457.937	116.81
458.157	104.81
458.377	112.81
458.598	103.81
458.818	106.81
459.038	71.81
459.258	93.81
459.478	99.81
459.698	101.81
459.918	100.81
460.138	94.81
460.358	99.81
460.578	120.81
460.798	120.81
461.018	124.81
461.238	120.81
461.458	105.81
461.678	108.81
461.898	122.81
462.118	120.81
462.338	124.81
462.558	133.81
462.777	108.81
462.997	112.81
463.217	106.81
463.437	110.81
463.657	111.81
463.876	115.81
464.096	123.81
464.316	120.81
464.536	115.81
464.755	106.81
464.975	122.81
465.195	122.81
465.414	130.81
465.634	124.81
465.854	116.81
466.073	125.81
466.293	146.81
466.512	134.81
466.732	138.81
466.951	114.81
467.171	131.81
467.391	125.81
467.61	136.81
467.829	129.81
468.049	133.81
468.268	142.81
468.488	135.81
468.707	133.81
468.927	143.81
469.146	135.81
469.365	137.81
469.585	144.81
469.804	138.81
470.023	144.81
470.243	142.81
470.462	154.81
470.681	153.81
470.901	140.81
471.12	139.81
471.339	153.81
471.558	132.81
471.777	155.81
471.997	119.81
472.216	111.81
472.435	104.81
472.654	112.81
472.873	119.81
473.092	115.81
473.311	142.81
473.53	128.81
473.749	133.81
473.968	139.81
474.187	132.81
474.406	124.81
474.625	130.81
474.844	150.81
475.063	134.81
475.282	126.81
475.501	123.81
475.72	118.81
475.939	127.81
476.158	138.81
476.377	132.81
476.596	134.81
476.814	102.81
477.033	110.81
477.252	106.81
477.471	124.81
477.69	136.81
477.908	132.81
478.127	138.81
478.346	151.81
478.564	138.81
478.783	122.81
479.002	135.81
479.22	134.81
479.439	127.81
479.658	132.81
479.876	108.81
480.095	110.81
480.313	122.81
480.532	122.81
480.751	117.81
480.969	104.81
481.188	98.81
481.406	106.81
481.624	101.81
481.843	88.81
482.061	93.81
482.28	109.81
482.498	112.81
482.717	115.81
482.935	132.81
483.153	151.81
483.372	146.81
483.59	159.81
483.808	138.81
484.027	153.81
484.245	140.81
484.463	160.81
484.681	186.81
484.9	143.81
485.118	146.81
485.336	140.81
485.554	117.81
485.772	112.81
485.99	107.81
486.209	110.81
486.427	97.81
486.645	135.81
486.863	146.81
487.081	140.81
487.299	143.81
487.517	147.81
487.735	180.81
487.953	203.81
488.171	192.81
488.389	188.81
488.607	160.81
488.825	153.81
489.043	158.81
489.261	149.81
489.479	154.81
489.696	159.81
489.914	144.81
490.132	138.81
490.35	138.81
490.568	167.81
490.786	176.81
491.003	178.81
491.221	171.81
491.439	191.81
491.657	193.81
491.874	211.81
492.092	225.81
492.31	273.81
492.527	248.81
492.745	210.81
492.963	202.81
493.18	182.81
493.398	187.81
493.615	180.81
493.833	196.81
494.05	181.81
494.268	178.81
494.485	188.81
494.703	185.81
494.92	188.81
495.138	182.81
495.355	192.81
495.573	170.81
495.79	187.81
496.008	170.81
496.225	160.81
496.442	184.81
496.66	166.81
496.877	160.81
497.094	184.81
497.312	159.81
497.529	175.81
497.746	159.81
497.963	152.81
498.181	135.81
498.398	137.81
498.615	127.81
498.832	122.81
499.049	119.81
499.267	124.81
499.484	124.81
499.701	147.81
499.918	141.81
500.135	124.81
500.352	139.81
500.569	156.81
500.786	152.81
501.003	138.81
501.22	146.81
501.437	136.81
501.654	141.81
501.871	134.81
502.088	140.81
502.305	146.81
502.522	115.81
502.739	130.81
502.956	125.81
503.172	127.81
503.389	123.81
503.606	119.81
503.823	130.81
504.04	117.81
504.256	131.81
504.473	120.81
504.69	91.81
504.907	126.81
505.123	126.81
505.34	125.81
505.557	110.81
505.773	119.81
505.99	126.81
506.207	117.81
506.423	106.81
506.64	121.81
506.856	132.81
507.073	120.81
507.289	124.81
507.506	121.81
507.722	126.81
507.939	118.81
508.155	124.81
508.372	108.81
508.588	118.81
508.805	118.81
509.021	119.81
509.238	113.81
509.454	111.81
509.67	111.81
509.887	92.81
510.103	92.81
510.319	102.81
510.536	103.81
510.752	78.81
510.968	81.81
511.184	83.81
511.401	92.81
511.617	80.81
