Data from Location6.07152019.Energy5.Lamp.07192019.3%Agarose_HRD10591_16-13-15-395.txt Node
Date: Fri Jul 19 16:13:15 EDT 2019
User: cochatt
Spectrometer: HR+D1059
Trigger mode: 1
Integration Time (sec): 1.000000E-1
Scans to average: 1
Electric dark correction enabled: true
Nonlinearity correction enabled: false
Boxcar width: 0
XAxis mode: Wavelengths
Number of Pixels in Spectrum: 2048
>>>>>Begin Spectral Data<<<<<
223.165	-17.31
223.4	-17.31
223.635	-17.31
223.869	-27.31
224.104	-1.31
224.338	-14.31
224.573	-12.31
224.808	-20.31
225.042	-1.31
225.277	0.69
225.511	-5.31
225.746	6.69
225.98	5.69
226.215	13.69
226.449	-0.31
226.683	13.69
226.918	28.69
227.152	30.69
227.387	31.69
227.621	45.69
227.856	30.69
228.09	45.69
228.324	42.69
228.559	39.69
228.793	50.69
229.027	56.69
229.262	65.69
229.496	61.69
229.73	66.69
229.964	76.69
230.199	60.69
230.433	65.69
230.667	58.69
230.901	65.69
231.136	60.69
231.37	78.69
231.604	66.69
231.838	76.69
232.072	82.69
232.306	81.69
232.541	77.69
232.775	91.69
233.009	81.69
233.243	62.69
233.477	88.69
233.711	90.69
233.945	84.69
234.179	89.69
234.413	85.69
234.647	72.69
234.881	89.69
235.115	88.69
235.349	75.69
235.583	75.69
235.817	92.69
236.051	90.69
236.285	73.69
236.519	74.69
236.753	71.69
236.987	53.69
237.221	74.69
237.455	72.69
237.689	79.69
237.922	88.69
238.156	72.69
238.39	77.69
238.624	68.69
238.858	71.69
239.091	88.69
239.325	71.69
239.559	72.69
239.793	71.69
240.027	70.69
240.26	78.69
240.494	50.69
240.728	68.69
240.961	76.69
241.195	73.69
241.429	76.69
241.662	68.69
241.896	69.69
242.13	75.69
242.363	60.69
242.597	88.69
242.83	74.69
243.064	73.69
243.298	70.69
243.531	74.69
243.765	75.69
243.998	80.69
244.232	82.69
244.465	57.69
244.699	72.69
244.932	65.69
245.166	69.69
245.399	65.69
245.633	83.69
245.866	74.69
246.099	72.69
246.333	89.69
246.566	81.69
246.8	82.69
247.033	73.69
247.266	70.69
247.5	69.69
247.733	82.69
247.966	67.69
248.2	72.69
248.433	72.69
248.666	68.69
248.899	78.69
249.133	60.69
249.366	84.69
249.599	84.69
249.832	77.69
250.066	77.69
250.299	73.69
250.532	81.69
250.765	81.69
250.998	78.69
251.231	65.69
251.465	73.69
251.698	83.69
251.931	77.69
252.164	78.69
252.397	72.69
252.63	66.69
252.863	77.69
253.096	76.69
253.329	57.69
253.562	95.69
253.795	84.69
254.028	79.69
254.261	86.69
254.494	81.69
254.727	92.69
254.96	78.69
255.193	78.69
255.426	73.69
255.659	83.69
255.892	77.69
256.124	79.69
256.357	66.69
256.59	58.69
256.823	68.69
257.056	77.69
257.289	70.69
257.521	78.69
257.754	80.69
257.987	73.69
258.22	80.69
258.452	66.69
258.685	84.69
258.918	72.69
259.151	84.69
259.383	74.69
259.616	85.69
259.849	84.69
260.081	84.69
260.314	82.69
260.547	77.69
260.779	76.69
261.012	73.69
261.244	89.69
261.477	94.69
261.71	73.69
261.942	77.69
262.175	80.69
262.407	78.69
262.64	81.69
262.872	93.69
263.105	67.69
263.337	82.69
263.57	86.69
263.802	78.69
264.035	71.69
264.267	97.69
264.499	80.69
264.732	71.69
264.964	67.69
265.197	72.69
265.429	83.69
265.661	72.69
265.894	72.69
266.126	78.69
266.358	72.69
266.591	68.69
266.823	95.69
267.055	88.69
267.287	76.69
267.52	86.69
267.752	82.69
267.984	96.69
268.216	60.69
268.448	83.69
268.681	74.69
268.913	85.69
269.145	90.69
269.377	84.69
269.609	78.69
269.841	93.69
270.073	75.69
270.306	72.69
270.538	81.69
270.77	79.69
271.002	83.69
271.234	96.69
271.466	96.69
271.698	79.69
271.93	73.69
272.162	85.69
272.394	80.69
272.626	82.69
272.858	77.69
273.09	81.69
273.322	71.69
273.553	71.69
273.785	75.69
274.017	81.69
274.249	89.69
274.481	82.69
274.713	76.69
274.945	87.69
275.176	84.69
275.408	82.69
275.64	71.69
275.872	73.69
276.104	84.69
276.335	73.69
276.567	81.69
276.799	85.69
277.031	81.69
277.262	91.69
277.494	87.69
277.726	77.69
277.957	80.69
278.189	98.69
278.421	82.69
278.652	84.69
278.884	80.69
279.115	57.69
279.347	81.69
279.579	88.69
279.81	79.69
280.042	67.69
280.273	89.69
280.505	75.69
280.736	79.69
280.968	79.69
281.199	87.69
281.431	73.69
281.662	84.69
281.894	72.69
282.125	80.69
282.356	80.69
282.588	85.69
282.819	86.69
283.051	74.69
283.282	79.69
283.513	103.69
283.745	80.69
283.976	69.69
284.207	87.69
284.439	72.69
284.67	80.69
284.901	73.69
285.132	66.69
285.364	81.69
285.595	80.69
285.826	85.69
286.057	75.69
286.288	89.69
286.52	82.69
286.751	95.69
286.982	76.69
287.213	76.69
287.444	74.69
287.675	92.69
287.906	82.69
288.138	82.69
288.369	69.69
288.6	80.69
288.831	82.69
289.062	79.69
289.293	81.69
289.524	82.69
289.755	88.69
289.986	80.69
290.217	88.69
290.448	83.69
290.679	91.69
290.91	80.69
291.141	82.69
291.371	88.69
291.602	80.69
291.833	72.69
292.064	88.69
292.295	84.69
292.526	60.69
292.757	78.69
292.987	66.69
293.218	80.69
293.449	64.69
293.68	80.69
293.91	81.69
294.141	94.69
294.372	82.69
294.603	90.69
294.833	87.69
295.064	84.69
295.295	82.69
295.525	77.69
295.756	76.69
295.987	75.69
296.217	75.69
296.448	83.69
296.679	73.69
296.909	83.69
297.14	93.69
297.37	79.69
297.601	71.69
297.831	84.69
298.062	89.69
298.292	76.69
298.523	74.69
298.753	72.69
298.984	82.69
299.214	82.69
299.445	80.69
299.675	89.69
299.905	85.69
300.136	83.69
300.366	79.69
300.597	83.69
300.827	79.69
301.057	86.69
301.288	77.69
301.518	82.69
301.748	89.69
301.979	66.69
302.209	84.69
302.439	89.69
302.669	74.69
302.9	90.69
303.13	79.69
303.36	87.69
303.59	84.69
303.82	84.69
304.051	74.69
304.281	78.69
304.511	81.69
304.741	80.69
304.971	81.69
305.201	81.69
305.431	85.69
305.661	73.69
305.891	80.69
306.121	77.69
306.352	80.69
306.582	80.69
306.812	71.69
307.042	54.69
307.272	67.69
307.502	83.69
307.731	84.69
307.961	80.69
308.191	92.69
308.421	89.69
308.651	96.69
308.881	77.69
309.111	79.69
309.341	88.69
309.571	93.69
309.8	78.69
310.03	78.69
310.26	85.69
310.49	71.69
310.72	75.69
310.949	75.69
311.179	81.69
311.409	92.69
311.639	74.69
311.868	86.69
312.098	81.69
312.328	87.69
312.557	83.69
312.787	71.69
313.017	70.69
313.246	73.69
313.476	94.69
313.706	69.69
313.935	83.69
314.165	92.69
314.394	62.69
314.624	87.69
314.853	78.69
315.083	72.69
315.312	88.69
315.542	86.69
315.771	73.69
316.001	83.69
316.23	86.69
316.46	89.69
316.689	78.69
316.919	80.69
317.148	93.69
317.377	89.69
317.607	87.69
317.836	93.69
318.065	95.69
318.295	89.69
318.524	78.69
318.753	96.69
318.983	74.69
319.212	75.69
319.441	89.69
319.67	77.69
319.9	87.69
320.129	70.69
320.358	72.69
320.587	72.69
320.816	79.69
321.046	74.69
321.275	89.69
321.504	78.69
321.733	78.69
321.962	87.69
322.191	77.69
322.42	79.69
322.649	86.69
322.878	76.69
323.108	90.69
323.337	80.69
323.566	87.69
323.795	87.69
324.024	79.69
324.253	73.69
324.482	80.69
324.71	85.69
324.939	76.69
325.168	75.69
325.397	73.69
325.626	79.69
325.855	85.69
326.084	67.69
326.313	81.69
326.542	72.69
326.77	71.69
326.999	66.69
327.228	77.69
327.457	65.69
327.686	72.69
327.914	81.69
328.143	88.69
328.372	85.69
328.6	71.69
328.829	83.69
329.058	86.69
329.287	87.69
329.515	89.69
329.744	84.69
329.972	87.69
330.201	79.69
330.43	77.69
330.658	77.69
330.887	81.69
331.115	87.69
331.344	91.69
331.572	88.69
331.801	83.69
332.03	82.69
332.258	84.69
332.486	72.69
332.715	82.69
332.943	93.69
333.172	81.69
333.4	65.69
333.629	82.69
333.857	84.69
334.085	76.69
334.314	71.69
334.542	84.69
334.771	77.69
334.999	85.69
335.227	85.69
335.455	76.69
335.684	90.69
335.912	88.69
336.14	75.69
336.369	82.69
336.597	83.69
336.825	82.69
337.053	74.69
337.281	76.69
337.51	78.69
337.738	77.69
337.966	83.69
338.194	83.69
338.422	87.69
338.65	66.69
338.878	92.69
339.106	94.69
339.334	81.69
339.562	81.69
339.79	85.69
340.018	79.69
340.246	90.69
340.474	75.69
340.702	72.69
340.93	72.69
341.158	79.69
341.386	80.69
341.614	74.69
341.842	76.69
342.07	72.69
342.298	78.69
342.526	78.69
342.754	88.69
342.981	74.69
343.209	95.69
343.437	92.69
343.665	86.69
343.893	79.69
344.12	98.69
344.348	81.69
344.576	84.69
344.804	73.69
345.031	64.69
345.259	83.69
345.487	93.69
345.714	74.69
345.942	85.69
346.17	85.69
346.397	82.69
346.625	75.69
346.853	70.69
347.08	86.69
347.308	72.69
347.535	76.69
347.763	50.69
347.99	76.69
348.218	88.69
348.445	84.69
348.673	74.69
348.9	83.69
349.128	99.69
349.355	81.69
349.583	81.69
349.81	86.69
350.037	102.69
350.265	75.69
350.492	64.69
350.72	87.69
350.947	95.69
351.174	74.69
351.402	64.69
351.629	90.69
351.856	84.69
352.083	81.69
352.311	82.69
352.538	82.69
352.765	79.69
352.992	75.69
353.22	77.69
353.447	82.69
353.674	78.69
353.901	88.69
354.128	78.69
354.355	64.69
354.583	72.69
354.81	69.69
355.037	78.69
355.264	96.69
355.491	83.69
355.718	66.69
355.945	88.69
356.172	97.69
356.399	87.69
356.626	85.69
356.853	81.69
357.08	68.69
357.307	80.69
357.534	83.69
357.761	85.69
357.988	83.69
358.215	81.69
358.441	75.69
358.668	77.69
358.895	86.69
359.122	93.69
359.349	89.69
359.576	80.69
359.802	86.69
360.029	85.69
360.256	86.69
360.483	91.69
360.709	82.69
360.936	83.69
361.163	66.69
361.39	74.69
361.616	74.69
361.843	69.69
362.07	78.69
362.296	82.69
362.523	88.69
362.749	79.69
362.976	79.69
363.203	85.69
363.429	67.69
363.656	83.69
363.882	71.69
364.109	88.69
364.335	95.69
364.562	71.69
364.788	66.69
365.015	83.69
365.241	74.69
365.468	76.69
365.694	73.69
365.92	74.69
366.147	79.69
366.373	84.69
366.599	82.69
366.826	78.69
367.052	95.69
367.278	79.69
367.505	96.69
367.731	91.69
367.957	81.69
368.184	82.69
368.41	89.69
368.636	84.69
368.862	84.69
369.089	84.69
369.315	77.69
369.541	69.69
369.767	71.69
369.993	83.69
370.219	91.69
370.445	87.69
370.672	95.69
370.898	77.69
371.124	94.69
371.35	74.69
371.576	87.69
371.802	87.69
372.028	93.69
372.254	92.69
372.48	95.69
372.706	83.69
372.932	95.69
373.158	85.69
373.384	83.69
373.61	85.69
373.835	93.69
374.061	68.69
374.287	90.69
374.513	90.69
374.739	85.69
374.965	80.69
375.191	90.69
375.416	97.69
375.642	94.69
375.868	86.69
376.094	93.69
376.319	94.69
376.545	89.69
376.771	88.69
376.997	86.69
377.222	89.69
377.448	85.69
377.674	76.69
377.899	84.69
378.125	85.69
378.35	95.69
378.576	105.69
378.802	91.69
379.027	70.69
379.253	80.69
379.478	90.69
379.704	91.69
379.929	91.69
380.155	87.69
380.38	79.69
380.606	86.69
380.831	90.69
381.057	72.69
381.282	84.69
381.507	90.69
381.733	80.69
381.958	96.69
382.184	94.69
382.409	81.69
382.634	82.69
382.86	90.69
383.085	95.69
383.31	100.69
383.535	93.69
383.761	101.69
383.986	79.69
384.211	96.69
384.436	103.69
384.662	92.69
384.887	96.69
385.112	98.69
385.337	90.69
385.562	93.69
385.787	110.69
386.013	104.69
386.238	97.69
386.463	108.69
386.688	84.69
386.913	95.69
387.138	102.69
387.363	112.69
387.588	98.69
387.813	99.69
388.038	90.69
388.263	102.69
388.488	98.69
388.713	96.69
388.938	100.69
389.163	94.69
389.387	81.69
389.612	111.69
389.837	98.69
390.062	115.69
390.287	113.69
390.512	101.69
390.736	94.69
390.961	104.69
391.186	110.69
391.411	105.69
391.636	100.69
391.86	85.69
392.085	108.69
392.31	98.69
392.534	93.69
392.759	106.69
392.984	101.69
393.208	114.69
393.433	104.69
393.658	108.69
393.882	124.69
394.107	101.69
394.331	117.69
394.556	95.69
394.78	108.69
395.005	110.69
395.229	109.69
395.454	104.69
395.678	97.69
395.903	110.69
396.127	111.69
396.352	124.69
396.576	108.69
396.801	114.69
397.025	93.69
397.249	112.69
397.474	102.69
397.698	98.69
397.922	100.69
398.147	105.69
398.371	103.69
398.595	113.69
398.82	100.69
399.044	104.69
399.268	108.69
399.492	98.69
399.717	102.69
399.941	114.69
400.165	101.69
400.389	104.69
400.613	114.69
400.837	100.69
401.062	112.69
401.286	103.69
401.51	103.69
401.734	116.69
401.958	111.69
402.182	103.69
402.406	121.69
402.63	114.69
402.854	100.69
403.078	108.69
403.302	110.69
403.526	112.69
403.75	113.69
403.974	114.69
404.198	108.69
404.422	118.69
404.645	106.69
404.869	108.69
405.093	121.69
405.317	110.69
405.541	106.69
405.765	128.69
405.988	126.69
406.212	108.69
406.436	121.69
406.66	124.69
406.883	111.69
407.107	114.69
407.331	120.69
407.555	125.69
407.778	110.69
408.002	112.69
408.226	118.69
408.449	140.69
408.673	123.69
408.896	117.69
409.12	118.69
409.344	117.69
409.567	124.69
409.791	123.69
410.014	107.69
410.238	138.69
410.461	108.69
410.685	118.69
410.908	128.69
411.132	122.69
411.355	119.69
411.578	110.69
411.802	115.69
412.025	113.69
412.249	119.69
412.472	125.69
412.695	123.69
412.919	119.69
413.142	122.69
413.365	136.69
413.589	126.69
413.812	118.69
414.035	115.69
414.258	123.69
414.482	110.69
414.705	123.69
414.928	106.69
415.151	108.69
415.374	124.69
415.597	126.69
415.821	127.69
416.044	125.69
416.267	113.69
416.49	132.69
416.713	121.69
416.936	125.69
417.159	126.69
417.382	143.69
417.605	135.69
417.828	117.69
418.051	132.69
418.274	140.69
418.497	125.69
418.72	140.69
418.943	131.69
419.166	132.69
419.389	134.69
419.611	132.69
419.834	127.69
420.057	133.69
420.28	129.69
420.503	135.69
420.726	129.69
420.948	134.69
421.171	127.69
421.394	149.69
421.617	135.69
421.839	148.69
422.062	156.69
422.285	142.69
422.507	144.69
422.73	115.69
422.953	115.69
423.175	123.69
423.398	121.69
423.621	128.69
423.843	145.69
424.066	136.69
424.288	136.69
424.511	137.69
424.733	145.69
424.956	155.69
425.178	137.69
425.401	146.69
425.623	137.69
425.846	159.69
426.068	140.69
426.291	129.69
426.513	141.69
426.735	121.69
426.958	130.69
427.18	130.69
427.402	120.69
427.625	127.69
427.847	129.69
428.069	134.69
428.292	140.69
428.514	136.69
428.736	131.69
428.958	138.69
429.181	137.69
429.403	131.69
429.625	136.69
429.847	127.69
430.069	123.69
430.292	125.69
430.514	120.69
430.736	124.69
430.958	123.69
431.18	131.69
431.402	134.69
431.624	102.69
431.846	111.69
432.068	107.69
432.29	92.69
432.512	115.69
432.734	140.69
432.956	136.69
433.178	138.69
433.4	143.69
433.622	132.69
433.844	125.69
434.066	124.69
434.287	118.69
434.509	80.69
434.731	103.69
434.953	118.69
435.175	121.69
435.397	119.69
435.618	120.69
435.84	115.69
436.062	112.69
436.284	127.69
436.505	151.69
436.727	118.69
436.949	134.69
437.17	135.69
437.392	139.69
437.614	124.69
437.835	123.69
438.057	110.69
438.278	114.69
438.5	121.69
438.721	133.69
438.943	147.69
439.165	151.69
439.386	150.69
439.608	145.69
439.829	136.69
440.05	131.69
440.272	156.69
440.493	142.69
440.715	154.69
440.936	148.69
441.158	145.69
441.379	145.69
441.6	152.69
441.822	156.69
442.043	134.69
442.264	142.69
442.486	142.69
442.707	148.69
442.928	133.69
443.149	141.69
443.371	146.69
443.592	156.69
443.813	143.69
444.034	142.69
444.255	148.69
444.476	133.69
444.698	137.69
444.919	145.69
445.14	271.69
445.361	193.69
445.582	156.69
445.803	142.69
446.024	157.69
446.245	157.69
446.466	153.69
446.687	151.69
446.908	165.69
447.129	162.69
447.35	156.69
447.571	165.69
447.792	147.69
448.013	145.69
448.234	150.69
448.455	153.69
448.675	153.69
448.896	158.69
449.117	153.69
449.338	129.69
449.559	150.69
449.779	135.69
450	127.69
450.221	145.69
450.442	138.69
450.662	138.69
450.883	132.69
451.104	132.69
451.324	150.69
451.545	145.69
451.766	138.69
451.986	123.69
452.207	146.69
452.428	137.69
452.648	141.69
452.869	120.69
453.089	112.69
453.31	112.69
453.53	124.69
453.751	95.69
453.971	114.69
454.192	99.69
454.412	99.69
454.633	120.69
454.853	130.69
455.073	120.69
455.294	133.69
455.514	129.69
455.734	121.69
455.955	115.69
456.175	107.69
456.395	118.69
456.616	108.69
456.836	109.69
457.056	122.69
457.276	111.69
457.497	108.69
457.717	116.69
457.937	108.69
458.157	97.69
458.377	93.69
458.598	93.69
458.818	88.69
459.038	88.69
459.258	79.69
459.478	104.69
459.698	94.69
459.918	105.69
460.138	110.69
460.358	114.69
460.578	125.69
460.798	129.69
461.018	126.69
461.238	119.69
461.458	112.69
461.678	114.69
461.898	105.69
462.118	83.69
462.338	110.69
462.558	120.69
462.777	104.69
462.997	113.69
463.217	101.69
463.437	92.69
463.657	116.69
463.876	115.69
464.096	104.69
464.316	113.69
464.536	105.69
464.755	110.69
464.975	110.69
465.195	122.69
465.414	109.69
465.634	132.69
465.854	117.69
466.073	114.69
466.293	113.69
466.512	137.69
466.732	152.69
466.951	140.69
467.171	128.69
467.391	136.69
467.61	144.69
467.829	158.69
468.049	146.69
468.268	137.69
468.488	126.69
468.707	140.69
468.927	145.69
469.146	135.69
469.365	150.69
469.585	137.69
469.804	138.69
470.023	144.69
470.243	130.69
470.462	141.69
470.681	158.69
470.901	134.69
471.12	156.69
471.339	136.69
471.558	139.69
471.777	154.69
471.997	143.69
472.216	110.69
472.435	119.69
472.654	100.69
472.873	123.69
473.092	115.69
473.311	130.69
473.53	124.69
473.749	141.69
473.968	140.69
474.187	117.69
474.406	124.69
474.625	142.69
474.844	126.69
475.063	136.69
475.282	124.69
475.501	144.69
475.72	128.69
475.939	120.69
476.158	136.69
476.377	128.69
476.596	131.69
476.814	110.69
477.033	112.69
477.252	113.69
477.471	132.69
477.69	131.69
477.908	143.69
478.127	148.69
478.346	129.69
478.564	152.69
478.783	124.69
479.002	130.69
479.22	132.69
479.439	134.69
479.658	117.69
479.876	118.69
480.095	108.69
480.313	102.69
480.532	117.69
480.751	113.69
480.969	100.69
481.188	94.69
481.406	91.69
481.624	85.69
481.843	90.69
482.061	94.69
482.28	98.69
482.498	111.69
482.717	90.69
482.935	134.69
483.153	149.69
483.372	159.69
483.59	154.69
483.808	142.69
484.027	143.69
484.245	143.69
484.463	162.69
484.681	183.69
484.9	150.69
485.118	127.69
485.336	121.69
485.554	115.69
485.772	92.69
485.99	101.69
486.209	115.69
486.427	108.69
486.645	118.69
486.863	138.69
487.081	138.69
487.299	137.69
487.517	142.69
487.735	180.69
487.953	187.69
488.171	189.69
488.389	161.69
488.607	163.69
488.825	153.69
489.043	134.69
489.261	136.69
489.479	135.69
489.696	153.69
489.914	149.69
490.132	138.69
490.35	147.69
490.568	161.69
490.786	178.69
491.003	178.69
491.221	189.69
491.439	206.69
491.657	202.69
491.874	229.69
492.092	233.69
492.31	244.69
492.527	236.69
492.745	203.69
492.963	205.69
493.18	194.69
493.398	194.69
493.615	181.69
493.833	195.69
494.05	191.69
494.268	177.69
494.485	191.69
494.703	169.69
494.92	174.69
495.138	182.69
495.355	165.69
495.573	165.69
495.79	157.69
496.008	167.69
496.225	174.69
496.442	170.69
496.66	187.69
496.877	187.69
497.094	182.69
497.312	156.69
497.529	163.69
497.746	151.69
497.963	150.69
498.181	128.69
498.398	138.69
498.615	117.69
498.832	114.69
499.049	127.69
499.267	110.69
499.484	137.69
499.701	119.69
499.918	154.69
500.135	119.69
500.352	139.69
500.569	148.69
500.786	144.69
501.003	136.69
501.22	151.69
501.437	132.69
501.654	134.69
501.871	126.69
502.088	138.69
502.305	118.69
502.522	125.69
502.739	136.69
502.956	132.69
503.172	127.69
503.389	112.69
503.606	119.69
503.823	112.69
504.04	121.69
504.256	134.69
504.473	122.69
504.69	128.69
504.907	129.69
505.123	122.69
505.34	125.69
505.557	120.69
505.773	124.69
505.99	113.69
506.207	116.69
506.423	115.69
506.64	115.69
506.856	127.69
507.073	135.69
507.289	119.69
507.506	113.69
507.722	113.69
507.939	108.69
508.155	133.69
508.372	107.69
508.588	119.69
508.805	118.69
509.021	123.69
509.238	118.69
509.454	94.69
509.67	87.69
509.887	101.69
510.103	101.69
510.319	88.69
510.536	92.69
510.752	86.69
510.968	80.69
511.184	87.69
511.401	80.69
511.617	99.69
511.833	102.69
