Data from Location6.07152019.Energy5.Lamp.07192019.3%Agarose_HRD10591_16-12-10-394.txt Node
Date: Fri Jul 19 16:12:10 EDT 2019
User: cochatt
Spectrometer: HR+D1059
Trigger mode: 1
Integration Time (sec): 1.000000E-1
Scans to average: 1
Electric dark correction enabled: true
Nonlinearity correction enabled: false
Boxcar width: 0
XAxis mode: Wavelengths
Number of Pixels in Spectrum: 2048
>>>>>Begin Spectral Data<<<<<
223.165	-11.62
223.4	-11.62
223.635	-11.62
223.869	-17.62
224.104	-21.62
224.338	-14.62
224.573	-7.62
224.808	-21.62
225.042	-14.62
225.277	2.38
225.511	1.38
225.746	-10.62
225.98	-4.62
226.215	16.38
226.449	0.38
226.683	27.38
226.918	41.38
227.152	35.38
227.387	35.38
227.621	40.38
227.856	40.38
228.09	46.38
228.324	34.38
228.559	44.38
228.793	60.38
229.027	58.38
229.262	71.38
229.496	73.38
229.73	77.38
229.964	70.38
230.199	67.38
230.433	69.38
230.667	72.38
230.901	70.38
231.136	74.38
231.37	78.38
231.604	82.38
231.838	86.38
232.072	80.38
232.306	72.38
232.541	75.38
232.775	76.38
233.009	80.38
233.243	83.38
233.477	87.38
233.711	82.38
233.945	86.38
234.179	86.38
234.413	95.38
234.647	77.38
234.881	89.38
235.115	74.38
235.349	75.38
235.583	83.38
235.817	79.38
236.051	76.38
236.285	70.38
236.519	77.38
236.753	80.38
236.987	76.38
237.221	68.38
237.455	81.38
237.689	80.38
237.922	72.38
238.156	70.38
238.39	81.38
238.624	72.38
238.858	78.38
239.091	77.38
239.325	71.38
239.559	81.38
239.793	80.38
240.027	87.38
240.26	82.38
240.494	72.38
240.728	77.38
240.961	71.38
241.195	72.38
241.429	68.38
241.662	73.38
241.896	76.38
242.13	83.38
242.363	70.38
242.597	83.38
242.83	72.38
243.064	97.38
243.298	83.38
243.531	68.38
243.765	82.38
243.998	78.38
244.232	71.38
244.465	73.38
244.699	76.38
244.932	82.38
245.166	81.38
245.399	88.38
245.633	92.38
245.866	84.38
246.099	77.38
246.333	80.38
246.566	85.38
246.8	85.38
247.033	92.38
247.266	85.38
247.5	81.38
247.733	98.38
247.966	78.38
248.2	72.38
248.433	83.38
248.666	62.38
248.899	87.38
249.133	87.38
249.366	101.38
249.599	82.38
249.832	73.38
250.066	76.38
250.299	84.38
250.532	82.38
250.765	83.38
250.998	79.38
251.231	84.38
251.465	73.38
251.698	73.38
251.931	72.38
252.164	80.38
252.397	85.38
252.63	77.38
252.863	96.38
253.096	68.38
253.329	75.38
253.562	82.38
253.795	84.38
254.028	76.38
254.261	75.38
254.494	82.38
254.727	76.38
254.96	74.38
255.193	77.38
255.426	89.38
255.659	75.38
255.892	70.38
256.124	90.38
256.357	78.38
256.59	88.38
256.823	67.38
257.056	88.38
257.289	89.38
257.521	76.38
257.754	82.38
257.987	84.38
258.22	77.38
258.452	80.38
258.685	78.38
258.918	84.38
259.151	82.38
259.383	84.38
259.616	97.38
259.849	69.38
260.081	87.38
260.314	77.38
260.547	78.38
260.779	78.38
261.012	93.38
261.244	84.38
261.477	88.38
261.71	76.38
261.942	86.38
262.175	86.38
262.407	87.38
262.64	84.38
262.872	69.38
263.105	87.38
263.337	77.38
263.57	82.38
263.802	89.38
264.035	85.38
264.267	71.38
264.499	80.38
264.732	62.38
264.964	84.38
265.197	82.38
265.429	69.38
265.661	89.38
265.894	85.38
266.126	81.38
266.358	88.38
266.591	82.38
266.823	80.38
267.055	72.38
267.287	81.38
267.52	85.38
267.752	86.38
267.984	89.38
268.216	93.38
268.448	81.38
268.681	86.38
268.913	77.38
269.145	84.38
269.377	86.38
269.609	75.38
269.841	85.38
270.073	78.38
270.306	74.38
270.538	74.38
270.77	82.38
271.002	92.38
271.234	73.38
271.466	94.38
271.698	83.38
271.93	88.38
272.162	88.38
272.394	95.38
272.626	83.38
272.858	88.38
273.09	88.38
273.322	89.38
273.553	80.38
273.785	77.38
274.017	77.38
274.249	87.38
274.481	79.38
274.713	88.38
274.945	82.38
275.176	91.38
275.408	78.38
275.64	89.38
275.872	79.38
276.104	93.38
276.335	92.38
276.567	109.38
276.799	90.38
277.031	89.38
277.262	77.38
277.494	91.38
277.726	83.38
277.957	70.38
278.189	84.38
278.421	90.38
278.652	94.38
278.884	92.38
279.115	88.38
279.347	75.38
279.579	75.38
279.81	91.38
280.042	77.38
280.273	83.38
280.505	85.38
280.736	76.38
280.968	93.38
281.199	86.38
281.431	95.38
281.662	82.38
281.894	88.38
282.125	85.38
282.356	74.38
282.588	84.38
282.819	81.38
283.051	100.38
283.282	92.38
283.513	93.38
283.745	83.38
283.976	83.38
284.207	76.38
284.439	85.38
284.67	76.38
284.901	90.38
285.132	82.38
285.364	78.38
285.595	91.38
285.826	70.38
286.057	82.38
286.288	87.38
286.52	92.38
286.751	104.38
286.982	83.38
287.213	86.38
287.444	79.38
287.675	91.38
287.906	101.38
288.138	84.38
288.369	85.38
288.6	88.38
288.831	85.38
289.062	81.38
289.293	78.38
289.524	77.38
289.755	84.38
289.986	74.38
290.217	86.38
290.448	99.38
290.679	91.38
290.91	89.38
291.141	73.38
291.371	87.38
291.602	56.38
291.833	90.38
292.064	95.38
292.295	91.38
292.526	72.38
292.757	82.38
292.987	84.38
293.218	91.38
293.449	90.38
293.68	87.38
293.91	76.38
294.141	86.38
294.372	87.38
294.603	82.38
294.833	85.38
295.064	84.38
295.295	93.38
295.525	88.38
295.756	86.38
295.987	83.38
296.217	88.38
296.448	75.38
296.679	88.38
296.909	84.38
297.14	93.38
297.37	86.38
297.601	74.38
297.831	75.38
298.062	88.38
298.292	90.38
298.523	92.38
298.753	78.38
298.984	91.38
299.214	77.38
299.445	93.38
299.675	75.38
299.905	82.38
300.136	80.38
300.366	86.38
300.597	77.38
300.827	96.38
301.057	77.38
301.288	83.38
301.518	88.38
301.748	92.38
301.979	78.38
302.209	85.38
302.439	100.38
302.669	81.38
302.9	76.38
303.13	88.38
303.36	88.38
303.59	98.38
303.82	84.38
304.051	82.38
304.281	91.38
304.511	92.38
304.741	90.38
304.971	91.38
305.201	85.38
305.431	74.38
305.661	83.38
305.891	83.38
306.121	80.38
306.352	95.38
306.582	90.38
306.812	96.38
307.042	75.38
307.272	80.38
307.502	90.38
307.731	82.38
307.961	84.38
308.191	76.38
308.421	77.38
308.651	65.38
308.881	91.38
309.111	87.38
309.341	81.38
309.571	77.38
309.8	71.38
310.03	84.38
310.26	96.38
310.49	93.38
310.72	70.38
310.949	76.38
311.179	79.38
311.409	92.38
311.639	91.38
311.868	94.38
312.098	88.38
312.328	86.38
312.557	79.38
312.787	77.38
313.017	85.38
313.246	90.38
313.476	88.38
313.706	84.38
313.935	91.38
314.165	88.38
314.394	93.38
314.624	74.38
314.853	83.38
315.083	59.38
315.312	86.38
315.542	89.38
315.771	96.38
316.001	79.38
316.23	78.38
316.46	76.38
316.689	87.38
316.919	94.38
317.148	82.38
317.377	102.38
317.607	87.38
317.836	76.38
318.065	93.38
318.295	102.38
318.524	68.38
318.753	87.38
318.983	89.38
319.212	110.38
319.441	87.38
319.67	86.38
319.9	90.38
320.129	76.38
320.358	80.38
320.587	79.38
320.816	91.38
321.046	87.38
321.275	92.38
321.504	94.38
321.733	85.38
321.962	88.38
322.191	93.38
322.42	77.38
322.649	84.38
322.878	91.38
323.108	81.38
323.337	87.38
323.566	88.38
323.795	81.38
324.024	81.38
324.253	89.38
324.482	71.38
324.71	85.38
324.939	95.38
325.168	89.38
325.397	99.38
325.626	96.38
325.855	93.38
326.084	92.38
326.313	89.38
326.542	88.38
326.77	76.38
326.999	86.38
327.228	82.38
327.457	98.38
327.686	89.38
327.914	78.38
328.143	85.38
328.372	73.38
328.6	78.38
328.829	77.38
329.058	76.38
329.287	73.38
329.515	91.38
329.744	82.38
329.972	92.38
330.201	90.38
330.43	85.38
330.658	80.38
330.887	77.38
331.115	82.38
331.344	68.38
331.572	82.38
331.801	96.38
332.03	82.38
332.258	76.38
332.486	85.38
332.715	87.38
332.943	72.38
333.172	86.38
333.4	84.38
333.629	85.38
333.857	80.38
334.085	86.38
334.314	91.38
334.542	78.38
334.771	77.38
334.999	93.38
335.227	79.38
335.455	103.38
335.684	88.38
335.912	84.38
336.14	87.38
336.369	78.38
336.597	75.38
336.825	82.38
337.053	82.38
337.281	82.38
337.51	80.38
337.738	101.38
337.966	86.38
338.194	79.38
338.422	81.38
338.65	88.38
338.878	93.38
339.106	77.38
339.334	91.38
339.562	81.38
339.79	84.38
340.018	71.38
340.246	75.38
340.474	92.38
340.702	87.38
340.93	91.38
341.158	96.38
341.386	98.38
341.614	79.38
341.842	94.38
342.07	79.38
342.298	86.38
342.526	75.38
342.754	73.38
342.981	91.38
343.209	84.38
343.437	85.38
343.665	94.38
343.893	82.38
344.12	87.38
344.348	94.38
344.576	83.38
344.804	81.38
345.031	98.38
345.259	67.38
345.487	106.38
345.714	76.38
345.942	89.38
346.17	75.38
346.397	78.38
346.625	84.38
346.853	95.38
347.08	81.38
347.308	89.38
347.535	86.38
347.763	92.38
347.99	83.38
348.218	85.38
348.445	83.38
348.673	77.38
348.9	98.38
349.128	82.38
349.355	97.38
349.583	93.38
349.81	87.38
350.037	85.38
350.265	78.38
350.492	83.38
350.72	88.38
350.947	80.38
351.174	92.38
351.402	84.38
351.629	99.38
351.856	69.38
352.083	84.38
352.311	78.38
352.538	81.38
352.765	89.38
352.992	79.38
353.22	81.38
353.447	93.38
353.674	78.38
353.901	90.38
354.128	84.38
354.355	89.38
354.583	79.38
354.81	89.38
355.037	81.38
355.264	79.38
355.491	81.38
355.718	75.38
355.945	84.38
356.172	87.38
356.399	73.38
356.626	89.38
356.853	85.38
357.08	84.38
357.307	82.38
357.534	83.38
357.761	92.38
357.988	95.38
358.215	84.38
358.441	82.38
358.668	72.38
358.895	87.38
359.122	82.38
359.349	85.38
359.576	81.38
359.802	93.38
360.029	86.38
360.256	92.38
360.483	80.38
360.709	80.38
360.936	88.38
361.163	90.38
361.39	72.38
361.616	87.38
361.843	91.38
362.07	89.38
362.296	86.38
362.523	98.38
362.749	74.38
362.976	93.38
363.203	91.38
363.429	82.38
363.656	78.38
363.882	83.38
364.109	81.38
364.335	86.38
364.562	71.38
364.788	75.38
365.015	81.38
365.241	91.38
365.468	82.38
365.694	87.38
365.92	75.38
366.147	83.38
366.373	92.38
366.599	90.38
366.826	81.38
367.052	106.38
367.278	97.38
367.505	82.38
367.731	106.38
367.957	77.38
368.184	88.38
368.41	89.38
368.636	75.38
368.862	93.38
369.089	97.38
369.315	98.38
369.541	106.38
369.767	88.38
369.993	87.38
370.219	86.38
370.445	84.38
370.672	75.38
370.898	96.38
371.124	103.38
371.35	88.38
371.576	98.38
371.802	92.38
372.028	96.38
372.254	104.38
372.48	89.38
372.706	99.38
372.932	77.38
373.158	86.38
373.384	67.38
373.61	90.38
373.835	96.38
374.061	93.38
374.287	88.38
374.513	97.38
374.739	89.38
374.965	86.38
375.191	98.38
375.416	89.38
375.642	81.38
375.868	97.38
376.094	96.38
376.319	86.38
376.545	91.38
376.771	107.38
376.997	89.38
377.222	101.38
377.448	115.38
377.674	98.38
377.899	99.38
378.125	100.38
378.35	92.38
378.576	87.38
378.802	98.38
379.027	98.38
379.253	96.38
379.478	93.38
379.704	102.38
379.929	92.38
380.155	87.38
380.38	87.38
380.606	93.38
380.831	103.38
381.057	105.38
381.282	103.38
381.507	107.38
381.733	87.38
381.958	98.38
382.184	95.38
382.409	91.38
382.634	88.38
382.86	82.38
383.085	109.38
383.31	98.38
383.535	109.38
383.761	101.38
383.986	97.38
384.211	95.38
384.436	87.38
384.662	90.38
384.887	98.38
385.112	103.38
385.337	94.38
385.562	105.38
385.787	89.38
386.013	112.38
386.238	108.38
386.463	103.38
386.688	93.38
386.913	95.38
387.138	92.38
387.363	96.38
387.588	106.38
387.813	89.38
388.038	98.38
388.263	107.38
388.488	104.38
388.713	121.38
388.938	107.38
389.163	101.38
389.387	97.38
389.612	118.38
389.837	114.38
390.062	112.38
390.287	110.38
390.512	96.38
390.736	107.38
390.961	99.38
391.186	117.38
391.411	109.38
391.636	97.38
391.86	108.38
392.085	98.38
392.31	136.38
392.534	109.38
392.759	108.38
392.984	118.38
393.208	100.38
393.433	97.38
393.658	98.38
393.882	104.38
394.107	114.38
394.331	128.38
394.556	100.38
394.78	111.38
395.005	116.38
395.229	108.38
395.454	116.38
395.678	105.38
395.903	116.38
396.127	106.38
396.352	107.38
396.576	116.38
396.801	119.38
397.025	96.38
397.249	92.38
397.474	117.38
397.698	99.38
397.922	103.38
398.147	109.38
398.371	113.38
398.595	112.38
398.82	103.38
399.044	107.38
399.268	135.38
399.492	111.38
399.717	104.38
399.941	104.38
400.165	115.38
400.389	120.38
400.613	104.38
400.837	111.38
401.062	114.38
401.286	124.38
401.51	124.38
401.734	116.38
401.958	123.38
402.182	105.38
402.406	112.38
402.63	116.38
402.854	105.38
403.078	112.38
403.302	132.38
403.526	114.38
403.75	108.38
403.974	105.38
404.198	130.38
404.422	125.38
404.645	127.38
404.869	109.38
405.093	123.38
405.317	120.38
405.541	114.38
405.765	115.38
405.988	122.38
406.212	118.38
406.436	124.38
406.66	130.38
406.883	117.38
407.107	129.38
407.331	124.38
407.555	116.38
407.778	118.38
408.002	126.38
408.226	129.38
408.449	116.38
408.673	112.38
408.896	133.38
409.12	136.38
409.344	127.38
409.567	118.38
409.791	118.38
410.014	128.38
410.238	139.38
410.461	123.38
410.685	134.38
410.908	112.38
411.132	114.38
411.355	122.38
411.578	129.38
411.802	123.38
412.025	112.38
412.249	130.38
412.472	118.38
412.695	126.38
412.919	127.38
413.142	125.38
413.365	115.38
413.589	125.38
413.812	114.38
414.035	130.38
414.258	132.38
414.482	121.38
414.705	128.38
414.928	140.38
415.151	123.38
415.374	125.38
415.597	123.38
415.821	125.38
416.044	130.38
416.267	138.38
416.49	128.38
416.713	125.38
416.936	142.38
417.159	128.38
417.382	123.38
417.605	117.38
417.828	142.38
418.051	126.38
418.274	139.38
418.497	146.38
418.72	145.38
418.943	129.38
419.166	140.38
419.389	145.38
419.611	148.38
419.834	127.38
420.057	141.38
420.28	124.38
420.503	135.38
420.726	138.38
420.948	132.38
421.171	142.38
421.394	128.38
421.617	140.38
421.839	149.38
422.062	144.38
422.285	146.38
422.507	141.38
422.73	144.38
422.953	138.38
423.175	148.38
423.398	142.38
423.621	139.38
423.843	126.38
424.066	144.38
424.288	139.38
424.511	162.38
424.733	146.38
424.956	158.38
425.178	161.38
425.401	140.38
425.623	148.38
425.846	138.38
426.068	140.38
426.291	139.38
426.513	137.38
426.735	137.38
426.958	124.38
427.18	137.38
427.402	139.38
427.625	132.38
427.847	137.38
428.069	142.38
428.292	136.38
428.514	122.38
428.736	124.38
428.958	130.38
429.181	137.38
429.403	123.38
429.625	147.38
429.847	146.38
430.069	124.38
430.292	136.38
430.514	136.38
430.736	131.38
430.958	134.38
431.18	135.38
431.402	125.38
431.624	120.38
431.846	94.38
432.068	98.38
432.29	98.38
432.512	123.38
432.734	127.38
432.956	139.38
433.178	145.38
433.4	152.38
433.622	150.38
433.844	143.38
434.066	126.38
434.287	108.38
434.509	106.38
434.731	103.38
434.953	124.38
435.175	125.38
435.397	133.38
435.618	125.38
435.84	125.38
436.062	118.38
436.284	125.38
436.505	140.38
436.727	141.38
436.949	136.38
437.17	131.38
437.392	130.38
437.614	127.38
437.835	117.38
438.057	117.38
438.278	119.38
438.5	132.38
438.721	133.38
438.943	149.38
439.165	140.38
439.386	154.38
439.608	132.38
439.829	162.38
440.05	153.38
440.272	151.38
440.493	152.38
440.715	142.38
440.936	158.38
441.158	143.38
441.379	140.38
441.6	165.38
441.822	159.38
442.043	147.38
442.264	144.38
442.486	141.38
442.707	141.38
442.928	142.38
443.149	141.38
443.371	154.38
443.592	157.38
443.813	135.38
444.034	155.38
444.255	141.38
444.476	134.38
444.698	130.38
444.919	142.38
445.14	289.38
445.361	224.38
445.582	154.38
445.803	141.38
446.024	142.38
446.245	171.38
446.466	161.38
446.687	157.38
446.908	184.38
447.129	163.38
447.35	158.38
447.571	162.38
447.792	157.38
448.013	152.38
448.234	137.38
448.455	158.38
448.675	154.38
448.896	139.38
449.117	143.38
449.338	144.38
449.559	142.38
449.779	158.38
450	145.38
450.221	149.38
450.442	154.38
450.662	140.38
450.883	140.38
451.104	131.38
451.324	131.38
451.545	124.38
451.766	128.38
451.986	136.38
452.207	113.38
452.428	142.38
452.648	132.38
452.869	121.38
453.089	122.38
453.31	108.38
453.53	117.38
453.751	115.38
453.971	109.38
454.192	116.38
454.412	124.38
454.633	127.38
454.853	123.38
455.073	136.38
455.294	116.38
455.514	131.38
455.734	103.38
455.955	128.38
456.175	126.38
456.395	122.38
456.616	92.38
456.836	120.38
457.056	105.38
457.276	105.38
457.497	111.38
457.717	90.38
457.937	110.38
458.157	115.38
458.377	105.38
458.598	84.38
458.818	92.38
459.038	86.38
459.258	104.38
459.478	94.38
459.698	84.38
459.918	82.38
460.138	126.38
460.358	120.38
460.578	113.38
460.798	140.38
461.018	121.38
461.238	132.38
461.458	131.38
461.678	114.38
461.898	126.38
462.118	118.38
462.338	128.38
462.558	112.38
462.777	112.38
462.997	115.38
463.217	121.38
463.437	107.38
463.657	101.38
463.876	119.38
464.096	118.38
464.316	105.38
464.536	115.38
464.755	122.38
464.975	109.38
465.195	116.38
465.414	128.38
465.634	140.38
465.854	123.38
466.073	125.38
466.293	121.38
466.512	129.38
466.732	140.38
466.951	140.38
467.171	157.38
467.391	139.38
467.61	137.38
467.829	149.38
468.049	150.38
468.268	148.38
468.488	127.38
468.707	143.38
468.927	150.38
469.146	144.38
469.365	147.38
469.585	147.38
469.804	143.38
470.023	152.38
470.243	152.38
470.462	139.38
470.681	143.38
470.901	153.38
471.12	130.38
471.339	142.38
471.558	153.38
471.777	142.38
471.997	150.38
472.216	120.38
472.435	150.38
472.654	115.38
472.873	103.38
473.092	124.38
473.311	125.38
473.53	101.38
473.749	146.38
473.968	146.38
474.187	134.38
474.406	116.38
474.625	143.38
474.844	126.38
475.063	118.38
475.282	123.38
475.501	125.38
475.72	121.38
475.939	138.38
476.158	140.38
476.377	142.38
476.596	132.38
476.814	119.38
477.033	109.38
477.252	114.38
477.471	113.38
477.69	124.38
477.908	143.38
478.127	163.38
478.346	149.38
478.564	143.38
478.783	148.38
479.002	151.38
479.22	153.38
479.439	153.38
479.658	125.38
479.876	121.38
480.095	108.38
480.313	108.38
480.532	128.38
480.751	111.38
480.969	96.38
481.188	83.38
481.406	93.38
481.624	91.38
481.843	94.38
482.061	101.38
482.28	108.38
482.498	107.38
482.717	108.38
482.935	133.38
483.153	162.38
483.372	158.38
483.59	149.38
483.808	141.38
484.027	142.38
484.245	145.38
484.463	150.38
484.681	156.38
484.9	155.38
485.118	150.38
485.336	141.38
485.554	127.38
485.772	104.38
485.99	108.38
486.209	114.38
486.427	114.38
486.645	145.38
486.863	157.38
487.081	142.38
487.299	141.38
487.517	136.38
487.735	181.38
487.953	193.38
488.171	199.38
488.389	193.38
488.607	166.38
488.825	149.38
489.043	141.38
489.261	146.38
489.479	144.38
489.696	148.38
489.914	147.38
490.132	156.38
490.35	154.38
490.568	181.38
490.786	186.38
491.003	179.38
491.221	187.38
491.439	180.38
491.657	212.38
491.874	213.38
492.092	232.38
492.31	237.38
492.527	251.38
492.745	229.38
492.963	204.38
493.18	195.38
493.398	186.38
493.615	193.38
493.833	187.38
494.05	187.38
494.268	180.38
494.485	171.38
494.703	186.38
494.92	188.38
495.138	176.38
495.355	185.38
495.573	192.38
495.79	187.38
496.008	178.38
496.225	164.38
496.442	172.38
496.66	184.38
496.877	179.38
497.094	190.38
497.312	184.38
497.529	169.38
497.746	152.38
497.963	126.38
498.181	149.38
498.398	124.38
498.615	122.38
498.832	129.38
499.049	115.38
499.267	130.38
499.484	124.38
499.701	140.38
499.918	146.38
500.135	168.38
500.352	153.38
500.569	146.38
500.786	148.38
501.003	146.38
501.22	133.38
501.437	154.38
501.654	149.38
501.871	136.38
502.088	138.38
502.305	131.38
502.522	137.38
502.739	134.38
502.956	148.38
503.172	128.38
503.389	136.38
503.606	122.38
503.823	135.38
504.04	132.38
504.256	133.38
504.473	121.38
504.69	124.38
504.907	133.38
505.123	137.38
505.34	120.38
505.557	115.38
505.773	132.38
505.99	118.38
506.207	123.38
506.423	129.38
506.64	121.38
506.856	123.38
507.073	128.38
507.289	119.38
507.506	133.38
507.722	138.38
507.939	135.38
508.155	126.38
508.372	131.38
508.588	125.38
508.805	128.38
509.021	103.38
509.238	108.38
509.454	108.38
509.67	103.38
509.887	97.38
510.103	102.38
510.319	106.38
510.536	95.38
510.752	97.38
510.968	76.38
511.184	86.38
511.401	85.38
