Data from Location6.07152019.Energy5.Lamp.07192019.3%Agarose_HRD10591_16-13-46-396.txt Node
Date: Fri Jul 19 16:13:46 EDT 2019
User: cochatt
Spectrometer: HR+D1059
Trigger mode: 1
Integration Time (sec): 1.000000E-1
Scans to average: 1
Electric dark correction enabled: true
Nonlinearity correction enabled: false
Boxcar width: 0
XAxis mode: Wavelengths
Number of Pixels in Spectrum: 2048
>>>>>Begin Spectral Data<<<<<
223.165	-12.56
223.4	-12.56
223.635	-12.56
223.869	-12.56
224.104	-17.56
224.338	-8.56
224.573	-14.56
224.808	-3.56
225.042	-0.56
225.277	-5.56
225.511	-7.56
225.746	3.44
225.98	-7.56
226.215	2.44
226.449	14.44
226.683	11.44
226.918	32.44
227.152	26.44
227.387	23.44
227.621	56.44
227.856	53.44
228.09	39.44
228.324	34.44
228.559	50.44
228.793	56.44
229.027	53.44
229.262	57.44
229.496	69.44
229.73	49.44
229.964	59.44
230.199	74.44
230.433	85.44
230.667	86.44
230.901	69.44
231.136	64.44
231.37	71.44
231.604	80.44
231.838	91.44
232.072	82.44
232.306	74.44
232.541	71.44
232.775	97.44
233.009	77.44
233.243	88.44
233.477	81.44
233.711	65.44
233.945	86.44
234.179	70.44
234.413	88.44
234.647	74.44
234.881	79.44
235.115	81.44
235.349	74.44
235.583	83.44
235.817	74.44
236.051	86.44
236.285	70.44
236.519	74.44
236.753	71.44
236.987	62.44
237.221	96.44
237.455	81.44
237.689	71.44
237.922	72.44
238.156	74.44
238.39	78.44
238.624	71.44
238.858	68.44
239.091	74.44
239.325	75.44
239.559	83.44
239.793	55.44
240.027	75.44
240.26	77.44
240.494	83.44
240.728	70.44
240.961	87.44
241.195	65.44
241.429	68.44
241.662	80.44
241.896	61.44
242.13	76.44
242.363	71.44
242.597	72.44
242.83	75.44
243.064	67.44
243.298	62.44
243.531	65.44
243.765	71.44
243.998	79.44
244.232	83.44
244.465	89.44
244.699	74.44
244.932	61.44
245.166	80.44
245.399	80.44
245.633	82.44
245.866	74.44
246.099	71.44
246.333	85.44
246.566	90.44
246.8	81.44
247.033	79.44
247.266	82.44
247.5	72.44
247.733	66.44
247.966	82.44
248.2	65.44
248.433	71.44
248.666	68.44
248.899	79.44
249.133	87.44
249.366	82.44
249.599	70.44
249.832	70.44
250.066	82.44
250.299	68.44
250.532	70.44
250.765	62.44
250.998	85.44
251.231	74.44
251.465	77.44
251.698	66.44
251.931	69.44
252.164	82.44
252.397	77.44
252.63	90.44
252.863	85.44
253.096	76.44
253.329	71.44
253.562	88.44
253.795	74.44
254.028	87.44
254.261	87.44
254.494	105.44
254.727	82.44
254.96	72.44
255.193	81.44
255.426	82.44
255.659	74.44
255.892	83.44
256.124	92.44
256.357	70.44
256.59	76.44
256.823	75.44
257.056	69.44
257.289	85.44
257.521	74.44
257.754	80.44
257.987	78.44
258.22	79.44
258.452	90.44
258.685	74.44
258.918	74.44
259.151	86.44
259.383	83.44
259.616	90.44
259.849	81.44
260.081	75.44
260.314	89.44
260.547	85.44
260.779	74.44
261.012	82.44
261.244	83.44
261.477	86.44
261.71	67.44
261.942	80.44
262.175	78.44
262.407	64.44
262.64	79.44
262.872	75.44
263.105	65.44
263.337	62.44
263.57	72.44
263.802	75.44
264.035	71.44
264.267	65.44
264.499	79.44
264.732	67.44
264.964	78.44
265.197	85.44
265.429	81.44
265.661	71.44
265.894	81.44
266.126	88.44
266.358	88.44
266.591	89.44
266.823	73.44
267.055	73.44
267.287	77.44
267.52	76.44
267.752	89.44
267.984	82.44
268.216	75.44
268.448	77.44
268.681	73.44
268.913	73.44
269.145	69.44
269.377	70.44
269.609	85.44
269.841	75.44
270.073	85.44
270.306	81.44
270.538	74.44
270.77	75.44
271.002	76.44
271.234	73.44
271.466	87.44
271.698	90.44
271.93	79.44
272.162	93.44
272.394	90.44
272.626	83.44
272.858	98.44
273.09	76.44
273.322	74.44
273.553	73.44
273.785	88.44
274.017	85.44
274.249	75.44
274.481	77.44
274.713	80.44
274.945	85.44
275.176	77.44
275.408	76.44
275.64	80.44
275.872	73.44
276.104	88.44
276.335	80.44
276.567	61.44
276.799	70.44
277.031	79.44
277.262	85.44
277.494	90.44
277.726	71.44
277.957	80.44
278.189	85.44
278.421	75.44
278.652	90.44
278.884	91.44
279.115	83.44
279.347	92.44
279.579	93.44
279.81	89.44
280.042	94.44
280.273	84.44
280.505	88.44
280.736	86.44
280.968	86.44
281.199	76.44
281.431	86.44
281.662	80.44
281.894	85.44
282.125	83.44
282.356	85.44
282.588	83.44
282.819	78.44
283.051	81.44
283.282	73.44
283.513	81.44
283.745	76.44
283.976	79.44
284.207	73.44
284.439	79.44
284.67	95.44
284.901	68.44
285.132	79.44
285.364	85.44
285.595	82.44
285.826	89.44
286.057	79.44
286.288	85.44
286.52	78.44
286.751	62.44
286.982	75.44
287.213	85.44
287.444	63.44
287.675	77.44
287.906	94.44
288.138	85.44
288.369	83.44
288.6	81.44
288.831	84.44
289.062	87.44
289.293	81.44
289.524	73.44
289.755	84.44
289.986	85.44
290.217	94.44
290.448	98.44
290.679	82.44
290.91	86.44
291.141	89.44
291.371	90.44
291.602	68.44
291.833	83.44
292.064	76.44
292.295	74.44
292.526	68.44
292.757	84.44
292.987	81.44
293.218	77.44
293.449	87.44
293.68	82.44
293.91	85.44
294.141	75.44
294.372	85.44
294.603	89.44
294.833	78.44
295.064	77.44
295.295	78.44
295.525	87.44
295.756	94.44
295.987	94.44
296.217	83.44
296.448	82.44
296.679	86.44
296.909	86.44
297.14	85.44
297.37	90.44
297.601	74.44
297.831	66.44
298.062	87.44
298.292	85.44
298.523	83.44
298.753	74.44
298.984	79.44
299.214	66.44
299.445	98.44
299.675	79.44
299.905	83.44
300.136	85.44
300.366	77.44
300.597	81.44
300.827	85.44
301.057	94.44
301.288	79.44
301.518	71.44
301.748	75.44
301.979	79.44
302.209	81.44
302.439	98.44
302.669	90.44
302.9	83.44
303.13	71.44
303.36	83.44
303.59	81.44
303.82	95.44
304.051	74.44
304.281	78.44
304.511	81.44
304.741	83.44
304.971	84.44
305.201	74.44
305.431	81.44
305.661	71.44
305.891	82.44
306.121	87.44
306.352	74.44
306.582	86.44
306.812	82.44
307.042	78.44
307.272	96.44
307.502	83.44
307.731	80.44
307.961	72.44
308.191	70.44
308.421	87.44
308.651	90.44
308.881	92.44
309.111	92.44
309.341	69.44
309.571	78.44
309.8	96.44
310.03	67.44
310.26	74.44
310.49	72.44
310.72	88.44
310.949	82.44
311.179	85.44
311.409	79.44
311.639	79.44
311.868	88.44
312.098	83.44
312.328	86.44
312.557	85.44
312.787	90.44
313.017	77.44
313.246	77.44
313.476	94.44
313.706	68.44
313.935	78.44
314.165	84.44
314.394	86.44
314.624	78.44
314.853	87.44
315.083	88.44
315.312	81.44
315.542	81.44
315.771	95.44
316.001	83.44
316.23	88.44
316.46	70.44
316.689	80.44
316.919	89.44
317.148	67.44
317.377	75.44
317.607	95.44
317.836	97.44
318.065	77.44
318.295	89.44
318.524	80.44
318.753	88.44
318.983	81.44
319.212	65.44
319.441	87.44
319.67	79.44
319.9	90.44
320.129	74.44
320.358	87.44
320.587	90.44
320.816	89.44
321.046	72.44
321.275	71.44
321.504	89.44
321.733	84.44
321.962	73.44
322.191	88.44
322.42	76.44
322.649	70.44
322.878	73.44
323.108	69.44
323.337	83.44
323.566	89.44
323.795	86.44
324.024	82.44
324.253	76.44
324.482	82.44
324.71	80.44
324.939	82.44
325.168	81.44
325.397	89.44
325.626	94.44
325.855	82.44
326.084	84.44
326.313	90.44
326.542	84.44
326.77	97.44
326.999	93.44
327.228	100.44
327.457	82.44
327.686	84.44
327.914	72.44
328.143	90.44
328.372	85.44
328.6	87.44
328.829	86.44
329.058	65.44
329.287	72.44
329.515	84.44
329.744	84.44
329.972	72.44
330.201	76.44
330.43	81.44
330.658	82.44
330.887	82.44
331.115	89.44
331.344	101.44
331.572	86.44
331.801	76.44
332.03	82.44
332.258	73.44
332.486	67.44
332.715	95.44
332.943	84.44
333.172	63.44
333.4	83.44
333.629	89.44
333.857	89.44
334.085	81.44
334.314	82.44
334.542	99.44
334.771	82.44
334.999	98.44
335.227	97.44
335.455	77.44
335.684	72.44
335.912	92.44
336.14	84.44
336.369	85.44
336.597	82.44
336.825	90.44
337.053	77.44
337.281	81.44
337.51	89.44
337.738	91.44
337.966	75.44
338.194	77.44
338.422	66.44
338.65	83.44
338.878	91.44
339.106	80.44
339.334	92.44
339.562	79.44
339.79	86.44
340.018	90.44
340.246	77.44
340.474	90.44
340.702	81.44
340.93	69.44
341.158	79.44
341.386	89.44
341.614	91.44
341.842	85.44
342.07	82.44
342.298	79.44
342.526	93.44
342.754	88.44
342.981	84.44
343.209	68.44
343.437	80.44
343.665	77.44
343.893	87.44
344.12	86.44
344.348	95.44
344.576	82.44
344.804	64.44
345.031	73.44
345.259	84.44
345.487	84.44
345.714	85.44
345.942	87.44
346.17	87.44
346.397	98.44
346.625	89.44
346.853	86.44
347.08	84.44
347.308	73.44
347.535	87.44
347.763	82.44
347.99	85.44
348.218	88.44
348.445	66.44
348.673	77.44
348.9	72.44
349.128	81.44
349.355	89.44
349.583	84.44
349.81	81.44
350.037	71.44
350.265	84.44
350.492	89.44
350.72	76.44
350.947	82.44
351.174	86.44
351.402	91.44
351.629	102.44
351.856	85.44
352.083	74.44
352.311	89.44
352.538	96.44
352.765	67.44
352.992	90.44
353.22	82.44
353.447	89.44
353.674	80.44
353.901	94.44
354.128	87.44
354.355	66.44
354.583	86.44
354.81	101.44
355.037	79.44
355.264	74.44
355.491	79.44
355.718	81.44
355.945	73.44
356.172	66.44
356.399	82.44
356.626	89.44
356.853	81.44
357.08	78.44
357.307	88.44
357.534	93.44
357.761	71.44
357.988	90.44
358.215	72.44
358.441	96.44
358.668	85.44
358.895	75.44
359.122	85.44
359.349	71.44
359.576	86.44
359.802	78.44
360.029	93.44
360.256	96.44
360.483	81.44
360.709	81.44
360.936	90.44
361.163	89.44
361.39	85.44
361.616	90.44
361.843	86.44
362.07	70.44
362.296	67.44
362.523	86.44
362.749	93.44
362.976	90.44
363.203	86.44
363.429	79.44
363.656	78.44
363.882	79.44
364.109	80.44
364.335	69.44
364.562	78.44
364.788	87.44
365.015	87.44
365.241	86.44
365.468	80.44
365.694	66.44
365.92	82.44
366.147	84.44
366.373	81.44
366.599	80.44
366.826	86.44
367.052	86.44
367.278	77.44
367.505	90.44
367.731	86.44
367.957	83.44
368.184	86.44
368.41	106.44
368.636	89.44
368.862	80.44
369.089	77.44
369.315	89.44
369.541	85.44
369.767	91.44
369.993	108.44
370.219	87.44
370.445	102.44
370.672	96.44
370.898	81.44
371.124	83.44
371.35	87.44
371.576	87.44
371.802	82.44
372.028	87.44
372.254	80.44
372.48	85.44
372.706	89.44
372.932	84.44
373.158	97.44
373.384	95.44
373.61	90.44
373.835	81.44
374.061	87.44
374.287	97.44
374.513	94.44
374.739	90.44
374.965	93.44
375.191	87.44
375.416	90.44
375.642	94.44
375.868	103.44
376.094	90.44
376.319	86.44
376.545	89.44
376.771	85.44
376.997	78.44
377.222	87.44
377.448	85.44
377.674	92.44
377.899	98.44
378.125	104.44
378.35	91.44
378.576	84.44
378.802	90.44
379.027	94.44
379.253	85.44
379.478	106.44
379.704	97.44
379.929	88.44
380.155	96.44
380.38	94.44
380.606	90.44
380.831	93.44
381.057	100.44
381.282	80.44
381.507	103.44
381.733	81.44
381.958	92.44
382.184	100.44
382.409	90.44
382.634	90.44
382.86	92.44
383.085	98.44
383.31	92.44
383.535	97.44
383.761	83.44
383.986	98.44
384.211	89.44
384.436	81.44
384.662	89.44
384.887	103.44
385.112	92.44
385.337	97.44
385.562	86.44
385.787	86.44
386.013	120.44
386.238	109.44
386.463	102.44
386.688	109.44
386.913	105.44
387.138	103.44
387.363	97.44
387.588	86.44
387.813	93.44
388.038	86.44
388.263	95.44
388.488	107.44
388.713	91.44
388.938	80.44
389.163	96.44
389.387	104.44
389.612	97.44
389.837	103.44
390.062	103.44
390.287	104.44
390.512	100.44
390.736	111.44
390.961	109.44
391.186	114.44
391.411	113.44
391.636	110.44
391.86	102.44
392.085	97.44
392.31	108.44
392.534	113.44
392.759	116.44
392.984	113.44
393.208	104.44
393.433	83.44
393.658	119.44
393.882	107.44
394.107	101.44
394.331	99.44
394.556	106.44
394.78	112.44
395.005	119.44
395.229	113.44
395.454	102.44
395.678	109.44
395.903	111.44
396.127	97.44
396.352	113.44
396.576	103.44
396.801	87.44
397.025	102.44
397.249	99.44
397.474	105.44
397.698	104.44
397.922	89.44
398.147	112.44
398.371	111.44
398.595	102.44
398.82	97.44
399.044	129.44
399.268	110.44
399.492	121.44
399.717	105.44
399.941	103.44
400.165	110.44
400.389	113.44
400.613	108.44
400.837	131.44
401.062	112.44
401.286	113.44
401.51	105.44
401.734	113.44
401.958	107.44
402.182	114.44
402.406	110.44
402.63	129.44
402.854	100.44
403.078	111.44
403.302	121.44
403.526	117.44
403.75	119.44
403.974	115.44
404.198	117.44
404.422	102.44
404.645	119.44
404.869	135.44
405.093	123.44
405.317	125.44
405.541	120.44
405.765	110.44
405.988	112.44
406.212	132.44
406.436	113.44
406.66	105.44
406.883	114.44
407.107	123.44
407.331	114.44
407.555	131.44
407.778	126.44
408.002	130.44
408.226	119.44
408.449	119.44
408.673	115.44
408.896	126.44
409.12	129.44
409.344	120.44
409.567	111.44
409.791	119.44
410.014	128.44
410.238	119.44
410.461	107.44
410.685	119.44
410.908	122.44
411.132	126.44
411.355	119.44
411.578	131.44
411.802	127.44
412.025	110.44
412.249	100.44
412.472	129.44
412.695	106.44
412.919	117.44
413.142	121.44
413.365	121.44
413.589	128.44
413.812	115.44
414.035	120.44
414.258	141.44
414.482	119.44
414.705	123.44
414.928	119.44
415.151	124.44
415.374	125.44
415.597	124.44
415.821	115.44
416.044	123.44
416.267	128.44
416.49	125.44
416.713	127.44
416.936	142.44
417.159	137.44
417.382	129.44
417.605	124.44
417.828	120.44
418.051	128.44
418.274	131.44
418.497	125.44
418.72	125.44
418.943	133.44
419.166	120.44
419.389	136.44
419.611	126.44
419.834	129.44
420.057	127.44
420.28	133.44
420.503	129.44
420.726	133.44
420.948	131.44
421.171	127.44
421.394	143.44
421.617	127.44
421.839	137.44
422.062	154.44
422.285	120.44
422.507	117.44
422.73	117.44
422.953	142.44
423.175	121.44
423.398	125.44
423.621	139.44
423.843	137.44
424.066	138.44
424.288	126.44
424.511	140.44
424.733	144.44
424.956	149.44
425.178	147.44
425.401	145.44
425.623	145.44
425.846	142.44
426.068	127.44
426.291	134.44
426.513	158.44
426.735	133.44
426.958	147.44
427.18	138.44
427.402	137.44
427.625	127.44
427.847	139.44
428.069	137.44
428.292	135.44
428.514	134.44
428.736	114.44
428.958	133.44
429.181	128.44
429.403	133.44
429.625	133.44
429.847	123.44
430.069	132.44
430.292	144.44
430.514	145.44
430.736	134.44
430.958	139.44
431.18	119.44
431.402	138.44
431.624	131.44
431.846	105.44
432.068	92.44
432.29	97.44
432.512	109.44
432.734	121.44
432.956	127.44
433.178	134.44
433.4	135.44
433.622	145.44
433.844	129.44
434.066	123.44
434.287	106.44
434.509	103.44
434.731	114.44
434.953	116.44
435.175	130.44
435.397	127.44
435.618	127.44
435.84	118.44
436.062	115.44
436.284	117.44
436.505	124.44
436.727	121.44
436.949	143.44
437.17	133.44
437.392	118.44
437.614	123.44
437.835	107.44
438.057	111.44
438.278	123.44
438.5	121.44
438.721	149.44
438.943	140.44
439.165	136.44
439.386	135.44
439.608	129.44
439.829	154.44
440.05	153.44
440.272	143.44
440.493	147.44
440.715	146.44
440.936	151.44
441.158	146.44
441.379	146.44
441.6	140.44
441.822	161.44
442.043	130.44
442.264	150.44
442.486	131.44
442.707	148.44
442.928	137.44
443.149	156.44
443.371	143.44
443.592	128.44
443.813	151.44
444.034	140.44
444.255	157.44
444.476	146.44
444.698	133.44
444.919	147.44
445.14	265.44
445.361	205.44
445.582	158.44
445.803	140.44
446.024	138.44
446.245	162.44
446.466	157.44
446.687	152.44
446.908	173.44
447.129	164.44
447.35	153.44
447.571	137.44
447.792	140.44
448.013	149.44
448.234	148.44
448.455	132.44
448.675	148.44
448.896	130.44
449.117	143.44
449.338	130.44
449.559	137.44
449.779	151.44
450	145.44
450.221	134.44
450.442	132.44
450.662	129.44
450.883	128.44
451.104	126.44
451.324	138.44
451.545	155.44
451.766	126.44
451.986	134.44
452.207	120.44
452.428	119.44
452.648	135.44
452.869	117.44
453.089	97.44
453.31	104.44
453.53	115.44
453.751	109.44
453.971	89.44
454.192	102.44
454.412	101.44
454.633	123.44
454.853	126.44
455.073	135.44
455.294	91.44
455.514	119.44
455.734	113.44
455.955	124.44
456.175	119.44
456.395	108.44
456.616	104.44
456.836	100.44
457.056	110.44
457.276	111.44
457.497	110.44
457.717	116.44
457.937	114.44
458.157	109.44
458.377	120.44
458.598	105.44
458.818	93.44
459.038	91.44
459.258	88.44
459.478	84.44
459.698	93.44
459.918	96.44
460.138	108.44
460.358	110.44
460.578	111.44
460.798	100.44
461.018	127.44
461.238	128.44
461.458	110.44
461.678	118.44
461.898	121.44
462.118	100.44
462.338	101.44
462.558	117.44
462.777	112.44
462.997	123.44
463.217	124.44
463.437	120.44
463.657	109.44
463.876	121.44
464.096	99.44
464.316	100.44
464.536	116.44
464.755	122.44
464.975	125.44
465.195	122.44
465.414	121.44
465.634	120.44
465.854	127.44
466.073	120.44
466.293	120.44
466.512	130.44
466.732	129.44
466.951	129.44
467.171	135.44
467.391	128.44
467.61	133.44
467.829	133.44
468.049	122.44
468.268	141.44
468.488	131.44
468.707	132.44
468.927	133.44
469.146	137.44
469.365	139.44
469.585	139.44
469.804	139.44
470.023	150.44
470.243	142.44
470.462	124.44
470.681	145.44
470.901	123.44
471.12	129.44
471.339	154.44
471.558	142.44
471.777	145.44
471.997	127.44
472.216	120.44
472.435	126.44
472.654	103.44
472.873	113.44
473.092	109.44
473.311	122.44
473.53	123.44
473.749	117.44
473.968	143.44
474.187	118.44
474.406	112.44
474.625	123.44
474.844	139.44
475.063	135.44
475.282	135.44
475.501	128.44
475.72	122.44
475.939	123.44
476.158	140.44
476.377	132.44
476.596	122.44
476.814	114.44
477.033	91.44
477.252	104.44
477.471	109.44
477.69	136.44
477.908	151.44
478.127	137.44
478.346	133.44
478.564	152.44
478.783	121.44
479.002	142.44
479.22	145.44
479.439	140.44
479.658	140.44
479.876	119.44
480.095	119.44
480.313	129.44
480.532	120.44
480.751	121.44
480.969	88.44
481.188	86.44
481.406	85.44
481.624	90.44
481.843	94.44
482.061	96.44
482.28	114.44
482.498	121.44
482.717	123.44
482.935	117.44
483.153	144.44
483.372	147.44
483.59	163.44
483.808	129.44
484.027	155.44
484.245	134.44
484.463	146.44
484.681	165.44
484.9	139.44
485.118	139.44
485.336	123.44
485.554	109.44
485.772	111.44
485.99	119.44
486.209	119.44
486.427	126.44
486.645	112.44
486.863	138.44
487.081	151.44
487.299	145.44
487.517	150.44
487.735	173.44
487.953	182.44
488.171	198.44
488.389	188.44
488.607	166.44
488.825	161.44
489.043	148.44
489.261	147.44
489.479	147.44
489.696	144.44
489.914	133.44
490.132	157.44
490.35	152.44
490.568	171.44
490.786	174.44
491.003	191.44
491.221	183.44
491.439	180.44
491.657	204.44
491.874	204.44
492.092	226.44
492.31	251.44
492.527	239.44
492.745	217.44
492.963	200.44
493.18	187.44
493.398	193.44
493.615	181.44
493.833	175.44
494.05	171.44
494.268	189.44
494.485	179.44
494.703	187.44
494.92	176.44
495.138	168.44
495.355	163.44
495.573	173.44
495.79	168.44
496.008	169.44
496.225	171.44
496.442	157.44
496.66	179.44
496.877	170.44
497.094	157.44
497.312	182.44
497.529	166.44
497.746	147.44
497.963	152.44
498.181	136.44
498.398	126.44
498.615	120.44
498.832	109.44
499.049	123.44
499.267	119.44
499.484	120.44
499.701	142.44
499.918	149.44
500.135	147.44
500.352	138.44
500.569	162.44
500.786	138.44
501.003	144.44
501.22	128.44
501.437	132.44
501.654	133.44
501.871	128.44
502.088	134.44
502.305	149.44
502.522	118.44
502.739	128.44
502.956	134.44
503.172	123.44
503.389	140.44
503.606	131.44
503.823	127.44
504.04	127.44
504.256	105.44
504.473	110.44
504.69	123.44
504.907	125.44
505.123	133.44
505.34	124.44
505.557	139.44
505.773	121.44
505.99	116.44
506.207	127.44
506.423	124.44
506.64	130.44
506.856	102.44
507.073	122.44
507.289	127.44
507.506	122.44
507.722	117.44
507.939	116.44
508.155	127.44
508.372	112.44
508.588	119.44
508.805	125.44
509.021	111.44
509.238	95.44
509.454	99.44
509.67	101.44
509.887	106.44
510.103	91.44
510.319	99.44
510.536	88.44
510.752	75.44
510.968	95.44
511.184	91.44
511.401	77.44
511.617	98.44
511.833	95.44
