Data from Location6.07152019.Energy5.Lamp.07192019.3%Agarose_HRD10591_16-13-09-395.txt Node
Date: Fri Jul 19 16:13:09 EDT 2019
User: cochatt
Spectrometer: HR+D1059
Trigger mode: 1
Integration Time (sec): 1.000000E-1
Scans to average: 1
Electric dark correction enabled: true
Nonlinearity correction enabled: false
Boxcar width: 0
XAxis mode: Wavelengths
Number of Pixels in Spectrum: 2048
>>>>>Begin Spectral Data<<<<<
223.165	-12.69
223.4	-12.69
223.635	-12.69
223.869	-2.69
224.104	-17.69
224.338	-6.69
224.573	-21.69
224.808	-8.69
225.042	-9.69
225.277	-3.69
225.511	-0.69
225.746	-3.69
225.98	4.31
226.215	18.31
226.449	28.31
226.683	8.31
226.918	8.31
227.152	20.31
227.387	20.31
227.621	41.31
227.856	35.31
228.09	32.31
228.324	60.31
228.559	60.31
228.793	63.31
229.027	60.31
229.262	64.31
229.496	62.31
229.73	71.31
229.964	71.31
230.199	72.31
230.433	77.31
230.667	77.31
230.901	76.31
231.136	78.31
231.37	79.31
231.604	74.31
231.838	80.31
232.072	72.31
232.306	82.31
232.541	76.31
232.775	80.31
233.009	88.31
233.243	69.31
233.477	82.31
233.711	84.31
233.945	84.31
234.179	75.31
234.413	75.31
234.647	74.31
234.881	71.31
235.115	72.31
235.349	73.31
235.583	88.31
235.817	78.31
236.051	78.31
236.285	91.31
236.519	84.31
236.753	68.31
236.987	75.31
237.221	80.31
237.455	74.31
237.689	76.31
237.922	96.31
238.156	81.31
238.39	85.31
238.624	80.31
238.858	64.31
239.091	91.31
239.325	77.31
239.559	82.31
239.793	89.31
240.027	80.31
240.26	82.31
240.494	91.31
240.728	68.31
240.961	75.31
241.195	68.31
241.429	66.31
241.662	81.31
241.896	85.31
242.13	78.31
242.363	82.31
242.597	73.31
242.83	80.31
243.064	72.31
243.298	72.31
243.531	65.31
243.765	91.31
243.998	84.31
244.232	80.31
244.465	87.31
244.699	66.31
244.932	65.31
245.166	75.31
245.399	79.31
245.633	76.31
245.866	93.31
246.099	76.31
246.333	77.31
246.566	73.31
246.8	74.31
247.033	72.31
247.266	94.31
247.5	72.31
247.733	80.31
247.966	71.31
248.2	78.31
248.433	74.31
248.666	65.31
248.899	61.31
249.133	78.31
249.366	88.31
249.599	74.31
249.832	78.31
250.066	91.31
250.299	83.31
250.532	85.31
250.765	84.31
250.998	73.31
251.231	85.31
251.465	65.31
251.698	76.31
251.931	75.31
252.164	84.31
252.397	75.31
252.63	55.31
252.863	82.31
253.096	80.31
253.329	90.31
253.562	100.31
253.795	78.31
254.028	78.31
254.261	74.31
254.494	80.31
254.727	96.31
254.96	92.31
255.193	72.31
255.426	68.31
255.659	78.31
255.892	93.31
256.124	86.31
256.357	90.31
256.59	82.31
256.823	87.31
257.056	83.31
257.289	75.31
257.521	78.31
257.754	75.31
257.987	85.31
258.22	82.31
258.452	76.31
258.685	70.31
258.918	84.31
259.151	98.31
259.383	76.31
259.616	88.31
259.849	59.31
260.081	101.31
260.314	77.31
260.547	81.31
260.779	75.31
261.012	83.31
261.244	71.31
261.477	86.31
261.71	86.31
261.942	78.31
262.175	84.31
262.407	83.31
262.64	75.31
262.872	88.31
263.105	75.31
263.337	82.31
263.57	80.31
263.802	83.31
264.035	77.31
264.267	67.31
264.499	95.31
264.732	93.31
264.964	82.31
265.197	89.31
265.429	90.31
265.661	91.31
265.894	93.31
266.126	86.31
266.358	88.31
266.591	89.31
266.823	81.31
267.055	87.31
267.287	96.31
267.52	93.31
267.752	91.31
267.984	90.31
268.216	71.31
268.448	96.31
268.681	86.31
268.913	79.31
269.145	83.31
269.377	89.31
269.609	86.31
269.841	69.31
270.073	79.31
270.306	88.31
270.538	70.31
270.77	83.31
271.002	80.31
271.234	88.31
271.466	94.31
271.698	90.31
271.93	88.31
272.162	90.31
272.394	86.31
272.626	89.31
272.858	86.31
273.09	84.31
273.322	86.31
273.553	77.31
273.785	77.31
274.017	89.31
274.249	89.31
274.481	84.31
274.713	80.31
274.945	73.31
275.176	87.31
275.408	88.31
275.64	79.31
275.872	87.31
276.104	74.31
276.335	76.31
276.567	96.31
276.799	86.31
277.031	63.31
277.262	86.31
277.494	83.31
277.726	83.31
277.957	78.31
278.189	68.31
278.421	79.31
278.652	80.31
278.884	96.31
279.115	85.31
279.347	80.31
279.579	87.31
279.81	89.31
280.042	89.31
280.273	89.31
280.505	83.31
280.736	105.31
280.968	81.31
281.199	87.31
281.431	85.31
281.662	93.31
281.894	93.31
282.125	76.31
282.356	76.31
282.588	75.31
282.819	76.31
283.051	82.31
283.282	106.31
283.513	100.31
283.745	86.31
283.976	78.31
284.207	84.31
284.439	86.31
284.67	81.31
284.901	77.31
285.132	86.31
285.364	93.31
285.595	88.31
285.826	86.31
286.057	82.31
286.288	80.31
286.52	89.31
286.751	85.31
286.982	79.31
287.213	83.31
287.444	77.31
287.675	82.31
287.906	89.31
288.138	91.31
288.369	80.31
288.6	84.31
288.831	86.31
289.062	88.31
289.293	105.31
289.524	78.31
289.755	62.31
289.986	86.31
290.217	84.31
290.448	97.31
290.679	97.31
290.91	84.31
291.141	84.31
291.371	87.31
291.602	75.31
291.833	87.31
292.064	83.31
292.295	74.31
292.526	88.31
292.757	94.31
292.987	97.31
293.218	93.31
293.449	91.31
293.68	66.31
293.91	84.31
294.141	71.31
294.372	89.31
294.603	79.31
294.833	75.31
295.064	84.31
295.295	92.31
295.525	90.31
295.756	94.31
295.987	76.31
296.217	97.31
296.448	76.31
296.679	77.31
296.909	76.31
297.14	83.31
297.37	68.31
297.601	78.31
297.831	75.31
298.062	83.31
298.292	88.31
298.523	78.31
298.753	93.31
298.984	91.31
299.214	93.31
299.445	91.31
299.675	82.31
299.905	81.31
300.136	101.31
300.366	98.31
300.597	76.31
300.827	84.31
301.057	84.31
301.288	85.31
301.518	81.31
301.748	75.31
301.979	89.31
302.209	82.31
302.439	86.31
302.669	72.31
302.9	79.31
303.13	81.31
303.36	94.31
303.59	86.31
303.82	84.31
304.051	64.31
304.281	93.31
304.511	103.31
304.741	77.31
304.971	88.31
305.201	87.31
305.431	87.31
305.661	82.31
305.891	77.31
306.121	96.31
306.352	75.31
306.582	101.31
306.812	79.31
307.042	78.31
307.272	83.31
307.502	97.31
307.731	95.31
307.961	85.31
308.191	92.31
308.421	87.31
308.651	74.31
308.881	95.31
309.111	90.31
309.341	79.31
309.571	101.31
309.8	98.31
310.03	78.31
310.26	80.31
310.49	79.31
310.72	85.31
310.949	83.31
311.179	82.31
311.409	93.31
311.639	84.31
311.868	85.31
312.098	90.31
312.328	92.31
312.557	84.31
312.787	70.31
313.017	78.31
313.246	90.31
313.476	84.31
313.706	82.31
313.935	83.31
314.165	87.31
314.394	69.31
314.624	82.31
314.853	93.31
315.083	82.31
315.312	94.31
315.542	81.31
315.771	88.31
316.001	76.31
316.23	78.31
316.46	91.31
316.689	80.31
316.919	84.31
317.148	93.31
317.377	95.31
317.607	80.31
317.836	77.31
318.065	92.31
318.295	91.31
318.524	89.31
318.753	78.31
318.983	77.31
319.212	88.31
319.441	85.31
319.67	80.31
319.9	89.31
320.129	85.31
320.358	81.31
320.587	87.31
320.816	75.31
321.046	79.31
321.275	73.31
321.504	94.31
321.733	81.31
321.962	70.31
322.191	88.31
322.42	85.31
322.649	101.31
322.878	82.31
323.108	99.31
323.337	92.31
323.566	88.31
323.795	95.31
324.024	89.31
324.253	85.31
324.482	91.31
324.71	95.31
324.939	93.31
325.168	92.31
325.397	86.31
325.626	77.31
325.855	86.31
326.084	93.31
326.313	96.31
326.542	88.31
326.77	72.31
326.999	92.31
327.228	77.31
327.457	69.31
327.686	77.31
327.914	77.31
328.143	85.31
328.372	95.31
328.6	65.31
328.829	85.31
329.058	93.31
329.287	90.31
329.515	106.31
329.744	93.31
329.972	75.31
330.201	94.31
330.43	79.31
330.658	84.31
330.887	97.31
331.115	76.31
331.344	88.31
331.572	82.31
331.801	84.31
332.03	92.31
332.258	88.31
332.486	83.31
332.715	93.31
332.943	70.31
333.172	86.31
333.4	88.31
333.629	94.31
333.857	107.31
334.085	84.31
334.314	84.31
334.542	101.31
334.771	81.31
334.999	78.31
335.227	74.31
335.455	82.31
335.684	82.31
335.912	86.31
336.14	68.31
336.369	87.31
336.597	82.31
336.825	98.31
337.053	73.31
337.281	79.31
337.51	89.31
337.738	91.31
337.966	89.31
338.194	94.31
338.422	83.31
338.65	78.31
338.878	82.31
339.106	87.31
339.334	98.31
339.562	86.31
339.79	96.31
340.018	95.31
340.246	84.31
340.474	86.31
340.702	85.31
340.93	73.31
341.158	80.31
341.386	75.31
341.614	84.31
341.842	84.31
342.07	85.31
342.298	97.31
342.526	98.31
342.754	87.31
342.981	82.31
343.209	82.31
343.437	99.31
343.665	91.31
343.893	86.31
344.12	82.31
344.348	91.31
344.576	78.31
344.804	84.31
345.031	76.31
345.259	71.31
345.487	82.31
345.714	88.31
345.942	74.31
346.17	93.31
346.397	79.31
346.625	83.31
346.853	90.31
347.08	80.31
347.308	93.31
347.535	92.31
347.763	83.31
347.99	90.31
348.218	84.31
348.445	91.31
348.673	82.31
348.9	98.31
349.128	93.31
349.355	92.31
349.583	87.31
349.81	92.31
350.037	92.31
350.265	91.31
350.492	94.31
350.72	91.31
350.947	85.31
351.174	84.31
351.402	80.31
351.629	82.31
351.856	84.31
352.083	83.31
352.311	91.31
352.538	87.31
352.765	103.31
352.992	95.31
353.22	69.31
353.447	85.31
353.674	82.31
353.901	94.31
354.128	87.31
354.355	81.31
354.583	83.31
354.81	84.31
355.037	85.31
355.264	78.31
355.491	85.31
355.718	94.31
355.945	83.31
356.172	94.31
356.399	97.31
356.626	88.31
356.853	86.31
357.08	99.31
357.307	90.31
357.534	85.31
357.761	89.31
357.988	86.31
358.215	89.31
358.441	80.31
358.668	85.31
358.895	96.31
359.122	77.31
359.349	88.31
359.576	83.31
359.802	80.31
360.029	96.31
360.256	70.31
360.483	90.31
360.709	89.31
360.936	95.31
361.163	62.31
361.39	88.31
361.616	88.31
361.843	94.31
362.07	83.31
362.296	85.31
362.523	80.31
362.749	84.31
362.976	94.31
363.203	85.31
363.429	84.31
363.656	76.31
363.882	90.31
364.109	90.31
364.335	102.31
364.562	90.31
364.788	98.31
365.015	72.31
365.241	94.31
365.468	91.31
365.694	82.31
365.92	82.31
366.147	89.31
366.373	82.31
366.599	90.31
366.826	88.31
367.052	87.31
367.278	92.31
367.505	79.31
367.731	96.31
367.957	108.31
368.184	89.31
368.41	88.31
368.636	97.31
368.862	93.31
369.089	97.31
369.315	85.31
369.541	112.31
369.767	92.31
369.993	89.31
370.219	88.31
370.445	85.31
370.672	88.31
370.898	104.31
371.124	95.31
371.35	78.31
371.576	101.31
371.802	94.31
372.028	94.31
372.254	98.31
372.48	102.31
372.706	89.31
372.932	104.31
373.158	98.31
373.384	96.31
373.61	87.31
373.835	92.31
374.061	96.31
374.287	97.31
374.513	97.31
374.739	91.31
374.965	84.31
375.191	97.31
375.416	92.31
375.642	86.31
375.868	96.31
376.094	101.31
376.319	92.31
376.545	90.31
376.771	99.31
376.997	93.31
377.222	98.31
377.448	94.31
377.674	92.31
377.899	96.31
378.125	103.31
378.35	95.31
378.576	89.31
378.802	88.31
379.027	107.31
379.253	100.31
379.478	102.31
379.704	96.31
379.929	88.31
380.155	89.31
380.38	104.31
380.606	97.31
380.831	88.31
381.057	106.31
381.282	105.31
381.507	102.31
381.733	98.31
381.958	92.31
382.184	97.31
382.409	97.31
382.634	99.31
382.86	124.31
383.085	102.31
383.31	93.31
383.535	95.31
383.761	109.31
383.986	92.31
384.211	94.31
384.436	101.31
384.662	102.31
384.887	80.31
385.112	98.31
385.337	100.31
385.562	106.31
385.787	88.31
386.013	106.31
386.238	105.31
386.463	87.31
386.688	103.31
386.913	92.31
387.138	91.31
387.363	100.31
387.588	108.31
387.813	116.31
388.038	114.31
388.263	109.31
388.488	103.31
388.713	113.31
388.938	101.31
389.163	115.31
389.387	102.31
389.612	108.31
389.837	103.31
390.062	99.31
390.287	106.31
390.512	103.31
390.736	100.31
390.961	93.31
391.186	102.31
391.411	105.31
391.636	105.31
391.86	114.31
392.085	111.31
392.31	113.31
392.534	112.31
392.759	125.31
392.984	115.31
393.208	109.31
393.433	100.31
393.658	103.31
393.882	117.31
394.107	126.31
394.331	118.31
394.556	122.31
394.78	106.31
395.005	120.31
395.229	115.31
395.454	97.31
395.678	116.31
395.903	116.31
396.127	99.31
396.352	114.31
396.576	117.31
396.801	117.31
397.025	101.31
397.249	107.31
397.474	100.31
397.698	118.31
397.922	109.31
398.147	107.31
398.371	105.31
398.595	112.31
398.82	106.31
399.044	104.31
399.268	118.31
399.492	113.31
399.717	125.31
399.941	112.31
400.165	115.31
400.389	112.31
400.613	106.31
400.837	112.31
401.062	110.31
401.286	114.31
401.51	125.31
401.734	114.31
401.958	118.31
402.182	110.31
402.406	121.31
402.63	110.31
402.854	141.31
403.078	114.31
403.302	123.31
403.526	109.31
403.75	129.31
403.974	129.31
404.198	141.31
404.422	114.31
404.645	117.31
404.869	133.31
405.093	133.31
405.317	124.31
405.541	119.31
405.765	98.31
405.988	112.31
406.212	128.31
406.436	113.31
406.66	145.31
406.883	122.31
407.107	116.31
407.331	112.31
407.555	117.31
407.778	130.31
408.002	117.31
408.226	128.31
408.449	118.31
408.673	127.31
408.896	119.31
409.12	123.31
409.344	125.31
409.567	131.31
409.791	126.31
410.014	138.31
410.238	137.31
410.461	122.31
410.685	126.31
410.908	129.31
411.132	121.31
411.355	132.31
411.578	124.31
411.802	124.31
412.025	108.31
412.249	118.31
412.472	120.31
412.695	142.31
412.919	130.31
413.142	114.31
413.365	115.31
413.589	125.31
413.812	124.31
414.035	121.31
414.258	122.31
414.482	129.31
414.705	127.31
414.928	128.31
415.151	141.31
415.374	128.31
415.597	116.31
415.821	129.31
416.044	132.31
416.267	150.31
416.49	133.31
416.713	122.31
416.936	123.31
417.159	132.31
417.382	139.31
417.605	124.31
417.828	136.31
418.051	140.31
418.274	126.31
418.497	123.31
418.72	140.31
418.943	155.31
419.166	144.31
419.389	140.31
419.611	148.31
419.834	153.31
420.057	127.31
420.28	141.31
420.503	143.31
420.726	140.31
420.948	155.31
421.171	133.31
421.394	145.31
421.617	141.31
421.839	144.31
422.062	130.31
422.285	152.31
422.507	124.31
422.73	125.31
422.953	132.31
423.175	130.31
423.398	135.31
423.621	139.31
423.843	140.31
424.066	136.31
424.288	142.31
424.511	146.31
424.733	136.31
424.956	155.31
425.178	149.31
425.401	141.31
425.623	146.31
425.846	137.31
426.068	142.31
426.291	141.31
426.513	138.31
426.735	128.31
426.958	106.31
427.18	142.31
427.402	138.31
427.625	137.31
427.847	127.31
428.069	132.31
428.292	132.31
428.514	133.31
428.736	136.31
428.958	133.31
429.181	134.31
429.403	138.31
429.625	135.31
429.847	139.31
430.069	123.31
430.292	135.31
430.514	133.31
430.736	117.31
430.958	134.31
431.18	141.31
431.402	128.31
431.624	138.31
431.846	114.31
432.068	94.31
432.29	105.31
432.512	106.31
432.734	128.31
432.956	140.31
433.178	134.31
433.4	125.31
433.622	159.31
433.844	144.31
434.066	129.31
434.287	112.31
434.509	96.31
434.731	98.31
434.953	122.31
435.175	132.31
435.397	116.31
435.618	121.31
435.84	121.31
436.062	120.31
436.284	150.31
436.505	126.31
436.727	131.31
436.949	118.31
437.17	148.31
437.392	143.31
437.614	118.31
437.835	121.31
438.057	113.31
438.278	117.31
438.5	141.31
438.721	135.31
438.943	135.31
439.165	133.31
439.386	149.31
439.608	135.31
439.829	137.31
440.05	147.31
440.272	168.31
440.493	148.31
440.715	147.31
440.936	133.31
441.158	148.31
441.379	154.31
441.6	155.31
441.822	160.31
442.043	149.31
442.264	140.31
442.486	157.31
442.707	156.31
442.928	142.31
443.149	151.31
443.371	147.31
443.592	145.31
443.813	135.31
444.034	148.31
444.255	150.31
444.476	149.31
444.698	143.31
444.919	147.31
445.14	293.31
445.361	222.31
445.582	170.31
445.803	142.31
446.024	151.31
446.245	144.31
446.466	168.31
446.687	162.31
446.908	171.31
447.129	166.31
447.35	167.31
447.571	154.31
447.792	141.31
448.013	152.31
448.234	151.31
448.455	148.31
448.675	150.31
448.896	154.31
449.117	143.31
449.338	153.31
449.559	143.31
449.779	143.31
450	138.31
450.221	146.31
450.442	151.31
450.662	137.31
450.883	146.31
451.104	126.31
451.324	140.31
451.545	153.31
451.766	158.31
451.986	136.31
452.207	129.31
452.428	136.31
452.648	129.31
452.869	119.31
453.089	122.31
453.31	132.31
453.53	115.31
453.751	92.31
453.971	110.31
454.192	116.31
454.412	124.31
454.633	112.31
454.853	127.31
455.073	123.31
455.294	133.31
455.514	132.31
455.734	120.31
455.955	108.31
456.175	116.31
456.395	118.31
456.616	110.31
456.836	108.31
457.056	106.31
457.276	95.31
457.497	123.31
457.717	121.31
457.937	110.31
458.157	101.31
458.377	105.31
458.598	105.31
458.818	84.31
459.038	88.31
459.258	91.31
459.478	95.31
459.698	85.31
459.918	93.31
460.138	101.31
460.358	117.31
460.578	111.31
460.798	132.31
461.018	120.31
461.238	121.31
461.458	123.31
461.678	124.31
461.898	122.31
462.118	125.31
462.338	108.31
462.558	114.31
462.777	113.31
462.997	123.31
463.217	114.31
463.437	105.31
463.657	100.31
463.876	114.31
464.096	110.31
464.316	130.31
464.536	132.31
464.755	123.31
464.975	128.31
465.195	132.31
465.414	121.31
465.634	112.31
465.854	125.31
466.073	128.31
466.293	123.31
466.512	147.31
466.732	131.31
466.951	149.31
467.171	156.31
467.391	137.31
467.61	146.31
467.829	140.31
468.049	136.31
468.268	145.31
468.488	129.31
468.707	145.31
468.927	144.31
469.146	143.31
469.365	156.31
469.585	154.31
469.804	128.31
470.023	136.31
470.243	143.31
470.462	161.31
470.681	160.31
470.901	138.31
471.12	134.31
471.339	156.31
471.558	141.31
471.777	156.31
471.997	138.31
472.216	132.31
472.435	117.31
472.654	109.31
472.873	121.31
473.092	142.31
473.311	141.31
473.53	133.31
473.749	127.31
473.968	146.31
474.187	130.31
474.406	128.31
474.625	123.31
474.844	131.31
475.063	146.31
475.282	131.31
475.501	112.31
475.72	132.31
475.939	126.31
476.158	145.31
476.377	146.31
476.596	124.31
476.814	115.31
477.033	105.31
477.252	120.31
477.471	126.31
477.69	137.31
477.908	132.31
478.127	139.31
478.346	136.31
478.564	144.31
478.783	140.31
479.002	135.31
479.22	134.31
479.439	149.31
479.658	115.31
479.876	118.31
480.095	124.31
480.313	127.31
480.532	129.31
480.751	122.31
480.969	105.31
481.188	92.31
481.406	92.31
481.624	95.31
481.843	84.31
482.061	98.31
482.28	114.31
482.498	116.31
482.717	132.31
482.935	121.31
483.153	144.31
483.372	162.31
483.59	143.31
483.808	158.31
484.027	137.31
484.245	149.31
484.463	166.31
484.681	192.31
484.9	150.31
485.118	140.31
485.336	127.31
485.554	114.31
485.772	106.31
485.99	115.31
486.209	121.31
486.427	110.31
486.645	128.31
486.863	140.31
487.081	153.31
487.299	140.31
487.517	159.31
487.735	171.31
487.953	211.31
488.171	200.31
488.389	191.31
488.607	181.31
488.825	152.31
489.043	134.31
489.261	138.31
489.479	152.31
489.696	161.31
489.914	150.31
490.132	144.31
490.35	165.31
490.568	173.31
490.786	162.31
491.003	188.31
491.221	184.31
491.439	209.31
491.657	201.31
491.874	202.31
492.092	235.31
492.31	255.31
492.527	240.31
492.745	215.31
492.963	207.31
493.18	196.31
493.398	198.31
493.615	197.31
493.833	171.31
494.05	185.31
494.268	196.31
494.485	187.31
494.703	186.31
494.92	170.31
495.138	186.31
495.355	192.31
495.573	189.31
495.79	180.31
496.008	198.31
496.225	190.31
496.442	179.31
496.66	183.31
496.877	168.31
497.094	182.31
497.312	152.31
497.529	161.31
497.746	161.31
497.963	156.31
498.181	132.31
498.398	128.31
498.615	138.31
498.832	128.31
499.049	112.31
499.267	113.31
499.484	130.31
499.701	138.31
499.918	130.31
500.135	151.31
500.352	164.31
500.569	163.31
500.786	157.31
501.003	146.31
501.22	149.31
501.437	134.31
501.654	138.31
501.871	146.31
502.088	126.31
502.305	136.31
502.522	118.31
502.739	129.31
502.956	124.31
503.172	121.31
503.389	122.31
503.606	124.31
503.823	122.31
504.04	123.31
504.256	134.31
504.473	127.31
504.69	126.31
504.907	120.31
505.123	122.31
505.34	131.31
505.557	136.31
505.773	142.31
505.99	125.31
506.207	130.31
506.423	132.31
506.64	136.31
506.856	132.31
507.073	117.31
507.289	120.31
507.506	125.31
507.722	134.31
507.939	125.31
508.155	118.31
508.372	123.31
508.588	110.31
508.805	108.31
509.021	89.31
509.238	105.31
509.454	93.31
509.67	104.31
509.887	100.31
510.103	80.31
510.319	86.31
510.536	103.31
510.752	82.31
510.968	93.31
511.184	78.31
