Data from Location6.07152019.Energy5.Lamp.07192019.3%Agarose_HRD10591_16-11-47-394.txt Node
Date: Fri Jul 19 16:11:47 EDT 2019
User: cochatt
Spectrometer: HR+D1059
Trigger mode: 1
Integration Time (sec): 1.000000E-1
Scans to average: 1
Electric dark correction enabled: true
Nonlinearity correction enabled: false
Boxcar width: 0
XAxis mode: Wavelengths
Number of Pixels in Spectrum: 2048
>>>>>Begin Spectral Data<<<<<
223.165	-3.88
223.4	-3.88
223.635	-3.88
223.869	-19.88
224.104	-17.88
224.338	-4.88
224.573	-23.88
224.808	-9.88
225.042	-11.88
225.277	-11.88
225.511	-9.88
225.746	13.12
225.98	12.12
226.215	20.12
226.449	5.12
226.683	7.12
226.918	23.12
227.152	33.12
227.387	40.12
227.621	39.12
227.856	41.12
228.09	61.12
228.324	53.12
228.559	58.12
228.793	62.12
229.027	56.12
229.262	65.12
229.496	61.12
229.73	69.12
229.964	65.12
230.199	84.12
230.433	69.12
230.667	66.12
230.901	67.12
231.136	83.12
231.37	87.12
231.604	99.12
231.838	75.12
232.072	95.12
232.306	83.12
232.541	92.12
232.775	90.12
233.009	80.12
233.243	91.12
233.477	95.12
233.711	80.12
233.945	89.12
234.179	108.12
234.413	79.12
234.647	87.12
234.881	91.12
235.115	76.12
235.349	86.12
235.583	85.12
235.817	93.12
236.051	84.12
236.285	96.12
236.519	85.12
236.753	76.12
236.987	69.12
237.221	69.12
237.455	90.12
237.689	92.12
237.922	91.12
238.156	89.12
238.39	87.12
238.624	90.12
238.858	75.12
239.091	78.12
239.325	81.12
239.559	89.12
239.793	78.12
240.027	73.12
240.26	68.12
240.494	73.12
240.728	76.12
240.961	76.12
241.195	84.12
241.429	84.12
241.662	80.12
241.896	83.12
242.13	63.12
242.363	90.12
242.597	75.12
242.83	82.12
243.064	91.12
243.298	82.12
243.531	92.12
243.765	76.12
243.998	84.12
244.232	79.12
244.465	94.12
244.699	79.12
244.932	72.12
245.166	73.12
245.399	79.12
245.633	83.12
245.866	80.12
246.099	75.12
246.333	70.12
246.566	63.12
246.8	80.12
247.033	83.12
247.266	75.12
247.5	66.12
247.733	63.12
247.966	89.12
248.2	77.12
248.433	89.12
248.666	77.12
248.899	80.12
249.133	94.12
249.366	91.12
249.599	85.12
249.832	71.12
250.066	90.12
250.299	87.12
250.532	89.12
250.765	74.12
250.998	86.12
251.231	93.12
251.465	93.12
251.698	78.12
251.931	96.12
252.164	87.12
252.397	86.12
252.63	89.12
252.863	73.12
253.096	89.12
253.329	77.12
253.562	94.12
253.795	95.12
254.028	74.12
254.261	75.12
254.494	90.12
254.727	87.12
254.96	90.12
255.193	89.12
255.426	84.12
255.659	67.12
255.892	74.12
256.124	79.12
256.357	89.12
256.59	89.12
256.823	87.12
257.056	78.12
257.289	72.12
257.521	85.12
257.754	82.12
257.987	88.12
258.22	95.12
258.452	91.12
258.685	82.12
258.918	79.12
259.151	83.12
259.383	89.12
259.616	94.12
259.849	88.12
260.081	83.12
260.314	95.12
260.547	75.12
260.779	95.12
261.012	78.12
261.244	85.12
261.477	75.12
261.71	81.12
261.942	82.12
262.175	79.12
262.407	85.12
262.64	91.12
262.872	83.12
263.105	80.12
263.337	98.12
263.57	101.12
263.802	71.12
264.035	76.12
264.267	76.12
264.499	73.12
264.732	89.12
264.964	79.12
265.197	73.12
265.429	76.12
265.661	94.12
265.894	75.12
266.126	93.12
266.358	91.12
266.591	92.12
266.823	84.12
267.055	85.12
267.287	85.12
267.52	85.12
267.752	89.12
267.984	76.12
268.216	79.12
268.448	105.12
268.681	93.12
268.913	86.12
269.145	102.12
269.377	96.12
269.609	85.12
269.841	69.12
270.073	93.12
270.306	98.12
270.538	77.12
270.77	86.12
271.002	95.12
271.234	86.12
271.466	83.12
271.698	81.12
271.93	79.12
272.162	94.12
272.394	75.12
272.626	89.12
272.858	85.12
273.09	76.12
273.322	85.12
273.553	83.12
273.785	83.12
274.017	78.12
274.249	79.12
274.481	79.12
274.713	83.12
274.945	76.12
275.176	77.12
275.408	101.12
275.64	84.12
275.872	72.12
276.104	83.12
276.335	93.12
276.567	99.12
276.799	83.12
277.031	78.12
277.262	80.12
277.494	80.12
277.726	85.12
277.957	88.12
278.189	97.12
278.421	95.12
278.652	74.12
278.884	85.12
279.115	83.12
279.347	85.12
279.579	78.12
279.81	84.12
280.042	100.12
280.273	97.12
280.505	69.12
280.736	77.12
280.968	79.12
281.199	86.12
281.431	76.12
281.662	93.12
281.894	75.12
282.125	100.12
282.356	91.12
282.588	88.12
282.819	79.12
283.051	82.12
283.282	91.12
283.513	94.12
283.745	75.12
283.976	84.12
284.207	105.12
284.439	84.12
284.67	91.12
284.901	80.12
285.132	77.12
285.364	100.12
285.595	77.12
285.826	92.12
286.057	87.12
286.288	85.12
286.52	81.12
286.751	90.12
286.982	91.12
287.213	75.12
287.444	85.12
287.675	82.12
287.906	75.12
288.138	96.12
288.369	86.12
288.6	92.12
288.831	96.12
289.062	78.12
289.293	74.12
289.524	79.12
289.755	68.12
289.986	83.12
290.217	82.12
290.448	89.12
290.679	84.12
290.91	82.12
291.141	74.12
291.371	77.12
291.602	82.12
291.833	77.12
292.064	86.12
292.295	90.12
292.526	82.12
292.757	94.12
292.987	99.12
293.218	79.12
293.449	85.12
293.68	97.12
293.91	85.12
294.141	78.12
294.372	90.12
294.603	84.12
294.833	95.12
295.064	86.12
295.295	87.12
295.525	87.12
295.756	98.12
295.987	81.12
296.217	90.12
296.448	77.12
296.679	93.12
296.909	85.12
297.14	83.12
297.37	99.12
297.601	82.12
297.831	92.12
298.062	85.12
298.292	86.12
298.523	82.12
298.753	97.12
298.984	87.12
299.214	75.12
299.445	91.12
299.675	80.12
299.905	86.12
300.136	100.12
300.366	92.12
300.597	76.12
300.827	95.12
301.057	79.12
301.288	83.12
301.518	73.12
301.748	94.12
301.979	83.12
302.209	86.12
302.439	88.12
302.669	89.12
302.9	84.12
303.13	77.12
303.36	89.12
303.59	93.12
303.82	76.12
304.051	77.12
304.281	91.12
304.511	92.12
304.741	87.12
304.971	97.12
305.201	83.12
305.431	92.12
305.661	77.12
305.891	84.12
306.121	82.12
306.352	91.12
306.582	94.12
306.812	86.12
307.042	88.12
307.272	95.12
307.502	99.12
307.731	83.12
307.961	83.12
308.191	85.12
308.421	90.12
308.651	90.12
308.881	96.12
309.111	87.12
309.341	99.12
309.571	90.12
309.8	81.12
310.03	83.12
310.26	74.12
310.49	89.12
310.72	88.12
310.949	84.12
311.179	93.12
311.409	86.12
311.639	78.12
311.868	76.12
312.098	73.12
312.328	81.12
312.557	81.12
312.787	77.12
313.017	89.12
313.246	97.12
313.476	93.12
313.706	97.12
313.935	85.12
314.165	83.12
314.394	86.12
314.624	81.12
314.853	83.12
315.083	84.12
315.312	74.12
315.542	81.12
315.771	89.12
316.001	91.12
316.23	87.12
316.46	88.12
316.689	99.12
316.919	92.12
317.148	77.12
317.377	87.12
317.607	93.12
317.836	82.12
318.065	85.12
318.295	88.12
318.524	100.12
318.753	102.12
318.983	95.12
319.212	97.12
319.441	87.12
319.67	93.12
319.9	80.12
320.129	76.12
320.358	89.12
320.587	90.12
320.816	86.12
321.046	81.12
321.275	96.12
321.504	81.12
321.733	72.12
321.962	78.12
322.191	81.12
322.42	112.12
322.649	87.12
322.878	85.12
323.108	88.12
323.337	99.12
323.566	86.12
323.795	84.12
324.024	92.12
324.253	88.12
324.482	69.12
324.71	81.12
324.939	98.12
325.168	82.12
325.397	93.12
325.626	90.12
325.855	91.12
326.084	86.12
326.313	89.12
326.542	84.12
326.77	90.12
326.999	99.12
327.228	78.12
327.457	93.12
327.686	93.12
327.914	97.12
328.143	79.12
328.372	97.12
328.6	102.12
328.829	69.12
329.058	99.12
329.287	90.12
329.515	81.12
329.744	98.12
329.972	87.12
330.201	89.12
330.43	86.12
330.658	88.12
330.887	90.12
331.115	92.12
331.344	87.12
331.572	78.12
331.801	100.12
332.03	87.12
332.258	82.12
332.486	86.12
332.715	89.12
332.943	85.12
333.172	85.12
333.4	95.12
333.629	104.12
333.857	102.12
334.085	84.12
334.314	88.12
334.542	89.12
334.771	88.12
334.999	86.12
335.227	84.12
335.455	89.12
335.684	91.12
335.912	86.12
336.14	86.12
336.369	86.12
336.597	104.12
336.825	89.12
337.053	99.12
337.281	86.12
337.51	79.12
337.738	84.12
337.966	89.12
338.194	83.12
338.422	79.12
338.65	95.12
338.878	84.12
339.106	75.12
339.334	91.12
339.562	75.12
339.79	81.12
340.018	80.12
340.246	83.12
340.474	81.12
340.702	82.12
340.93	86.12
341.158	82.12
341.386	91.12
341.614	92.12
341.842	86.12
342.07	89.12
342.298	99.12
342.526	90.12
342.754	92.12
342.981	86.12
343.209	69.12
343.437	90.12
343.665	86.12
343.893	90.12
344.12	108.12
344.348	95.12
344.576	78.12
344.804	88.12
345.031	78.12
345.259	79.12
345.487	85.12
345.714	92.12
345.942	85.12
346.17	87.12
346.397	91.12
346.625	89.12
346.853	82.12
347.08	95.12
347.308	105.12
347.535	89.12
347.763	90.12
347.99	96.12
348.218	90.12
348.445	83.12
348.673	83.12
348.9	95.12
349.128	84.12
349.355	101.12
349.583	85.12
349.81	76.12
350.037	89.12
350.265	103.12
350.492	83.12
350.72	99.12
350.947	85.12
351.174	93.12
351.402	82.12
351.629	89.12
351.856	82.12
352.083	102.12
352.311	90.12
352.538	61.12
352.765	96.12
352.992	87.12
353.22	83.12
353.447	107.12
353.674	79.12
353.901	98.12
354.128	81.12
354.355	95.12
354.583	94.12
354.81	97.12
355.037	70.12
355.264	98.12
355.491	96.12
355.718	78.12
355.945	82.12
356.172	87.12
356.399	71.12
356.626	81.12
356.853	78.12
357.08	109.12
357.307	88.12
357.534	86.12
357.761	93.12
357.988	84.12
358.215	79.12
358.441	78.12
358.668	87.12
358.895	97.12
359.122	91.12
359.349	80.12
359.576	89.12
359.802	88.12
360.029	83.12
360.256	87.12
360.483	78.12
360.709	93.12
360.936	84.12
361.163	105.12
361.39	83.12
361.616	80.12
361.843	82.12
362.07	96.12
362.296	88.12
362.523	85.12
362.749	76.12
362.976	94.12
363.203	98.12
363.429	86.12
363.656	84.12
363.882	76.12
364.109	73.12
364.335	84.12
364.562	91.12
364.788	83.12
365.015	82.12
365.241	92.12
365.468	98.12
365.694	92.12
365.92	82.12
366.147	97.12
366.373	93.12
366.599	99.12
366.826	86.12
367.052	86.12
367.278	99.12
367.505	105.12
367.731	90.12
367.957	100.12
368.184	111.12
368.41	98.12
368.636	90.12
368.862	101.12
369.089	89.12
369.315	86.12
369.541	102.12
369.767	81.12
369.993	99.12
370.219	99.12
370.445	96.12
370.672	104.12
370.898	90.12
371.124	86.12
371.35	93.12
371.576	107.12
371.802	96.12
372.028	85.12
372.254	86.12
372.48	82.12
372.706	95.12
372.932	97.12
373.158	98.12
373.384	93.12
373.61	92.12
373.835	85.12
374.061	88.12
374.287	93.12
374.513	104.12
374.739	106.12
374.965	77.12
375.191	89.12
375.416	104.12
375.642	91.12
375.868	94.12
376.094	98.12
376.319	91.12
376.545	103.12
376.771	103.12
376.997	101.12
377.222	95.12
377.448	94.12
377.674	86.12
377.899	100.12
378.125	101.12
378.35	93.12
378.576	88.12
378.802	92.12
379.027	102.12
379.253	94.12
379.478	96.12
379.704	109.12
379.929	100.12
380.155	104.12
380.38	92.12
380.606	89.12
380.831	95.12
381.057	94.12
381.282	103.12
381.507	100.12
381.733	104.12
381.958	89.12
382.184	96.12
382.409	102.12
382.634	104.12
382.86	100.12
383.085	96.12
383.31	97.12
383.535	118.12
383.761	97.12
383.986	96.12
384.211	102.12
384.436	97.12
384.662	106.12
384.887	97.12
385.112	110.12
385.337	96.12
385.562	94.12
385.787	103.12
386.013	100.12
386.238	97.12
386.463	106.12
386.688	105.12
386.913	106.12
387.138	94.12
387.363	102.12
387.588	105.12
387.813	96.12
388.038	111.12
388.263	113.12
388.488	113.12
388.713	107.12
388.938	111.12
389.163	86.12
389.387	116.12
389.612	115.12
389.837	106.12
390.062	109.12
390.287	116.12
390.512	107.12
390.736	95.12
390.961	108.12
391.186	103.12
391.411	103.12
391.636	104.12
391.86	107.12
392.085	117.12
392.31	110.12
392.534	107.12
392.759	103.12
392.984	109.12
393.208	111.12
393.433	121.12
393.658	121.12
393.882	104.12
394.107	101.12
394.331	119.12
394.556	126.12
394.78	114.12
395.005	123.12
395.229	113.12
395.454	103.12
395.678	109.12
395.903	125.12
396.127	124.12
396.352	116.12
396.576	104.12
396.801	105.12
397.025	120.12
397.249	110.12
397.474	117.12
397.698	122.12
397.922	113.12
398.147	126.12
398.371	110.12
398.595	119.12
398.82	108.12
399.044	113.12
399.268	107.12
399.492	125.12
399.717	117.12
399.941	120.12
400.165	130.12
400.389	114.12
400.613	114.12
400.837	126.12
401.062	110.12
401.286	117.12
401.51	115.12
401.734	111.12
401.958	121.12
402.182	108.12
402.406	124.12
402.63	108.12
402.854	121.12
403.078	121.12
403.302	108.12
403.526	119.12
403.75	118.12
403.974	118.12
404.198	129.12
404.422	113.12
404.645	119.12
404.869	113.12
405.093	116.12
405.317	126.12
405.541	139.12
405.765	104.12
405.988	131.12
406.212	125.12
406.436	134.12
406.66	135.12
406.883	121.12
407.107	120.12
407.331	106.12
407.555	128.12
407.778	133.12
408.002	131.12
408.226	113.12
408.449	122.12
408.673	117.12
408.896	118.12
409.12	115.12
409.344	124.12
409.567	122.12
409.791	125.12
410.014	123.12
410.238	139.12
410.461	144.12
410.685	124.12
410.908	129.12
411.132	129.12
411.355	138.12
411.578	116.12
411.802	126.12
412.025	130.12
412.249	141.12
412.472	123.12
412.695	131.12
412.919	132.12
413.142	135.12
413.365	124.12
413.589	133.12
413.812	116.12
414.035	137.12
414.258	133.12
414.482	131.12
414.705	133.12
414.928	126.12
415.151	153.12
415.374	132.12
415.597	127.12
415.821	137.12
416.044	134.12
416.267	138.12
416.49	135.12
416.713	136.12
416.936	137.12
417.159	135.12
417.382	137.12
417.605	134.12
417.828	123.12
418.051	125.12
418.274	134.12
418.497	151.12
418.72	138.12
418.943	133.12
419.166	139.12
419.389	138.12
419.611	137.12
419.834	142.12
420.057	147.12
420.28	158.12
420.503	141.12
420.726	128.12
420.948	148.12
421.171	138.12
421.394	152.12
421.617	149.12
421.839	142.12
422.062	151.12
422.285	132.12
422.507	133.12
422.73	138.12
422.953	129.12
423.175	148.12
423.398	137.12
423.621	144.12
423.843	144.12
424.066	166.12
424.288	155.12
424.511	149.12
424.733	154.12
424.956	159.12
425.178	144.12
425.401	146.12
425.623	144.12
425.846	143.12
426.068	150.12
426.291	138.12
426.513	140.12
426.735	141.12
426.958	133.12
427.18	137.12
427.402	144.12
427.625	146.12
427.847	137.12
428.069	147.12
428.292	145.12
428.514	154.12
428.736	134.12
428.958	129.12
429.181	144.12
429.403	145.12
429.625	141.12
429.847	133.12
430.069	133.12
430.292	137.12
430.514	141.12
430.736	144.12
430.958	134.12
431.18	126.12
431.402	143.12
431.624	122.12
431.846	127.12
432.068	112.12
432.29	94.12
432.512	125.12
432.734	134.12
432.956	143.12
433.178	166.12
433.4	150.12
433.622	141.12
433.844	143.12
434.066	134.12
434.287	126.12
434.509	104.12
434.731	110.12
434.953	117.12
435.175	139.12
435.397	138.12
435.618	131.12
435.84	103.12
436.062	119.12
436.284	129.12
436.505	133.12
436.727	138.12
436.949	136.12
437.17	127.12
437.392	122.12
437.614	126.12
437.835	127.12
438.057	120.12
438.278	124.12
438.5	129.12
438.721	134.12
438.943	155.12
439.165	155.12
439.386	155.12
439.608	164.12
439.829	151.12
440.05	164.12
440.272	148.12
440.493	155.12
440.715	162.12
440.936	155.12
441.158	147.12
441.379	151.12
441.6	172.12
441.822	154.12
442.043	147.12
442.264	156.12
442.486	130.12
442.707	147.12
442.928	145.12
443.149	151.12
443.371	126.12
443.592	141.12
443.813	139.12
444.034	159.12
444.255	137.12
444.476	144.12
444.698	163.12
444.919	160.12
445.14	295.12
445.361	210.12
445.582	161.12
445.803	161.12
446.024	156.12
446.245	158.12
446.466	157.12
446.687	164.12
446.908	170.12
447.129	181.12
447.35	159.12
447.571	157.12
447.792	167.12
448.013	166.12
448.234	158.12
448.455	163.12
448.675	150.12
448.896	149.12
449.117	143.12
449.338	147.12
449.559	162.12
449.779	151.12
450	151.12
450.221	139.12
450.442	149.12
450.662	137.12
450.883	145.12
451.104	141.12
451.324	141.12
451.545	133.12
451.766	138.12
451.986	117.12
452.207	124.12
452.428	123.12
452.648	143.12
452.869	129.12
453.089	109.12
453.31	108.12
453.53	114.12
453.751	122.12
453.971	116.12
454.192	120.12
454.412	123.12
454.633	125.12
454.853	127.12
455.073	130.12
455.294	123.12
455.514	138.12
455.734	119.12
455.955	133.12
456.175	126.12
456.395	127.12
456.616	128.12
456.836	127.12
457.056	133.12
457.276	106.12
457.497	127.12
457.717	111.12
457.937	105.12
458.157	114.12
458.377	101.12
458.598	107.12
458.818	104.12
459.038	101.12
459.258	84.12
459.478	96.12
459.698	104.12
459.918	102.12
460.138	121.12
460.358	130.12
460.578	133.12
460.798	119.12
461.018	120.12
461.238	131.12
461.458	131.12
461.678	120.12
461.898	119.12
462.118	125.12
462.338	118.12
462.558	118.12
462.777	108.12
462.997	125.12
463.217	118.12
463.437	127.12
463.657	119.12
463.876	118.12
464.096	120.12
464.316	109.12
464.536	108.12
464.755	124.12
464.975	127.12
465.195	121.12
465.414	135.12
465.634	143.12
465.854	143.12
466.073	129.12
466.293	121.12
466.512	127.12
466.732	129.12
466.951	133.12
467.171	146.12
467.391	146.12
467.61	154.12
467.829	142.12
468.049	143.12
468.268	142.12
468.488	134.12
468.707	138.12
468.927	151.12
469.146	147.12
469.365	144.12
469.585	154.12
469.804	146.12
470.023	145.12
470.243	140.12
470.462	160.12
470.681	155.12
470.901	148.12
471.12	140.12
471.339	145.12
471.558	139.12
471.777	159.12
471.997	144.12
472.216	146.12
472.435	124.12
472.654	114.12
472.873	119.12
473.092	116.12
473.311	141.12
473.53	143.12
473.749	130.12
473.968	133.12
474.187	129.12
474.406	127.12
474.625	129.12
474.844	148.12
475.063	146.12
475.282	129.12
475.501	123.12
475.72	137.12
475.939	125.12
476.158	138.12
476.377	135.12
476.596	135.12
476.814	124.12
477.033	119.12
477.252	126.12
477.471	116.12
477.69	135.12
477.908	152.12
478.127	168.12
478.346	137.12
478.564	149.12
478.783	145.12
479.002	149.12
479.22	149.12
479.439	133.12
479.658	134.12
479.876	126.12
480.095	117.12
480.313	122.12
480.532	123.12
480.751	113.12
480.969	104.12
481.188	95.12
481.406	98.12
481.624	89.12
481.843	103.12
482.061	101.12
482.28	119.12
482.498	135.12
482.717	107.12
482.935	130.12
483.153	136.12
483.372	167.12
483.59	176.12
483.808	135.12
484.027	135.12
484.245	140.12
484.463	187.12
484.681	177.12
484.9	157.12
485.118	164.12
485.336	143.12
485.554	113.12
485.772	100.12
485.99	106.12
486.209	119.12
486.427	117.12
486.645	136.12
486.863	149.12
487.081	147.12
487.299	156.12
487.517	149.12
487.735	191.12
487.953	199.12
488.171	185.12
488.389	175.12
488.607	175.12
488.825	153.12
489.043	139.12
489.261	146.12
489.479	153.12
489.696	147.12
489.914	140.12
490.132	155.12
490.35	165.12
490.568	167.12
490.786	175.12
491.003	186.12
491.221	196.12
491.439	203.12
491.657	190.12
491.874	211.12
492.092	242.12
492.31	262.12
492.527	255.12
492.745	215.12
492.963	207.12
493.18	188.12
493.398	190.12
493.615	200.12
493.833	190.12
494.05	188.12
494.268	172.12
494.485	181.12
494.703	168.12
494.92	167.12
495.138	179.12
495.355	179.12
495.573	200.12
495.79	187.12
496.008	173.12
496.225	190.12
496.442	186.12
496.66	188.12
496.877	151.12
497.094	168.12
497.312	182.12
497.529	170.12
497.746	166.12
497.963	151.12
498.181	144.12
498.398	139.12
498.615	129.12
498.832	117.12
499.049	115.12
499.267	128.12
499.484	129.12
499.701	138.12
499.918	158.12
500.135	138.12
500.352	143.12
500.569	134.12
500.786	146.12
501.003	152.12
501.22	148.12
501.437	142.12
501.654	136.12
501.871	153.12
502.088	138.12
502.305	140.12
502.522	126.12
502.739	118.12
502.956	134.12
503.172	121.12
503.389	125.12
503.606	124.12
503.823	138.12
504.04	140.12
504.256	117.12
504.473	120.12
504.69	131.12
504.907	129.12
505.123	134.12
505.34	117.12
505.557	125.12
505.773	132.12
505.99	115.12
506.207	125.12
506.423	132.12
506.64	124.12
506.856	142.12
507.073	135.12
507.289	129.12
507.506	130.12
507.722	124.12
507.939	119.12
508.155	118.12
508.372	127.12
508.588	119.12
508.805	119.12
509.021	117.12
509.238	113.12
509.454	97.12
509.67	97.12
509.887	93.12
510.103	98.12
510.319	104.12
510.536	115.12
510.752	104.12
