Data from Location6.07152019.Energy5.Lamp.07192019.3%Agarose_HRD10591_16-10-46-394.txt Node
Date: Fri Jul 19 16:10:46 EDT 2019
User: cochatt
Spectrometer: HR+D1059
Trigger mode: 1
Integration Time (sec): 1.000000E-1
Scans to average: 1
Electric dark correction enabled: true
Nonlinearity correction enabled: false
Boxcar width: 0
XAxis mode: Wavelengths
Number of Pixels in Spectrum: 2048
>>>>>Begin Spectral Data<<<<<
223.165	-9.19
223.4	-9.19
223.635	-9.19
223.869	-9.19
224.104	-9.19
224.338	1.81
224.573	-7.19
224.808	-5.19
225.042	-17.19
225.277	-21.19
225.511	2.81
225.746	8.81
225.98	-11.19
226.215	3.81
226.449	2.81
226.683	11.81
226.918	30.81
227.152	26.81
227.387	33.81
227.621	31.81
227.856	49.81
228.09	44.81
228.324	49.81
228.559	54.81
228.793	59.81
229.027	60.81
229.262	69.81
229.496	67.81
229.73	64.81
229.964	81.81
230.199	73.81
230.433	65.81
230.667	86.81
230.901	69.81
231.136	72.81
231.37	64.81
231.604	83.81
231.838	73.81
232.072	82.81
232.306	84.81
232.541	81.81
232.775	66.81
233.009	80.81
233.243	65.81
233.477	82.81
233.711	86.81
233.945	87.81
234.179	83.81
234.413	84.81
234.647	86.81
234.881	93.81
235.115	92.81
235.349	81.81
235.583	77.81
235.817	77.81
236.051	78.81
236.285	81.81
236.519	87.81
236.753	79.81
236.987	84.81
237.221	74.81
237.455	62.81
237.689	64.81
237.922	73.81
238.156	80.81
238.39	76.81
238.624	84.81
238.858	85.81
239.091	81.81
239.325	84.81
239.559	86.81
239.793	83.81
240.027	92.81
240.26	76.81
240.494	74.81
240.728	88.81
240.961	72.81
241.195	88.81
241.429	83.81
241.662	76.81
241.896	82.81
242.13	87.81
242.363	91.81
242.597	70.81
242.83	85.81
243.064	78.81
243.298	70.81
243.531	74.81
243.765	66.81
243.998	79.81
244.232	80.81
244.465	75.81
244.699	58.81
244.932	77.81
245.166	81.81
245.399	88.81
245.633	80.81
245.866	81.81
246.099	84.81
246.333	77.81
246.566	74.81
246.8	85.81
247.033	70.81
247.266	89.81
247.5	87.81
247.733	78.81
247.966	78.81
248.2	84.81
248.433	80.81
248.666	77.81
248.899	78.81
249.133	93.81
249.366	85.81
249.599	75.81
249.832	69.81
250.066	93.81
250.299	67.81
250.532	69.81
250.765	80.81
250.998	57.81
251.231	81.81
251.465	73.81
251.698	82.81
251.931	79.81
252.164	88.81
252.397	62.81
252.63	91.81
252.863	84.81
253.096	75.81
253.329	82.81
253.562	70.81
253.795	88.81
254.028	80.81
254.261	68.81
254.494	84.81
254.727	87.81
254.96	88.81
255.193	73.81
255.426	85.81
255.659	82.81
255.892	74.81
256.124	76.81
256.357	71.81
256.59	85.81
256.823	74.81
257.056	67.81
257.289	80.81
257.521	78.81
257.754	81.81
257.987	96.81
258.22	84.81
258.452	76.81
258.685	83.81
258.918	86.81
259.151	87.81
259.383	71.81
259.616	82.81
259.849	65.81
260.081	75.81
260.314	95.81
260.547	98.81
260.779	96.81
261.012	76.81
261.244	78.81
261.477	85.81
261.71	86.81
261.942	89.81
262.175	65.81
262.407	74.81
262.64	81.81
262.872	86.81
263.105	91.81
263.337	85.81
263.57	72.81
263.802	91.81
264.035	91.81
264.267	75.81
264.499	67.81
264.732	93.81
264.964	79.81
265.197	81.81
265.429	91.81
265.661	77.81
265.894	78.81
266.126	74.81
266.358	88.81
266.591	69.81
266.823	79.81
267.055	82.81
267.287	89.81
267.52	82.81
267.752	66.81
267.984	82.81
268.216	82.81
268.448	85.81
268.681	87.81
268.913	88.81
269.145	76.81
269.377	78.81
269.609	91.81
269.841	86.81
270.073	96.81
270.306	84.81
270.538	77.81
270.77	86.81
271.002	84.81
271.234	88.81
271.466	96.81
271.698	85.81
271.93	76.81
272.162	87.81
272.394	89.81
272.626	90.81
272.858	85.81
273.09	83.81
273.322	88.81
273.553	95.81
273.785	92.81
274.017	76.81
274.249	75.81
274.481	70.81
274.713	74.81
274.945	75.81
275.176	86.81
275.408	86.81
275.64	75.81
275.872	84.81
276.104	69.81
276.335	64.81
276.567	85.81
276.799	85.81
277.031	85.81
277.262	91.81
277.494	97.81
277.726	104.81
277.957	83.81
278.189	72.81
278.421	85.81
278.652	79.81
278.884	82.81
279.115	79.81
279.347	74.81
279.579	84.81
279.81	83.81
280.042	88.81
280.273	81.81
280.505	88.81
280.736	80.81
280.968	73.81
281.199	90.81
281.431	94.81
281.662	86.81
281.894	85.81
282.125	79.81
282.356	92.81
282.588	82.81
282.819	87.81
283.051	77.81
283.282	86.81
283.513	76.81
283.745	84.81
283.976	79.81
284.207	90.81
284.439	78.81
284.67	82.81
284.901	81.81
285.132	69.81
285.364	89.81
285.595	89.81
285.826	81.81
286.057	97.81
286.288	84.81
286.52	75.81
286.751	62.81
286.982	81.81
287.213	83.81
287.444	91.81
287.675	91.81
287.906	82.81
288.138	80.81
288.369	73.81
288.6	93.81
288.831	85.81
289.062	84.81
289.293	81.81
289.524	70.81
289.755	75.81
289.986	90.81
290.217	79.81
290.448	77.81
290.679	75.81
290.91	84.81
291.141	82.81
291.371	87.81
291.602	88.81
291.833	86.81
292.064	91.81
292.295	73.81
292.526	97.81
292.757	79.81
292.987	95.81
293.218	83.81
293.449	83.81
293.68	76.81
293.91	98.81
294.141	80.81
294.372	74.81
294.603	93.81
294.833	85.81
295.064	95.81
295.295	86.81
295.525	88.81
295.756	84.81
295.987	86.81
296.217	96.81
296.448	90.81
296.679	81.81
296.909	87.81
297.14	91.81
297.37	100.81
297.601	93.81
297.831	77.81
298.062	93.81
298.292	73.81
298.523	85.81
298.753	85.81
298.984	86.81
299.214	97.81
299.445	92.81
299.675	89.81
299.905	79.81
300.136	93.81
300.366	85.81
300.597	95.81
300.827	108.81
301.057	84.81
301.288	83.81
301.518	99.81
301.748	74.81
301.979	86.81
302.209	84.81
302.439	78.81
302.669	87.81
302.9	91.81
303.13	78.81
303.36	80.81
303.59	97.81
303.82	80.81
304.051	91.81
304.281	71.81
304.511	96.81
304.741	79.81
304.971	90.81
305.201	87.81
305.431	96.81
305.661	86.81
305.891	89.81
306.121	86.81
306.352	79.81
306.582	95.81
306.812	79.81
307.042	88.81
307.272	85.81
307.502	82.81
307.731	75.81
307.961	96.81
308.191	83.81
308.421	79.81
308.651	94.81
308.881	78.81
309.111	81.81
309.341	84.81
309.571	101.81
309.8	87.81
310.03	102.81
310.26	90.81
310.49	89.81
310.72	84.81
310.949	91.81
311.179	91.81
311.409	90.81
311.639	82.81
311.868	88.81
312.098	90.81
312.328	88.81
312.557	104.81
312.787	101.81
313.017	89.81
313.246	70.81
313.476	104.81
313.706	85.81
313.935	96.81
314.165	91.81
314.394	80.81
314.624	89.81
314.853	73.81
315.083	88.81
315.312	95.81
315.542	96.81
315.771	84.81
316.001	83.81
316.23	97.81
316.46	81.81
316.689	82.81
316.919	97.81
317.148	93.81
317.377	78.81
317.607	98.81
317.836	90.81
318.065	76.81
318.295	82.81
318.524	77.81
318.753	78.81
318.983	88.81
319.212	80.81
319.441	88.81
319.67	101.81
319.9	80.81
320.129	81.81
320.358	94.81
320.587	90.81
320.816	83.81
321.046	94.81
321.275	94.81
321.504	91.81
321.733	82.81
321.962	84.81
322.191	91.81
322.42	97.81
322.649	94.81
322.878	90.81
323.108	98.81
323.337	91.81
323.566	96.81
323.795	102.81
324.024	91.81
324.253	74.81
324.482	82.81
324.71	84.81
324.939	84.81
325.168	93.81
325.397	77.81
325.626	91.81
325.855	88.81
326.084	82.81
326.313	85.81
326.542	87.81
326.77	94.81
326.999	94.81
327.228	87.81
327.457	91.81
327.686	84.81
327.914	83.81
328.143	76.81
328.372	93.81
328.6	96.81
328.829	78.81
329.058	94.81
329.287	89.81
329.515	92.81
329.744	81.81
329.972	90.81
330.201	77.81
330.43	91.81
330.658	86.81
330.887	76.81
331.115	96.81
331.344	92.81
331.572	95.81
331.801	97.81
332.03	90.81
332.258	89.81
332.486	89.81
332.715	83.81
332.943	76.81
333.172	79.81
333.4	70.81
333.629	73.81
333.857	76.81
334.085	68.81
334.314	97.81
334.542	89.81
334.771	97.81
334.999	84.81
335.227	78.81
335.455	100.81
335.684	103.81
335.912	94.81
336.14	84.81
336.369	77.81
336.597	87.81
336.825	81.81
337.053	85.81
337.281	90.81
337.51	85.81
337.738	77.81
337.966	80.81
338.194	80.81
338.422	89.81
338.65	75.81
338.878	83.81
339.106	83.81
339.334	108.81
339.562	82.81
339.79	89.81
340.018	85.81
340.246	90.81
340.474	86.81
340.702	81.81
340.93	89.81
341.158	78.81
341.386	91.81
341.614	99.81
341.842	91.81
342.07	109.81
342.298	81.81
342.526	85.81
342.754	86.81
342.981	91.81
343.209	81.81
343.437	96.81
343.665	83.81
343.893	88.81
344.12	84.81
344.348	84.81
344.576	85.81
344.804	80.81
345.031	85.81
345.259	87.81
345.487	84.81
345.714	87.81
345.942	87.81
346.17	86.81
346.397	79.81
346.625	76.81
346.853	94.81
347.08	94.81
347.308	92.81
347.535	86.81
347.763	88.81
347.99	70.81
348.218	86.81
348.445	69.81
348.673	94.81
348.9	81.81
349.128	85.81
349.355	92.81
349.583	91.81
349.81	93.81
350.037	106.81
350.265	77.81
350.492	79.81
350.72	81.81
350.947	75.81
351.174	74.81
351.402	89.81
351.629	96.81
351.856	92.81
352.083	84.81
352.311	85.81
352.538	93.81
352.765	78.81
352.992	80.81
353.22	85.81
353.447	79.81
353.674	83.81
353.901	89.81
354.128	99.81
354.355	95.81
354.583	78.81
354.81	74.81
355.037	82.81
355.264	92.81
355.491	88.81
355.718	76.81
355.945	77.81
356.172	63.81
356.399	93.81
356.626	85.81
356.853	83.81
357.08	75.81
357.307	83.81
357.534	81.81
357.761	94.81
357.988	71.81
358.215	85.81
358.441	86.81
358.668	94.81
358.895	91.81
359.122	82.81
359.349	89.81
359.576	77.81
359.802	79.81
360.029	91.81
360.256	86.81
360.483	80.81
360.709	82.81
360.936	100.81
361.163	77.81
361.39	91.81
361.616	78.81
361.843	73.81
362.07	85.81
362.296	77.81
362.523	90.81
362.749	99.81
362.976	92.81
363.203	89.81
363.429	76.81
363.656	88.81
363.882	94.81
364.109	84.81
364.335	81.81
364.562	80.81
364.788	77.81
365.015	94.81
365.241	68.81
365.468	82.81
365.694	84.81
365.92	89.81
366.147	104.81
366.373	94.81
366.599	89.81
366.826	97.81
367.052	90.81
367.278	89.81
367.505	91.81
367.731	95.81
367.957	77.81
368.184	95.81
368.41	91.81
368.636	86.81
368.862	95.81
369.089	103.81
369.315	92.81
369.541	93.81
369.767	101.81
369.993	92.81
370.219	92.81
370.445	94.81
370.672	103.81
370.898	92.81
371.124	90.81
371.35	90.81
371.576	103.81
371.802	101.81
372.028	109.81
372.254	98.81
372.48	98.81
372.706	90.81
372.932	88.81
373.158	101.81
373.384	84.81
373.61	88.81
373.835	91.81
374.061	97.81
374.287	83.81
374.513	87.81
374.739	97.81
374.965	94.81
375.191	98.81
375.416	89.81
375.642	89.81
375.868	102.81
376.094	94.81
376.319	96.81
376.545	89.81
376.771	89.81
376.997	99.81
377.222	108.81
377.448	92.81
377.674	101.81
377.899	97.81
378.125	102.81
378.35	105.81
378.576	95.81
378.802	91.81
379.027	108.81
379.253	107.81
379.478	99.81
379.704	98.81
379.929	74.81
380.155	92.81
380.38	97.81
380.606	93.81
380.831	104.81
381.057	99.81
381.282	94.81
381.507	109.81
381.733	111.81
381.958	104.81
382.184	93.81
382.409	95.81
382.634	98.81
382.86	93.81
383.085	100.81
383.31	103.81
383.535	105.81
383.761	102.81
383.986	97.81
384.211	114.81
384.436	115.81
384.662	96.81
384.887	91.81
385.112	94.81
385.337	98.81
385.562	101.81
385.787	108.81
386.013	92.81
386.238	118.81
386.463	92.81
386.688	104.81
386.913	105.81
387.138	103.81
387.363	99.81
387.588	112.81
387.813	94.81
388.038	97.81
388.263	96.81
388.488	101.81
388.713	101.81
388.938	100.81
389.163	105.81
389.387	110.81
389.612	102.81
389.837	105.81
390.062	95.81
390.287	97.81
390.512	114.81
390.736	90.81
390.961	99.81
391.186	106.81
391.411	98.81
391.636	102.81
391.86	107.81
392.085	105.81
392.31	95.81
392.534	107.81
392.759	98.81
392.984	96.81
393.208	113.81
393.433	103.81
393.658	117.81
393.882	104.81
394.107	108.81
394.331	107.81
394.556	106.81
394.78	111.81
395.005	108.81
395.229	100.81
395.454	116.81
395.678	113.81
395.903	91.81
396.127	105.81
396.352	103.81
396.576	127.81
396.801	120.81
397.025	123.81
397.249	118.81
397.474	107.81
397.698	102.81
397.922	107.81
398.147	92.81
398.371	105.81
398.595	121.81
398.82	112.81
399.044	102.81
399.268	121.81
399.492	117.81
399.717	101.81
399.941	114.81
400.165	112.81
400.389	103.81
400.613	101.81
400.837	116.81
401.062	120.81
401.286	115.81
401.51	101.81
401.734	128.81
401.958	132.81
402.182	125.81
402.406	122.81
402.63	118.81
402.854	120.81
403.078	124.81
403.302	115.81
403.526	126.81
403.75	128.81
403.974	96.81
404.198	101.81
404.422	126.81
404.645	122.81
404.869	106.81
405.093	119.81
405.317	112.81
405.541	118.81
405.765	116.81
405.988	114.81
406.212	118.81
406.436	118.81
406.66	126.81
406.883	122.81
407.107	123.81
407.331	117.81
407.555	122.81
407.778	131.81
408.002	119.81
408.226	116.81
408.449	129.81
408.673	122.81
408.896	126.81
409.12	122.81
409.344	137.81
409.567	121.81
409.791	125.81
410.014	118.81
410.238	130.81
410.461	130.81
410.685	118.81
410.908	129.81
411.132	118.81
411.355	123.81
411.578	122.81
411.802	117.81
412.025	135.81
412.249	134.81
412.472	124.81
412.695	120.81
412.919	118.81
413.142	126.81
413.365	129.81
413.589	113.81
413.812	122.81
414.035	112.81
414.258	128.81
414.482	137.81
414.705	127.81
414.928	125.81
415.151	134.81
415.374	122.81
415.597	110.81
415.821	117.81
416.044	132.81
416.267	143.81
416.49	128.81
416.713	126.81
416.936	114.81
417.159	119.81
417.382	119.81
417.605	131.81
417.828	136.81
418.051	126.81
418.274	113.81
418.497	130.81
418.72	136.81
418.943	142.81
419.166	146.81
419.389	150.81
419.611	136.81
419.834	142.81
420.057	125.81
420.28	144.81
420.503	121.81
420.726	136.81
420.948	140.81
421.171	151.81
421.394	146.81
421.617	160.81
421.839	139.81
422.062	156.81
422.285	132.81
422.507	137.81
422.73	139.81
422.953	132.81
423.175	128.81
423.398	133.81
423.621	134.81
423.843	131.81
424.066	136.81
424.288	138.81
424.511	134.81
424.733	158.81
424.956	140.81
425.178	144.81
425.401	148.81
425.623	151.81
425.846	130.81
426.068	141.81
426.291	128.81
426.513	140.81
426.735	150.81
426.958	123.81
427.18	148.81
427.402	124.81
427.625	138.81
427.847	113.81
428.069	136.81
428.292	129.81
428.514	142.81
428.736	136.81
428.958	130.81
429.181	144.81
429.403	143.81
429.625	130.81
429.847	134.81
430.069	137.81
430.292	133.81
430.514	136.81
430.736	140.81
430.958	123.81
431.18	129.81
431.402	130.81
431.624	125.81
431.846	117.81
432.068	114.81
432.29	110.81
432.512	137.81
432.734	125.81
432.956	138.81
433.178	163.81
433.4	127.81
433.622	130.81
433.844	134.81
434.066	119.81
434.287	113.81
434.509	98.81
434.731	118.81
434.953	113.81
435.175	124.81
435.397	132.81
435.618	140.81
435.84	102.81
436.062	131.81
436.284	132.81
436.505	139.81
436.727	144.81
436.949	130.81
437.17	136.81
437.392	132.81
437.614	124.81
437.835	113.81
438.057	114.81
438.278	120.81
438.5	135.81
438.721	142.81
438.943	148.81
439.165	146.81
439.386	127.81
439.608	154.81
439.829	141.81
440.05	161.81
440.272	156.81
440.493	141.81
440.715	156.81
440.936	150.81
441.158	155.81
441.379	145.81
441.6	157.81
441.822	170.81
442.043	157.81
442.264	155.81
442.486	143.81
442.707	134.81
442.928	148.81
443.149	163.81
443.371	152.81
443.592	143.81
443.813	145.81
444.034	145.81
444.255	152.81
444.476	130.81
444.698	142.81
444.919	135.81
445.14	254.81
445.361	226.81
445.582	153.81
445.803	152.81
446.024	141.81
446.245	150.81
446.466	152.81
446.687	152.81
446.908	166.81
447.129	173.81
447.35	150.81
447.571	157.81
447.792	145.81
448.013	141.81
448.234	154.81
448.455	140.81
448.675	151.81
448.896	160.81
449.117	141.81
449.338	143.81
449.559	137.81
449.779	130.81
450	153.81
450.221	130.81
450.442	152.81
450.662	136.81
450.883	146.81
451.104	145.81
451.324	133.81
451.545	134.81
451.766	148.81
451.986	146.81
452.207	125.81
452.428	139.81
452.648	137.81
452.869	128.81
453.089	115.81
453.31	109.81
453.53	107.81
453.751	124.81
453.971	112.81
454.192	107.81
454.412	114.81
454.633	126.81
454.853	124.81
455.073	120.81
455.294	147.81
455.514	131.81
455.734	126.81
455.955	110.81
456.175	126.81
456.395	100.81
456.616	124.81
456.836	110.81
457.056	108.81
457.276	112.81
457.497	116.81
457.717	101.81
457.937	116.81
458.157	99.81
458.377	106.81
458.598	110.81
458.818	94.81
459.038	104.81
459.258	92.81
459.478	78.81
459.698	81.81
459.918	111.81
460.138	106.81
460.358	120.81
460.578	132.81
460.798	125.81
461.018	123.81
461.238	114.81
461.458	121.81
461.678	118.81
461.898	108.81
462.118	119.81
462.338	116.81
462.558	118.81
462.777	100.81
462.997	110.81
463.217	117.81
463.437	114.81
463.657	107.81
463.876	101.81
464.096	117.81
464.316	110.81
464.536	117.81
464.755	122.81
464.975	123.81
465.195	115.81
465.414	122.81
465.634	124.81
465.854	123.81
466.073	122.81
466.293	133.81
466.512	132.81
466.732	130.81
466.951	139.81
467.171	149.81
467.391	148.81
467.61	156.81
467.829	138.81
468.049	146.81
468.268	127.81
468.488	148.81
468.707	148.81
468.927	143.81
469.146	140.81
469.365	143.81
469.585	148.81
469.804	148.81
470.023	134.81
470.243	153.81
470.462	150.81
470.681	140.81
470.901	139.81
471.12	157.81
471.339	141.81
471.558	133.81
471.777	134.81
471.997	135.81
472.216	132.81
472.435	115.81
472.654	109.81
472.873	101.81
473.092	107.81
473.311	135.81
473.53	137.81
473.749	130.81
473.968	135.81
474.187	126.81
474.406	117.81
474.625	132.81
474.844	139.81
475.063	126.81
475.282	139.81
475.501	122.81
475.72	132.81
475.939	130.81
476.158	115.81
476.377	135.81
476.596	113.81
476.814	124.81
477.033	109.81
477.252	119.81
477.471	126.81
477.69	141.81
477.908	150.81
478.127	162.81
478.346	146.81
478.564	138.81
478.783	138.81
479.002	137.81
479.22	142.81
479.439	140.81
479.658	125.81
479.876	122.81
480.095	109.81
480.313	116.81
480.532	136.81
480.751	117.81
480.969	100.81
481.188	95.81
481.406	90.81
481.624	85.81
481.843	78.81
482.061	91.81
482.28	119.81
482.498	112.81
482.717	126.81
482.935	122.81
483.153	148.81
483.372	168.81
483.59	170.81
483.808	139.81
484.027	131.81
484.245	149.81
484.463	158.81
484.681	168.81
484.9	158.81
485.118	138.81
485.336	139.81
485.554	116.81
485.772	116.81
485.99	115.81
486.209	121.81
486.427	117.81
486.645	117.81
486.863	139.81
487.081	138.81
487.299	121.81
487.517	140.81
487.735	164.81
487.953	201.81
488.171	190.81
488.389	187.81
488.607	192.81
488.825	146.81
489.043	130.81
489.261	141.81
489.479	162.81
489.696	153.81
489.914	144.81
490.132	162.81
490.35	147.81
490.568	168.81
490.786	193.81
491.003	183.81
491.221	186.81
491.439	197.81
491.657	209.81
491.874	228.81
492.092	245.81
492.31	249.81
492.527	251.81
492.745	203.81
492.963	217.81
493.18	196.81
493.398	204.81
493.615	185.81
493.833	196.81
494.05	186.81
494.268	185.81
494.485	184.81
494.703	191.81
494.92	176.81
495.138	180.81
495.355	171.81
495.573	186.81
495.79	164.81
496.008	170.81
496.225	186.81
496.442	176.81
496.66	180.81
496.877	185.81
497.094	166.81
497.312	176.81
497.529	164.81
497.746	172.81
497.963	155.81
498.181	136.81
498.398	135.81
498.615	118.81
498.832	120.81
499.049	119.81
499.267	125.81
499.484	128.81
499.701	136.81
499.918	140.81
500.135	147.81
500.352	145.81
500.569	141.81
500.786	144.81
501.003	156.81
501.22	144.81
501.437	145.81
501.654	138.81
501.871	136.81
502.088	133.81
502.305	135.81
502.522	126.81
502.739	125.81
502.956	124.81
503.172	132.81
503.389	131.81
503.606	134.81
503.823	119.81
504.04	132.81
504.256	130.81
504.473	126.81
504.69	121.81
504.907	126.81
505.123	122.81
505.34	119.81
505.557	121.81
505.773	131.81
505.99	114.81
506.207	124.81
506.423	128.81
506.64	125.81
506.856	120.81
507.073	126.81
507.289	132.81
507.506	125.81
507.722	124.81
507.939	124.81
508.155	131.81
508.372	128.81
508.588	131.81
508.805	117.81
509.021	118.81
509.238	116.81
509.454	102.81
509.67	104.81
509.887	110.81
510.103	99.81
510.319	98.81
510.536	79.81
510.752	90.81
510.968	74.81
511.184	87.81
511.401	69.81
