Data from Location6.07152019.Energy5.Lamp.07192019.3%Agarose_HRD10591_16-11-19-396.txt Node
Date: Fri Jul 19 16:11:19 EDT 2019
User: cochatt
Spectrometer: HR+D1059
Trigger mode: 1
Integration Time (sec): 1.000000E-1
Scans to average: 1
Electric dark correction enabled: true
Nonlinearity correction enabled: false
Boxcar width: 0
XAxis mode: Wavelengths
Number of Pixels in Spectrum: 2048
>>>>>Begin Spectral Data<<<<<
223.165	-11.75
223.4	-11.75
223.635	-11.75
223.869	-25.75
224.104	-17.75
224.338	-16.75
224.573	-19.75
224.808	-16.75
225.042	-10.75
225.277	2.25
225.511	-17.75
225.746	6.25
225.98	19.25
226.215	12.25
226.449	14.25
226.683	29.25
226.918	32.25
227.152	21.25
227.387	24.25
227.621	40.25
227.856	28.25
228.09	50.25
228.324	49.25
228.559	50.25
228.793	47.25
229.027	58.25
229.262	63.25
229.496	75.25
229.73	65.25
229.964	59.25
230.199	65.25
230.433	69.25
230.667	68.25
230.901	65.25
231.136	62.25
231.37	85.25
231.604	68.25
231.838	84.25
232.072	64.25
232.306	87.25
232.541	89.25
232.775	85.25
233.009	65.25
233.243	72.25
233.477	52.25
233.711	94.25
233.945	75.25
234.179	88.25
234.413	75.25
234.647	75.25
234.881	77.25
235.115	75.25
235.349	81.25
235.583	66.25
235.817	77.25
236.051	80.25
236.285	76.25
236.519	61.25
236.753	71.25
236.987	67.25
237.221	82.25
237.455	78.25
237.689	79.25
237.922	73.25
238.156	72.25
238.39	77.25
238.624	75.25
238.858	60.25
239.091	80.25
239.325	70.25
239.559	55.25
239.793	89.25
240.027	84.25
240.26	71.25
240.494	68.25
240.728	66.25
240.961	78.25
241.195	79.25
241.429	74.25
241.662	63.25
241.896	80.25
242.13	70.25
242.363	70.25
242.597	66.25
242.83	57.25
243.064	85.25
243.298	73.25
243.531	64.25
243.765	70.25
243.998	82.25
244.232	76.25
244.465	55.25
244.699	72.25
244.932	70.25
245.166	68.25
245.399	75.25
245.633	84.25
245.866	98.25
246.099	81.25
246.333	47.25
246.566	66.25
246.8	83.25
247.033	74.25
247.266	74.25
247.5	69.25
247.733	70.25
247.966	67.25
248.2	86.25
248.433	90.25
248.666	67.25
248.899	76.25
249.133	70.25
249.366	90.25
249.599	77.25
249.832	71.25
250.066	72.25
250.299	72.25
250.532	75.25
250.765	93.25
250.998	92.25
251.231	76.25
251.465	80.25
251.698	76.25
251.931	79.25
252.164	83.25
252.397	67.25
252.63	81.25
252.863	75.25
253.096	83.25
253.329	82.25
253.562	83.25
253.795	70.25
254.028	65.25
254.261	71.25
254.494	57.25
254.727	67.25
254.96	78.25
255.193	74.25
255.426	75.25
255.659	81.25
255.892	83.25
256.124	74.25
256.357	71.25
256.59	75.25
256.823	70.25
257.056	97.25
257.289	81.25
257.521	82.25
257.754	77.25
257.987	76.25
258.22	82.25
258.452	85.25
258.685	89.25
258.918	65.25
259.151	88.25
259.383	78.25
259.616	78.25
259.849	100.25
260.081	96.25
260.314	71.25
260.547	88.25
260.779	69.25
261.012	63.25
261.244	73.25
261.477	79.25
261.71	69.25
261.942	106.25
262.175	73.25
262.407	78.25
262.64	77.25
262.872	76.25
263.105	50.25
263.337	78.25
263.57	70.25
263.802	60.25
264.035	77.25
264.267	70.25
264.499	69.25
264.732	77.25
264.964	82.25
265.197	82.25
265.429	81.25
265.661	77.25
265.894	61.25
266.126	80.25
266.358	63.25
266.591	75.25
266.823	76.25
267.055	77.25
267.287	91.25
267.52	83.25
267.752	82.25
267.984	72.25
268.216	65.25
268.448	77.25
268.681	73.25
268.913	79.25
269.145	82.25
269.377	82.25
269.609	73.25
269.841	86.25
270.073	70.25
270.306	77.25
270.538	93.25
270.77	77.25
271.002	93.25
271.234	81.25
271.466	79.25
271.698	73.25
271.93	80.25
272.162	85.25
272.394	75.25
272.626	96.25
272.858	77.25
273.09	66.25
273.322	66.25
273.553	80.25
273.785	72.25
274.017	75.25
274.249	77.25
274.481	81.25
274.713	80.25
274.945	79.25
275.176	82.25
275.408	75.25
275.64	76.25
275.872	76.25
276.104	87.25
276.335	94.25
276.567	82.25
276.799	87.25
277.031	73.25
277.262	91.25
277.494	86.25
277.726	82.25
277.957	75.25
278.189	87.25
278.421	81.25
278.652	71.25
278.884	66.25
279.115	80.25
279.347	96.25
279.579	73.25
279.81	79.25
280.042	76.25
280.273	80.25
280.505	73.25
280.736	77.25
280.968	72.25
281.199	79.25
281.431	73.25
281.662	75.25
281.894	90.25
282.125	70.25
282.356	71.25
282.588	82.25
282.819	77.25
283.051	93.25
283.282	83.25
283.513	86.25
283.745	70.25
283.976	83.25
284.207	77.25
284.439	84.25
284.67	82.25
284.901	81.25
285.132	73.25
285.364	70.25
285.595	84.25
285.826	92.25
286.057	93.25
286.288	79.25
286.52	92.25
286.751	75.25
286.982	52.25
287.213	77.25
287.444	89.25
287.675	80.25
287.906	85.25
288.138	90.25
288.369	85.25
288.6	77.25
288.831	75.25
289.062	77.25
289.293	71.25
289.524	69.25
289.755	85.25
289.986	83.25
290.217	84.25
290.448	76.25
290.679	81.25
290.91	91.25
291.141	80.25
291.371	84.25
291.602	83.25
291.833	81.25
292.064	87.25
292.295	76.25
292.526	92.25
292.757	77.25
292.987	78.25
293.218	80.25
293.449	79.25
293.68	90.25
293.91	76.25
294.141	83.25
294.372	78.25
294.603	75.25
294.833	87.25
295.064	85.25
295.295	79.25
295.525	71.25
295.756	81.25
295.987	78.25
296.217	85.25
296.448	76.25
296.679	80.25
296.909	82.25
297.14	88.25
297.37	75.25
297.601	83.25
297.831	80.25
298.062	84.25
298.292	78.25
298.523	78.25
298.753	84.25
298.984	76.25
299.214	80.25
299.445	89.25
299.675	75.25
299.905	78.25
300.136	77.25
300.366	82.25
300.597	92.25
300.827	74.25
301.057	76.25
301.288	79.25
301.518	81.25
301.748	99.25
301.979	82.25
302.209	77.25
302.439	80.25
302.669	82.25
302.9	81.25
303.13	80.25
303.36	95.25
303.59	78.25
303.82	72.25
304.051	79.25
304.281	77.25
304.511	78.25
304.741	88.25
304.971	82.25
305.201	81.25
305.431	87.25
305.661	76.25
305.891	88.25
306.121	78.25
306.352	85.25
306.582	73.25
306.812	91.25
307.042	77.25
307.272	83.25
307.502	60.25
307.731	82.25
307.961	82.25
308.191	84.25
308.421	77.25
308.651	79.25
308.881	95.25
309.111	69.25
309.341	88.25
309.571	78.25
309.8	86.25
310.03	82.25
310.26	74.25
310.49	88.25
310.72	83.25
310.949	86.25
311.179	84.25
311.409	67.25
311.639	78.25
311.868	70.25
312.098	85.25
312.328	82.25
312.557	87.25
312.787	96.25
313.017	77.25
313.246	77.25
313.476	70.25
313.706	78.25
313.935	86.25
314.165	87.25
314.394	70.25
314.624	69.25
314.853	73.25
315.083	84.25
315.312	69.25
315.542	78.25
315.771	82.25
316.001	69.25
316.23	82.25
316.46	67.25
316.689	79.25
316.919	70.25
317.148	82.25
317.377	82.25
317.607	84.25
317.836	79.25
318.065	83.25
318.295	92.25
318.524	75.25
318.753	83.25
318.983	87.25
319.212	72.25
319.441	70.25
319.67	79.25
319.9	76.25
320.129	84.25
320.358	87.25
320.587	80.25
320.816	74.25
321.046	69.25
321.275	89.25
321.504	84.25
321.733	89.25
321.962	69.25
322.191	91.25
322.42	85.25
322.649	77.25
322.878	78.25
323.108	70.25
323.337	79.25
323.566	91.25
323.795	81.25
324.024	77.25
324.253	70.25
324.482	82.25
324.71	72.25
324.939	67.25
325.168	81.25
325.397	86.25
325.626	71.25
325.855	86.25
326.084	75.25
326.313	90.25
326.542	77.25
326.77	81.25
326.999	80.25
327.228	69.25
327.457	87.25
327.686	77.25
327.914	74.25
328.143	81.25
328.372	83.25
328.6	84.25
328.829	74.25
329.058	81.25
329.287	90.25
329.515	72.25
329.744	84.25
329.972	80.25
330.201	76.25
330.43	78.25
330.658	79.25
330.887	86.25
331.115	62.25
331.344	88.25
331.572	79.25
331.801	72.25
332.03	81.25
332.258	84.25
332.486	63.25
332.715	82.25
332.943	78.25
333.172	85.25
333.4	90.25
333.629	89.25
333.857	86.25
334.085	65.25
334.314	73.25
334.542	86.25
334.771	84.25
334.999	74.25
335.227	85.25
335.455	92.25
335.684	90.25
335.912	81.25
336.14	75.25
336.369	63.25
336.597	74.25
336.825	84.25
337.053	78.25
337.281	86.25
337.51	90.25
337.738	81.25
337.966	71.25
338.194	68.25
338.422	70.25
338.65	85.25
338.878	90.25
339.106	72.25
339.334	81.25
339.562	77.25
339.79	91.25
340.018	94.25
340.246	75.25
340.474	71.25
340.702	69.25
340.93	70.25
341.158	73.25
341.386	89.25
341.614	76.25
341.842	82.25
342.07	90.25
342.298	81.25
342.526	87.25
342.754	74.25
342.981	70.25
343.209	79.25
343.437	87.25
343.665	87.25
343.893	89.25
344.12	76.25
344.348	78.25
344.576	81.25
344.804	97.25
345.031	85.25
345.259	75.25
345.487	90.25
345.714	78.25
345.942	80.25
346.17	92.25
346.397	82.25
346.625	74.25
346.853	77.25
347.08	76.25
347.308	94.25
347.535	79.25
347.763	84.25
347.99	90.25
348.218	86.25
348.445	84.25
348.673	69.25
348.9	81.25
349.128	87.25
349.355	87.25
349.583	80.25
349.81	75.25
350.037	82.25
350.265	70.25
350.492	74.25
350.72	67.25
350.947	65.25
351.174	75.25
351.402	76.25
351.629	91.25
351.856	65.25
352.083	74.25
352.311	80.25
352.538	68.25
352.765	77.25
352.992	83.25
353.22	78.25
353.447	81.25
353.674	92.25
353.901	87.25
354.128	75.25
354.355	81.25
354.583	77.25
354.81	69.25
355.037	77.25
355.264	80.25
355.491	75.25
355.718	93.25
355.945	82.25
356.172	81.25
356.399	81.25
356.626	85.25
356.853	81.25
357.08	85.25
357.307	78.25
357.534	84.25
357.761	71.25
357.988	69.25
358.215	94.25
358.441	75.25
358.668	81.25
358.895	79.25
359.122	71.25
359.349	76.25
359.576	85.25
359.802	82.25
360.029	78.25
360.256	76.25
360.483	70.25
360.709	67.25
360.936	78.25
361.163	75.25
361.39	76.25
361.616	75.25
361.843	85.25
362.07	74.25
362.296	82.25
362.523	80.25
362.749	84.25
362.976	74.25
363.203	90.25
363.429	73.25
363.656	72.25
363.882	86.25
364.109	91.25
364.335	77.25
364.562	85.25
364.788	80.25
365.015	77.25
365.241	89.25
365.468	76.25
365.694	89.25
365.92	78.25
366.147	90.25
366.373	85.25
366.599	81.25
366.826	94.25
367.052	81.25
367.278	77.25
367.505	94.25
367.731	77.25
367.957	84.25
368.184	84.25
368.41	89.25
368.636	79.25
368.862	75.25
369.089	61.25
369.315	73.25
369.541	85.25
369.767	86.25
369.993	84.25
370.219	76.25
370.445	83.25
370.672	98.25
370.898	84.25
371.124	84.25
371.35	88.25
371.576	76.25
371.802	83.25
372.028	94.25
372.254	76.25
372.48	81.25
372.706	98.25
372.932	88.25
373.158	86.25
373.384	92.25
373.61	88.25
373.835	86.25
374.061	82.25
374.287	95.25
374.513	85.25
374.739	79.25
374.965	86.25
375.191	94.25
375.416	88.25
375.642	85.25
375.868	95.25
376.094	83.25
376.319	101.25
376.545	90.25
376.771	89.25
376.997	74.25
377.222	90.25
377.448	91.25
377.674	95.25
377.899	90.25
378.125	104.25
378.35	89.25
378.576	101.25
378.802	96.25
379.027	95.25
379.253	99.25
379.478	93.25
379.704	99.25
379.929	94.25
380.155	108.25
380.38	97.25
380.606	102.25
380.831	75.25
381.057	84.25
381.282	107.25
381.507	92.25
381.733	100.25
381.958	91.25
382.184	90.25
382.409	81.25
382.634	101.25
382.86	100.25
383.085	104.25
383.31	76.25
383.535	99.25
383.761	98.25
383.986	102.25
384.211	79.25
384.436	107.25
384.662	93.25
384.887	88.25
385.112	102.25
385.337	106.25
385.562	93.25
385.787	105.25
386.013	107.25
386.238	94.25
386.463	91.25
386.688	83.25
386.913	93.25
387.138	85.25
387.363	87.25
387.588	108.25
387.813	102.25
388.038	107.25
388.263	90.25
388.488	100.25
388.713	98.25
388.938	97.25
389.163	94.25
389.387	94.25
389.612	111.25
389.837	103.25
390.062	89.25
390.287	110.25
390.512	99.25
390.736	101.25
390.961	100.25
391.186	99.25
391.411	102.25
391.636	101.25
391.86	102.25
392.085	89.25
392.31	107.25
392.534	116.25
392.759	90.25
392.984	99.25
393.208	93.25
393.433	87.25
393.658	89.25
393.882	105.25
394.107	106.25
394.331	86.25
394.556	105.25
394.78	95.25
395.005	113.25
395.229	89.25
395.454	106.25
395.678	100.25
395.903	95.25
396.127	98.25
396.352	113.25
396.576	100.25
396.801	101.25
397.025	111.25
397.249	107.25
397.474	115.25
397.698	102.25
397.922	93.25
398.147	109.25
398.371	113.25
398.595	112.25
398.82	107.25
399.044	95.25
399.268	107.25
399.492	101.25
399.717	109.25
399.941	112.25
400.165	86.25
400.389	103.25
400.613	113.25
400.837	109.25
401.062	106.25
401.286	111.25
401.51	104.25
401.734	115.25
401.958	113.25
402.182	117.25
402.406	117.25
402.63	114.25
402.854	98.25
403.078	118.25
403.302	111.25
403.526	109.25
403.75	121.25
403.974	120.25
404.198	117.25
404.422	115.25
404.645	136.25
404.869	113.25
405.093	111.25
405.317	119.25
405.541	112.25
405.765	109.25
405.988	105.25
406.212	115.25
406.436	112.25
406.66	114.25
406.883	106.25
407.107	129.25
407.331	109.25
407.555	119.25
407.778	109.25
408.002	111.25
408.226	109.25
408.449	125.25
408.673	117.25
408.896	114.25
409.12	118.25
409.344	128.25
409.567	110.25
409.791	113.25
410.014	115.25
410.238	109.25
410.461	114.25
410.685	127.25
410.908	126.25
411.132	112.25
411.355	118.25
411.578	117.25
411.802	122.25
412.025	121.25
412.249	113.25
412.472	125.25
412.695	130.25
412.919	115.25
413.142	134.25
413.365	120.25
413.589	134.25
413.812	128.25
414.035	121.25
414.258	117.25
414.482	132.25
414.705	125.25
414.928	118.25
415.151	121.25
415.374	121.25
415.597	123.25
415.821	130.25
416.044	103.25
416.267	101.25
416.49	117.25
416.713	118.25
416.936	108.25
417.159	105.25
417.382	119.25
417.605	119.25
417.828	124.25
418.051	121.25
418.274	128.25
418.497	124.25
418.72	139.25
418.943	136.25
419.166	132.25
419.389	135.25
419.611	124.25
419.834	134.25
420.057	138.25
420.28	142.25
420.503	116.25
420.726	138.25
420.948	135.25
421.171	130.25
421.394	141.25
421.617	121.25
421.839	134.25
422.062	136.25
422.285	149.25
422.507	134.25
422.73	128.25
422.953	136.25
423.175	121.25
423.398	126.25
423.621	127.25
423.843	145.25
424.066	129.25
424.288	138.25
424.511	141.25
424.733	149.25
424.956	150.25
425.178	146.25
425.401	149.25
425.623	119.25
425.846	138.25
426.068	143.25
426.291	134.25
426.513	134.25
426.735	129.25
426.958	133.25
427.18	121.25
427.402	136.25
427.625	115.25
427.847	139.25
428.069	130.25
428.292	123.25
428.514	130.25
428.736	113.25
428.958	132.25
429.181	133.25
429.403	139.25
429.625	110.25
429.847	134.25
430.069	138.25
430.292	119.25
430.514	134.25
430.736	127.25
430.958	135.25
431.18	122.25
431.402	123.25
431.624	109.25
431.846	101.25
432.068	103.25
432.29	101.25
432.512	109.25
432.734	127.25
432.956	133.25
433.178	127.25
433.4	145.25
433.622	148.25
433.844	120.25
434.066	122.25
434.287	108.25
434.509	96.25
434.731	97.25
434.953	116.25
435.175	115.25
435.397	125.25
435.618	111.25
435.84	118.25
436.062	116.25
436.284	121.25
436.505	131.25
436.727	123.25
436.949	141.25
437.17	142.25
437.392	126.25
437.614	123.25
437.835	117.25
438.057	102.25
438.278	105.25
438.5	118.25
438.721	127.25
438.943	142.25
439.165	129.25
439.386	152.25
439.608	136.25
439.829	143.25
440.05	148.25
440.272	133.25
440.493	142.25
440.715	149.25
440.936	123.25
441.158	139.25
441.379	146.25
441.6	153.25
441.822	155.25
442.043	146.25
442.264	133.25
442.486	132.25
442.707	135.25
442.928	151.25
443.149	135.25
443.371	138.25
443.592	117.25
443.813	139.25
444.034	153.25
444.255	150.25
444.476	157.25
444.698	133.25
444.919	157.25
445.14	259.25
445.361	188.25
445.582	153.25
445.803	150.25
446.024	144.25
446.245	155.25
446.466	145.25
446.687	133.25
446.908	157.25
447.129	145.25
447.35	140.25
447.571	150.25
447.792	156.25
448.013	151.25
448.234	142.25
448.455	136.25
448.675	146.25
448.896	135.25
449.117	132.25
449.338	143.25
449.559	141.25
449.779	128.25
450	128.25
450.221	136.25
450.442	138.25
450.662	139.25
450.883	142.25
451.104	135.25
451.324	129.25
451.545	117.25
451.766	110.25
451.986	125.25
452.207	131.25
452.428	127.25
452.648	135.25
452.869	121.25
453.089	114.25
453.31	112.25
453.53	115.25
453.751	99.25
453.971	115.25
454.192	99.25
454.412	102.25
454.633	105.25
454.853	125.25
455.073	120.25
455.294	118.25
455.514	121.25
455.734	118.25
455.955	119.25
456.175	115.25
456.395	108.25
456.616	101.25
456.836	103.25
457.056	107.25
457.276	116.25
457.497	113.25
457.717	105.25
457.937	110.25
458.157	92.25
458.377	113.25
458.598	99.25
458.818	83.25
459.038	93.25
459.258	99.25
459.478	71.25
459.698	85.25
459.918	84.25
460.138	102.25
460.358	111.25
460.578	119.25
460.798	124.25
461.018	106.25
461.238	121.25
461.458	99.25
461.678	102.25
461.898	102.25
462.118	124.25
462.338	110.25
462.558	89.25
462.777	107.25
462.997	80.25
463.217	117.25
463.437	107.25
463.657	100.25
463.876	114.25
464.096	114.25
464.316	112.25
464.536	107.25
464.755	113.25
464.975	107.25
465.195	112.25
465.414	114.25
465.634	110.25
465.854	113.25
466.073	114.25
466.293	121.25
466.512	117.25
466.732	117.25
466.951	137.25
467.171	132.25
467.391	136.25
467.61	127.25
467.829	139.25
468.049	145.25
468.268	137.25
468.488	136.25
468.707	135.25
468.927	131.25
469.146	131.25
469.365	126.25
469.585	136.25
469.804	163.25
470.023	136.25
470.243	158.25
470.462	134.25
470.681	147.25
470.901	134.25
471.12	155.25
471.339	153.25
471.558	133.25
471.777	131.25
471.997	145.25
472.216	126.25
472.435	119.25
472.654	103.25
472.873	106.25
473.092	110.25
473.311	134.25
473.53	132.25
473.749	129.25
473.968	130.25
474.187	128.25
474.406	106.25
474.625	136.25
474.844	143.25
475.063	139.25
475.282	148.25
475.501	121.25
475.72	118.25
475.939	127.25
476.158	121.25
476.377	111.25
476.596	118.25
476.814	117.25
477.033	101.25
477.252	125.25
477.471	117.25
477.69	135.25
477.908	131.25
478.127	132.25
478.346	132.25
478.564	137.25
478.783	125.25
479.002	138.25
479.22	147.25
479.439	125.25
479.658	129.25
479.876	109.25
480.095	94.25
480.313	102.25
480.532	109.25
480.751	126.25
480.969	97.25
481.188	81.25
481.406	84.25
481.624	91.25
481.843	99.25
482.061	71.25
482.28	113.25
482.498	125.25
482.717	102.25
482.935	100.25
483.153	132.25
483.372	159.25
483.59	166.25
483.808	159.25
484.027	127.25
484.245	131.25
484.463	137.25
484.681	169.25
484.9	147.25
485.118	145.25
485.336	124.25
485.554	117.25
485.772	93.25
485.99	105.25
486.209	117.25
486.427	118.25
486.645	99.25
486.863	130.25
487.081	143.25
487.299	133.25
487.517	141.25
487.735	178.25
487.953	197.25
488.171	190.25
488.389	170.25
488.607	167.25
488.825	141.25
489.043	132.25
489.261	139.25
489.479	140.25
489.696	137.25
489.914	138.25
490.132	136.25
490.35	148.25
490.568	171.25
490.786	166.25
491.003	187.25
491.221	183.25
491.439	189.25
491.657	191.25
491.874	215.25
492.092	226.25
492.31	247.25
492.527	261.25
492.745	202.25
492.963	203.25
493.18	202.25
493.398	193.25
493.615	199.25
493.833	186.25
494.05	180.25
494.268	174.25
494.485	171.25
494.703	181.25
494.92	174.25
495.138	170.25
495.355	189.25
495.573	175.25
495.79	173.25
496.008	166.25
496.225	185.25
496.442	157.25
496.66	173.25
496.877	156.25
497.094	166.25
497.312	169.25
497.529	156.25
497.746	145.25
497.963	123.25
498.181	127.25
498.398	121.25
498.615	117.25
498.832	124.25
499.049	112.25
499.267	126.25
499.484	116.25
499.701	144.25
499.918	146.25
500.135	129.25
500.352	129.25
500.569	149.25
500.786	150.25
501.003	134.25
501.22	143.25
501.437	131.25
501.654	129.25
501.871	127.25
502.088	123.25
502.305	143.25
502.522	130.25
502.739	124.25
502.956	123.25
503.172	127.25
503.389	112.25
503.606	118.25
503.823	106.25
504.04	130.25
504.256	140.25
504.473	117.25
504.69	116.25
504.907	120.25
505.123	126.25
505.34	133.25
505.557	115.25
505.773	125.25
505.99	127.25
506.207	125.25
506.423	119.25
506.64	117.25
506.856	109.25
507.073	127.25
507.289	124.25
507.506	116.25
507.722	113.25
507.939	115.25
508.155	116.25
508.372	116.25
508.588	120.25
508.805	111.25
509.021	99.25
509.238	113.25
509.454	96.25
509.67	115.25
509.887	89.25
510.103	90.25
510.319	86.25
510.536	88.25
510.752	97.25
510.968	91.25
511.184	84.25
511.401	78.25
511.617	79.25
511.833	84.25
