Data from Location6.07152019.Energy5.Lamp.07192019.3%Agarose_HRD10591_16-11-51-394.txt Node
Date: Fri Jul 19 16:11:51 EDT 2019
User: cochatt
Spectrometer: HR+D1059
Trigger mode: 1
Integration Time (sec): 1.000000E-1
Scans to average: 1
Electric dark correction enabled: true
Nonlinearity correction enabled: false
Boxcar width: 0
XAxis mode: Wavelengths
Number of Pixels in Spectrum: 2048
>>>>>Begin Spectral Data<<<<<
223.165	-17
223.4	-17
223.635	-17
223.869	-15
224.104	-10
224.338	-19
224.573	-19
224.808	-15
225.042	-10
225.277	-4
225.511	-7
225.746	13
225.98	3
226.215	20
226.449	5
226.683	13
226.918	34
227.152	28
227.387	40
227.621	50
227.856	45
228.09	60
228.324	46
228.559	63
228.793	65
229.027	51
229.262	65
229.496	68
229.73	75
229.964	70
230.199	84
230.433	81
230.667	69
230.901	82
231.136	74
231.37	92
231.604	90
231.838	83
232.072	88
232.306	82
232.541	73
232.775	87
233.009	82
233.243	86
233.477	85
233.711	82
233.945	80
234.179	71
234.413	82
234.647	86
234.881	100
235.115	77
235.349	86
235.583	88
235.817	85
236.051	61
236.285	78
236.519	73
236.753	70
236.987	74
237.221	77
237.455	69
237.689	85
237.922	84
238.156	88
238.39	93
238.624	88
238.858	67
239.091	72
239.325	61
239.559	77
239.793	79
240.027	71
240.26	80
240.494	68
240.728	78
240.961	82
241.195	86
241.429	75
241.662	86
241.896	83
242.13	83
242.363	86
242.597	73
242.83	72
243.064	76
243.298	77
243.531	65
243.765	75
243.998	86
244.232	96
244.465	84
244.699	69
244.932	77
245.166	68
245.399	78
245.633	78
245.866	76
246.099	93
246.333	91
246.566	85
246.8	83
247.033	76
247.266	88
247.5	90
247.733	85
247.966	69
248.2	85
248.433	77
248.666	74
248.899	68
249.133	69
249.366	79
249.599	78
249.832	91
250.066	86
250.299	82
250.532	74
250.765	83
250.998	78
251.231	86
251.465	79
251.698	86
251.931	76
252.164	70
252.397	76
252.63	73
252.863	79
253.096	79
253.329	89
253.562	76
253.795	89
254.028	93
254.261	88
254.494	76
254.727	86
254.96	80
255.193	84
255.426	86
255.659	71
255.892	92
256.124	94
256.357	78
256.59	85
256.823	89
257.056	80
257.289	93
257.521	89
257.754	77
257.987	78
258.22	85
258.452	75
258.685	77
258.918	77
259.151	90
259.383	77
259.616	78
259.849	78
260.081	80
260.314	77
260.547	95
260.779	65
261.012	65
261.244	78
261.477	76
261.71	83
261.942	69
262.175	73
262.407	83
262.64	80
262.872	92
263.105	75
263.337	77
263.57	89
263.802	91
264.035	62
264.267	84
264.499	77
264.732	88
264.964	83
265.197	78
265.429	86
265.661	75
265.894	79
266.126	85
266.358	72
266.591	92
266.823	85
267.055	81
267.287	88
267.52	68
267.752	105
267.984	99
268.216	87
268.448	84
268.681	75
268.913	81
269.145	85
269.377	83
269.609	93
269.841	76
270.073	82
270.306	90
270.538	82
270.77	86
271.002	91
271.234	85
271.466	83
271.698	78
271.93	83
272.162	73
272.394	59
272.626	77
272.858	77
273.09	83
273.322	73
273.553	75
273.785	77
274.017	89
274.249	81
274.481	82
274.713	89
274.945	83
275.176	82
275.408	69
275.64	72
275.872	88
276.104	86
276.335	79
276.567	84
276.799	86
277.031	77
277.262	89
277.494	86
277.726	93
277.957	79
278.189	86
278.421	88
278.652	75
278.884	99
279.115	95
279.347	78
279.579	94
279.81	82
280.042	83
280.273	94
280.505	82
280.736	83
280.968	86
281.199	74
281.431	68
281.662	83
281.894	89
282.125	85
282.356	85
282.588	90
282.819	86
283.051	76
283.282	87
283.513	66
283.745	88
283.976	88
284.207	77
284.439	86
284.67	74
284.901	81
285.132	75
285.364	90
285.595	84
285.826	75
286.057	72
286.288	87
286.52	92
286.751	95
286.982	86
287.213	92
287.444	94
287.675	88
287.906	87
288.138	82
288.369	73
288.6	76
288.831	87
289.062	76
289.293	92
289.524	83
289.755	97
289.986	77
290.217	83
290.448	85
290.679	97
290.91	84
291.141	94
291.371	78
291.602	86
291.833	92
292.064	75
292.295	101
292.526	88
292.757	101
292.987	91
293.218	81
293.449	82
293.68	94
293.91	76
294.141	83
294.372	83
294.603	89
294.833	90
295.064	95
295.295	92
295.525	79
295.756	84
295.987	82
296.217	99
296.448	78
296.679	73
296.909	89
297.14	94
297.37	91
297.601	94
297.831	95
298.062	76
298.292	63
298.523	75
298.753	88
298.984	78
299.214	78
299.445	93
299.675	86
299.905	83
300.136	67
300.366	83
300.597	84
300.827	88
301.057	91
301.288	78
301.518	95
301.748	91
301.979	75
302.209	94
302.439	82
302.669	88
302.9	77
303.13	71
303.36	91
303.59	82
303.82	101
304.051	84
304.281	79
304.511	81
304.741	76
304.971	93
305.201	84
305.431	82
305.661	108
305.891	96
306.121	86
306.352	81
306.582	78
306.812	81
307.042	81
307.272	84
307.502	93
307.731	92
307.961	101
308.191	97
308.421	96
308.651	94
308.881	88
309.111	82
309.341	75
309.571	89
309.8	78
310.03	86
310.26	78
310.49	81
310.72	93
310.949	78
311.179	92
311.409	86
311.639	85
311.868	92
312.098	85
312.328	86
312.557	83
312.787	81
313.017	84
313.246	92
313.476	81
313.706	68
313.935	81
314.165	85
314.394	76
314.624	89
314.853	86
315.083	95
315.312	77
315.542	69
315.771	86
316.001	83
316.23	86
316.46	75
316.689	90
316.919	98
317.148	84
317.377	88
317.607	92
317.836	89
318.065	93
318.295	96
318.524	92
318.753	89
318.983	73
319.212	80
319.441	78
319.67	83
319.9	93
320.129	78
320.358	71
320.587	85
320.816	82
321.046	92
321.275	94
321.504	83
321.733	92
321.962	77
322.191	63
322.42	83
322.649	76
322.878	92
323.108	84
323.337	85
323.566	94
323.795	95
324.024	89
324.253	89
324.482	90
324.71	88
324.939	83
325.168	77
325.397	85
325.626	96
325.855	76
326.084	85
326.313	97
326.542	84
326.77	93
326.999	85
327.228	78
327.457	86
327.686	78
327.914	88
328.143	98
328.372	89
328.6	92
328.829	99
329.058	100
329.287	91
329.515	93
329.744	82
329.972	75
330.201	82
330.43	82
330.658	86
330.887	78
331.115	77
331.344	91
331.572	89
331.801	85
332.03	84
332.258	84
332.486	86
332.715	92
332.943	95
333.172	91
333.4	82
333.629	93
333.857	86
334.085	95
334.314	77
334.542	92
334.771	88
334.999	76
335.227	68
335.455	89
335.684	96
335.912	88
336.14	80
336.369	90
336.597	88
336.825	94
337.053	78
337.281	93
337.51	97
337.738	93
337.966	88
338.194	90
338.422	82
338.65	88
338.878	86
339.106	59
339.334	81
339.562	97
339.79	89
340.018	84
340.246	69
340.474	76
340.702	98
340.93	82
341.158	94
341.386	83
341.614	99
341.842	74
342.07	83
342.298	84
342.526	76
342.754	76
342.981	92
343.209	86
343.437	90
343.665	86
343.893	92
344.12	83
344.348	96
344.576	81
344.804	86
345.031	93
345.259	90
345.487	76
345.714	80
345.942	85
346.17	92
346.397	85
346.625	86
346.853	91
347.08	99
347.308	91
347.535	93
347.763	76
347.99	85
348.218	84
348.445	86
348.673	88
348.9	92
349.128	91
349.355	91
349.583	93
349.81	81
350.037	85
350.265	90
350.492	85
350.72	95
350.947	84
351.174	82
351.402	90
351.629	89
351.856	89
352.083	88
352.311	69
352.538	85
352.765	88
352.992	86
353.22	69
353.447	78
353.674	81
353.901	90
354.128	71
354.355	80
354.583	73
354.81	80
355.037	84
355.264	86
355.491	67
355.718	73
355.945	87
356.172	94
356.399	104
356.626	94
356.853	92
357.08	86
357.307	75
357.534	92
357.761	85
357.988	88
358.215	85
358.441	81
358.668	90
358.895	87
359.122	82
359.349	91
359.576	85
359.802	84
360.029	80
360.256	89
360.483	87
360.709	82
360.936	100
361.163	84
361.39	94
361.616	78
361.843	83
362.07	85
362.296	84
362.523	85
362.749	75
362.976	90
363.203	83
363.429	81
363.656	74
363.882	85
364.109	84
364.335	81
364.562	91
364.788	77
365.015	85
365.241	92
365.468	81
365.694	94
365.92	94
366.147	98
366.373	92
366.599	92
366.826	72
367.052	90
367.278	94
367.505	83
367.731	84
367.957	103
368.184	88
368.41	85
368.636	101
368.862	82
369.089	92
369.315	91
369.541	90
369.767	86
369.993	88
370.219	104
370.445	90
370.672	77
370.898	79
371.124	102
371.35	100
371.576	89
371.802	92
372.028	99
372.254	100
372.48	104
372.706	89
372.932	102
373.158	88
373.384	90
373.61	92
373.835	87
374.061	97
374.287	103
374.513	94
374.739	98
374.965	109
375.191	108
375.416	92
375.642	86
375.868	86
376.094	90
376.319	105
376.545	81
376.771	92
376.997	97
377.222	91
377.448	109
377.674	106
377.899	91
378.125	84
378.35	116
378.576	98
378.802	102
379.027	79
379.253	98
379.478	100
379.704	98
379.929	109
380.155	96
380.38	103
380.606	92
380.831	101
381.057	106
381.282	77
381.507	113
381.733	102
381.958	103
382.184	91
382.409	105
382.634	97
382.86	93
383.085	95
383.31	85
383.535	81
383.761	103
383.986	102
384.211	92
384.436	92
384.662	113
384.887	105
385.112	84
385.337	105
385.562	96
385.787	104
386.013	93
386.238	99
386.463	102
386.688	99
386.913	102
387.138	97
387.363	112
387.588	108
387.813	109
388.038	95
388.263	91
388.488	123
388.713	114
388.938	89
389.163	93
389.387	103
389.612	106
389.837	101
390.062	100
390.287	117
390.512	89
390.736	103
390.961	103
391.186	104
391.411	108
391.636	103
391.86	108
392.085	98
392.31	112
392.534	108
392.759	112
392.984	112
393.208	119
393.433	113
393.658	102
393.882	112
394.107	106
394.331	112
394.556	118
394.78	128
395.005	105
395.229	96
395.454	104
395.678	132
395.903	115
396.127	120
396.352	118
396.576	104
396.801	109
397.025	109
397.249	112
397.474	116
397.698	117
397.922	114
398.147	124
398.371	105
398.595	105
398.82	109
399.044	106
399.268	114
399.492	128
399.717	124
399.941	114
400.165	110
400.389	121
400.613	110
400.837	107
401.062	115
401.286	116
401.51	120
401.734	108
401.958	122
402.182	126
402.406	117
402.63	117
402.854	119
403.078	122
403.302	130
403.526	123
403.75	120
403.974	112
404.198	131
404.422	114
404.645	128
404.869	123
405.093	114
405.317	133
405.541	128
405.765	128
405.988	117
406.212	125
406.436	99
406.66	120
406.883	128
407.107	126
407.331	128
407.555	131
407.778	115
408.002	129
408.226	125
408.449	136
408.673	117
408.896	116
409.12	119
409.344	136
409.567	120
409.791	138
410.014	132
410.238	117
410.461	120
410.685	121
410.908	95
411.132	126
411.355	130
411.578	122
411.802	123
412.025	132
412.249	123
412.472	119
412.695	116
412.919	126
413.142	132
413.365	133
413.589	120
413.812	140
414.035	122
414.258	132
414.482	120
414.705	133
414.928	137
415.151	123
415.374	120
415.597	120
415.821	130
416.044	124
416.267	141
416.49	121
416.713	131
416.936	135
417.159	130
417.382	126
417.605	137
417.828	123
418.051	126
418.274	134
418.497	130
418.72	131
418.943	137
419.166	124
419.389	141
419.611	148
419.834	139
420.057	151
420.28	146
420.503	135
420.726	125
420.948	139
421.171	149
421.394	136
421.617	148
421.839	132
422.062	147
422.285	142
422.507	153
422.73	144
422.953	126
423.175	147
423.398	143
423.621	135
423.843	146
424.066	140
424.288	141
424.511	155
424.733	149
424.956	159
425.178	160
425.401	140
425.623	147
425.846	131
426.068	139
426.291	147
426.513	137
426.735	143
426.958	132
427.18	144
427.402	140
427.625	130
427.847	140
428.069	136
428.292	132
428.514	125
428.736	132
428.958	136
429.181	120
429.403	137
429.625	131
429.847	119
430.069	136
430.292	151
430.514	136
430.736	130
430.958	130
431.18	143
431.402	141
431.624	110
431.846	120
432.068	103
432.29	110
432.512	122
432.734	130
432.956	132
433.178	135
433.4	144
433.622	145
433.844	141
434.066	129
434.287	115
434.509	97
434.731	112
434.953	115
435.175	139
435.397	140
435.618	125
435.84	124
436.062	117
436.284	130
436.505	134
436.727	140
436.949	131
437.17	133
437.392	126
437.614	134
437.835	124
438.057	109
438.278	121
438.5	126
438.721	137
438.943	141
439.165	137
439.386	152
439.608	141
439.829	140
440.05	137
440.272	164
440.493	154
440.715	158
440.936	155
441.158	150
441.379	134
441.6	160
441.822	151
442.043	147
442.264	148
442.486	145
442.707	139
442.928	159
443.149	155
443.371	142
443.592	146
443.813	150
444.034	150
444.255	152
444.476	142
444.698	146
444.919	153
445.14	270
445.361	210
445.582	165
445.803	159
446.024	142
446.245	156
446.466	166
446.687	158
446.908	166
447.129	153
447.35	160
447.571	150
447.792	147
448.013	152
448.234	140
448.455	151
448.675	157
448.896	156
449.117	148
449.338	142
449.559	142
449.779	134
450	140
450.221	139
450.442	162
450.662	155
450.883	144
451.104	135
451.324	141
451.545	154
451.766	141
451.986	124
452.207	129
452.428	135
452.648	125
452.869	123
453.089	113
453.31	121
453.53	109
453.751	106
453.971	112
454.192	107
454.412	109
454.633	115
454.853	117
455.073	132
455.294	125
455.514	131
455.734	140
455.955	123
456.175	127
456.395	119
456.616	101
456.836	115
457.056	126
457.276	117
457.497	113
457.717	119
457.937	117
458.157	116
458.377	100
458.598	83
458.818	89
459.038	85
459.258	92
459.478	90
459.698	94
459.918	103
460.138	115
460.358	105
460.578	110
460.798	112
461.018	125
461.238	119
461.458	113
461.678	134
461.898	116
462.118	128
462.338	129
462.558	121
462.777	113
462.997	97
463.217	116
463.437	110
463.657	94
463.876	114
464.096	100
464.316	112
464.536	101
464.755	128
464.975	112
465.195	125
465.414	124
465.634	116
465.854	113
466.073	119
466.293	125
466.512	134
466.732	131
466.951	145
467.171	138
467.391	146
467.61	138
467.829	137
468.049	134
468.268	144
468.488	138
468.707	140
468.927	137
469.146	146
469.365	153
469.585	140
469.804	142
470.023	136
470.243	152
470.462	140
470.681	156
470.901	142
471.12	139
471.339	163
471.558	147
471.777	155
471.997	152
472.216	149
472.435	134
472.654	109
472.873	103
473.092	113
473.311	133
473.53	132
473.749	140
473.968	132
474.187	123
474.406	119
474.625	132
474.844	149
475.063	134
475.282	128
475.501	128
475.72	143
475.939	126
476.158	107
476.377	128
476.596	127
476.814	127
477.033	116
477.252	120
477.471	107
477.69	137
477.908	147
478.127	150
478.346	152
478.564	129
478.783	132
479.002	143
479.22	136
479.439	132
479.658	122
479.876	118
480.095	105
480.313	130
480.532	120
480.751	126
480.969	104
481.188	88
481.406	96
481.624	97
481.843	90
482.061	103
482.28	143
482.498	140
482.717	123
482.935	133
483.153	159
483.372	166
483.59	149
483.808	158
484.027	140
484.245	138
484.463	159
484.681	168
484.9	167
485.118	147
485.336	125
485.554	122
485.772	102
485.99	122
486.209	132
486.427	117
486.645	135
486.863	143
487.081	142
487.299	138
487.517	148
487.735	178
487.953	213
488.171	199
488.389	176
488.607	177
488.825	148
489.043	135
489.261	146
489.479	151
489.696	155
489.914	160
490.132	154
490.35	160
490.568	162
490.786	193
491.003	194
491.221	180
491.439	195
491.657	193
491.874	231
492.092	247
492.31	274
492.527	249
492.745	233
492.963	215
493.18	205
493.398	199
493.615	172
493.833	201
494.05	178
494.268	183
494.485	194
494.703	179
494.92	188
495.138	180
495.355	186
495.573	171
495.79	168
496.008	174
496.225	180
496.442	178
496.66	168
496.877	177
497.094	176
497.312	185
497.529	157
497.746	147
497.963	134
498.181	138
498.398	135
498.615	124
498.832	124
499.049	121
499.267	136
499.484	121
499.701	140
499.918	140
500.135	147
500.352	163
500.569	129
500.786	149
501.003	161
501.22	155
501.437	146
501.654	143
501.871	146
502.088	156
502.305	154
502.522	136
502.739	142
502.956	122
503.172	133
503.389	132
503.606	135
503.823	133
504.04	128
504.256	130
504.473	113
504.69	123
504.907	118
505.123	110
505.34	127
505.557	136
505.773	136
505.99	121
506.207	106
506.423	121
506.64	117
506.856	119
507.073	119
507.289	114
507.506	117
507.722	122
507.939	135
508.155	133
508.372	132
508.588	118
508.805	122
509.021	112
509.238	116
509.454	100
509.67	108
509.887	97
510.103	98
510.319	94
510.536	99
510.752	99
510.968	82
511.184	72
511.401	104
511.617	89
511.833	98
512.049	96
512.265	103
512.481	99
512.698	92
512.914	104
513.13	104
513.346	103
513.562	88
513.778	98
513.994	106
514.21	96
514.426	99
514.642	91
514.858	90
515.074	86
515.29	77
515.506	91
515.721	90
515.937	98
516.153	73
516.369	60
516.585	75
516.801	76
517.016	89
517.232	95
517.448	104
517.664	103
517.879	92
518.095	98
518.311	99
518.527	100
518.742	89
518.958	107
519.173	114
519.389	109
519.605	103
519.82	112
520.036	121
520.251	107
520.467	120
520.682	118
520.898	100
521.113	93
521.329	88
521.544	96
521.76	80
521.975	96
522.19	96
522.406	88
522.621	99
522.836	112
523.052	115
523.267	132
523.482	114
523.698	110
523.913	117
524.128	109
524.343	141
524.559	125
524.774	127
524.989	122
525.204	110
525.419	124
525.634	128
525.849	123
526.064	104
526.28	116
526.495	93
526.71	90
526.925	82
527.14	70
527.355	77
527.57	88
527.785	90
527.999	91
528.214	109
528.429	127
528.644	117
528.859	133
529.074	160
529.289	165
529.503	156
529.718	141
529.933	129
530.148	112
530.363	112
530.577	84
530.792	92
531.007	89
531.221	76
531.436	90
531.651	79
531.865	87
532.08	71
532.295	105
532.509	90
532.724	90
532.938	85
533.153	99
533.367	109
533.582	116
533.796	119
534.011	134
534.225	108
534.44	96
534.654	95
534.868	83
535.083	102
535.297	90
535.511	98
535.726	123
535.94	101
536.154	99
536.369	78
536.583	103
536.797	97
537.011	97
537.225	99
537.44	93
537.654	91
537.868	104
538.082	95
538.296	87
538.51	107
538.724	133
538.938	120
539.153	132
539.367	132
539.581	129
539.795	100
540.009	112
540.222	99
540.436	103
540.65	125
540.864	128
541.078	140
541.292	150
541.506	153
541.72	190
541.934	205
542.147	211
542.361	189
542.575	159
542.789	169
543.002	143
543.216	136
543.43	131
543.644	142
543.857	147
544.071	149
544.285	170
544.498	158
544.712	171
544.925	162
545.139	176
545.352	164
545.566	184
545.779	168
545.993	173
546.206	165
546.42	174
546.633	192
546.847	158
547.06	173
547.274	179
547.487	173
547.7	177
547.914	176
548.127	173
548.34	165
548.554	168
548.767	171
548.98	173
549.193	163
549.407	157
549.62	161
549.833	158
550.046	172
550.259	149
550.473	164
550.686	152
550.899	158
551.112	162
551.325	148
551.538	148
551.751	131
551.964	131
552.177	137
552.39	140
552.603	154
552.816	165
553.029	163
553.242	151
553.455	160
553.667	179
553.88	167
554.093	166
554.306	146
554.519	171
554.732	146
554.944	143
555.157	158
555.37	146
555.583	138
555.795	166
556.008	149
556.221	140
556.433	136
556.646	136
556.859	142
557.071	146
557.284	130
557.496	131
557.709	143
557.921	134
558.134	154
558.346	141
558.559	148
558.771	149
558.984	132
559.196	134
559.409	148
559.621	142
559.833	136
560.046	124
560.258	119
560.47	140
560.683	130
560.895	143
561.107	136
561.32	124
561.532	141
561.744	132
561.956	145
562.168	132
562.381	138
562.593	140
562.805	123
563.017	127
563.229	133
563.441	146
563.653	129
563.865	133
564.077	130
564.289	120
564.501	130
564.713	118
564.925	122
565.137	118
565.349	110
565.561	118
565.773	128
565.985	120
566.197	131
566.408	133
566.62	124
566.832	120
567.044	125
567.255	129
567.467	114
567.679	99
567.891	108
568.102	98
568.314	116
568.526	89
568.737	109
568.949	85
569.161	77
569.372	89
569.584	88
569.795	88
570.007	78
570.218	84
570.43	86
570.641	93
570.853	107
571.064	108
571.276	114
571.487	114
571.698	123
571.91	108
572.121	112
572.333	118
572.544	105
572.755	102
572.966	96
573.178	84
573.389	91
573.6	94
573.811	85
574.023	80
574.234	77
574.445	98
574.656	108
574.867	101
575.078	91
575.289	90
575.501	95
575.712	89
575.923	100
576.134	102
