Data from Location6.07152019.Energy5.Lamp.07192019.3%Agarose_HRD10591_16-12-31-396.txt Node
Date: Fri Jul 19 16:12:31 EDT 2019
User: cochatt
Spectrometer: HR+D1059
Trigger mode: 1
Integration Time (sec): 1.000000E-1
Scans to average: 1
Electric dark correction enabled: true
Nonlinearity correction enabled: false
Boxcar width: 0
XAxis mode: Wavelengths
Number of Pixels in Spectrum: 2048
>>>>>Begin Spectral Data<<<<<
223.165	-4.69
223.4	-4.69
223.635	-4.69
223.869	-15.69
224.104	-11.69
224.338	-29.69
224.573	-21.69
224.808	-6.69
225.042	-1.69
225.277	2.31
225.511	-6.69
225.746	11.31
225.98	-0.69
226.215	13.31
226.449	21.31
226.683	16.31
226.918	18.31
227.152	16.31
227.387	31.31
227.621	52.31
227.856	31.31
228.09	46.31
228.324	51.31
228.559	50.31
228.793	47.31
229.027	71.31
229.262	59.31
229.496	84.31
229.73	73.31
229.964	70.31
230.199	66.31
230.433	65.31
230.667	74.31
230.901	88.31
231.136	76.31
231.37	78.31
231.604	76.31
231.838	80.31
232.072	79.31
232.306	80.31
232.541	64.31
232.775	80.31
233.009	90.31
233.243	87.31
233.477	89.31
233.711	72.31
233.945	77.31
234.179	83.31
234.413	79.31
234.647	89.31
234.881	93.31
235.115	76.31
235.349	80.31
235.583	81.31
235.817	74.31
236.051	78.31
236.285	71.31
236.519	72.31
236.753	87.31
236.987	83.31
237.221	80.31
237.455	79.31
237.689	83.31
237.922	74.31
238.156	71.31
238.39	85.31
238.624	72.31
238.858	80.31
239.091	74.31
239.325	82.31
239.559	59.31
239.793	82.31
240.027	96.31
240.26	92.31
240.494	71.31
240.728	69.31
240.961	75.31
241.195	82.31
241.429	81.31
241.662	72.31
241.896	77.31
242.13	75.31
242.363	66.31
242.597	91.31
242.83	80.31
243.064	74.31
243.298	71.31
243.531	78.31
243.765	66.31
243.998	64.31
244.232	82.31
244.465	78.31
244.699	76.31
244.932	72.31
245.166	68.31
245.399	85.31
245.633	79.31
245.866	79.31
246.099	76.31
246.333	79.31
246.566	62.31
246.8	81.31
247.033	73.31
247.266	90.31
247.5	82.31
247.733	76.31
247.966	75.31
248.2	94.31
248.433	78.31
248.666	84.31
248.899	84.31
249.133	66.31
249.366	71.31
249.599	72.31
249.832	89.31
250.066	84.31
250.299	81.31
250.532	77.31
250.765	75.31
250.998	68.31
251.231	75.31
251.465	76.31
251.698	85.31
251.931	87.31
252.164	74.31
252.397	82.31
252.63	76.31
252.863	81.31
253.096	82.31
253.329	83.31
253.562	76.31
253.795	62.31
254.028	94.31
254.261	84.31
254.494	86.31
254.727	75.31
254.96	91.31
255.193	85.31
255.426	81.31
255.659	73.31
255.892	79.31
256.124	72.31
256.357	96.31
256.59	80.31
256.823	83.31
257.056	92.31
257.289	75.31
257.521	78.31
257.754	76.31
257.987	94.31
258.22	95.31
258.452	83.31
258.685	77.31
258.918	92.31
259.151	87.31
259.383	86.31
259.616	84.31
259.849	81.31
260.081	80.31
260.314	77.31
260.547	71.31
260.779	91.31
261.012	88.31
261.244	68.31
261.477	78.31
261.71	67.31
261.942	74.31
262.175	89.31
262.407	78.31
262.64	77.31
262.872	88.31
263.105	75.31
263.337	74.31
263.57	78.31
263.802	74.31
264.035	72.31
264.267	87.31
264.499	88.31
264.732	95.31
264.964	82.31
265.197	88.31
265.429	81.31
265.661	80.31
265.894	104.31
266.126	87.31
266.358	71.31
266.591	71.31
266.823	76.31
267.055	77.31
267.287	85.31
267.52	92.31
267.752	95.31
267.984	69.31
268.216	79.31
268.448	85.31
268.681	67.31
268.913	76.31
269.145	77.31
269.377	78.31
269.609	85.31
269.841	86.31
270.073	64.31
270.306	74.31
270.538	89.31
270.77	74.31
271.002	94.31
271.234	80.31
271.466	95.31
271.698	90.31
271.93	78.31
272.162	77.31
272.394	86.31
272.626	80.31
272.858	67.31
273.09	80.31
273.322	84.31
273.553	77.31
273.785	82.31
274.017	83.31
274.249	77.31
274.481	96.31
274.713	86.31
274.945	81.31
275.176	67.31
275.408	87.31
275.64	100.31
275.872	76.31
276.104	83.31
276.335	68.31
276.567	89.31
276.799	78.31
277.031	82.31
277.262	72.31
277.494	82.31
277.726	86.31
277.957	74.31
278.189	80.31
278.421	91.31
278.652	70.31
278.884	73.31
279.115	79.31
279.347	77.31
279.579	76.31
279.81	87.31
280.042	80.31
280.273	93.31
280.505	82.31
280.736	86.31
280.968	76.31
281.199	83.31
281.431	88.31
281.662	82.31
281.894	92.31
282.125	94.31
282.356	75.31
282.588	74.31
282.819	86.31
283.051	78.31
283.282	84.31
283.513	75.31
283.745	72.31
283.976	74.31
284.207	69.31
284.439	82.31
284.67	83.31
284.901	85.31
285.132	89.31
285.364	86.31
285.595	73.31
285.826	75.31
286.057	85.31
286.288	83.31
286.52	76.31
286.751	74.31
286.982	89.31
287.213	85.31
287.444	82.31
287.675	88.31
287.906	69.31
288.138	82.31
288.369	76.31
288.6	83.31
288.831	77.31
289.062	75.31
289.293	86.31
289.524	92.31
289.755	75.31
289.986	89.31
290.217	82.31
290.448	84.31
290.679	86.31
290.91	83.31
291.141	75.31
291.371	81.31
291.602	82.31
291.833	84.31
292.064	78.31
292.295	84.31
292.526	90.31
292.757	77.31
292.987	80.31
293.218	69.31
293.449	95.31
293.68	88.31
293.91	72.31
294.141	83.31
294.372	82.31
294.603	83.31
294.833	79.31
295.064	80.31
295.295	87.31
295.525	98.31
295.756	75.31
295.987	93.31
296.217	93.31
296.448	84.31
296.679	66.31
296.909	95.31
297.14	80.31
297.37	71.31
297.601	75.31
297.831	74.31
298.062	88.31
298.292	87.31
298.523	76.31
298.753	87.31
298.984	79.31
299.214	84.31
299.445	90.31
299.675	85.31
299.905	92.31
300.136	86.31
300.366	79.31
300.597	86.31
300.827	87.31
301.057	63.31
301.288	80.31
301.518	70.31
301.748	82.31
301.979	98.31
302.209	79.31
302.439	86.31
302.669	83.31
302.9	99.31
303.13	87.31
303.36	89.31
303.59	96.31
303.82	92.31
304.051	83.31
304.281	84.31
304.511	75.31
304.741	85.31
304.971	72.31
305.201	77.31
305.431	95.31
305.661	86.31
305.891	74.31
306.121	89.31
306.352	74.31
306.582	94.31
306.812	77.31
307.042	78.31
307.272	80.31
307.502	80.31
307.731	78.31
307.961	76.31
308.191	75.31
308.421	78.31
308.651	76.31
308.881	89.31
309.111	81.31
309.341	86.31
309.571	72.31
309.8	86.31
310.03	82.31
310.26	71.31
310.49	80.31
310.72	82.31
310.949	81.31
311.179	89.31
311.409	68.31
311.639	92.31
311.868	71.31
312.098	85.31
312.328	73.31
312.557	81.31
312.787	92.31
313.017	75.31
313.246	82.31
313.476	82.31
313.706	82.31
313.935	80.31
314.165	76.31
314.394	96.31
314.624	86.31
314.853	93.31
315.083	92.31
315.312	83.31
315.542	76.31
315.771	79.31
316.001	86.31
316.23	81.31
316.46	89.31
316.689	76.31
316.919	76.31
317.148	96.31
317.377	94.31
317.607	90.31
317.836	89.31
318.065	73.31
318.295	97.31
318.524	73.31
318.753	86.31
318.983	86.31
319.212	85.31
319.441	85.31
319.67	87.31
319.9	83.31
320.129	86.31
320.358	93.31
320.587	77.31
320.816	78.31
321.046	82.31
321.275	100.31
321.504	79.31
321.733	83.31
321.962	90.31
322.191	74.31
322.42	86.31
322.649	87.31
322.878	87.31
323.108	79.31
323.337	79.31
323.566	79.31
323.795	86.31
324.024	80.31
324.253	99.31
324.482	91.31
324.71	83.31
324.939	82.31
325.168	81.31
325.397	78.31
325.626	67.31
325.855	75.31
326.084	76.31
326.313	83.31
326.542	80.31
326.77	88.31
326.999	82.31
327.228	73.31
327.457	97.31
327.686	104.31
327.914	90.31
328.143	88.31
328.372	80.31
328.6	96.31
328.829	84.31
329.058	83.31
329.287	80.31
329.515	76.31
329.744	76.31
329.972	81.31
330.201	79.31
330.43	74.31
330.658	86.31
330.887	79.31
331.115	81.31
331.344	93.31
331.572	87.31
331.801	80.31
332.03	85.31
332.258	82.31
332.486	76.31
332.715	83.31
332.943	81.31
333.172	73.31
333.4	85.31
333.629	86.31
333.857	82.31
334.085	78.31
334.314	86.31
334.542	78.31
334.771	82.31
334.999	76.31
335.227	82.31
335.455	91.31
335.684	95.31
335.912	75.31
336.14	77.31
336.369	75.31
336.597	74.31
336.825	91.31
337.053	81.31
337.281	69.31
337.51	91.31
337.738	85.31
337.966	68.31
338.194	82.31
338.422	86.31
338.65	75.31
338.878	69.31
339.106	84.31
339.334	95.31
339.562	93.31
339.79	87.31
340.018	76.31
340.246	85.31
340.474	82.31
340.702	70.31
340.93	91.31
341.158	90.31
341.386	80.31
341.614	70.31
341.842	82.31
342.07	92.31
342.298	71.31
342.526	97.31
342.754	74.31
342.981	81.31
343.209	83.31
343.437	95.31
343.665	84.31
343.893	73.31
344.12	92.31
344.348	87.31
344.576	72.31
344.804	88.31
345.031	84.31
345.259	98.31
345.487	92.31
345.714	77.31
345.942	90.31
346.17	95.31
346.397	84.31
346.625	88.31
346.853	76.31
347.08	68.31
347.308	85.31
347.535	67.31
347.763	94.31
347.99	81.31
348.218	80.31
348.445	79.31
348.673	82.31
348.9	78.31
349.128	101.31
349.355	74.31
349.583	78.31
349.81	71.31
350.037	93.31
350.265	79.31
350.492	80.31
350.72	81.31
350.947	82.31
351.174	72.31
351.402	86.31
351.629	81.31
351.856	76.31
352.083	90.31
352.311	87.31
352.538	71.31
352.765	72.31
352.992	91.31
353.22	78.31
353.447	74.31
353.674	84.31
353.901	81.31
354.128	82.31
354.355	82.31
354.583	72.31
354.81	82.31
355.037	88.31
355.264	89.31
355.491	94.31
355.718	73.31
355.945	80.31
356.172	77.31
356.399	79.31
356.626	81.31
356.853	77.31
357.08	87.31
357.307	94.31
357.534	71.31
357.761	83.31
357.988	80.31
358.215	80.31
358.441	86.31
358.668	84.31
358.895	82.31
359.122	69.31
359.349	88.31
359.576	79.31
359.802	80.31
360.029	71.31
360.256	80.31
360.483	98.31
360.709	73.31
360.936	75.31
361.163	85.31
361.39	72.31
361.616	79.31
361.843	81.31
362.07	79.31
362.296	106.31
362.523	89.31
362.749	68.31
362.976	88.31
363.203	102.31
363.429	91.31
363.656	76.31
363.882	85.31
364.109	85.31
364.335	90.31
364.562	83.31
364.788	92.31
365.015	104.31
365.241	83.31
365.468	94.31
365.694	83.31
365.92	81.31
366.147	90.31
366.373	96.31
366.599	89.31
366.826	79.31
367.052	93.31
367.278	79.31
367.505	91.31
367.731	105.31
367.957	101.31
368.184	89.31
368.41	96.31
368.636	92.31
368.862	90.31
369.089	91.31
369.315	94.31
369.541	94.31
369.767	95.31
369.993	91.31
370.219	93.31
370.445	103.31
370.672	102.31
370.898	102.31
371.124	79.31
371.35	89.31
371.576	88.31
371.802	68.31
372.028	85.31
372.254	87.31
372.48	99.31
372.706	97.31
372.932	92.31
373.158	99.31
373.384	99.31
373.61	95.31
373.835	93.31
374.061	97.31
374.287	87.31
374.513	91.31
374.739	89.31
374.965	92.31
375.191	93.31
375.416	81.31
375.642	104.31
375.868	89.31
376.094	101.31
376.319	103.31
376.545	104.31
376.771	104.31
376.997	98.31
377.222	101.31
377.448	97.31
377.674	97.31
377.899	88.31
378.125	88.31
378.35	73.31
378.576	85.31
378.802	90.31
379.027	80.31
379.253	102.31
379.478	98.31
379.704	76.31
379.929	85.31
380.155	107.31
380.38	83.31
380.606	103.31
380.831	98.31
381.057	85.31
381.282	84.31
381.507	95.31
381.733	99.31
381.958	96.31
382.184	87.31
382.409	105.31
382.634	101.31
382.86	101.31
383.085	91.31
383.31	91.31
383.535	104.31
383.761	95.31
383.986	110.31
384.211	103.31
384.436	92.31
384.662	77.31
384.887	83.31
385.112	104.31
385.337	104.31
385.562	112.31
385.787	94.31
386.013	83.31
386.238	97.31
386.463	103.31
386.688	110.31
386.913	117.31
387.138	120.31
387.363	100.31
387.588	103.31
387.813	92.31
388.038	98.31
388.263	117.31
388.488	107.31
388.713	108.31
388.938	119.31
389.163	106.31
389.387	86.31
389.612	97.31
389.837	98.31
390.062	105.31
390.287	97.31
390.512	107.31
390.736	118.31
390.961	119.31
391.186	110.31
391.411	104.31
391.636	112.31
391.86	95.31
392.085	107.31
392.31	105.31
392.534	111.31
392.759	112.31
392.984	112.31
393.208	120.31
393.433	101.31
393.658	114.31
393.882	98.31
394.107	108.31
394.331	104.31
394.556	111.31
394.78	121.31
395.005	98.31
395.229	102.31
395.454	122.31
395.678	113.31
395.903	120.31
396.127	105.31
396.352	96.31
396.576	106.31
396.801	98.31
397.025	103.31
397.249	103.31
397.474	117.31
397.698	104.31
397.922	112.31
398.147	107.31
398.371	103.31
398.595	115.31
398.82	112.31
399.044	111.31
399.268	116.31
399.492	112.31
399.717	121.31
399.941	106.31
400.165	107.31
400.389	112.31
400.613	130.31
400.837	123.31
401.062	123.31
401.286	108.31
401.51	114.31
401.734	122.31
401.958	124.31
402.182	115.31
402.406	124.31
402.63	131.31
402.854	117.31
403.078	118.31
403.302	122.31
403.526	126.31
403.75	117.31
403.974	129.31
404.198	112.31
404.422	118.31
404.645	116.31
404.869	116.31
405.093	123.31
405.317	108.31
405.541	115.31
405.765	124.31
405.988	111.31
406.212	127.31
406.436	122.31
406.66	126.31
406.883	126.31
407.107	121.31
407.331	122.31
407.555	129.31
407.778	123.31
408.002	118.31
408.226	124.31
408.449	129.31
408.673	130.31
408.896	123.31
409.12	121.31
409.344	132.31
409.567	119.31
409.791	123.31
410.014	122.31
410.238	126.31
410.461	123.31
410.685	122.31
410.908	126.31
411.132	121.31
411.355	102.31
411.578	122.31
411.802	122.31
412.025	128.31
412.249	130.31
412.472	122.31
412.695	134.31
412.919	116.31
413.142	121.31
413.365	122.31
413.589	126.31
413.812	130.31
414.035	127.31
414.258	136.31
414.482	136.31
414.705	119.31
414.928	135.31
415.151	132.31
415.374	140.31
415.597	133.31
415.821	126.31
416.044	133.31
416.267	121.31
416.49	144.31
416.713	148.31
416.936	129.31
417.159	119.31
417.382	122.31
417.605	143.31
417.828	130.31
418.051	140.31
418.274	146.31
418.497	131.31
418.72	151.31
418.943	130.31
419.166	135.31
419.389	132.31
419.611	142.31
419.834	159.31
420.057	132.31
420.28	141.31
420.503	138.31
420.726	130.31
420.948	135.31
421.171	135.31
421.394	131.31
421.617	148.31
421.839	154.31
422.062	137.31
422.285	135.31
422.507	134.31
422.73	141.31
422.953	135.31
423.175	130.31
423.398	136.31
423.621	130.31
423.843	141.31
424.066	139.31
424.288	132.31
424.511	147.31
424.733	163.31
424.956	145.31
425.178	143.31
425.401	132.31
425.623	148.31
425.846	146.31
426.068	132.31
426.291	148.31
426.513	147.31
426.735	137.31
426.958	140.31
427.18	140.31
427.402	146.31
427.625	125.31
427.847	126.31
428.069	120.31
428.292	130.31
428.514	132.31
428.736	145.31
428.958	146.31
429.181	140.31
429.403	132.31
429.625	128.31
429.847	123.31
430.069	134.31
430.292	133.31
430.514	127.31
430.736	136.31
430.958	134.31
431.18	121.31
431.402	128.31
431.624	130.31
431.846	113.31
432.068	95.31
432.29	89.31
432.512	132.31
432.734	130.31
432.956	148.31
433.178	151.31
433.4	128.31
433.622	151.31
433.844	129.31
434.066	132.31
434.287	112.31
434.509	102.31
434.731	108.31
434.953	112.31
435.175	124.31
435.397	125.31
435.618	132.31
435.84	121.31
436.062	118.31
436.284	134.31
436.505	131.31
436.727	137.31
436.949	138.31
437.17	131.31
437.392	125.31
437.614	125.31
437.835	114.31
438.057	116.31
438.278	112.31
438.5	136.31
438.721	136.31
438.943	137.31
439.165	141.31
439.386	144.31
439.608	133.31
439.829	147.31
440.05	143.31
440.272	133.31
440.493	150.31
440.715	148.31
440.936	144.31
441.158	152.31
441.379	146.31
441.6	166.31
441.822	161.31
442.043	140.31
442.264	138.31
442.486	146.31
442.707	152.31
442.928	140.31
443.149	137.31
443.371	166.31
443.592	141.31
443.813	147.31
444.034	153.31
444.255	147.31
444.476	148.31
444.698	145.31
444.919	135.31
445.14	261.31
445.361	213.31
445.582	159.31
445.803	162.31
446.024	157.31
446.245	163.31
446.466	168.31
446.687	154.31
446.908	152.31
447.129	162.31
447.35	164.31
447.571	161.31
447.792	151.31
448.013	148.31
448.234	150.31
448.455	150.31
448.675	139.31
448.896	145.31
449.117	144.31
449.338	146.31
449.559	164.31
449.779	143.31
450	142.31
450.221	145.31
450.442	131.31
450.662	131.31
450.883	145.31
451.104	114.31
451.324	152.31
451.545	141.31
451.766	137.31
451.986	123.31
452.207	124.31
452.428	123.31
452.648	125.31
452.869	125.31
453.089	106.31
453.31	119.31
453.53	112.31
453.751	101.31
453.971	120.31
454.192	114.31
454.412	113.31
454.633	120.31
454.853	122.31
455.073	117.31
455.294	128.31
455.514	126.31
455.734	123.31
455.955	128.31
456.175	120.31
456.395	121.31
456.616	109.31
456.836	123.31
457.056	103.31
457.276	107.31
457.497	106.31
457.717	119.31
457.937	106.31
458.157	114.31
458.377	107.31
458.598	108.31
458.818	94.31
459.038	82.31
459.258	90.31
459.478	99.31
459.698	101.31
459.918	112.31
460.138	93.31
460.358	96.31
460.578	124.31
460.798	118.31
461.018	123.31
461.238	116.31
461.458	118.31
461.678	127.31
461.898	123.31
462.118	113.31
462.338	97.31
462.558	132.31
462.777	110.31
462.997	115.31
463.217	105.31
463.437	114.31
463.657	112.31
463.876	116.31
464.096	100.31
464.316	118.31
464.536	110.31
464.755	124.31
464.975	126.31
465.195	118.31
465.414	108.31
465.634	118.31
465.854	112.31
466.073	133.31
466.293	122.31
466.512	132.31
466.732	123.31
466.951	130.31
467.171	139.31
467.391	145.31
467.61	135.31
467.829	137.31
468.049	145.31
468.268	139.31
468.488	126.31
468.707	152.31
468.927	137.31
469.146	135.31
469.365	128.31
469.585	153.31
469.804	136.31
470.023	140.31
470.243	143.31
470.462	149.31
470.681	138.31
470.901	130.31
471.12	143.31
471.339	162.31
471.558	151.31
471.777	158.31
471.997	127.31
472.216	133.31
472.435	127.31
472.654	103.31
472.873	130.31
473.092	122.31
473.311	118.31
473.53	121.31
473.749	118.31
473.968	121.31
474.187	143.31
474.406	130.31
474.625	120.31
474.844	124.31
475.063	139.31
475.282	128.31
475.501	124.31
475.72	131.31
475.939	138.31
476.158	137.31
476.377	128.31
476.596	124.31
476.814	115.31
477.033	100.31
477.252	110.31
477.471	129.31
477.69	146.31
477.908	138.31
478.127	142.31
478.346	141.31
478.564	140.31
478.783	158.31
479.002	141.31
479.22	152.31
479.439	140.31
479.658	133.31
479.876	114.31
480.095	118.31
480.313	119.31
480.532	124.31
480.751	126.31
480.969	97.31
481.188	89.31
481.406	81.31
481.624	80.31
481.843	91.31
482.061	86.31
482.28	110.31
482.498	119.31
482.717	95.31
482.935	128.31
483.153	152.31
483.372	160.31
483.59	147.31
483.808	135.31
484.027	126.31
484.245	136.31
484.463	153.31
484.681	166.31
484.9	150.31
485.118	141.31
485.336	132.31
485.554	115.31
485.772	114.31
485.99	92.31
486.209	92.31
486.427	120.31
486.645	121.31
486.863	130.31
487.081	145.31
487.299	132.31
487.517	139.31
487.735	154.31
487.953	204.31
488.171	182.31
488.389	176.31
488.607	162.31
488.825	137.31
489.043	135.31
489.261	140.31
489.479	139.31
489.696	156.31
489.914	148.31
490.132	141.31
490.35	153.31
490.568	159.31
490.786	171.31
491.003	185.31
491.221	200.31
491.439	194.31
491.657	196.31
491.874	214.31
492.092	250.31
492.31	245.31
492.527	248.31
492.745	208.31
492.963	211.31
493.18	194.31
493.398	187.31
493.615	196.31
493.833	187.31
494.05	167.31
494.268	187.31
494.485	181.31
494.703	176.31
494.92	165.31
495.138	175.31
495.355	197.31
495.573	182.31
495.79	184.31
496.008	177.31
496.225	178.31
496.442	162.31
496.66	149.31
496.877	157.31
497.094	174.31
497.312	177.31
497.529	168.31
497.746	148.31
497.963	139.31
498.181	134.31
498.398	150.31
498.615	137.31
498.832	128.31
499.049	124.31
499.267	118.31
499.484	130.31
499.701	130.31
499.918	127.31
500.135	142.31
500.352	134.31
500.569	151.31
500.786	154.31
501.003	164.31
501.22	156.31
501.437	147.31
501.654	150.31
501.871	141.31
502.088	140.31
502.305	140.31
502.522	140.31
502.739	129.31
502.956	138.31
503.172	136.31
503.389	122.31
503.606	127.31
503.823	128.31
504.04	119.31
504.256	130.31
504.473	128.31
504.69	116.31
504.907	113.31
505.123	110.31
505.34	135.31
505.557	122.31
505.773	136.31
505.99	118.31
506.207	123.31
506.423	134.31
506.64	126.31
506.856	124.31
507.073	120.31
507.289	119.31
507.506	119.31
507.722	123.31
507.939	123.31
508.155	113.31
508.372	114.31
508.588	114.31
508.805	99.31
509.021	104.31
509.238	109.31
509.454	110.31
509.67	105.31
509.887	95.31
510.103	97.31
510.319	86.31
510.536	94.31
510.752	85.31
510.968	94.31
511.184	90.31
511.401	82.31
