Data from Location6.07152019.Energy5.Lamp.07192019.3%Agarose_HRD10591_16-12-42-395.txt Node
Date: Fri Jul 19 16:12:42 EDT 2019
User: cochatt
Spectrometer: HR+D1059
Trigger mode: 1
Integration Time (sec): 1.000000E-1
Scans to average: 1
Electric dark correction enabled: true
Nonlinearity correction enabled: false
Boxcar width: 0
XAxis mode: Wavelengths
Number of Pixels in Spectrum: 2048
>>>>>Begin Spectral Data<<<<<
223.165	-15.25
223.4	-15.25
223.635	-15.25
223.869	-17.25
224.104	-24.25
224.338	-1.25
224.573	-16.25
224.808	-10.25
225.042	-15.25
225.277	-0.25
225.511	4.75
225.746	2.75
225.98	-1.25
226.215	11.75
226.449	12.75
226.683	16.75
226.918	18.75
227.152	33.75
227.387	37.75
227.621	23.75
227.856	28.75
228.09	37.75
228.324	30.75
228.559	50.75
228.793	65.75
229.027	69.75
229.262	63.75
229.496	70.75
229.73	54.75
229.964	61.75
230.199	65.75
230.433	80.75
230.667	70.75
230.901	70.75
231.136	82.75
231.37	74.75
231.604	86.75
231.838	72.75
232.072	97.75
232.306	88.75
232.541	76.75
232.775	69.75
233.009	78.75
233.243	79.75
233.477	79.75
233.711	81.75
233.945	68.75
234.179	81.75
234.413	84.75
234.647	83.75
234.881	59.75
235.115	72.75
235.349	72.75
235.583	83.75
235.817	59.75
236.051	68.75
236.285	78.75
236.519	74.75
236.753	76.75
236.987	73.75
237.221	71.75
237.455	72.75
237.689	71.75
237.922	67.75
238.156	79.75
238.39	69.75
238.624	75.75
238.858	60.75
239.091	68.75
239.325	70.75
239.559	59.75
239.793	71.75
240.027	78.75
240.26	74.75
240.494	76.75
240.728	79.75
240.961	69.75
241.195	80.75
241.429	76.75
241.662	77.75
241.896	71.75
242.13	63.75
242.363	69.75
242.597	86.75
242.83	71.75
243.064	78.75
243.298	74.75
243.531	80.75
243.765	89.75
243.998	69.75
244.232	67.75
244.465	62.75
244.699	63.75
244.932	70.75
245.166	70.75
245.399	52.75
245.633	66.75
245.866	77.75
246.099	81.75
246.333	59.75
246.566	65.75
246.8	64.75
247.033	64.75
247.266	74.75
247.5	78.75
247.733	72.75
247.966	78.75
248.2	57.75
248.433	76.75
248.666	72.75
248.899	69.75
249.133	77.75
249.366	88.75
249.599	72.75
249.832	87.75
250.066	84.75
250.299	83.75
250.532	80.75
250.765	68.75
250.998	71.75
251.231	79.75
251.465	75.75
251.698	68.75
251.931	65.75
252.164	73.75
252.397	77.75
252.63	78.75
252.863	85.75
253.096	64.75
253.329	67.75
253.562	78.75
253.795	72.75
254.028	84.75
254.261	64.75
254.494	81.75
254.727	73.75
254.96	79.75
255.193	77.75
255.426	83.75
255.659	69.75
255.892	76.75
256.124	69.75
256.357	77.75
256.59	69.75
256.823	76.75
257.056	79.75
257.289	66.75
257.521	67.75
257.754	80.75
257.987	71.75
258.22	78.75
258.452	74.75
258.685	71.75
258.918	59.75
259.151	74.75
259.383	77.75
259.616	77.75
259.849	80.75
260.081	73.75
260.314	71.75
260.547	75.75
260.779	67.75
261.012	73.75
261.244	69.75
261.477	70.75
261.71	65.75
261.942	71.75
262.175	74.75
262.407	81.75
262.64	73.75
262.872	85.75
263.105	82.75
263.337	71.75
263.57	75.75
263.802	79.75
264.035	75.75
264.267	83.75
264.499	82.75
264.732	69.75
264.964	85.75
265.197	76.75
265.429	85.75
265.661	76.75
265.894	89.75
266.126	85.75
266.358	90.75
266.591	87.75
266.823	83.75
267.055	87.75
267.287	67.75
267.52	74.75
267.752	63.75
267.984	70.75
268.216	77.75
268.448	70.75
268.681	81.75
268.913	79.75
269.145	84.75
269.377	67.75
269.609	65.75
269.841	74.75
270.073	73.75
270.306	82.75
270.538	85.75
270.77	76.75
271.002	80.75
271.234	84.75
271.466	92.75
271.698	75.75
271.93	75.75
272.162	80.75
272.394	84.75
272.626	74.75
272.858	79.75
273.09	83.75
273.322	79.75
273.553	79.75
273.785	56.75
274.017	68.75
274.249	62.75
274.481	72.75
274.713	78.75
274.945	75.75
275.176	73.75
275.408	81.75
275.64	75.75
275.872	82.75
276.104	85.75
276.335	86.75
276.567	73.75
276.799	67.75
277.031	70.75
277.262	88.75
277.494	78.75
277.726	76.75
277.957	91.75
278.189	75.75
278.421	68.75
278.652	88.75
278.884	78.75
279.115	94.75
279.347	94.75
279.579	70.75
279.81	86.75
280.042	70.75
280.273	78.75
280.505	96.75
280.736	74.75
280.968	81.75
281.199	95.75
281.431	84.75
281.662	87.75
281.894	95.75
282.125	81.75
282.356	82.75
282.588	86.75
282.819	78.75
283.051	79.75
283.282	91.75
283.513	84.75
283.745	90.75
283.976	79.75
284.207	77.75
284.439	73.75
284.67	82.75
284.901	77.75
285.132	83.75
285.364	79.75
285.595	68.75
285.826	85.75
286.057	91.75
286.288	73.75
286.52	77.75
286.751	79.75
286.982	60.75
287.213	76.75
287.444	79.75
287.675	73.75
287.906	91.75
288.138	71.75
288.369	70.75
288.6	81.75
288.831	85.75
289.062	71.75
289.293	84.75
289.524	88.75
289.755	72.75
289.986	77.75
290.217	80.75
290.448	73.75
290.679	79.75
290.91	74.75
291.141	91.75
291.371	71.75
291.602	87.75
291.833	82.75
292.064	85.75
292.295	80.75
292.526	82.75
292.757	86.75
292.987	77.75
293.218	71.75
293.449	79.75
293.68	76.75
293.91	84.75
294.141	81.75
294.372	88.75
294.603	82.75
294.833	68.75
295.064	92.75
295.295	82.75
295.525	78.75
295.756	88.75
295.987	80.75
296.217	79.75
296.448	85.75
296.679	83.75
296.909	71.75
297.14	100.75
297.37	87.75
297.601	69.75
297.831	76.75
298.062	76.75
298.292	75.75
298.523	80.75
298.753	75.75
298.984	82.75
299.214	65.75
299.445	78.75
299.675	89.75
299.905	86.75
300.136	90.75
300.366	65.75
300.597	88.75
300.827	88.75
301.057	87.75
301.288	81.75
301.518	71.75
301.748	70.75
301.979	76.75
302.209	73.75
302.439	73.75
302.669	75.75
302.9	80.75
303.13	78.75
303.36	73.75
303.59	70.75
303.82	74.75
304.051	83.75
304.281	80.75
304.511	74.75
304.741	80.75
304.971	84.75
305.201	76.75
305.431	65.75
305.661	90.75
305.891	83.75
306.121	93.75
306.352	85.75
306.582	75.75
306.812	71.75
307.042	86.75
307.272	81.75
307.502	88.75
307.731	76.75
307.961	84.75
308.191	76.75
308.421	85.75
308.651	76.75
308.881	81.75
309.111	91.75
309.341	77.75
309.571	80.75
309.8	76.75
310.03	86.75
310.26	84.75
310.49	83.75
310.72	67.75
310.949	75.75
311.179	83.75
311.409	74.75
311.639	76.75
311.868	92.75
312.098	79.75
312.328	81.75
312.557	73.75
312.787	100.75
313.017	95.75
313.246	69.75
313.476	79.75
313.706	75.75
313.935	82.75
314.165	85.75
314.394	68.75
314.624	80.75
314.853	78.75
315.083	84.75
315.312	66.75
315.542	72.75
315.771	96.75
316.001	87.75
316.23	89.75
316.46	84.75
316.689	81.75
316.919	90.75
317.148	86.75
317.377	82.75
317.607	84.75
317.836	87.75
318.065	83.75
318.295	72.75
318.524	84.75
318.753	83.75
318.983	80.75
319.212	66.75
319.441	69.75
319.67	87.75
319.9	68.75
320.129	84.75
320.358	77.75
320.587	87.75
320.816	72.75
321.046	90.75
321.275	91.75
321.504	83.75
321.733	112.75
321.962	69.75
322.191	75.75
322.42	79.75
322.649	72.75
322.878	101.75
323.108	96.75
323.337	81.75
323.566	89.75
323.795	81.75
324.024	83.75
324.253	73.75
324.482	71.75
324.71	83.75
324.939	81.75
325.168	82.75
325.397	74.75
325.626	90.75
325.855	78.75
326.084	82.75
326.313	91.75
326.542	71.75
326.77	81.75
326.999	77.75
327.228	64.75
327.457	81.75
327.686	78.75
327.914	78.75
328.143	99.75
328.372	80.75
328.6	83.75
328.829	76.75
329.058	94.75
329.287	76.75
329.515	86.75
329.744	80.75
329.972	86.75
330.201	78.75
330.43	71.75
330.658	87.75
330.887	87.75
331.115	78.75
331.344	82.75
331.572	79.75
331.801	80.75
332.03	83.75
332.258	81.75
332.486	74.75
332.715	68.75
332.943	80.75
333.172	78.75
333.4	86.75
333.629	70.75
333.857	63.75
334.085	77.75
334.314	97.75
334.542	85.75
334.771	81.75
334.999	86.75
335.227	76.75
335.455	80.75
335.684	66.75
335.912	73.75
336.14	70.75
336.369	73.75
336.597	80.75
336.825	98.75
337.053	83.75
337.281	73.75
337.51	85.75
337.738	86.75
337.966	87.75
338.194	68.75
338.422	66.75
338.65	83.75
338.878	84.75
339.106	87.75
339.334	86.75
339.562	66.75
339.79	70.75
340.018	92.75
340.246	63.75
340.474	71.75
340.702	78.75
340.93	75.75
341.158	80.75
341.386	75.75
341.614	87.75
341.842	82.75
342.07	79.75
342.298	72.75
342.526	78.75
342.754	77.75
342.981	69.75
343.209	100.75
343.437	76.75
343.665	67.75
343.893	77.75
344.12	103.75
344.348	84.75
344.576	74.75
344.804	73.75
345.031	86.75
345.259	79.75
345.487	88.75
345.714	79.75
345.942	69.75
346.17	73.75
346.397	83.75
346.625	80.75
346.853	79.75
347.08	84.75
347.308	91.75
347.535	79.75
347.763	78.75
347.99	87.75
348.218	84.75
348.445	78.75
348.673	68.75
348.9	77.75
349.128	92.75
349.355	94.75
349.583	83.75
349.81	88.75
350.037	71.75
350.265	76.75
350.492	80.75
350.72	72.75
350.947	79.75
351.174	81.75
351.402	71.75
351.629	78.75
351.856	84.75
352.083	81.75
352.311	96.75
352.538	71.75
352.765	82.75
352.992	96.75
353.22	79.75
353.447	85.75
353.674	74.75
353.901	70.75
354.128	72.75
354.355	82.75
354.583	79.75
354.81	71.75
355.037	80.75
355.264	74.75
355.491	82.75
355.718	87.75
355.945	89.75
356.172	78.75
356.399	88.75
356.626	69.75
356.853	77.75
357.08	85.75
357.307	64.75
357.534	60.75
357.761	76.75
357.988	71.75
358.215	75.75
358.441	74.75
358.668	74.75
358.895	76.75
359.122	78.75
359.349	94.75
359.576	87.75
359.802	78.75
360.029	76.75
360.256	63.75
360.483	82.75
360.709	87.75
360.936	96.75
361.163	85.75
361.39	90.75
361.616	79.75
361.843	84.75
362.07	81.75
362.296	77.75
362.523	81.75
362.749	71.75
362.976	91.75
363.203	81.75
363.429	93.75
363.656	102.75
363.882	83.75
364.109	79.75
364.335	78.75
364.562	67.75
364.788	82.75
365.015	74.75
365.241	92.75
365.468	73.75
365.694	71.75
365.92	79.75
366.147	85.75
366.373	89.75
366.599	74.75
366.826	93.75
367.052	83.75
367.278	80.75
367.505	80.75
367.731	83.75
367.957	88.75
368.184	80.75
368.41	95.75
368.636	86.75
368.862	82.75
369.089	74.75
369.315	83.75
369.541	73.75
369.767	84.75
369.993	83.75
370.219	81.75
370.445	83.75
370.672	86.75
370.898	85.75
371.124	92.75
371.35	81.75
371.576	79.75
371.802	89.75
372.028	96.75
372.254	92.75
372.48	96.75
372.706	91.75
372.932	91.75
373.158	93.75
373.384	79.75
373.61	76.75
373.835	81.75
374.061	97.75
374.287	91.75
374.513	90.75
374.739	87.75
374.965	99.75
375.191	88.75
375.416	82.75
375.642	79.75
375.868	86.75
376.094	86.75
376.319	94.75
376.545	83.75
376.771	95.75
376.997	93.75
377.222	101.75
377.448	89.75
377.674	96.75
377.899	91.75
378.125	104.75
378.35	86.75
378.576	92.75
378.802	87.75
379.027	103.75
379.253	101.75
379.478	93.75
379.704	93.75
379.929	103.75
380.155	93.75
380.38	88.75
380.606	88.75
380.831	88.75
381.057	87.75
381.282	101.75
381.507	105.75
381.733	96.75
381.958	110.75
382.184	87.75
382.409	89.75
382.634	94.75
382.86	93.75
383.085	108.75
383.31	105.75
383.535	111.75
383.761	91.75
383.986	90.75
384.211	103.75
384.436	89.75
384.662	101.75
384.887	99.75
385.112	85.75
385.337	78.75
385.562	93.75
385.787	94.75
386.013	89.75
386.238	113.75
386.463	101.75
386.688	88.75
386.913	96.75
387.138	84.75
387.363	88.75
387.588	97.75
387.813	96.75
388.038	92.75
388.263	112.75
388.488	104.75
388.713	96.75
388.938	98.75
389.163	94.75
389.387	93.75
389.612	98.75
389.837	100.75
390.062	105.75
390.287	94.75
390.512	102.75
390.736	109.75
390.961	93.75
391.186	99.75
391.411	103.75
391.636	88.75
391.86	106.75
392.085	85.75
392.31	93.75
392.534	102.75
392.759	110.75
392.984	109.75
393.208	106.75
393.433	123.75
393.658	109.75
393.882	98.75
394.107	114.75
394.331	92.75
394.556	98.75
394.78	99.75
395.005	114.75
395.229	101.75
395.454	117.75
395.678	105.75
395.903	113.75
396.127	115.75
396.352	107.75
396.576	114.75
396.801	102.75
397.025	106.75
397.249	96.75
397.474	109.75
397.698	107.75
397.922	88.75
398.147	112.75
398.371	95.75
398.595	101.75
398.82	99.75
399.044	103.75
399.268	100.75
399.492	108.75
399.717	101.75
399.941	91.75
400.165	92.75
400.389	111.75
400.613	110.75
400.837	105.75
401.062	123.75
401.286	116.75
401.51	112.75
401.734	103.75
401.958	103.75
402.182	112.75
402.406	112.75
402.63	109.75
402.854	115.75
403.078	122.75
403.302	103.75
403.526	123.75
403.75	109.75
403.974	123.75
404.198	101.75
404.422	119.75
404.645	115.75
404.869	107.75
405.093	117.75
405.317	117.75
405.541	119.75
405.765	116.75
405.988	109.75
406.212	118.75
406.436	107.75
406.66	116.75
406.883	114.75
407.107	101.75
407.331	110.75
407.555	116.75
407.778	117.75
408.002	110.75
408.226	121.75
408.449	123.75
408.673	112.75
408.896	124.75
409.12	119.75
409.344	125.75
409.567	117.75
409.791	122.75
410.014	119.75
410.238	118.75
410.461	108.75
410.685	111.75
410.908	98.75
411.132	111.75
411.355	128.75
411.578	125.75
411.802	117.75
412.025	127.75
412.249	119.75
412.472	119.75
412.695	123.75
412.919	122.75
413.142	134.75
413.365	117.75
413.589	134.75
413.812	115.75
414.035	121.75
414.258	104.75
414.482	131.75
414.705	119.75
414.928	109.75
415.151	119.75
415.374	123.75
415.597	145.75
415.821	131.75
416.044	117.75
416.267	131.75
416.49	127.75
416.713	148.75
416.936	121.75
417.159	125.75
417.382	129.75
417.605	127.75
417.828	123.75
418.051	123.75
418.274	124.75
418.497	135.75
418.72	131.75
418.943	144.75
419.166	141.75
419.389	145.75
419.611	143.75
419.834	137.75
420.057	149.75
420.28	122.75
420.503	132.75
420.726	130.75
420.948	135.75
421.171	135.75
421.394	128.75
421.617	131.75
421.839	138.75
422.062	137.75
422.285	136.75
422.507	137.75
422.73	124.75
422.953	123.75
423.175	131.75
423.398	128.75
423.621	130.75
423.843	133.75
424.066	135.75
424.288	120.75
424.511	135.75
424.733	148.75
424.956	136.75
425.178	144.75
425.401	130.75
425.623	127.75
425.846	136.75
426.068	139.75
426.291	121.75
426.513	133.75
426.735	127.75
426.958	128.75
427.18	131.75
427.402	137.75
427.625	124.75
427.847	123.75
428.069	134.75
428.292	125.75
428.514	123.75
428.736	126.75
428.958	144.75
429.181	123.75
429.403	125.75
429.625	118.75
429.847	131.75
430.069	134.75
430.292	127.75
430.514	130.75
430.736	125.75
430.958	120.75
431.18	120.75
431.402	135.75
431.624	125.75
431.846	111.75
432.068	108.75
432.29	111.75
432.512	107.75
432.734	103.75
432.956	130.75
433.178	136.75
433.4	151.75
433.622	134.75
433.844	143.75
434.066	129.75
434.287	103.75
434.509	91.75
434.731	93.75
434.953	113.75
435.175	129.75
435.397	124.75
435.618	135.75
435.84	100.75
436.062	115.75
436.284	125.75
436.505	118.75
436.727	155.75
436.949	135.75
437.17	133.75
437.392	124.75
437.614	119.75
437.835	96.75
438.057	117.75
438.278	111.75
438.5	126.75
438.721	123.75
438.943	127.75
439.165	124.75
439.386	127.75
439.608	145.75
439.829	137.75
440.05	135.75
440.272	146.75
440.493	143.75
440.715	142.75
440.936	130.75
441.158	152.75
441.379	152.75
441.6	145.75
441.822	158.75
442.043	149.75
442.264	135.75
442.486	143.75
442.707	153.75
442.928	123.75
443.149	151.75
443.371	125.75
443.592	137.75
443.813	155.75
444.034	144.75
444.255	142.75
444.476	149.75
444.698	147.75
444.919	142.75
445.14	257.75
445.361	198.75
445.582	153.75
445.803	150.75
446.024	139.75
446.245	147.75
446.466	151.75
446.687	160.75
446.908	162.75
447.129	155.75
447.35	151.75
447.571	155.75
447.792	143.75
448.013	132.75
448.234	146.75
448.455	150.75
448.675	143.75
448.896	131.75
449.117	145.75
449.338	129.75
449.559	133.75
449.779	136.75
450	122.75
450.221	128.75
450.442	146.75
450.662	134.75
450.883	134.75
451.104	140.75
451.324	135.75
451.545	143.75
451.766	129.75
451.986	141.75
452.207	125.75
452.428	108.75
452.648	128.75
452.869	115.75
453.089	106.75
453.31	114.75
453.53	101.75
453.751	102.75
453.971	106.75
454.192	111.75
454.412	104.75
454.633	102.75
454.853	120.75
455.073	117.75
455.294	119.75
455.514	127.75
455.734	118.75
455.955	127.75
456.175	128.75
456.395	112.75
456.616	113.75
456.836	100.75
457.056	115.75
457.276	113.75
457.497	100.75
457.717	103.75
457.937	102.75
458.157	115.75
458.377	96.75
458.598	100.75
458.818	97.75
459.038	102.75
459.258	90.75
459.478	86.75
459.698	72.75
459.918	94.75
460.138	99.75
460.358	124.75
460.578	109.75
460.798	102.75
461.018	109.75
461.238	116.75
461.458	99.75
461.678	117.75
461.898	120.75
462.118	117.75
462.338	116.75
462.558	112.75
462.777	105.75
462.997	104.75
463.217	118.75
463.437	119.75
463.657	105.75
463.876	112.75
464.096	94.75
464.316	111.75
464.536	107.75
464.755	93.75
464.975	117.75
465.195	119.75
465.414	127.75
465.634	109.75
465.854	117.75
466.073	108.75
466.293	118.75
466.512	134.75
466.732	122.75
466.951	131.75
467.171	149.75
467.391	151.75
467.61	148.75
467.829	141.75
468.049	133.75
468.268	123.75
468.488	135.75
468.707	156.75
468.927	149.75
469.146	152.75
469.365	128.75
469.585	129.75
469.804	158.75
470.023	149.75
470.243	151.75
470.462	141.75
470.681	134.75
470.901	153.75
471.12	138.75
471.339	147.75
471.558	150.75
471.777	136.75
471.997	124.75
472.216	127.75
472.435	103.75
472.654	112.75
472.873	109.75
473.092	103.75
473.311	125.75
473.53	125.75
473.749	124.75
473.968	125.75
474.187	125.75
474.406	124.75
474.625	121.75
474.844	128.75
475.063	136.75
475.282	131.75
475.501	121.75
475.72	118.75
475.939	116.75
476.158	145.75
476.377	128.75
476.596	123.75
476.814	116.75
477.033	93.75
477.252	123.75
477.471	137.75
477.69	141.75
477.908	140.75
478.127	156.75
478.346	138.75
478.564	137.75
478.783	129.75
479.002	144.75
479.22	148.75
479.439	142.75
479.658	133.75
479.876	118.75
480.095	100.75
480.313	103.75
480.532	115.75
480.751	109.75
480.969	104.75
481.188	88.75
481.406	91.75
481.624	87.75
481.843	80.75
482.061	98.75
482.28	122.75
482.498	104.75
482.717	98.75
482.935	119.75
483.153	130.75
483.372	159.75
483.59	160.75
483.808	148.75
484.027	134.75
484.245	132.75
484.463	158.75
484.681	166.75
484.9	149.75
485.118	147.75
485.336	134.75
485.554	119.75
485.772	94.75
485.99	101.75
486.209	111.75
486.427	115.75
486.645	121.75
486.863	137.75
487.081	151.75
487.299	135.75
487.517	160.75
487.735	181.75
487.953	189.75
488.171	193.75
488.389	175.75
488.607	168.75
488.825	155.75
489.043	135.75
489.261	141.75
489.479	147.75
489.696	133.75
489.914	143.75
490.132	161.75
490.35	159.75
490.568	158.75
490.786	172.75
491.003	162.75
491.221	201.75
491.439	194.75
491.657	196.75
491.874	222.75
492.092	255.75
492.31	249.75
492.527	228.75
492.745	203.75
492.963	196.75
493.18	185.75
493.398	163.75
493.615	178.75
493.833	183.75
494.05	196.75
494.268	190.75
494.485	177.75
494.703	137.75
494.92	180.75
495.138	167.75
495.355	175.75
495.573	181.75
495.79	173.75
496.008	186.75
496.225	175.75
496.442	177.75
496.66	173.75
496.877	164.75
497.094	161.75
497.312	179.75
497.529	151.75
497.746	168.75
497.963	147.75
498.181	127.75
498.398	123.75
498.615	120.75
498.832	118.75
499.049	124.75
499.267	116.75
499.484	132.75
499.701	136.75
499.918	131.75
500.135	142.75
500.352	159.75
500.569	145.75
500.786	143.75
501.003	150.75
501.22	142.75
501.437	127.75
501.654	141.75
501.871	139.75
502.088	137.75
502.305	122.75
502.522	135.75
502.739	124.75
502.956	136.75
503.172	121.75
503.389	136.75
503.606	101.75
503.823	127.75
504.04	122.75
504.256	115.75
504.473	109.75
504.69	123.75
504.907	121.75
505.123	125.75
505.34	125.75
505.557	129.75
505.773	124.75
505.99	116.75
506.207	122.75
506.423	128.75
506.64	118.75
506.856	119.75
507.073	116.75
507.289	121.75
507.506	117.75
507.722	122.75
507.939	120.75
508.155	113.75
508.372	113.75
508.588	114.75
508.805	113.75
509.021	111.75
509.238	98.75
509.454	91.75
509.67	101.75
509.887	96.75
510.103	92.75
510.319	107.75
510.536	78.75
510.752	93.75
510.968	88.75
511.184	66.75
511.401	81.75
511.617	106.75
511.833	87.75
