Data from Location6.07152019.Energy5.Lamp.07192019.3%Agarose_HRD10591_16-11-45-394.txt Node
Date: Fri Jul 19 16:11:45 EDT 2019
User: cochatt
Spectrometer: HR+D1059
Trigger mode: 1
Integration Time (sec): 1.000000E-1
Scans to average: 1
Electric dark correction enabled: true
Nonlinearity correction enabled: false
Boxcar width: 0
XAxis mode: Wavelengths
Number of Pixels in Spectrum: 2048
>>>>>Begin Spectral Data<<<<<
223.165	-17.19
223.4	-17.19
223.635	-17.19
223.869	0.81
224.104	-5.19
224.338	-18.19
224.573	-1.19
224.808	-11.19
225.042	-12.19
225.277	-1.19
225.511	-23.19
225.746	-7.19
225.98	-7.19
226.215	2.81
226.449	3.81
226.683	35.81
226.918	27.81
227.152	32.81
227.387	21.81
227.621	34.81
227.856	37.81
228.09	44.81
228.324	41.81
228.559	61.81
228.793	62.81
229.027	50.81
229.262	51.81
229.496	53.81
229.73	57.81
229.964	66.81
230.199	90.81
230.433	75.81
230.667	74.81
230.901	63.81
231.136	83.81
231.37	72.81
231.604	79.81
231.838	89.81
232.072	89.81
232.306	76.81
232.541	72.81
232.775	71.81
233.009	84.81
233.243	84.81
233.477	75.81
233.711	90.81
233.945	81.81
234.179	90.81
234.413	86.81
234.647	78.81
234.881	84.81
235.115	84.81
235.349	86.81
235.583	78.81
235.817	79.81
236.051	81.81
236.285	76.81
236.519	82.81
236.753	74.81
236.987	77.81
237.221	78.81
237.455	68.81
237.689	68.81
237.922	73.81
238.156	88.81
238.39	77.81
238.624	76.81
238.858	82.81
239.091	82.81
239.325	88.81
239.559	73.81
239.793	72.81
240.027	83.81
240.26	70.81
240.494	92.81
240.728	75.81
240.961	67.81
241.195	78.81
241.429	72.81
241.662	73.81
241.896	74.81
242.13	73.81
242.363	68.81
242.597	71.81
242.83	83.81
243.064	78.81
243.298	89.81
243.531	78.81
243.765	71.81
243.998	66.81
244.232	76.81
244.465	73.81
244.699	71.81
244.932	88.81
245.166	94.81
245.399	88.81
245.633	85.81
245.866	93.81
246.099	69.81
246.333	71.81
246.566	81.81
246.8	84.81
247.033	85.81
247.266	84.81
247.5	73.81
247.733	80.81
247.966	88.81
248.2	87.81
248.433	80.81
248.666	70.81
248.899	76.81
249.133	76.81
249.366	73.81
249.599	79.81
249.832	86.81
250.066	88.81
250.299	92.81
250.532	82.81
250.765	68.81
250.998	84.81
251.231	80.81
251.465	76.81
251.698	80.81
251.931	86.81
252.164	86.81
252.397	83.81
252.63	76.81
252.863	83.81
253.096	89.81
253.329	77.81
253.562	61.81
253.795	64.81
254.028	77.81
254.261	78.81
254.494	79.81
254.727	84.81
254.96	85.81
255.193	97.81
255.426	76.81
255.659	89.81
255.892	73.81
256.124	68.81
256.357	65.81
256.59	89.81
256.823	83.81
257.056	78.81
257.289	70.81
257.521	74.81
257.754	70.81
257.987	78.81
258.22	88.81
258.452	82.81
258.685	66.81
258.918	91.81
259.151	79.81
259.383	69.81
259.616	71.81
259.849	76.81
260.081	71.81
260.314	80.81
260.547	71.81
260.779	68.81
261.012	82.81
261.244	75.81
261.477	74.81
261.71	73.81
261.942	83.81
262.175	82.81
262.407	79.81
262.64	86.81
262.872	83.81
263.105	82.81
263.337	94.81
263.57	69.81
263.802	86.81
264.035	83.81
264.267	74.81
264.499	80.81
264.732	83.81
264.964	86.81
265.197	69.81
265.429	79.81
265.661	83.81
265.894	76.81
266.126	95.81
266.358	75.81
266.591	82.81
266.823	80.81
267.055	70.81
267.287	76.81
267.52	90.81
267.752	74.81
267.984	79.81
268.216	83.81
268.448	89.81
268.681	87.81
268.913	95.81
269.145	95.81
269.377	87.81
269.609	69.81
269.841	70.81
270.073	78.81
270.306	85.81
270.538	84.81
270.77	89.81
271.002	76.81
271.234	97.81
271.466	78.81
271.698	80.81
271.93	82.81
272.162	74.81
272.394	69.81
272.626	87.81
272.858	93.81
273.09	72.81
273.322	89.81
273.553	74.81
273.785	64.81
274.017	72.81
274.249	70.81
274.481	85.81
274.713	95.81
274.945	82.81
275.176	86.81
275.408	92.81
275.64	79.81
275.872	75.81
276.104	87.81
276.335	88.81
276.567	88.81
276.799	71.81
277.031	79.81
277.262	97.81
277.494	88.81
277.726	79.81
277.957	82.81
278.189	88.81
278.421	76.81
278.652	82.81
278.884	80.81
279.115	74.81
279.347	74.81
279.579	78.81
279.81	81.81
280.042	86.81
280.273	91.81
280.505	76.81
280.736	93.81
280.968	87.81
281.199	80.81
281.431	67.81
281.662	76.81
281.894	86.81
282.125	86.81
282.356	82.81
282.588	80.81
282.819	77.81
283.051	76.81
283.282	79.81
283.513	81.81
283.745	100.81
283.976	97.81
284.207	91.81
284.439	87.81
284.67	75.81
284.901	96.81
285.132	86.81
285.364	73.81
285.595	73.81
285.826	74.81
286.057	91.81
286.288	83.81
286.52	82.81
286.751	80.81
286.982	77.81
287.213	73.81
287.444	89.81
287.675	90.81
287.906	71.81
288.138	99.81
288.369	98.81
288.6	74.81
288.831	92.81
289.062	79.81
289.293	77.81
289.524	76.81
289.755	89.81
289.986	75.81
290.217	80.81
290.448	80.81
290.679	86.81
290.91	75.81
291.141	90.81
291.371	73.81
291.602	79.81
291.833	83.81
292.064	88.81
292.295	67.81
292.526	88.81
292.757	81.81
292.987	87.81
293.218	84.81
293.449	70.81
293.68	77.81
293.91	87.81
294.141	75.81
294.372	79.81
294.603	81.81
294.833	82.81
295.064	80.81
295.295	98.81
295.525	78.81
295.756	80.81
295.987	89.81
296.217	82.81
296.448	83.81
296.679	76.81
296.909	79.81
297.14	95.81
297.37	92.81
297.601	74.81
297.831	81.81
298.062	81.81
298.292	80.81
298.523	87.81
298.753	90.81
298.984	91.81
299.214	93.81
299.445	86.81
299.675	87.81
299.905	85.81
300.136	81.81
300.366	87.81
300.597	87.81
300.827	95.81
301.057	87.81
301.288	69.81
301.518	76.81
301.748	89.81
301.979	84.81
302.209	84.81
302.439	74.81
302.669	76.81
302.9	76.81
303.13	84.81
303.36	91.81
303.59	81.81
303.82	68.81
304.051	87.81
304.281	83.81
304.511	67.81
304.741	68.81
304.971	86.81
305.201	96.81
305.431	82.81
305.661	81.81
305.891	80.81
306.121	78.81
306.352	88.81
306.582	83.81
306.812	89.81
307.042	82.81
307.272	87.81
307.502	80.81
307.731	90.81
307.961	79.81
308.191	85.81
308.421	91.81
308.651	79.81
308.881	74.81
309.111	85.81
309.341	98.81
309.571	85.81
309.8	84.81
310.03	95.81
310.26	90.81
310.49	71.81
310.72	86.81
310.949	77.81
311.179	81.81
311.409	80.81
311.639	65.81
311.868	81.81
312.098	78.81
312.328	91.81
312.557	85.81
312.787	94.81
313.017	77.81
313.246	71.81
313.476	77.81
313.706	82.81
313.935	90.81
314.165	76.81
314.394	74.81
314.624	85.81
314.853	86.81
315.083	80.81
315.312	80.81
315.542	79.81
315.771	86.81
316.001	76.81
316.23	86.81
316.46	91.81
316.689	76.81
316.919	89.81
317.148	86.81
317.377	78.81
317.607	80.81
317.836	76.81
318.065	94.81
318.295	78.81
318.524	86.81
318.753	85.81
318.983	84.81
319.212	79.81
319.441	74.81
319.67	94.81
319.9	78.81
320.129	86.81
320.358	84.81
320.587	82.81
320.816	73.81
321.046	79.81
321.275	78.81
321.504	83.81
321.733	83.81
321.962	72.81
322.191	79.81
322.42	92.81
322.649	84.81
322.878	82.81
323.108	87.81
323.337	76.81
323.566	91.81
323.795	73.81
324.024	73.81
324.253	88.81
324.482	85.81
324.71	90.81
324.939	89.81
325.168	84.81
325.397	80.81
325.626	81.81
325.855	82.81
326.084	86.81
326.313	86.81
326.542	76.81
326.77	80.81
326.999	78.81
327.228	75.81
327.457	80.81
327.686	82.81
327.914	79.81
328.143	76.81
328.372	88.81
328.6	92.81
328.829	71.81
329.058	82.81
329.287	79.81
329.515	92.81
329.744	66.81
329.972	90.81
330.201	102.81
330.43	76.81
330.658	82.81
330.887	76.81
331.115	82.81
331.344	92.81
331.572	80.81
331.801	96.81
332.03	89.81
332.258	88.81
332.486	72.81
332.715	78.81
332.943	90.81
333.172	89.81
333.4	86.81
333.629	86.81
333.857	84.81
334.085	89.81
334.314	82.81
334.542	80.81
334.771	76.81
334.999	83.81
335.227	70.81
335.455	78.81
335.684	64.81
335.912	80.81
336.14	95.81
336.369	87.81
336.597	75.81
336.825	91.81
337.053	79.81
337.281	81.81
337.51	76.81
337.738	73.81
337.966	85.81
338.194	85.81
338.422	91.81
338.65	83.81
338.878	97.81
339.106	94.81
339.334	88.81
339.562	81.81
339.79	82.81
340.018	92.81
340.246	71.81
340.474	94.81
340.702	91.81
340.93	81.81
341.158	83.81
341.386	74.81
341.614	75.81
341.842	69.81
342.07	73.81
342.298	83.81
342.526	76.81
342.754	86.81
342.981	86.81
343.209	75.81
343.437	84.81
343.665	82.81
343.893	76.81
344.12	88.81
344.348	85.81
344.576	89.81
344.804	87.81
345.031	88.81
345.259	79.81
345.487	70.81
345.714	85.81
345.942	91.81
346.17	92.81
346.397	82.81
346.625	84.81
346.853	89.81
347.08	96.81
347.308	73.81
347.535	102.81
347.763	81.81
347.99	83.81
348.218	83.81
348.445	91.81
348.673	78.81
348.9	56.81
349.128	74.81
349.355	90.81
349.583	86.81
349.81	82.81
350.037	85.81
350.265	63.81
350.492	93.81
350.72	81.81
350.947	97.81
351.174	78.81
351.402	82.81
351.629	84.81
351.856	83.81
352.083	83.81
352.311	89.81
352.538	72.81
352.765	72.81
352.992	92.81
353.22	73.81
353.447	89.81
353.674	78.81
353.901	76.81
354.128	86.81
354.355	89.81
354.583	89.81
354.81	89.81
355.037	79.81
355.264	73.81
355.491	76.81
355.718	85.81
355.945	82.81
356.172	82.81
356.399	86.81
356.626	81.81
356.853	88.81
357.08	80.81
357.307	80.81
357.534	82.81
357.761	82.81
357.988	80.81
358.215	84.81
358.441	83.81
358.668	73.81
358.895	67.81
359.122	82.81
359.349	70.81
359.576	90.81
359.802	84.81
360.029	77.81
360.256	82.81
360.483	102.81
360.709	78.81
360.936	84.81
361.163	94.81
361.39	79.81
361.616	80.81
361.843	83.81
362.07	99.81
362.296	82.81
362.523	75.81
362.749	86.81
362.976	78.81
363.203	87.81
363.429	81.81
363.656	70.81
363.882	85.81
364.109	82.81
364.335	75.81
364.562	76.81
364.788	71.81
365.015	82.81
365.241	80.81
365.468	93.81
365.694	89.81
365.92	69.81
366.147	82.81
366.373	90.81
366.599	75.81
366.826	68.81
367.052	77.81
367.278	84.81
367.505	73.81
367.731	75.81
367.957	96.81
368.184	98.81
368.41	80.81
368.636	74.81
368.862	91.81
369.089	97.81
369.315	94.81
369.541	99.81
369.767	87.81
369.993	94.81
370.219	94.81
370.445	75.81
370.672	75.81
370.898	82.81
371.124	78.81
371.35	94.81
371.576	105.81
371.802	103.81
372.028	98.81
372.254	78.81
372.48	90.81
372.706	93.81
372.932	98.81
373.158	92.81
373.384	95.81
373.61	84.81
373.835	102.81
374.061	81.81
374.287	98.81
374.513	77.81
374.739	81.81
374.965	105.81
375.191	100.81
375.416	98.81
375.642	88.81
375.868	89.81
376.094	96.81
376.319	104.81
376.545	87.81
376.771	88.81
376.997	88.81
377.222	94.81
377.448	99.81
377.674	88.81
377.899	93.81
378.125	95.81
378.35	88.81
378.576	101.81
378.802	102.81
379.027	104.81
379.253	105.81
379.478	95.81
379.704	92.81
379.929	105.81
380.155	95.81
380.38	93.81
380.606	93.81
380.831	96.81
381.057	97.81
381.282	90.81
381.507	113.81
381.733	100.81
381.958	95.81
382.184	94.81
382.409	98.81
382.634	98.81
382.86	102.81
383.085	86.81
383.31	91.81
383.535	103.81
383.761	91.81
383.986	83.81
384.211	102.81
384.436	106.81
384.662	74.81
384.887	90.81
385.112	86.81
385.337	88.81
385.562	96.81
385.787	95.81
386.013	103.81
386.238	102.81
386.463	76.81
386.688	86.81
386.913	98.81
387.138	97.81
387.363	103.81
387.588	120.81
387.813	100.81
388.038	99.81
388.263	118.81
388.488	110.81
388.713	108.81
388.938	94.81
389.163	91.81
389.387	102.81
389.612	104.81
389.837	112.81
390.062	99.81
390.287	86.81
390.512	97.81
390.736	101.81
390.961	104.81
391.186	113.81
391.411	98.81
391.636	110.81
391.86	107.81
392.085	118.81
392.31	124.81
392.534	102.81
392.759	107.81
392.984	101.81
393.208	120.81
393.433	91.81
393.658	103.81
393.882	114.81
394.107	115.81
394.331	111.81
394.556	106.81
394.78	124.81
395.005	97.81
395.229	106.81
395.454	103.81
395.678	112.81
395.903	114.81
396.127	118.81
396.352	93.81
396.576	102.81
396.801	100.81
397.025	107.81
397.249	102.81
397.474	97.81
397.698	98.81
397.922	115.81
398.147	118.81
398.371	114.81
398.595	105.81
398.82	108.81
399.044	126.81
399.268	121.81
399.492	117.81
399.717	121.81
399.941	107.81
400.165	105.81
400.389	105.81
400.613	118.81
400.837	105.81
401.062	117.81
401.286	119.81
401.51	122.81
401.734	98.81
401.958	103.81
402.182	118.81
402.406	118.81
402.63	113.81
402.854	120.81
403.078	119.81
403.302	107.81
403.526	122.81
403.75	128.81
403.974	118.81
404.198	123.81
404.422	104.81
404.645	117.81
404.869	122.81
405.093	116.81
405.317	131.81
405.541	136.81
405.765	134.81
405.988	124.81
406.212	132.81
406.436	128.81
406.66	122.81
406.883	126.81
407.107	124.81
407.331	118.81
407.555	119.81
407.778	108.81
408.002	121.81
408.226	122.81
408.449	111.81
408.673	110.81
408.896	128.81
409.12	115.81
409.344	120.81
409.567	124.81
409.791	122.81
410.014	131.81
410.238	130.81
410.461	116.81
410.685	115.81
410.908	130.81
411.132	123.81
411.355	126.81
411.578	122.81
411.802	121.81
412.025	131.81
412.249	121.81
412.472	124.81
412.695	133.81
412.919	120.81
413.142	130.81
413.365	117.81
413.589	130.81
413.812	126.81
414.035	131.81
414.258	110.81
414.482	105.81
414.705	130.81
414.928	124.81
415.151	134.81
415.374	134.81
415.597	125.81
415.821	132.81
416.044	113.81
416.267	132.81
416.49	121.81
416.713	130.81
416.936	128.81
417.159	130.81
417.382	132.81
417.605	127.81
417.828	132.81
418.051	140.81
418.274	135.81
418.497	140.81
418.72	123.81
418.943	143.81
419.166	139.81
419.389	144.81
419.611	145.81
419.834	130.81
420.057	146.81
420.28	138.81
420.503	121.81
420.726	125.81
420.948	148.81
421.171	138.81
421.394	128.81
421.617	145.81
421.839	132.81
422.062	123.81
422.285	136.81
422.507	139.81
422.73	127.81
422.953	124.81
423.175	131.81
423.398	130.81
423.621	148.81
423.843	140.81
424.066	129.81
424.288	133.81
424.511	155.81
424.733	143.81
424.956	139.81
425.178	142.81
425.401	154.81
425.623	146.81
425.846	149.81
426.068	145.81
426.291	137.81
426.513	125.81
426.735	133.81
426.958	122.81
427.18	130.81
427.402	114.81
427.625	129.81
427.847	139.81
428.069	140.81
428.292	128.81
428.514	146.81
428.736	132.81
428.958	131.81
429.181	149.81
429.403	119.81
429.625	141.81
429.847	138.81
430.069	141.81
430.292	124.81
430.514	131.81
430.736	124.81
430.958	126.81
431.18	129.81
431.402	113.81
431.624	108.81
431.846	118.81
432.068	97.81
432.29	89.81
432.512	122.81
432.734	117.81
432.956	127.81
433.178	145.81
433.4	140.81
433.622	152.81
433.844	139.81
434.066	110.81
434.287	105.81
434.509	102.81
434.731	112.81
434.953	130.81
435.175	144.81
435.397	116.81
435.618	115.81
435.84	107.81
436.062	112.81
436.284	117.81
436.505	126.81
436.727	139.81
436.949	134.81
437.17	148.81
437.392	137.81
437.614	123.81
437.835	120.81
438.057	111.81
438.278	105.81
438.5	119.81
438.721	139.81
438.943	136.81
439.165	153.81
439.386	137.81
439.608	155.81
439.829	146.81
440.05	152.81
440.272	145.81
440.493	154.81
440.715	155.81
440.936	139.81
441.158	143.81
441.379	147.81
441.6	152.81
441.822	146.81
442.043	150.81
442.264	148.81
442.486	129.81
442.707	164.81
442.928	139.81
443.149	145.81
443.371	164.81
443.592	131.81
443.813	146.81
444.034	126.81
444.255	138.81
444.476	145.81
444.698	142.81
444.919	160.81
445.14	274.81
445.361	226.81
445.582	162.81
445.803	156.81
446.024	170.81
446.245	154.81
446.466	169.81
446.687	161.81
446.908	165.81
447.129	163.81
447.35	154.81
447.571	153.81
447.792	154.81
448.013	147.81
448.234	144.81
448.455	142.81
448.675	147.81
448.896	147.81
449.117	159.81
449.338	138.81
449.559	120.81
449.779	126.81
450	124.81
450.221	130.81
450.442	155.81
450.662	149.81
450.883	139.81
451.104	134.81
451.324	129.81
451.545	135.81
451.766	120.81
451.986	128.81
452.207	125.81
452.428	151.81
452.648	128.81
452.869	132.81
453.089	107.81
453.31	121.81
453.53	110.81
453.751	107.81
453.971	103.81
454.192	111.81
454.412	118.81
454.633	116.81
454.853	138.81
455.073	110.81
455.294	119.81
455.514	122.81
455.734	131.81
455.955	129.81
456.175	115.81
456.395	112.81
456.616	103.81
456.836	102.81
457.056	101.81
457.276	102.81
457.497	110.81
457.717	119.81
457.937	123.81
458.157	117.81
458.377	105.81
458.598	92.81
458.818	101.81
459.038	90.81
459.258	96.81
459.478	93.81
459.698	83.81
459.918	97.81
460.138	101.81
460.358	130.81
460.578	123.81
460.798	110.81
461.018	121.81
461.238	118.81
461.458	122.81
461.678	130.81
461.898	119.81
462.118	128.81
462.338	120.81
462.558	108.81
462.777	108.81
462.997	114.81
463.217	119.81
463.437	101.81
463.657	100.81
463.876	117.81
464.096	94.81
464.316	102.81
464.536	111.81
464.755	111.81
464.975	127.81
465.195	113.81
465.414	120.81
465.634	137.81
465.854	124.81
466.073	133.81
466.293	131.81
466.512	120.81
466.732	140.81
466.951	144.81
467.171	141.81
467.391	142.81
467.61	143.81
467.829	146.81
468.049	146.81
468.268	139.81
468.488	137.81
468.707	124.81
468.927	138.81
469.146	145.81
469.365	144.81
469.585	150.81
469.804	149.81
470.023	147.81
470.243	138.81
470.462	136.81
470.681	148.81
470.901	150.81
471.12	159.81
471.339	141.81
471.558	146.81
471.777	151.81
471.997	135.81
472.216	128.81
472.435	126.81
472.654	99.81
472.873	118.81
473.092	116.81
473.311	114.81
473.53	133.81
473.749	130.81
473.968	136.81
474.187	126.81
474.406	126.81
474.625	120.81
474.844	136.81
475.063	152.81
475.282	108.81
475.501	117.81
475.72	134.81
475.939	142.81
476.158	137.81
476.377	136.81
476.596	130.81
476.814	123.81
477.033	121.81
477.252	115.81
477.471	130.81
477.69	128.81
477.908	154.81
478.127	150.81
478.346	137.81
478.564	137.81
478.783	133.81
479.002	149.81
479.22	135.81
479.439	141.81
479.658	142.81
479.876	119.81
480.095	117.81
480.313	115.81
480.532	126.81
480.751	106.81
480.969	92.81
481.188	90.81
481.406	99.81
481.624	94.81
481.843	75.81
482.061	106.81
482.28	126.81
482.498	122.81
482.717	107.81
482.935	132.81
483.153	155.81
483.372	137.81
483.59	176.81
483.808	150.81
484.027	146.81
484.245	139.81
484.463	164.81
484.681	165.81
484.9	148.81
485.118	152.81
485.336	140.81
485.554	115.81
485.772	106.81
485.99	94.81
486.209	107.81
486.427	123.81
486.645	122.81
486.863	144.81
487.081	142.81
487.299	126.81
487.517	130.81
487.735	169.81
487.953	208.81
488.171	192.81
488.389	179.81
488.607	161.81
488.825	141.81
489.043	144.81
489.261	139.81
489.479	135.81
489.696	138.81
489.914	134.81
490.132	146.81
490.35	168.81
490.568	182.81
490.786	192.81
491.003	186.81
491.221	197.81
491.439	184.81
491.657	199.81
491.874	208.81
492.092	231.81
492.31	240.81
492.527	238.81
492.745	236.81
492.963	214.81
493.18	197.81
493.398	195.81
493.615	169.81
493.833	180.81
494.05	186.81
494.268	188.81
494.485	190.81
494.703	173.81
494.92	168.81
495.138	186.81
495.355	193.81
495.573	189.81
495.79	176.81
496.008	164.81
496.225	175.81
496.442	178.81
496.66	183.81
496.877	169.81
497.094	174.81
497.312	180.81
497.529	162.81
497.746	174.81
497.963	148.81
498.181	147.81
498.398	121.81
498.615	122.81
498.832	122.81
499.049	117.81
499.267	114.81
499.484	122.81
499.701	138.81
499.918	130.81
500.135	143.81
500.352	122.81
500.569	151.81
500.786	162.81
501.003	143.81
501.22	159.81
501.437	146.81
501.654	141.81
501.871	132.81
502.088	138.81
502.305	131.81
502.522	126.81
502.739	139.81
502.956	136.81
503.172	135.81
503.389	133.81
503.606	116.81
503.823	132.81
504.04	129.81
504.256	112.81
504.473	111.81
504.69	138.81
504.907	140.81
505.123	117.81
505.34	130.81
505.557	126.81
505.773	115.81
505.99	133.81
506.207	130.81
506.423	135.81
506.64	118.81
506.856	127.81
507.073	122.81
507.289	124.81
507.506	112.81
507.722	110.81
507.939	116.81
508.155	114.81
508.372	115.81
508.588	118.81
508.805	121.81
509.021	111.81
509.238	102.81
509.454	112.81
509.67	100.81
509.887	112.81
510.103	95.81
510.319	103.81
510.536	96.81
510.752	93.81
510.968	89.81
511.184	74.81
511.401	84.81
511.617	77.81
