Data from Location6.07152019.Energy5.Lamp.07192019.3%Agarose_HRD10591_16-13-36-397.txt Node
Date: Fri Jul 19 16:13:36 EDT 2019
User: cochatt
Spectrometer: HR+D1059
Trigger mode: 1
Integration Time (sec): 1.000000E-1
Scans to average: 1
Electric dark correction enabled: true
Nonlinearity correction enabled: false
Boxcar width: 0
XAxis mode: Wavelengths
Number of Pixels in Spectrum: 2048
>>>>>Begin Spectral Data<<<<<
223.165	-1.31
223.4	-1.31
223.635	-1.31
223.869	-23.31
224.104	-10.31
224.338	-9.31
224.573	-16.31
224.808	-10.31
225.042	-3.31
225.277	8.69
225.511	-14.31
225.746	0.69
225.98	0.69
226.215	12.69
226.449	3.69
226.683	7.69
226.918	30.69
227.152	23.69
227.387	28.69
227.621	29.69
227.856	33.69
228.09	28.69
228.324	38.69
228.559	23.69
228.793	66.69
229.027	58.69
229.262	53.69
229.496	50.69
229.73	63.69
229.964	75.69
230.199	71.69
230.433	72.69
230.667	64.69
230.901	84.69
231.136	84.69
231.37	89.69
231.604	72.69
231.838	81.69
232.072	76.69
232.306	78.69
232.541	64.69
232.775	75.69
233.009	79.69
233.243	59.69
233.477	85.69
233.711	79.69
233.945	75.69
234.179	75.69
234.413	82.69
234.647	74.69
234.881	75.69
235.115	73.69
235.349	69.69
235.583	68.69
235.817	70.69
236.051	61.69
236.285	64.69
236.519	68.69
236.753	69.69
236.987	81.69
237.221	68.69
237.455	60.69
237.689	78.69
237.922	62.69
238.156	71.69
238.39	82.69
238.624	60.69
238.858	69.69
239.091	62.69
239.325	70.69
239.559	65.69
239.793	70.69
240.027	82.69
240.26	72.69
240.494	74.69
240.728	70.69
240.961	77.69
241.195	72.69
241.429	75.69
241.662	68.69
241.896	75.69
242.13	72.69
242.363	70.69
242.597	73.69
242.83	67.69
243.064	68.69
243.298	69.69
243.531	62.69
243.765	68.69
243.998	84.69
244.232	72.69
244.465	70.69
244.699	75.69
244.932	63.69
245.166	70.69
245.399	60.69
245.633	77.69
245.866	82.69
246.099	71.69
246.333	68.69
246.566	71.69
246.8	73.69
247.033	58.69
247.266	90.69
247.5	84.69
247.733	79.69
247.966	68.69
248.2	86.69
248.433	72.69
248.666	70.69
248.899	72.69
249.133	66.69
249.366	64.69
249.599	84.69
249.832	71.69
250.066	68.69
250.299	78.69
250.532	68.69
250.765	93.69
250.998	67.69
251.231	72.69
251.465	72.69
251.698	60.69
251.931	81.69
252.164	77.69
252.397	74.69
252.63	85.69
252.863	66.69
253.096	71.69
253.329	81.69
253.562	76.69
253.795	79.69
254.028	85.69
254.261	70.69
254.494	70.69
254.727	86.69
254.96	70.69
255.193	65.69
255.426	83.69
255.659	71.69
255.892	93.69
256.124	78.69
256.357	89.69
256.59	77.69
256.823	66.69
257.056	82.69
257.289	86.69
257.521	66.69
257.754	75.69
257.987	62.69
258.22	79.69
258.452	78.69
258.685	84.69
258.918	73.69
259.151	59.69
259.383	58.69
259.616	73.69
259.849	84.69
260.081	73.69
260.314	69.69
260.547	77.69
260.779	71.69
261.012	70.69
261.244	80.69
261.477	87.69
261.71	72.69
261.942	72.69
262.175	81.69
262.407	83.69
262.64	72.69
262.872	84.69
263.105	66.69
263.337	78.69
263.57	89.69
263.802	74.69
264.035	71.69
264.267	77.69
264.499	76.69
264.732	73.69
264.964	71.69
265.197	65.69
265.429	71.69
265.661	86.69
265.894	75.69
266.126	83.69
266.358	79.69
266.591	96.69
266.823	82.69
267.055	75.69
267.287	60.69
267.52	76.69
267.752	78.69
267.984	87.69
268.216	82.69
268.448	75.69
268.681	62.69
268.913	71.69
269.145	75.69
269.377	76.69
269.609	70.69
269.841	71.69
270.073	66.69
270.306	68.69
270.538	99.69
270.77	71.69
271.002	71.69
271.234	91.69
271.466	83.69
271.698	75.69
271.93	84.69
272.162	73.69
272.394	69.69
272.626	78.69
272.858	78.69
273.09	95.69
273.322	82.69
273.553	82.69
273.785	77.69
274.017	80.69
274.249	86.69
274.481	84.69
274.713	85.69
274.945	75.69
275.176	72.69
275.408	89.69
275.64	80.69
275.872	78.69
276.104	76.69
276.335	76.69
276.567	71.69
276.799	91.69
277.031	70.69
277.262	79.69
277.494	78.69
277.726	68.69
277.957	77.69
278.189	67.69
278.421	91.69
278.652	85.69
278.884	80.69
279.115	85.69
279.347	77.69
279.579	76.69
279.81	86.69
280.042	87.69
280.273	71.69
280.505	74.69
280.736	89.69
280.968	67.69
281.199	80.69
281.431	74.69
281.662	78.69
281.894	75.69
282.125	68.69
282.356	83.69
282.588	87.69
282.819	79.69
283.051	88.69
283.282	85.69
283.513	83.69
283.745	70.69
283.976	66.69
284.207	91.69
284.439	68.69
284.67	82.69
284.901	88.69
285.132	71.69
285.364	70.69
285.595	74.69
285.826	70.69
286.057	82.69
286.288	85.69
286.52	80.69
286.751	78.69
286.982	77.69
287.213	86.69
287.444	90.69
287.675	73.69
287.906	71.69
288.138	76.69
288.369	88.69
288.6	56.69
288.831	72.69
289.062	83.69
289.293	90.69
289.524	70.69
289.755	69.69
289.986	87.69
290.217	68.69
290.448	84.69
290.679	77.69
290.91	71.69
291.141	70.69
291.371	66.69
291.602	78.69
291.833	76.69
292.064	79.69
292.295	73.69
292.526	77.69
292.757	80.69
292.987	88.69
293.218	81.69
293.449	101.69
293.68	88.69
293.91	75.69
294.141	72.69
294.372	83.69
294.603	91.69
294.833	63.69
295.064	83.69
295.295	79.69
295.525	83.69
295.756	84.69
295.987	82.69
296.217	81.69
296.448	91.69
296.679	96.69
296.909	77.69
297.14	70.69
297.37	91.69
297.601	77.69
297.831	75.69
298.062	73.69
298.292	93.69
298.523	80.69
298.753	72.69
298.984	81.69
299.214	89.69
299.445	71.69
299.675	85.69
299.905	78.69
300.136	78.69
300.366	84.69
300.597	76.69
300.827	86.69
301.057	85.69
301.288	75.69
301.518	72.69
301.748	75.69
301.979	81.69
302.209	73.69
302.439	86.69
302.669	78.69
302.9	67.69
303.13	74.69
303.36	77.69
303.59	86.69
303.82	91.69
304.051	80.69
304.281	72.69
304.511	87.69
304.741	75.69
304.971	70.69
305.201	88.69
305.431	73.69
305.661	71.69
305.891	84.69
306.121	80.69
306.352	79.69
306.582	79.69
306.812	72.69
307.042	79.69
307.272	91.69
307.502	89.69
307.731	73.69
307.961	78.69
308.191	87.69
308.421	67.69
308.651	82.69
308.881	76.69
309.111	80.69
309.341	84.69
309.571	78.69
309.8	83.69
310.03	67.69
310.26	83.69
310.49	86.69
310.72	67.69
310.949	77.69
311.179	86.69
311.409	78.69
311.639	88.69
311.868	73.69
312.098	77.69
312.328	78.69
312.557	80.69
312.787	74.69
313.017	91.69
313.246	84.69
313.476	71.69
313.706	70.69
313.935	73.69
314.165	88.69
314.394	81.69
314.624	73.69
314.853	87.69
315.083	79.69
315.312	76.69
315.542	76.69
315.771	72.69
316.001	88.69
316.23	85.69
316.46	73.69
316.689	82.69
316.919	79.69
317.148	79.69
317.377	67.69
317.607	89.69
317.836	76.69
318.065	84.69
318.295	77.69
318.524	82.69
318.753	72.69
318.983	99.69
319.212	90.69
319.441	68.69
319.67	74.69
319.9	83.69
320.129	95.69
320.358	84.69
320.587	73.69
320.816	79.69
321.046	86.69
321.275	82.69
321.504	78.69
321.733	77.69
321.962	82.69
322.191	75.69
322.42	89.69
322.649	77.69
322.878	91.69
323.108	78.69
323.337	79.69
323.566	90.69
323.795	91.69
324.024	73.69
324.253	76.69
324.482	85.69
324.71	73.69
324.939	77.69
325.168	78.69
325.397	67.69
325.626	85.69
325.855	65.69
326.084	72.69
326.313	87.69
326.542	67.69
326.77	82.69
326.999	87.69
327.228	80.69
327.457	79.69
327.686	89.69
327.914	71.69
328.143	90.69
328.372	80.69
328.6	80.69
328.829	78.69
329.058	84.69
329.287	70.69
329.515	74.69
329.744	73.69
329.972	76.69
330.201	74.69
330.43	85.69
330.658	72.69
330.887	70.69
331.115	66.69
331.344	80.69
331.572	70.69
331.801	80.69
332.03	83.69
332.258	86.69
332.486	77.69
332.715	67.69
332.943	74.69
333.172	67.69
333.4	78.69
333.629	80.69
333.857	83.69
334.085	87.69
334.314	82.69
334.542	86.69
334.771	91.69
334.999	72.69
335.227	71.69
335.455	93.69
335.684	89.69
335.912	78.69
336.14	79.69
336.369	83.69
336.597	97.69
336.825	64.69
337.053	74.69
337.281	79.69
337.51	79.69
337.738	85.69
337.966	84.69
338.194	69.69
338.422	91.69
338.65	77.69
338.878	87.69
339.106	77.69
339.334	91.69
339.562	78.69
339.79	76.69
340.018	89.69
340.246	75.69
340.474	82.69
340.702	80.69
340.93	78.69
341.158	72.69
341.386	95.69
341.614	87.69
341.842	71.69
342.07	78.69
342.298	66.69
342.526	73.69
342.754	77.69
342.981	64.69
343.209	82.69
343.437	78.69
343.665	66.69
343.893	81.69
344.12	90.69
344.348	78.69
344.576	83.69
344.804	76.69
345.031	74.69
345.259	86.69
345.487	70.69
345.714	70.69
345.942	85.69
346.17	74.69
346.397	67.69
346.625	81.69
346.853	87.69
347.08	82.69
347.308	80.69
347.535	72.69
347.763	86.69
347.99	82.69
348.218	74.69
348.445	79.69
348.673	87.69
348.9	89.69
349.128	76.69
349.355	72.69
349.583	75.69
349.81	76.69
350.037	90.69
350.265	86.69
350.492	95.69
350.72	80.69
350.947	72.69
351.174	94.69
351.402	80.69
351.629	75.69
351.856	72.69
352.083	83.69
352.311	62.69
352.538	86.69
352.765	72.69
352.992	87.69
353.22	69.69
353.447	82.69
353.674	72.69
353.901	93.69
354.128	92.69
354.355	88.69
354.583	75.69
354.81	80.69
355.037	67.69
355.264	79.69
355.491	75.69
355.718	65.69
355.945	70.69
356.172	83.69
356.399	83.69
356.626	91.69
356.853	76.69
357.08	82.69
357.307	68.69
357.534	87.69
357.761	85.69
357.988	62.69
358.215	88.69
358.441	78.69
358.668	75.69
358.895	83.69
359.122	78.69
359.349	76.69
359.576	69.69
359.802	83.69
360.029	73.69
360.256	87.69
360.483	86.69
360.709	83.69
360.936	77.69
361.163	67.69
361.39	76.69
361.616	75.69
361.843	84.69
362.07	67.69
362.296	82.69
362.523	80.69
362.749	67.69
362.976	50.69
363.203	78.69
363.429	81.69
363.656	74.69
363.882	74.69
364.109	86.69
364.335	76.69
364.562	81.69
364.788	84.69
365.015	67.69
365.241	87.69
365.468	88.69
365.694	72.69
365.92	82.69
366.147	76.69
366.373	90.69
366.599	78.69
366.826	78.69
367.052	71.69
367.278	78.69
367.505	87.69
367.731	75.69
367.957	77.69
368.184	87.69
368.41	89.69
368.636	78.69
368.862	75.69
369.089	88.69
369.315	83.69
369.541	87.69
369.767	80.69
369.993	91.69
370.219	74.69
370.445	85.69
370.672	87.69
370.898	89.69
371.124	86.69
371.35	92.69
371.576	90.69
371.802	90.69
372.028	91.69
372.254	84.69
372.48	81.69
372.706	89.69
372.932	83.69
373.158	90.69
373.384	86.69
373.61	81.69
373.835	95.69
374.061	82.69
374.287	88.69
374.513	80.69
374.739	87.69
374.965	78.69
375.191	93.69
375.416	93.69
375.642	92.69
375.868	89.69
376.094	83.69
376.319	94.69
376.545	78.69
376.771	101.69
376.997	99.69
377.222	84.69
377.448	85.69
377.674	78.69
377.899	94.69
378.125	80.69
378.35	84.69
378.576	77.69
378.802	82.69
379.027	103.69
379.253	98.69
379.478	88.69
379.704	94.69
379.929	99.69
380.155	91.69
380.38	97.69
380.606	92.69
380.831	99.69
381.057	97.69
381.282	92.69
381.507	95.69
381.733	85.69
381.958	86.69
382.184	98.69
382.409	94.69
382.634	80.69
382.86	92.69
383.085	98.69
383.31	89.69
383.535	90.69
383.761	91.69
383.986	96.69
384.211	100.69
384.436	87.69
384.662	113.69
384.887	101.69
385.112	88.69
385.337	89.69
385.562	91.69
385.787	86.69
386.013	100.69
386.238	106.69
386.463	92.69
386.688	93.69
386.913	88.69
387.138	93.69
387.363	94.69
387.588	88.69
387.813	100.69
388.038	96.69
388.263	91.69
388.488	101.69
388.713	111.69
388.938	87.69
389.163	109.69
389.387	80.69
389.612	107.69
389.837	96.69
390.062	116.69
390.287	97.69
390.512	95.69
390.736	94.69
390.961	107.69
391.186	96.69
391.411	110.69
391.636	111.69
391.86	94.69
392.085	116.69
392.31	95.69
392.534	91.69
392.759	95.69
392.984	103.69
393.208	98.69
393.433	99.69
393.658	109.69
393.882	106.69
394.107	108.69
394.331	110.69
394.556	113.69
394.78	106.69
395.005	120.69
395.229	111.69
395.454	99.69
395.678	103.69
395.903	103.69
396.127	96.69
396.352	114.69
396.576	98.69
396.801	100.69
397.025	96.69
397.249	113.69
397.474	102.69
397.698	108.69
397.922	99.69
398.147	100.69
398.371	101.69
398.595	110.69
398.82	114.69
399.044	117.69
399.268	107.69
399.492	97.69
399.717	98.69
399.941	105.69
400.165	108.69
400.389	119.69
400.613	109.69
400.837	120.69
401.062	115.69
401.286	93.69
401.51	108.69
401.734	111.69
401.958	101.69
402.182	110.69
402.406	102.69
402.63	117.69
402.854	127.69
403.078	106.69
403.302	97.69
403.526	120.69
403.75	114.69
403.974	109.69
404.198	140.69
404.422	126.69
404.645	106.69
404.869	124.69
405.093	120.69
405.317	126.69
405.541	110.69
405.765	101.69
405.988	112.69
406.212	134.69
406.436	116.69
406.66	111.69
406.883	116.69
407.107	116.69
407.331	119.69
407.555	119.69
407.778	121.69
408.002	116.69
408.226	128.69
408.449	126.69
408.673	117.69
408.896	125.69
409.12	116.69
409.344	128.69
409.567	120.69
409.791	122.69
410.014	112.69
410.238	120.69
410.461	119.69
410.685	123.69
410.908	124.69
411.132	123.69
411.355	135.69
411.578	124.69
411.802	116.69
412.025	131.69
412.249	130.69
412.472	116.69
412.695	127.69
412.919	118.69
413.142	127.69
413.365	132.69
413.589	113.69
413.812	115.69
414.035	125.69
414.258	106.69
414.482	109.69
414.705	114.69
414.928	124.69
415.151	138.69
415.374	128.69
415.597	120.69
415.821	122.69
416.044	120.69
416.267	117.69
416.49	122.69
416.713	126.69
416.936	127.69
417.159	124.69
417.382	115.69
417.605	117.69
417.828	132.69
418.051	121.69
418.274	137.69
418.497	132.69
418.72	125.69
418.943	131.69
419.166	148.69
419.389	148.69
419.611	135.69
419.834	125.69
420.057	128.69
420.28	140.69
420.503	136.69
420.726	117.69
420.948	131.69
421.171	151.69
421.394	146.69
421.617	142.69
421.839	130.69
422.062	144.69
422.285	130.69
422.507	133.69
422.73	123.69
422.953	119.69
423.175	138.69
423.398	119.69
423.621	126.69
423.843	138.69
424.066	139.69
424.288	142.69
424.511	144.69
424.733	167.69
424.956	144.69
425.178	122.69
425.401	148.69
425.623	126.69
425.846	132.69
426.068	132.69
426.291	128.69
426.513	117.69
426.735	118.69
426.958	119.69
427.18	133.69
427.402	128.69
427.625	126.69
427.847	128.69
428.069	136.69
428.292	140.69
428.514	126.69
428.736	122.69
428.958	136.69
429.181	117.69
429.403	140.69
429.625	115.69
429.847	120.69
430.069	109.69
430.292	133.69
430.514	128.69
430.736	124.69
430.958	143.69
431.18	126.69
431.402	116.69
431.624	120.69
431.846	110.69
432.068	98.69
432.29	114.69
432.512	108.69
432.734	113.69
432.956	128.69
433.178	143.69
433.4	140.69
433.622	139.69
433.844	132.69
434.066	122.69
434.287	96.69
434.509	98.69
434.731	96.69
434.953	112.69
435.175	118.69
435.397	118.69
435.618	116.69
435.84	117.69
436.062	115.69
436.284	122.69
436.505	133.69
436.727	120.69
436.949	134.69
437.17	132.69
437.392	116.69
437.614	126.69
437.835	99.69
438.057	106.69
438.278	119.69
438.5	122.69
438.721	139.69
438.943	135.69
439.165	134.69
439.386	134.69
439.608	141.69
439.829	143.69
440.05	153.69
440.272	132.69
440.493	145.69
440.715	152.69
440.936	157.69
441.158	153.69
441.379	143.69
441.6	154.69
441.822	134.69
442.043	153.69
442.264	132.69
442.486	148.69
442.707	135.69
442.928	133.69
443.149	135.69
443.371	136.69
443.592	145.69
443.813	140.69
444.034	120.69
444.255	128.69
444.476	136.69
444.698	148.69
444.919	143.69
445.14	274.69
445.361	197.69
445.582	156.69
445.803	146.69
446.024	155.69
446.245	149.69
446.466	149.69
446.687	151.69
446.908	167.69
447.129	157.69
447.35	147.69
447.571	151.69
447.792	158.69
448.013	132.69
448.234	136.69
448.455	126.69
448.675	147.69
448.896	156.69
449.117	133.69
449.338	127.69
449.559	135.69
449.779	140.69
450	129.69
450.221	122.69
450.442	124.69
450.662	130.69
450.883	132.69
451.104	130.69
451.324	127.69
451.545	132.69
451.766	133.69
451.986	136.69
452.207	128.69
452.428	131.69
452.648	126.69
452.869	131.69
453.089	112.69
453.31	118.69
453.53	83.69
453.751	112.69
453.971	88.69
454.192	91.69
454.412	100.69
454.633	126.69
454.853	120.69
455.073	124.69
455.294	124.69
455.514	130.69
455.734	111.69
455.955	108.69
456.175	124.69
456.395	116.69
456.616	113.69
456.836	96.69
457.056	112.69
457.276	112.69
457.497	109.69
457.717	102.69
457.937	102.69
458.157	114.69
458.377	92.69
458.598	101.69
458.818	93.69
459.038	87.69
459.258	92.69
459.478	72.69
459.698	79.69
459.918	83.69
460.138	98.69
460.358	125.69
460.578	107.69
460.798	108.69
461.018	117.69
461.238	126.69
461.458	121.69
461.678	123.69
461.898	128.69
462.118	116.69
462.338	113.69
462.558	101.69
462.777	117.69
462.997	98.69
463.217	92.69
463.437	106.69
463.657	104.69
463.876	108.69
464.096	107.69
464.316	108.69
464.536	102.69
464.755	117.69
464.975	118.69
465.195	114.69
465.414	128.69
465.634	122.69
465.854	119.69
466.073	118.69
466.293	113.69
466.512	122.69
466.732	121.69
466.951	132.69
467.171	148.69
467.391	134.69
467.61	125.69
467.829	131.69
468.049	138.69
468.268	134.69
468.488	134.69
468.707	126.69
468.927	125.69
469.146	134.69
469.365	146.69
469.585	140.69
469.804	146.69
470.023	143.69
470.243	153.69
470.462	148.69
470.681	134.69
470.901	140.69
471.12	140.69
471.339	149.69
471.558	147.69
471.777	139.69
471.997	135.69
472.216	132.69
472.435	120.69
472.654	92.69
472.873	119.69
473.092	127.69
473.311	132.69
473.53	117.69
473.749	126.69
473.968	128.69
474.187	129.69
474.406	112.69
474.625	126.69
474.844	130.69
475.063	145.69
475.282	140.69
475.501	126.69
475.72	120.69
475.939	130.69
476.158	118.69
476.377	117.69
476.596	114.69
476.814	103.69
477.033	112.69
477.252	101.69
477.471	130.69
477.69	136.69
477.908	142.69
478.127	138.69
478.346	137.69
478.564	129.69
478.783	156.69
479.002	141.69
479.22	118.69
479.439	133.69
479.658	134.69
479.876	108.69
480.095	104.69
480.313	118.69
480.532	122.69
480.751	112.69
480.969	99.69
481.188	86.69
481.406	72.69
481.624	90.69
481.843	90.69
482.061	95.69
482.28	112.69
482.498	112.69
482.717	115.69
482.935	120.69
483.153	129.69
483.372	150.69
483.59	158.69
483.808	151.69
484.027	142.69
484.245	140.69
484.463	144.69
484.681	168.69
484.9	143.69
485.118	144.69
485.336	124.69
485.554	115.69
485.772	102.69
485.99	95.69
486.209	106.69
486.427	106.69
486.645	116.69
486.863	142.69
487.081	146.69
487.299	122.69
487.517	162.69
487.735	170.69
487.953	189.69
488.171	181.69
488.389	183.69
488.607	167.69
488.825	147.69
489.043	144.69
489.261	142.69
489.479	132.69
489.696	142.69
489.914	130.69
490.132	146.69
490.35	147.69
490.568	158.69
490.786	154.69
491.003	166.69
491.221	186.69
491.439	198.69
491.657	208.69
491.874	198.69
492.092	238.69
492.31	234.69
492.527	237.69
492.745	202.69
492.963	206.69
493.18	195.69
493.398	186.69
493.615	181.69
493.833	194.69
494.05	192.69
494.268	175.69
494.485	172.69
494.703	163.69
494.92	174.69
495.138	164.69
495.355	186.69
495.573	164.69
495.79	162.69
496.008	179.69
496.225	167.69
496.442	164.69
496.66	174.69
496.877	169.69
497.094	166.69
497.312	148.69
497.529	163.69
497.746	153.69
497.963	147.69
498.181	142.69
498.398	103.69
498.615	120.69
498.832	114.69
499.049	127.69
499.267	117.69
499.484	120.69
499.701	130.69
499.918	128.69
500.135	149.69
500.352	142.69
500.569	137.69
500.786	123.69
501.003	146.69
501.22	125.69
501.437	128.69
501.654	128.69
501.871	133.69
502.088	122.69
502.305	142.69
502.522	127.69
502.739	120.69
502.956	116.69
503.172	101.69
503.389	126.69
503.606	108.69
503.823	143.69
504.04	108.69
504.256	118.69
504.473	93.69
504.69	110.69
504.907	112.69
505.123	123.69
505.34	120.69
505.557	112.69
505.773	116.69
505.99	122.69
506.207	130.69
506.423	127.69
506.64	112.69
506.856	127.69
507.073	133.69
507.289	125.69
507.506	135.69
507.722	123.69
507.939	110.69
508.155	120.69
508.372	114.69
508.588	114.69
508.805	120.69
509.021	112.69
509.238	98.69
509.454	92.69
509.67	108.69
509.887	102.69
510.103	90.69
510.319	99.69
510.536	106.69
510.752	90.69
510.968	89.69
511.184	79.69
511.401	98.69
511.617	95.69
511.833	82.69
512.049	98.69
512.265	100.69
