Data from Location6.07152019.Energy5.Lamp.07192019.3%Agarose_HRD10591_16-13-11-395.txt Node
Date: Fri Jul 19 16:13:11 EDT 2019
User: cochatt
Spectrometer: HR+D1059
Trigger mode: 1
Integration Time (sec): 1.000000E-1
Scans to average: 1
Electric dark correction enabled: true
Nonlinearity correction enabled: false
Boxcar width: 0
XAxis mode: Wavelengths
Number of Pixels in Spectrum: 2048
>>>>>Begin Spectral Data<<<<<
223.165	-18.75
223.4	-18.75
223.635	-18.75
223.869	-25.75
224.104	-21.75
224.338	-21.75
224.573	-7.75
224.808	-13.75
225.042	4.25
225.277	-6.75
225.511	-9.75
225.746	-1.75
225.98	13.25
226.215	15.25
226.449	15.25
226.683	20.25
226.918	26.25
227.152	33.25
227.387	24.25
227.621	47.25
227.856	53.25
228.09	53.25
228.324	39.25
228.559	73.25
228.793	51.25
229.027	76.25
229.262	70.25
229.496	62.25
229.73	58.25
229.964	73.25
230.199	83.25
230.433	82.25
230.667	84.25
230.901	82.25
231.136	81.25
231.37	87.25
231.604	87.25
231.838	83.25
232.072	96.25
232.306	101.25
232.541	95.25
232.775	90.25
233.009	81.25
233.243	79.25
233.477	88.25
233.711	91.25
233.945	81.25
234.179	79.25
234.413	83.25
234.647	74.25
234.881	74.25
235.115	72.25
235.349	84.25
235.583	76.25
235.817	79.25
236.051	85.25
236.285	72.25
236.519	90.25
236.753	68.25
236.987	90.25
237.221	83.25
237.455	75.25
237.689	77.25
237.922	71.25
238.156	84.25
238.39	73.25
238.624	79.25
238.858	81.25
239.091	83.25
239.325	94.25
239.559	93.25
239.793	90.25
240.027	79.25
240.26	82.25
240.494	78.25
240.728	65.25
240.961	77.25
241.195	83.25
241.429	95.25
241.662	79.25
241.896	87.25
242.13	80.25
242.363	69.25
242.597	70.25
242.83	74.25
243.064	58.25
243.298	75.25
243.531	81.25
243.765	78.25
243.998	73.25
244.232	73.25
244.465	76.25
244.699	85.25
244.932	79.25
245.166	78.25
245.399	80.25
245.633	62.25
245.866	87.25
246.099	85.25
246.333	79.25
246.566	70.25
246.8	76.25
247.033	78.25
247.266	85.25
247.5	99.25
247.733	69.25
247.966	78.25
248.2	84.25
248.433	78.25
248.666	88.25
248.899	83.25
249.133	75.25
249.366	83.25
249.599	54.25
249.832	85.25
250.066	94.25
250.299	78.25
250.532	76.25
250.765	76.25
250.998	76.25
251.231	85.25
251.465	80.25
251.698	76.25
251.931	82.25
252.164	83.25
252.397	85.25
252.63	76.25
252.863	87.25
253.096	89.25
253.329	71.25
253.562	77.25
253.795	87.25
254.028	94.25
254.261	78.25
254.494	81.25
254.727	90.25
254.96	88.25
255.193	84.25
255.426	83.25
255.659	75.25
255.892	73.25
256.124	79.25
256.357	70.25
256.59	74.25
256.823	83.25
257.056	73.25
257.289	73.25
257.521	78.25
257.754	85.25
257.987	74.25
258.22	97.25
258.452	67.25
258.685	74.25
258.918	68.25
259.151	74.25
259.383	81.25
259.616	77.25
259.849	81.25
260.081	83.25
260.314	84.25
260.547	90.25
260.779	73.25
261.012	79.25
261.244	90.25
261.477	88.25
261.71	75.25
261.942	89.25
262.175	71.25
262.407	85.25
262.64	88.25
262.872	75.25
263.105	86.25
263.337	78.25
263.57	80.25
263.802	85.25
264.035	92.25
264.267	89.25
264.499	70.25
264.732	89.25
264.964	74.25
265.197	67.25
265.429	83.25
265.661	86.25
265.894	84.25
266.126	93.25
266.358	77.25
266.591	75.25
266.823	88.25
267.055	84.25
267.287	97.25
267.52	92.25
267.752	84.25
267.984	79.25
268.216	85.25
268.448	94.25
268.681	77.25
268.913	94.25
269.145	77.25
269.377	81.25
269.609	76.25
269.841	88.25
270.073	77.25
270.306	70.25
270.538	87.25
270.77	80.25
271.002	85.25
271.234	94.25
271.466	78.25
271.698	79.25
271.93	94.25
272.162	84.25
272.394	86.25
272.626	74.25
272.858	83.25
273.09	81.25
273.322	89.25
273.553	85.25
273.785	86.25
274.017	75.25
274.249	81.25
274.481	73.25
274.713	83.25
274.945	74.25
275.176	86.25
275.408	76.25
275.64	71.25
275.872	90.25
276.104	87.25
276.335	92.25
276.567	86.25
276.799	83.25
277.031	78.25
277.262	91.25
277.494	84.25
277.726	89.25
277.957	96.25
278.189	89.25
278.421	81.25
278.652	99.25
278.884	99.25
279.115	91.25
279.347	94.25
279.579	94.25
279.81	84.25
280.042	87.25
280.273	82.25
280.505	75.25
280.736	92.25
280.968	91.25
281.199	90.25
281.431	78.25
281.662	84.25
281.894	86.25
282.125	91.25
282.356	88.25
282.588	70.25
282.819	83.25
283.051	78.25
283.282	86.25
283.513	93.25
283.745	81.25
283.976	71.25
284.207	77.25
284.439	76.25
284.67	85.25
284.901	97.25
285.132	96.25
285.364	80.25
285.595	89.25
285.826	93.25
286.057	89.25
286.288	77.25
286.52	93.25
286.751	98.25
286.982	91.25
287.213	93.25
287.444	79.25
287.675	89.25
287.906	82.25
288.138	80.25
288.369	76.25
288.6	77.25
288.831	95.25
289.062	98.25
289.293	104.25
289.524	83.25
289.755	75.25
289.986	97.25
290.217	90.25
290.448	77.25
290.679	83.25
290.91	89.25
291.141	94.25
291.371	83.25
291.602	85.25
291.833	91.25
292.064	93.25
292.295	94.25
292.526	78.25
292.757	87.25
292.987	85.25
293.218	89.25
293.449	92.25
293.68	82.25
293.91	89.25
294.141	70.25
294.372	93.25
294.603	92.25
294.833	84.25
295.064	83.25
295.295	83.25
295.525	83.25
295.756	90.25
295.987	87.25
296.217	85.25
296.448	93.25
296.679	89.25
296.909	79.25
297.14	92.25
297.37	83.25
297.601	92.25
297.831	97.25
298.062	95.25
298.292	102.25
298.523	92.25
298.753	98.25
298.984	98.25
299.214	88.25
299.445	87.25
299.675	92.25
299.905	91.25
300.136	77.25
300.366	71.25
300.597	71.25
300.827	94.25
301.057	86.25
301.288	93.25
301.518	71.25
301.748	79.25
301.979	90.25
302.209	85.25
302.439	87.25
302.669	97.25
302.9	90.25
303.13	109.25
303.36	83.25
303.59	80.25
303.82	74.25
304.051	86.25
304.281	93.25
304.511	83.25
304.741	91.25
304.971	91.25
305.201	86.25
305.431	79.25
305.661	70.25
305.891	103.25
306.121	89.25
306.352	85.25
306.582	92.25
306.812	78.25
307.042	84.25
307.272	74.25
307.502	77.25
307.731	87.25
307.961	99.25
308.191	82.25
308.421	83.25
308.651	84.25
308.881	84.25
309.111	89.25
309.341	86.25
309.571	74.25
309.8	82.25
310.03	85.25
310.26	105.25
310.49	94.25
310.72	87.25
310.949	85.25
311.179	79.25
311.409	75.25
311.639	85.25
311.868	97.25
312.098	84.25
312.328	76.25
312.557	106.25
312.787	98.25
313.017	90.25
313.246	82.25
313.476	88.25
313.706	79.25
313.935	90.25
314.165	77.25
314.394	93.25
314.624	90.25
314.853	94.25
315.083	91.25
315.312	83.25
315.542	86.25
315.771	93.25
316.001	92.25
316.23	82.25
316.46	80.25
316.689	88.25
316.919	102.25
317.148	98.25
317.377	92.25
317.607	73.25
317.836	79.25
318.065	87.25
318.295	97.25
318.524	102.25
318.753	85.25
318.983	86.25
319.212	88.25
319.441	84.25
319.67	92.25
319.9	86.25
320.129	79.25
320.358	89.25
320.587	77.25
320.816	84.25
321.046	85.25
321.275	83.25
321.504	84.25
321.733	77.25
321.962	76.25
322.191	99.25
322.42	87.25
322.649	76.25
322.878	81.25
323.108	88.25
323.337	90.25
323.566	86.25
323.795	98.25
324.024	105.25
324.253	94.25
324.482	90.25
324.71	83.25
324.939	86.25
325.168	78.25
325.397	81.25
325.626	81.25
325.855	100.25
326.084	91.25
326.313	89.25
326.542	85.25
326.77	77.25
326.999	82.25
327.228	85.25
327.457	89.25
327.686	89.25
327.914	80.25
328.143	81.25
328.372	82.25
328.6	88.25
328.829	85.25
329.058	90.25
329.287	82.25
329.515	86.25
329.744	92.25
329.972	91.25
330.201	86.25
330.43	89.25
330.658	91.25
330.887	90.25
331.115	89.25
331.344	85.25
331.572	77.25
331.801	85.25
332.03	75.25
332.258	80.25
332.486	78.25
332.715	75.25
332.943	82.25
333.172	85.25
333.4	85.25
333.629	101.25
333.857	90.25
334.085	90.25
334.314	90.25
334.542	95.25
334.771	111.25
334.999	82.25
335.227	79.25
335.455	91.25
335.684	92.25
335.912	91.25
336.14	83.25
336.369	86.25
336.597	84.25
336.825	86.25
337.053	88.25
337.281	89.25
337.51	85.25
337.738	104.25
337.966	85.25
338.194	92.25
338.422	88.25
338.65	89.25
338.878	79.25
339.106	82.25
339.334	93.25
339.562	84.25
339.79	85.25
340.018	88.25
340.246	90.25
340.474	92.25
340.702	93.25
340.93	81.25
341.158	78.25
341.386	87.25
341.614	98.25
341.842	106.25
342.07	94.25
342.298	87.25
342.526	82.25
342.754	83.25
342.981	82.25
343.209	97.25
343.437	79.25
343.665	88.25
343.893	107.25
344.12	87.25
344.348	74.25
344.576	90.25
344.804	92.25
345.031	88.25
345.259	78.25
345.487	76.25
345.714	91.25
345.942	87.25
346.17	75.25
346.397	89.25
346.625	90.25
346.853	88.25
347.08	89.25
347.308	87.25
347.535	84.25
347.763	92.25
347.99	81.25
348.218	71.25
348.445	87.25
348.673	66.25
348.9	88.25
349.128	80.25
349.355	93.25
349.583	104.25
349.81	85.25
350.037	79.25
350.265	87.25
350.492	88.25
350.72	84.25
350.947	85.25
351.174	86.25
351.402	76.25
351.629	88.25
351.856	84.25
352.083	90.25
352.311	85.25
352.538	89.25
352.765	86.25
352.992	93.25
353.22	87.25
353.447	83.25
353.674	90.25
353.901	83.25
354.128	79.25
354.355	70.25
354.583	74.25
354.81	88.25
355.037	84.25
355.264	86.25
355.491	76.25
355.718	79.25
355.945	93.25
356.172	97.25
356.399	81.25
356.626	74.25
356.853	105.25
357.08	98.25
357.307	74.25
357.534	88.25
357.761	89.25
357.988	79.25
358.215	85.25
358.441	87.25
358.668	79.25
358.895	91.25
359.122	85.25
359.349	95.25
359.576	89.25
359.802	84.25
360.029	81.25
360.256	86.25
360.483	94.25
360.709	77.25
360.936	96.25
361.163	78.25
361.39	90.25
361.616	77.25
361.843	84.25
362.07	84.25
362.296	87.25
362.523	87.25
362.749	72.25
362.976	82.25
363.203	85.25
363.429	89.25
363.656	86.25
363.882	81.25
364.109	89.25
364.335	87.25
364.562	79.25
364.788	79.25
365.015	93.25
365.241	85.25
365.468	84.25
365.694	75.25
365.92	86.25
366.147	90.25
366.373	94.25
366.599	93.25
366.826	73.25
367.052	85.25
367.278	74.25
367.505	103.25
367.731	98.25
367.957	84.25
368.184	89.25
368.41	85.25
368.636	95.25
368.862	98.25
369.089	87.25
369.315	91.25
369.541	98.25
369.767	87.25
369.993	81.25
370.219	97.25
370.445	93.25
370.672	97.25
370.898	97.25
371.124	86.25
371.35	108.25
371.576	89.25
371.802	80.25
372.028	88.25
372.254	87.25
372.48	89.25
372.706	99.25
372.932	92.25
373.158	92.25
373.384	103.25
373.61	93.25
373.835	103.25
374.061	92.25
374.287	105.25
374.513	112.25
374.739	99.25
374.965	87.25
375.191	94.25
375.416	105.25
375.642	103.25
375.868	97.25
376.094	110.25
376.319	95.25
376.545	84.25
376.771	96.25
376.997	94.25
377.222	90.25
377.448	98.25
377.674	92.25
377.899	95.25
378.125	83.25
378.35	92.25
378.576	93.25
378.802	85.25
379.027	98.25
379.253	101.25
379.478	92.25
379.704	99.25
379.929	85.25
380.155	90.25
380.38	98.25
380.606	106.25
380.831	97.25
381.057	127.25
381.282	93.25
381.507	98.25
381.733	97.25
381.958	93.25
382.184	107.25
382.409	93.25
382.634	91.25
382.86	90.25
383.085	102.25
383.31	96.25
383.535	95.25
383.761	103.25
383.986	100.25
384.211	98.25
384.436	94.25
384.662	109.25
384.887	90.25
385.112	92.25
385.337	95.25
385.562	90.25
385.787	95.25
386.013	123.25
386.238	117.25
386.463	96.25
386.688	95.25
386.913	95.25
387.138	100.25
387.363	88.25
387.588	102.25
387.813	101.25
388.038	106.25
388.263	108.25
388.488	91.25
388.713	97.25
388.938	117.25
389.163	105.25
389.387	107.25
389.612	117.25
389.837	107.25
390.062	113.25
390.287	106.25
390.512	107.25
390.736	122.25
390.961	113.25
391.186	112.25
391.411	98.25
391.636	110.25
391.86	111.25
392.085	116.25
392.31	105.25
392.534	91.25
392.759	110.25
392.984	90.25
393.208	110.25
393.433	108.25
393.658	111.25
393.882	107.25
394.107	114.25
394.331	103.25
394.556	105.25
394.78	102.25
395.005	124.25
395.229	110.25
395.454	108.25
395.678	102.25
395.903	108.25
396.127	113.25
396.352	112.25
396.576	94.25
396.801	104.25
397.025	96.25
397.249	94.25
397.474	115.25
397.698	109.25
397.922	112.25
398.147	110.25
398.371	103.25
398.595	106.25
398.82	117.25
399.044	95.25
399.268	110.25
399.492	111.25
399.717	120.25
399.941	107.25
400.165	105.25
400.389	98.25
400.613	104.25
400.837	118.25
401.062	103.25
401.286	124.25
401.51	123.25
401.734	111.25
401.958	104.25
402.182	121.25
402.406	106.25
402.63	134.25
402.854	127.25
403.078	128.25
403.302	119.25
403.526	119.25
403.75	123.25
403.974	123.25
404.198	122.25
404.422	130.25
404.645	129.25
404.869	120.25
405.093	119.25
405.317	118.25
405.541	123.25
405.765	125.25
405.988	117.25
406.212	122.25
406.436	124.25
406.66	124.25
406.883	137.25
407.107	122.25
407.331	125.25
407.555	120.25
407.778	125.25
408.002	122.25
408.226	116.25
408.449	125.25
408.673	117.25
408.896	127.25
409.12	123.25
409.344	121.25
409.567	121.25
409.791	114.25
410.014	125.25
410.238	135.25
410.461	137.25
410.685	126.25
410.908	123.25
411.132	126.25
411.355	137.25
411.578	131.25
411.802	126.25
412.025	129.25
412.249	122.25
412.472	118.25
412.695	130.25
412.919	122.25
413.142	122.25
413.365	131.25
413.589	121.25
413.812	122.25
414.035	132.25
414.258	116.25
414.482	139.25
414.705	129.25
414.928	134.25
415.151	123.25
415.374	137.25
415.597	121.25
415.821	126.25
416.044	131.25
416.267	142.25
416.49	122.25
416.713	130.25
416.936	142.25
417.159	137.25
417.382	121.25
417.605	138.25
417.828	147.25
418.051	141.25
418.274	129.25
418.497	139.25
418.72	143.25
418.943	129.25
419.166	149.25
419.389	143.25
419.611	149.25
419.834	139.25
420.057	136.25
420.28	137.25
420.503	131.25
420.726	129.25
420.948	139.25
421.171	146.25
421.394	140.25
421.617	152.25
421.839	155.25
422.062	125.25
422.285	160.25
422.507	141.25
422.73	144.25
422.953	133.25
423.175	131.25
423.398	128.25
423.621	138.25
423.843	149.25
424.066	153.25
424.288	149.25
424.511	155.25
424.733	142.25
424.956	138.25
425.178	140.25
425.401	143.25
425.623	153.25
425.846	147.25
426.068	126.25
426.291	131.25
426.513	129.25
426.735	131.25
426.958	130.25
427.18	131.25
427.402	143.25
427.625	143.25
427.847	127.25
428.069	143.25
428.292	130.25
428.514	130.25
428.736	140.25
428.958	133.25
429.181	133.25
429.403	131.25
429.625	135.25
429.847	129.25
430.069	132.25
430.292	135.25
430.514	125.25
430.736	144.25
430.958	144.25
431.18	136.25
431.402	113.25
431.624	127.25
431.846	124.25
432.068	92.25
432.29	101.25
432.512	131.25
432.734	126.25
432.956	138.25
433.178	154.25
433.4	159.25
433.622	134.25
433.844	155.25
434.066	123.25
434.287	117.25
434.509	105.25
434.731	104.25
434.953	108.25
435.175	134.25
435.397	143.25
435.618	130.25
435.84	116.25
436.062	118.25
436.284	130.25
436.505	149.25
436.727	126.25
436.949	125.25
437.17	139.25
437.392	137.25
437.614	138.25
437.835	126.25
438.057	108.25
438.278	113.25
438.5	127.25
438.721	153.25
438.943	138.25
439.165	152.25
439.386	149.25
439.608	151.25
439.829	137.25
440.05	150.25
440.272	152.25
440.493	135.25
440.715	152.25
440.936	147.25
441.158	157.25
441.379	167.25
441.6	154.25
441.822	153.25
442.043	127.25
442.264	132.25
442.486	149.25
442.707	157.25
442.928	153.25
443.149	148.25
443.371	160.25
443.592	150.25
443.813	135.25
444.034	126.25
444.255	139.25
444.476	140.25
444.698	146.25
444.919	143.25
445.14	279.25
445.361	206.25
445.582	145.25
445.803	164.25
446.024	149.25
446.245	166.25
446.466	166.25
446.687	166.25
446.908	168.25
447.129	167.25
447.35	167.25
447.571	156.25
447.792	154.25
448.013	155.25
448.234	173.25
448.455	141.25
448.675	173.25
448.896	141.25
449.117	159.25
449.338	135.25
449.559	147.25
449.779	129.25
450	145.25
450.221	151.25
450.442	153.25
450.662	133.25
450.883	147.25
451.104	144.25
451.324	135.25
451.545	135.25
451.766	146.25
451.986	130.25
452.207	131.25
452.428	147.25
452.648	125.25
452.869	123.25
453.089	119.25
453.31	126.25
453.53	115.25
453.751	113.25
453.971	106.25
454.192	94.25
454.412	110.25
454.633	132.25
454.853	139.25
455.073	123.25
455.294	130.25
455.514	133.25
455.734	123.25
455.955	118.25
456.175	122.25
456.395	122.25
456.616	123.25
456.836	117.25
457.056	110.25
457.276	114.25
457.497	122.25
457.717	116.25
457.937	129.25
458.157	110.25
458.377	120.25
458.598	101.25
458.818	111.25
459.038	110.25
459.258	90.25
459.478	89.25
459.698	99.25
459.918	108.25
460.138	103.25
460.358	107.25
460.578	116.25
460.798	121.25
461.018	145.25
461.238	112.25
461.458	126.25
461.678	127.25
461.898	119.25
462.118	121.25
462.338	121.25
462.558	118.25
462.777	125.25
462.997	123.25
463.217	114.25
463.437	102.25
463.657	99.25
463.876	110.25
464.096	95.25
464.316	108.25
464.536	104.25
464.755	121.25
464.975	123.25
465.195	111.25
465.414	113.25
465.634	122.25
465.854	127.25
466.073	116.25
466.293	123.25
466.512	133.25
466.732	129.25
466.951	137.25
467.171	136.25
467.391	143.25
467.61	146.25
467.829	146.25
468.049	133.25
468.268	145.25
468.488	143.25
468.707	147.25
468.927	140.25
469.146	133.25
469.365	149.25
469.585	153.25
469.804	150.25
470.023	151.25
470.243	153.25
470.462	140.25
470.681	137.25
470.901	140.25
471.12	157.25
471.339	141.25
471.558	156.25
471.777	149.25
471.997	149.25
472.216	134.25
472.435	131.25
472.654	113.25
472.873	126.25
473.092	117.25
473.311	106.25
473.53	129.25
473.749	124.25
473.968	149.25
474.187	122.25
474.406	125.25
474.625	136.25
474.844	127.25
475.063	125.25
475.282	128.25
475.501	118.25
475.72	130.25
475.939	129.25
476.158	116.25
476.377	135.25
476.596	145.25
476.814	131.25
477.033	111.25
477.252	115.25
477.471	124.25
477.69	133.25
477.908	163.25
478.127	135.25
478.346	139.25
478.564	145.25
478.783	146.25
479.002	149.25
479.22	157.25
479.439	141.25
479.658	122.25
479.876	133.25
480.095	109.25
480.313	113.25
480.532	125.25
480.751	108.25
480.969	85.25
481.188	91.25
481.406	111.25
481.624	90.25
481.843	95.25
482.061	103.25
482.28	118.25
482.498	123.25
482.717	106.25
482.935	115.25
483.153	153.25
483.372	165.25
483.59	172.25
483.808	148.25
484.027	133.25
484.245	150.25
484.463	151.25
484.681	174.25
484.9	157.25
485.118	144.25
485.336	143.25
485.554	120.25
485.772	110.25
485.99	127.25
486.209	118.25
486.427	116.25
486.645	129.25
486.863	135.25
487.081	156.25
487.299	143.25
487.517	147.25
487.735	171.25
487.953	202.25
488.171	193.25
488.389	165.25
488.607	184.25
488.825	139.25
489.043	133.25
489.261	147.25
489.479	141.25
489.696	142.25
489.914	155.25
490.132	135.25
490.35	138.25
490.568	150.25
490.786	185.25
491.003	181.25
491.221	183.25
491.439	197.25
491.657	206.25
491.874	223.25
492.092	228.25
492.31	250.25
492.527	242.25
492.745	221.25
492.963	217.25
493.18	195.25
493.398	179.25
493.615	194.25
493.833	185.25
494.05	165.25
494.268	186.25
494.485	176.25
494.703	181.25
494.92	187.25
495.138	173.25
495.355	200.25
495.573	188.25
495.79	163.25
496.008	175.25
496.225	177.25
496.442	169.25
496.66	166.25
496.877	183.25
497.094	180.25
497.312	164.25
497.529	166.25
497.746	155.25
497.963	142.25
498.181	155.25
498.398	124.25
498.615	121.25
498.832	121.25
499.049	120.25
499.267	125.25
499.484	147.25
499.701	126.25
499.918	132.25
500.135	149.25
500.352	142.25
500.569	144.25
500.786	133.25
501.003	144.25
501.22	137.25
501.437	142.25
501.654	148.25
501.871	149.25
502.088	126.25
502.305	137.25
502.522	131.25
502.739	145.25
502.956	133.25
503.172	141.25
503.389	128.25
503.606	131.25
503.823	121.25
504.04	108.25
504.256	122.25
504.473	119.25
504.69	132.25
504.907	142.25
505.123	130.25
505.34	140.25
505.557	141.25
505.773	124.25
505.99	133.25
506.207	121.25
506.423	129.25
506.64	126.25
506.856	128.25
507.073	113.25
507.289	136.25
507.506	122.25
507.722	125.25
507.939	111.25
508.155	129.25
508.372	123.25
508.588	123.25
508.805	122.25
509.021	99.25
509.238	103.25
509.454	90.25
509.67	95.25
509.887	96.25
510.103	95.25
510.319	113.25
510.536	84.25
510.752	94.25
510.968	75.25
511.184	90.25
511.401	85.25
