Data from Location6.07152019.Energy5.Lamp.07192019.3%Agarose_HRD10591_16-11-01-394.txt Node
Date: Fri Jul 19 16:11:01 EDT 2019
User: cochatt
Spectrometer: HR+D1059
Trigger mode: 1
Integration Time (sec): 1.000000E-1
Scans to average: 1
Electric dark correction enabled: true
Nonlinearity correction enabled: false
Boxcar width: 0
XAxis mode: Wavelengths
Number of Pixels in Spectrum: 2048
>>>>>Begin Spectral Data<<<<<
223.165	-25.88
223.4	-25.88
223.635	-25.88
223.869	-22.88
224.104	-17.88
224.338	5.12
224.573	2.12
224.808	-22.88
225.042	2.12
225.277	-3.88
225.511	-13.88
225.746	14.12
225.98	1.12
226.215	16.12
226.449	10.12
226.683	26.12
226.918	13.12
227.152	17.12
227.387	27.12
227.621	31.12
227.856	38.12
228.09	43.12
228.324	52.12
228.559	60.12
228.793	50.12
229.027	57.12
229.262	65.12
229.496	46.12
229.73	59.12
229.964	75.12
230.199	65.12
230.433	64.12
230.667	76.12
230.901	69.12
231.136	53.12
231.37	87.12
231.604	75.12
231.838	85.12
232.072	83.12
232.306	85.12
232.541	93.12
232.775	86.12
233.009	88.12
233.243	90.12
233.477	78.12
233.711	80.12
233.945	92.12
234.179	85.12
234.413	75.12
234.647	86.12
234.881	84.12
235.115	81.12
235.349	78.12
235.583	93.12
235.817	80.12
236.051	75.12
236.285	83.12
236.519	77.12
236.753	80.12
236.987	80.12
237.221	78.12
237.455	85.12
237.689	89.12
237.922	70.12
238.156	77.12
238.39	94.12
238.624	66.12
238.858	75.12
239.091	75.12
239.325	75.12
239.559	90.12
239.793	76.12
240.027	96.12
240.26	78.12
240.494	83.12
240.728	87.12
240.961	79.12
241.195	71.12
241.429	72.12
241.662	56.12
241.896	70.12
242.13	64.12
242.363	77.12
242.597	76.12
242.83	87.12
243.064	84.12
243.298	85.12
243.531	73.12
243.765	82.12
243.998	74.12
244.232	86.12
244.465	74.12
244.699	80.12
244.932	61.12
245.166	80.12
245.399	80.12
245.633	64.12
245.866	80.12
246.099	81.12
246.333	75.12
246.566	77.12
246.8	63.12
247.033	77.12
247.266	76.12
247.5	87.12
247.733	90.12
247.966	90.12
248.2	85.12
248.433	77.12
248.666	85.12
248.899	67.12
249.133	76.12
249.366	81.12
249.599	81.12
249.832	77.12
250.066	88.12
250.299	71.12
250.532	79.12
250.765	79.12
250.998	69.12
251.231	82.12
251.465	58.12
251.698	78.12
251.931	88.12
252.164	78.12
252.397	81.12
252.63	81.12
252.863	61.12
253.096	91.12
253.329	94.12
253.562	84.12
253.795	90.12
254.028	82.12
254.261	74.12
254.494	62.12
254.727	89.12
254.96	78.12
255.193	89.12
255.426	86.12
255.659	83.12
255.892	91.12
256.124	83.12
256.357	76.12
256.59	74.12
256.823	76.12
257.056	88.12
257.289	98.12
257.521	88.12
257.754	82.12
257.987	87.12
258.22	74.12
258.452	79.12
258.685	84.12
258.918	78.12
259.151	82.12
259.383	77.12
259.616	91.12
259.849	84.12
260.081	83.12
260.314	87.12
260.547	81.12
260.779	86.12
261.012	82.12
261.244	79.12
261.477	99.12
261.71	94.12
261.942	79.12
262.175	71.12
262.407	84.12
262.64	90.12
262.872	82.12
263.105	82.12
263.337	88.12
263.57	91.12
263.802	96.12
264.035	98.12
264.267	82.12
264.499	80.12
264.732	89.12
264.964	83.12
265.197	82.12
265.429	84.12
265.661	95.12
265.894	87.12
266.126	81.12
266.358	72.12
266.591	95.12
266.823	77.12
267.055	82.12
267.287	87.12
267.52	84.12
267.752	83.12
267.984	92.12
268.216	76.12
268.448	90.12
268.681	93.12
268.913	90.12
269.145	84.12
269.377	82.12
269.609	94.12
269.841	75.12
270.073	74.12
270.306	85.12
270.538	85.12
270.77	97.12
271.002	75.12
271.234	82.12
271.466	80.12
271.698	83.12
271.93	90.12
272.162	97.12
272.394	90.12
272.626	86.12
272.858	76.12
273.09	72.12
273.322	76.12
273.553	78.12
273.785	88.12
274.017	97.12
274.249	86.12
274.481	88.12
274.713	83.12
274.945	83.12
275.176	76.12
275.408	70.12
275.64	67.12
275.872	73.12
276.104	85.12
276.335	84.12
276.567	107.12
276.799	87.12
277.031	77.12
277.262	80.12
277.494	60.12
277.726	72.12
277.957	82.12
278.189	74.12
278.421	83.12
278.652	93.12
278.884	92.12
279.115	93.12
279.347	100.12
279.579	80.12
279.81	82.12
280.042	101.12
280.273	83.12
280.505	80.12
280.736	85.12
280.968	79.12
281.199	84.12
281.431	80.12
281.662	76.12
281.894	78.12
282.125	81.12
282.356	68.12
282.588	80.12
282.819	91.12
283.051	66.12
283.282	84.12
283.513	84.12
283.745	89.12
283.976	84.12
284.207	89.12
284.439	84.12
284.67	82.12
284.901	77.12
285.132	92.12
285.364	82.12
285.595	80.12
285.826	79.12
286.057	92.12
286.288	84.12
286.52	89.12
286.751	94.12
286.982	107.12
287.213	91.12
287.444	99.12
287.675	81.12
287.906	84.12
288.138	80.12
288.369	91.12
288.6	77.12
288.831	86.12
289.062	78.12
289.293	92.12
289.524	90.12
289.755	91.12
289.986	75.12
290.217	74.12
290.448	69.12
290.679	81.12
290.91	90.12
291.141	86.12
291.371	86.12
291.602	80.12
291.833	83.12
292.064	85.12
292.295	85.12
292.526	82.12
292.757	85.12
292.987	91.12
293.218	83.12
293.449	96.12
293.68	84.12
293.91	94.12
294.141	85.12
294.372	99.12
294.603	88.12
294.833	92.12
295.064	69.12
295.295	73.12
295.525	92.12
295.756	76.12
295.987	80.12
296.217	87.12
296.448	89.12
296.679	80.12
296.909	79.12
297.14	102.12
297.37	95.12
297.601	78.12
297.831	90.12
298.062	77.12
298.292	85.12
298.523	90.12
298.753	81.12
298.984	73.12
299.214	81.12
299.445	82.12
299.675	91.12
299.905	89.12
300.136	84.12
300.366	89.12
300.597	77.12
300.827	92.12
301.057	87.12
301.288	86.12
301.518	78.12
301.748	92.12
301.979	76.12
302.209	86.12
302.439	88.12
302.669	93.12
302.9	94.12
303.13	92.12
303.36	95.12
303.59	80.12
303.82	92.12
304.051	84.12
304.281	70.12
304.511	93.12
304.741	88.12
304.971	70.12
305.201	93.12
305.431	84.12
305.661	97.12
305.891	104.12
306.121	89.12
306.352	100.12
306.582	88.12
306.812	81.12
307.042	89.12
307.272	92.12
307.502	80.12
307.731	85.12
307.961	92.12
308.191	94.12
308.421	89.12
308.651	95.12
308.881	83.12
309.111	78.12
309.341	81.12
309.571	88.12
309.8	88.12
310.03	86.12
310.26	87.12
310.49	72.12
310.72	91.12
310.949	97.12
311.179	83.12
311.409	84.12
311.639	78.12
311.868	97.12
312.098	96.12
312.328	99.12
312.557	97.12
312.787	74.12
313.017	76.12
313.246	78.12
313.476	75.12
313.706	82.12
313.935	78.12
314.165	87.12
314.394	87.12
314.624	68.12
314.853	83.12
315.083	83.12
315.312	77.12
315.542	91.12
315.771	82.12
316.001	84.12
316.23	77.12
316.46	89.12
316.689	73.12
316.919	88.12
317.148	92.12
317.377	88.12
317.607	87.12
317.836	74.12
318.065	85.12
318.295	80.12
318.524	92.12
318.753	85.12
318.983	87.12
319.212	87.12
319.441	80.12
319.67	82.12
319.9	85.12
320.129	78.12
320.358	83.12
320.587	93.12
320.816	89.12
321.046	97.12
321.275	86.12
321.504	96.12
321.733	85.12
321.962	72.12
322.191	87.12
322.42	78.12
322.649	89.12
322.878	90.12
323.108	86.12
323.337	92.12
323.566	96.12
323.795	88.12
324.024	76.12
324.253	95.12
324.482	72.12
324.71	89.12
324.939	88.12
325.168	75.12
325.397	75.12
325.626	94.12
325.855	81.12
326.084	88.12
326.313	77.12
326.542	95.12
326.77	78.12
326.999	91.12
327.228	79.12
327.457	99.12
327.686	98.12
327.914	86.12
328.143	93.12
328.372	76.12
328.6	73.12
328.829	74.12
329.058	86.12
329.287	82.12
329.515	89.12
329.744	92.12
329.972	77.12
330.201	84.12
330.43	89.12
330.658	82.12
330.887	85.12
331.115	83.12
331.344	86.12
331.572	87.12
331.801	79.12
332.03	88.12
332.258	79.12
332.486	78.12
332.715	90.12
332.943	92.12
333.172	81.12
333.4	85.12
333.629	78.12
333.857	82.12
334.085	85.12
334.314	79.12
334.542	92.12
334.771	100.12
334.999	78.12
335.227	82.12
335.455	84.12
335.684	92.12
335.912	88.12
336.14	93.12
336.369	90.12
336.597	83.12
336.825	95.12
337.053	97.12
337.281	100.12
337.51	77.12
337.738	90.12
337.966	89.12
338.194	85.12
338.422	93.12
338.65	98.12
338.878	88.12
339.106	84.12
339.334	93.12
339.562	79.12
339.79	78.12
340.018	94.12
340.246	65.12
340.474	90.12
340.702	89.12
340.93	88.12
341.158	92.12
341.386	78.12
341.614	85.12
341.842	92.12
342.07	76.12
342.298	64.12
342.526	80.12
342.754	74.12
342.981	85.12
343.209	81.12
343.437	79.12
343.665	73.12
343.893	101.12
344.12	80.12
344.348	95.12
344.576	91.12
344.804	82.12
345.031	78.12
345.259	97.12
345.487	87.12
345.714	92.12
345.942	92.12
346.17	92.12
346.397	82.12
346.625	100.12
346.853	81.12
347.08	96.12
347.308	90.12
347.535	75.12
347.763	89.12
347.99	81.12
348.218	80.12
348.445	81.12
348.673	98.12
348.9	78.12
349.128	89.12
349.355	88.12
349.583	86.12
349.81	79.12
350.037	89.12
350.265	70.12
350.492	84.12
350.72	85.12
350.947	75.12
351.174	81.12
351.402	84.12
351.629	99.12
351.856	81.12
352.083	90.12
352.311	91.12
352.538	87.12
352.765	103.12
352.992	94.12
353.22	98.12
353.447	85.12
353.674	80.12
353.901	79.12
354.128	90.12
354.355	91.12
354.583	81.12
354.81	83.12
355.037	80.12
355.264	78.12
355.491	74.12
355.718	79.12
355.945	70.12
356.172	85.12
356.399	94.12
356.626	79.12
356.853	91.12
357.08	86.12
357.307	97.12
357.534	92.12
357.761	82.12
357.988	87.12
358.215	103.12
358.441	92.12
358.668	84.12
358.895	100.12
359.122	87.12
359.349	84.12
359.576	90.12
359.802	84.12
360.029	80.12
360.256	80.12
360.483	85.12
360.709	94.12
360.936	83.12
361.163	90.12
361.39	101.12
361.616	88.12
361.843	78.12
362.07	84.12
362.296	95.12
362.523	86.12
362.749	86.12
362.976	92.12
363.203	94.12
363.429	90.12
363.656	80.12
363.882	76.12
364.109	80.12
364.335	84.12
364.562	85.12
364.788	78.12
365.015	85.12
365.241	94.12
365.468	83.12
365.694	93.12
365.92	79.12
366.147	75.12
366.373	78.12
366.599	89.12
366.826	80.12
367.052	80.12
367.278	94.12
367.505	88.12
367.731	90.12
367.957	109.12
368.184	77.12
368.41	94.12
368.636	90.12
368.862	97.12
369.089	84.12
369.315	91.12
369.541	91.12
369.767	98.12
369.993	95.12
370.219	74.12
370.445	88.12
370.672	106.12
370.898	89.12
371.124	90.12
371.35	87.12
371.576	92.12
371.802	86.12
372.028	93.12
372.254	101.12
372.48	86.12
372.706	110.12
372.932	87.12
373.158	98.12
373.384	86.12
373.61	100.12
373.835	100.12
374.061	98.12
374.287	85.12
374.513	101.12
374.739	94.12
374.965	89.12
375.191	106.12
375.416	89.12
375.642	90.12
375.868	99.12
376.094	93.12
376.319	89.12
376.545	88.12
376.771	89.12
376.997	92.12
377.222	87.12
377.448	105.12
377.674	103.12
377.899	93.12
378.125	99.12
378.35	99.12
378.576	98.12
378.802	99.12
379.027	91.12
379.253	116.12
379.478	100.12
379.704	98.12
379.929	102.12
380.155	92.12
380.38	96.12
380.606	84.12
380.831	97.12
381.057	98.12
381.282	99.12
381.507	108.12
381.733	92.12
381.958	97.12
382.184	103.12
382.409	102.12
382.634	97.12
382.86	113.12
383.085	105.12
383.31	92.12
383.535	88.12
383.761	86.12
383.986	101.12
384.211	100.12
384.436	96.12
384.662	91.12
384.887	88.12
385.112	101.12
385.337	86.12
385.562	98.12
385.787	85.12
386.013	105.12
386.238	97.12
386.463	110.12
386.688	106.12
386.913	97.12
387.138	100.12
387.363	125.12
387.588	100.12
387.813	101.12
388.038	110.12
388.263	87.12
388.488	95.12
388.713	108.12
388.938	120.12
389.163	105.12
389.387	98.12
389.612	98.12
389.837	121.12
390.062	116.12
390.287	100.12
390.512	108.12
390.736	121.12
390.961	100.12
391.186	96.12
391.411	116.12
391.636	104.12
391.86	104.12
392.085	104.12
392.31	102.12
392.534	113.12
392.759	98.12
392.984	111.12
393.208	113.12
393.433	102.12
393.658	108.12
393.882	123.12
394.107	87.12
394.331	109.12
394.556	111.12
394.78	105.12
395.005	112.12
395.229	114.12
395.454	117.12
395.678	116.12
395.903	106.12
396.127	125.12
396.352	125.12
396.576	102.12
396.801	122.12
397.025	102.12
397.249	122.12
397.474	123.12
397.698	106.12
397.922	109.12
398.147	104.12
398.371	102.12
398.595	125.12
398.82	112.12
399.044	109.12
399.268	126.12
399.492	119.12
399.717	112.12
399.941	117.12
400.165	114.12
400.389	104.12
400.613	116.12
400.837	112.12
401.062	107.12
401.286	112.12
401.51	118.12
401.734	116.12
401.958	104.12
402.182	131.12
402.406	108.12
402.63	109.12
402.854	113.12
403.078	117.12
403.302	126.12
403.526	125.12
403.75	118.12
403.974	132.12
404.198	125.12
404.422	115.12
404.645	101.12
404.869	124.12
405.093	122.12
405.317	127.12
405.541	122.12
405.765	116.12
405.988	118.12
406.212	121.12
406.436	121.12
406.66	146.12
406.883	100.12
407.107	112.12
407.331	114.12
407.555	139.12
407.778	140.12
408.002	114.12
408.226	131.12
408.449	132.12
408.673	107.12
408.896	120.12
409.12	105.12
409.344	109.12
409.567	134.12
409.791	140.12
410.014	129.12
410.238	116.12
410.461	118.12
410.685	143.12
410.908	127.12
411.132	124.12
411.355	133.12
411.578	101.12
411.802	123.12
412.025	125.12
412.249	116.12
412.472	123.12
412.695	125.12
412.919	124.12
413.142	127.12
413.365	134.12
413.589	135.12
413.812	124.12
414.035	128.12
414.258	119.12
414.482	125.12
414.705	131.12
414.928	136.12
415.151	126.12
415.374	128.12
415.597	149.12
415.821	133.12
416.044	137.12
416.267	120.12
416.49	124.12
416.713	131.12
416.936	108.12
417.159	132.12
417.382	120.12
417.605	124.12
417.828	140.12
418.051	136.12
418.274	141.12
418.497	130.12
418.72	126.12
418.943	146.12
419.166	127.12
419.389	134.12
419.611	142.12
419.834	147.12
420.057	134.12
420.28	130.12
420.503	135.12
420.726	130.12
420.948	125.12
421.171	134.12
421.394	134.12
421.617	159.12
421.839	160.12
422.062	142.12
422.285	132.12
422.507	140.12
422.73	137.12
422.953	136.12
423.175	146.12
423.398	135.12
423.621	130.12
423.843	140.12
424.066	160.12
424.288	130.12
424.511	139.12
424.733	141.12
424.956	151.12
425.178	134.12
425.401	148.12
425.623	138.12
425.846	136.12
426.068	131.12
426.291	141.12
426.513	132.12
426.735	124.12
426.958	128.12
427.18	122.12
427.402	150.12
427.625	124.12
427.847	134.12
428.069	136.12
428.292	121.12
428.514	122.12
428.736	125.12
428.958	133.12
429.181	123.12
429.403	130.12
429.625	140.12
429.847	142.12
430.069	142.12
430.292	129.12
430.514	141.12
430.736	129.12
430.958	130.12
431.18	125.12
431.402	130.12
431.624	122.12
431.846	121.12
432.068	98.12
432.29	104.12
432.512	109.12
432.734	127.12
432.956	117.12
433.178	134.12
433.4	133.12
433.622	146.12
433.844	123.12
434.066	134.12
434.287	113.12
434.509	104.12
434.731	108.12
434.953	112.12
435.175	148.12
435.397	126.12
435.618	125.12
435.84	97.12
436.062	139.12
436.284	132.12
436.505	139.12
436.727	129.12
436.949	137.12
437.17	135.12
437.392	125.12
437.614	127.12
437.835	111.12
438.057	118.12
438.278	129.12
438.5	122.12
438.721	145.12
438.943	151.12
439.165	129.12
439.386	158.12
439.608	148.12
439.829	161.12
440.05	154.12
440.272	157.12
440.493	140.12
440.715	143.12
440.936	148.12
441.158	167.12
441.379	148.12
441.6	138.12
441.822	157.12
442.043	153.12
442.264	150.12
442.486	154.12
442.707	141.12
442.928	157.12
443.149	133.12
443.371	146.12
443.592	154.12
443.813	146.12
444.034	152.12
444.255	148.12
444.476	136.12
444.698	160.12
444.919	153.12
445.14	260.12
445.361	199.12
445.582	164.12
445.803	156.12
446.024	150.12
446.245	141.12
446.466	173.12
446.687	170.12
446.908	143.12
447.129	142.12
447.35	164.12
447.571	180.12
447.792	165.12
448.013	139.12
448.234	141.12
448.455	141.12
448.675	153.12
448.896	147.12
449.117	147.12
449.338	143.12
449.559	157.12
449.779	147.12
450	123.12
450.221	149.12
450.442	132.12
450.662	143.12
450.883	129.12
451.104	119.12
451.324	122.12
451.545	138.12
451.766	136.12
451.986	122.12
452.207	138.12
452.428	125.12
452.648	136.12
452.869	127.12
453.089	133.12
453.31	116.12
453.53	115.12
453.751	104.12
453.971	114.12
454.192	118.12
454.412	113.12
454.633	117.12
454.853	124.12
455.073	113.12
455.294	118.12
455.514	118.12
455.734	129.12
455.955	128.12
456.175	122.12
456.395	124.12
456.616	125.12
456.836	110.12
457.056	115.12
457.276	112.12
457.497	118.12
457.717	114.12
457.937	104.12
458.157	101.12
458.377	107.12
458.598	104.12
458.818	93.12
459.038	92.12
459.258	93.12
459.478	98.12
459.698	99.12
459.918	105.12
460.138	100.12
460.358	108.12
460.578	113.12
460.798	122.12
461.018	133.12
461.238	122.12
461.458	121.12
461.678	105.12
461.898	108.12
462.118	121.12
462.338	120.12
462.558	124.12
462.777	122.12
462.997	132.12
463.217	132.12
463.437	121.12
463.657	112.12
463.876	114.12
464.096	110.12
464.316	111.12
464.536	100.12
464.755	132.12
464.975	132.12
465.195	115.12
465.414	127.12
465.634	116.12
465.854	120.12
466.073	130.12
466.293	133.12
466.512	124.12
466.732	137.12
466.951	156.12
467.171	145.12
467.391	153.12
467.61	142.12
467.829	141.12
468.049	146.12
468.268	130.12
468.488	142.12
468.707	138.12
468.927	152.12
469.146	147.12
469.365	152.12
469.585	146.12
469.804	150.12
470.023	134.12
470.243	150.12
470.462	142.12
470.681	168.12
470.901	156.12
471.12	154.12
471.339	143.12
471.558	146.12
471.777	139.12
471.997	139.12
472.216	129.12
472.435	117.12
472.654	122.12
472.873	126.12
473.092	119.12
473.311	126.12
473.53	133.12
473.749	129.12
473.968	124.12
474.187	137.12
474.406	124.12
474.625	129.12
474.844	137.12
475.063	128.12
475.282	121.12
475.501	121.12
475.72	125.12
475.939	133.12
476.158	137.12
476.377	128.12
476.596	135.12
476.814	121.12
477.033	118.12
477.252	119.12
477.471	130.12
477.69	125.12
477.908	131.12
478.127	146.12
478.346	146.12
478.564	136.12
478.783	132.12
479.002	141.12
479.22	146.12
479.439	130.12
479.658	132.12
479.876	136.12
480.095	120.12
480.313	112.12
480.532	124.12
480.751	114.12
480.969	99.12
481.188	98.12
481.406	93.12
481.624	103.12
481.843	87.12
482.061	106.12
482.28	109.12
482.498	134.12
482.717	98.12
482.935	130.12
483.153	147.12
483.372	156.12
483.59	157.12
483.808	147.12
484.027	143.12
484.245	154.12
484.463	160.12
484.681	166.12
484.9	154.12
485.118	152.12
485.336	134.12
485.554	129.12
485.772	100.12
485.99	102.12
486.209	111.12
486.427	122.12
486.645	142.12
486.863	134.12
487.081	140.12
487.299	151.12
487.517	144.12
487.735	169.12
487.953	208.12
488.171	185.12
488.389	176.12
488.607	166.12
488.825	144.12
489.043	135.12
489.261	136.12
489.479	152.12
489.696	153.12
489.914	130.12
490.132	134.12
490.35	164.12
490.568	171.12
490.786	182.12
491.003	190.12
491.221	187.12
491.439	203.12
491.657	187.12
491.874	222.12
492.092	240.12
492.31	267.12
492.527	251.12
492.745	204.12
492.963	200.12
493.18	209.12
493.398	198.12
493.615	182.12
493.833	181.12
494.05	180.12
494.268	179.12
494.485	170.12
494.703	188.12
494.92	187.12
495.138	177.12
495.355	184.12
495.573	198.12
495.79	180.12
496.008	173.12
496.225	173.12
496.442	173.12
496.66	181.12
496.877	174.12
497.094	162.12
497.312	166.12
497.529	167.12
497.746	162.12
497.963	150.12
498.181	140.12
498.398	136.12
498.615	122.12
498.832	125.12
499.049	124.12
499.267	130.12
499.484	129.12
499.701	134.12
499.918	146.12
500.135	142.12
500.352	138.12
500.569	145.12
500.786	145.12
501.003	157.12
501.22	148.12
501.437	156.12
501.654	152.12
501.871	139.12
502.088	126.12
502.305	132.12
502.522	135.12
502.739	123.12
502.956	133.12
503.172	123.12
503.389	126.12
503.606	125.12
503.823	129.12
504.04	142.12
504.256	136.12
504.473	118.12
504.69	119.12
504.907	124.12
505.123	119.12
505.34	130.12
505.557	138.12
505.773	147.12
505.99	140.12
506.207	126.12
506.423	131.12
506.64	123.12
506.856	133.12
507.073	130.12
507.289	138.12
507.506	123.12
507.722	130.12
507.939	126.12
508.155	135.12
508.372	116.12
508.588	124.12
508.805	101.12
509.021	116.12
509.238	120.12
509.454	96.12
509.67	106.12
509.887	107.12
510.103	88.12
510.319	84.12
510.536	100.12
510.752	105.12
510.968	93.12
511.184	89.12
