Data from Location6.07152019.Energy5.Lamp.07192019.3%Agarose_HRD10591_16-12-47-394.txt Node
Date: Fri Jul 19 16:12:47 EDT 2019
User: cochatt
Spectrometer: HR+D1059
Trigger mode: 1
Integration Time (sec): 1.000000E-1
Scans to average: 1
Electric dark correction enabled: true
Nonlinearity correction enabled: false
Boxcar width: 0
XAxis mode: Wavelengths
Number of Pixels in Spectrum: 2048
>>>>>Begin Spectral Data<<<<<
223.165	-17.56
223.4	-17.56
223.635	-17.56
223.869	-12.56
224.104	-16.56
224.338	-20.56
224.573	-10.56
224.808	-13.56
225.042	-11.56
225.277	-2.56
225.511	4.44
225.746	-9.56
225.98	9.44
226.215	7.44
226.449	22.44
226.683	8.44
226.918	15.44
227.152	47.44
227.387	31.44
227.621	31.44
227.856	40.44
228.09	49.44
228.324	38.44
228.559	57.44
228.793	48.44
229.027	52.44
229.262	65.44
229.496	80.44
229.73	56.44
229.964	84.44
230.199	79.44
230.433	77.44
230.667	68.44
230.901	85.44
231.136	75.44
231.37	83.44
231.604	72.44
231.838	75.44
232.072	78.44
232.306	82.44
232.541	77.44
232.775	80.44
233.009	82.44
233.243	84.44
233.477	71.44
233.711	86.44
233.945	83.44
234.179	79.44
234.413	95.44
234.647	79.44
234.881	71.44
235.115	77.44
235.349	82.44
235.583	83.44
235.817	70.44
236.051	83.44
236.285	85.44
236.519	80.44
236.753	77.44
236.987	84.44
237.221	69.44
237.455	81.44
237.689	76.44
237.922	69.44
238.156	66.44
238.39	81.44
238.624	74.44
238.858	86.44
239.091	81.44
239.325	86.44
239.559	76.44
239.793	62.44
240.027	84.44
240.26	78.44
240.494	74.44
240.728	83.44
240.961	74.44
241.195	61.44
241.429	76.44
241.662	74.44
241.896	83.44
242.13	83.44
242.363	73.44
242.597	78.44
242.83	81.44
243.064	87.44
243.298	87.44
243.531	88.44
243.765	78.44
243.998	73.44
244.232	78.44
244.465	79.44
244.699	74.44
244.932	82.44
245.166	74.44
245.399	95.44
245.633	81.44
245.866	68.44
246.099	71.44
246.333	74.44
246.566	74.44
246.8	79.44
247.033	75.44
247.266	82.44
247.5	83.44
247.733	81.44
247.966	75.44
248.2	69.44
248.433	82.44
248.666	77.44
248.899	79.44
249.133	73.44
249.366	86.44
249.599	79.44
249.832	79.44
250.066	88.44
250.299	74.44
250.532	74.44
250.765	75.44
250.998	76.44
251.231	87.44
251.465	75.44
251.698	70.44
251.931	81.44
252.164	81.44
252.397	87.44
252.63	75.44
252.863	85.44
253.096	81.44
253.329	75.44
253.562	75.44
253.795	77.44
254.028	83.44
254.261	68.44
254.494	80.44
254.727	90.44
254.96	85.44
255.193	86.44
255.426	81.44
255.659	73.44
255.892	85.44
256.124	89.44
256.357	88.44
256.59	67.44
256.823	78.44
257.056	85.44
257.289	74.44
257.521	89.44
257.754	81.44
257.987	80.44
258.22	91.44
258.452	83.44
258.685	88.44
258.918	79.44
259.151	88.44
259.383	77.44
259.616	94.44
259.849	75.44
260.081	73.44
260.314	82.44
260.547	77.44
260.779	77.44
261.012	75.44
261.244	71.44
261.477	85.44
261.71	79.44
261.942	68.44
262.175	79.44
262.407	72.44
262.64	78.44
262.872	86.44
263.105	79.44
263.337	68.44
263.57	86.44
263.802	87.44
264.035	86.44
264.267	75.44
264.499	80.44
264.732	74.44
264.964	87.44
265.197	84.44
265.429	100.44
265.661	79.44
265.894	81.44
266.126	90.44
266.358	73.44
266.591	78.44
266.823	81.44
267.055	78.44
267.287	84.44
267.52	91.44
267.752	81.44
267.984	75.44
268.216	73.44
268.448	97.44
268.681	86.44
268.913	88.44
269.145	90.44
269.377	81.44
269.609	79.44
269.841	78.44
270.073	83.44
270.306	83.44
270.538	82.44
270.77	78.44
271.002	88.44
271.234	83.44
271.466	77.44
271.698	99.44
271.93	75.44
272.162	99.44
272.394	74.44
272.626	85.44
272.858	96.44
273.09	88.44
273.322	80.44
273.553	62.44
273.785	94.44
274.017	93.44
274.249	81.44
274.481	86.44
274.713	82.44
274.945	81.44
275.176	81.44
275.408	81.44
275.64	84.44
275.872	81.44
276.104	86.44
276.335	73.44
276.567	86.44
276.799	97.44
277.031	85.44
277.262	82.44
277.494	75.44
277.726	91.44
277.957	73.44
278.189	88.44
278.421	74.44
278.652	85.44
278.884	68.44
279.115	78.44
279.347	67.44
279.579	79.44
279.81	82.44
280.042	85.44
280.273	74.44
280.505	79.44
280.736	87.44
280.968	79.44
281.199	77.44
281.431	85.44
281.662	86.44
281.894	82.44
282.125	77.44
282.356	87.44
282.588	91.44
282.819	93.44
283.051	70.44
283.282	83.44
283.513	80.44
283.745	83.44
283.976	80.44
284.207	72.44
284.439	74.44
284.67	90.44
284.901	92.44
285.132	75.44
285.364	86.44
285.595	77.44
285.826	94.44
286.057	90.44
286.288	84.44
286.52	79.44
286.751	95.44
286.982	89.44
287.213	91.44
287.444	85.44
287.675	82.44
287.906	84.44
288.138	78.44
288.369	84.44
288.6	94.44
288.831	91.44
289.062	81.44
289.293	74.44
289.524	98.44
289.755	94.44
289.986	74.44
290.217	65.44
290.448	77.44
290.679	79.44
290.91	85.44
291.141	86.44
291.371	85.44
291.602	84.44
291.833	78.44
292.064	77.44
292.295	70.44
292.526	86.44
292.757	87.44
292.987	71.44
293.218	74.44
293.449	88.44
293.68	72.44
293.91	82.44
294.141	95.44
294.372	78.44
294.603	83.44
294.833	84.44
295.064	90.44
295.295	85.44
295.525	76.44
295.756	82.44
295.987	76.44
296.217	85.44
296.448	76.44
296.679	73.44
296.909	83.44
297.14	73.44
297.37	81.44
297.601	82.44
297.831	88.44
298.062	81.44
298.292	78.44
298.523	71.44
298.753	87.44
298.984	80.44
299.214	86.44
299.445	90.44
299.675	89.44
299.905	78.44
300.136	87.44
300.366	94.44
300.597	85.44
300.827	83.44
301.057	76.44
301.288	88.44
301.518	81.44
301.748	83.44
301.979	85.44
302.209	81.44
302.439	87.44
302.669	80.44
302.9	89.44
303.13	74.44
303.36	82.44
303.59	89.44
303.82	84.44
304.051	69.44
304.281	90.44
304.511	87.44
304.741	88.44
304.971	81.44
305.201	93.44
305.431	90.44
305.661	66.44
305.891	76.44
306.121	85.44
306.352	79.44
306.582	85.44
306.812	87.44
307.042	79.44
307.272	67.44
307.502	80.44
307.731	78.44
307.961	75.44
308.191	93.44
308.421	91.44
308.651	74.44
308.881	71.44
309.111	88.44
309.341	87.44
309.571	76.44
309.8	72.44
310.03	75.44
310.26	87.44
310.49	75.44
310.72	78.44
310.949	89.44
311.179	80.44
311.409	82.44
311.639	73.44
311.868	90.44
312.098	89.44
312.328	89.44
312.557	85.44
312.787	68.44
313.017	74.44
313.246	78.44
313.476	81.44
313.706	84.44
313.935	83.44
314.165	84.44
314.394	88.44
314.624	82.44
314.853	107.44
315.083	83.44
315.312	85.44
315.542	78.44
315.771	96.44
316.001	94.44
316.23	72.44
316.46	85.44
316.689	86.44
316.919	90.44
317.148	93.44
317.377	86.44
317.607	85.44
317.836	82.44
318.065	78.44
318.295	78.44
318.524	82.44
318.753	83.44
318.983	83.44
319.212	71.44
319.441	75.44
319.67	86.44
319.9	88.44
320.129	81.44
320.358	75.44
320.587	87.44
320.816	86.44
321.046	90.44
321.275	83.44
321.504	93.44
321.733	79.44
321.962	87.44
322.191	79.44
322.42	83.44
322.649	82.44
322.878	88.44
323.108	78.44
323.337	85.44
323.566	84.44
323.795	82.44
324.024	96.44
324.253	84.44
324.482	82.44
324.71	76.44
324.939	83.44
325.168	78.44
325.397	81.44
325.626	86.44
325.855	92.44
326.084	78.44
326.313	83.44
326.542	80.44
326.77	77.44
326.999	92.44
327.228	86.44
327.457	85.44
327.686	89.44
327.914	83.44
328.143	75.44
328.372	81.44
328.6	72.44
328.829	74.44
329.058	91.44
329.287	83.44
329.515	102.44
329.744	78.44
329.972	89.44
330.201	79.44
330.43	89.44
330.658	84.44
330.887	75.44
331.115	90.44
331.344	77.44
331.572	75.44
331.801	81.44
332.03	89.44
332.258	78.44
332.486	77.44
332.715	86.44
332.943	82.44
333.172	74.44
333.4	83.44
333.629	80.44
333.857	76.44
334.085	86.44
334.314	78.44
334.542	90.44
334.771	80.44
334.999	85.44
335.227	87.44
335.455	80.44
335.684	88.44
335.912	81.44
336.14	72.44
336.369	85.44
336.597	71.44
336.825	79.44
337.053	90.44
337.281	104.44
337.51	92.44
337.738	90.44
337.966	78.44
338.194	83.44
338.422	88.44
338.65	85.44
338.878	79.44
339.106	74.44
339.334	83.44
339.562	72.44
339.79	87.44
340.018	79.44
340.246	86.44
340.474	74.44
340.702	83.44
340.93	86.44
341.158	93.44
341.386	81.44
341.614	73.44
341.842	81.44
342.07	70.44
342.298	87.44
342.526	80.44
342.754	86.44
342.981	85.44
343.209	85.44
343.437	86.44
343.665	88.44
343.893	81.44
344.12	94.44
344.348	81.44
344.576	73.44
344.804	86.44
345.031	82.44
345.259	78.44
345.487	81.44
345.714	75.44
345.942	72.44
346.17	95.44
346.397	96.44
346.625	102.44
346.853	82.44
347.08	96.44
347.308	84.44
347.535	82.44
347.763	69.44
347.99	84.44
348.218	89.44
348.445	84.44
348.673	89.44
348.9	88.44
349.128	83.44
349.355	93.44
349.583	97.44
349.81	87.44
350.037	101.44
350.265	90.44
350.492	79.44
350.72	82.44
350.947	93.44
351.174	80.44
351.402	87.44
351.629	85.44
351.856	73.44
352.083	79.44
352.311	88.44
352.538	80.44
352.765	72.44
352.992	75.44
353.22	92.44
353.447	74.44
353.674	94.44
353.901	78.44
354.128	90.44
354.355	85.44
354.583	79.44
354.81	86.44
355.037	82.44
355.264	92.44
355.491	66.44
355.718	79.44
355.945	87.44
356.172	89.44
356.399	76.44
356.626	100.44
356.853	92.44
357.08	95.44
357.307	85.44
357.534	85.44
357.761	84.44
357.988	96.44
358.215	91.44
358.441	77.44
358.668	78.44
358.895	75.44
359.122	86.44
359.349	86.44
359.576	91.44
359.802	82.44
360.029	78.44
360.256	87.44
360.483	92.44
360.709	76.44
360.936	84.44
361.163	89.44
361.39	78.44
361.616	82.44
361.843	83.44
362.07	85.44
362.296	83.44
362.523	86.44
362.749	76.44
362.976	91.44
363.203	75.44
363.429	86.44
363.656	103.44
363.882	88.44
364.109	73.44
364.335	79.44
364.562	83.44
364.788	81.44
365.015	86.44
365.241	81.44
365.468	87.44
365.694	88.44
365.92	81.44
366.147	74.44
366.373	104.44
366.599	77.44
366.826	94.44
367.052	79.44
367.278	84.44
367.505	93.44
367.731	98.44
367.957	71.44
368.184	82.44
368.41	79.44
368.636	83.44
368.862	90.44
369.089	81.44
369.315	106.44
369.541	98.44
369.767	83.44
369.993	98.44
370.219	84.44
370.445	88.44
370.672	96.44
370.898	99.44
371.124	97.44
371.35	95.44
371.576	96.44
371.802	98.44
372.028	96.44
372.254	96.44
372.48	92.44
372.706	82.44
372.932	94.44
373.158	91.44
373.384	90.44
373.61	83.44
373.835	80.44
374.061	101.44
374.287	98.44
374.513	94.44
374.739	104.44
374.965	115.44
375.191	92.44
375.416	89.44
375.642	105.44
375.868	90.44
376.094	91.44
376.319	98.44
376.545	84.44
376.771	103.44
376.997	88.44
377.222	94.44
377.448	101.44
377.674	113.44
377.899	102.44
378.125	95.44
378.35	94.44
378.576	97.44
378.802	96.44
379.027	89.44
379.253	93.44
379.478	87.44
379.704	103.44
379.929	94.44
380.155	95.44
380.38	98.44
380.606	87.44
380.831	90.44
381.057	98.44
381.282	93.44
381.507	88.44
381.733	93.44
381.958	78.44
382.184	107.44
382.409	98.44
382.634	95.44
382.86	95.44
383.085	103.44
383.31	98.44
383.535	97.44
383.761	100.44
383.986	109.44
384.211	96.44
384.436	90.44
384.662	89.44
384.887	93.44
385.112	99.44
385.337	106.44
385.562	96.44
385.787	96.44
386.013	105.44
386.238	95.44
386.463	102.44
386.688	93.44
386.913	100.44
387.138	105.44
387.363	97.44
387.588	97.44
387.813	97.44
388.038	105.44
388.263	105.44
388.488	105.44
388.713	113.44
388.938	113.44
389.163	99.44
389.387	108.44
389.612	114.44
389.837	98.44
390.062	97.44
390.287	112.44
390.512	98.44
390.736	105.44
390.961	111.44
391.186	107.44
391.411	111.44
391.636	89.44
391.86	94.44
392.085	109.44
392.31	99.44
392.534	91.44
392.759	128.44
392.984	102.44
393.208	106.44
393.433	109.44
393.658	116.44
393.882	105.44
394.107	109.44
394.331	111.44
394.556	103.44
394.78	114.44
395.005	102.44
395.229	111.44
395.454	99.44
395.678	102.44
395.903	110.44
396.127	116.44
396.352	112.44
396.576	100.44
396.801	96.44
397.025	122.44
397.249	103.44
397.474	104.44
397.698	115.44
397.922	103.44
398.147	102.44
398.371	118.44
398.595	125.44
398.82	109.44
399.044	109.44
399.268	111.44
399.492	112.44
399.717	111.44
399.941	129.44
400.165	101.44
400.389	124.44
400.613	105.44
400.837	106.44
401.062	141.44
401.286	114.44
401.51	117.44
401.734	101.44
401.958	125.44
402.182	115.44
402.406	111.44
402.63	121.44
402.854	98.44
403.078	116.44
403.302	108.44
403.526	115.44
403.75	132.44
403.974	117.44
404.198	119.44
404.422	120.44
404.645	106.44
404.869	121.44
405.093	127.44
405.317	118.44
405.541	121.44
405.765	128.44
405.988	130.44
406.212	132.44
406.436	114.44
406.66	127.44
406.883	125.44
407.107	131.44
407.331	115.44
407.555	118.44
407.778	119.44
408.002	114.44
408.226	123.44
408.449	127.44
408.673	130.44
408.896	119.44
409.12	111.44
409.344	130.44
409.567	137.44
409.791	139.44
410.014	118.44
410.238	124.44
410.461	116.44
410.685	118.44
410.908	131.44
411.132	107.44
411.355	126.44
411.578	117.44
411.802	134.44
412.025	118.44
412.249	127.44
412.472	138.44
412.695	125.44
412.919	142.44
413.142	131.44
413.365	132.44
413.589	121.44
413.812	131.44
414.035	119.44
414.258	128.44
414.482	143.44
414.705	122.44
414.928	124.44
415.151	134.44
415.374	139.44
415.597	134.44
415.821	131.44
416.044	120.44
416.267	133.44
416.49	125.44
416.713	129.44
416.936	126.44
417.159	123.44
417.382	120.44
417.605	139.44
417.828	140.44
418.051	129.44
418.274	120.44
418.497	137.44
418.72	136.44
418.943	151.44
419.166	135.44
419.389	139.44
419.611	130.44
419.834	130.44
420.057	117.44
420.28	122.44
420.503	140.44
420.726	127.44
420.948	115.44
421.171	142.44
421.394	137.44
421.617	139.44
421.839	139.44
422.062	144.44
422.285	137.44
422.507	136.44
422.73	127.44
422.953	135.44
423.175	136.44
423.398	135.44
423.621	139.44
423.843	124.44
424.066	144.44
424.288	136.44
424.511	138.44
424.733	146.44
424.956	156.44
425.178	138.44
425.401	148.44
425.623	137.44
425.846	135.44
426.068	138.44
426.291	134.44
426.513	135.44
426.735	140.44
426.958	131.44
427.18	129.44
427.402	139.44
427.625	138.44
427.847	129.44
428.069	133.44
428.292	121.44
428.514	121.44
428.736	145.44
428.958	131.44
429.181	132.44
429.403	145.44
429.625	122.44
429.847	129.44
430.069	136.44
430.292	132.44
430.514	129.44
430.736	139.44
430.958	139.44
431.18	134.44
431.402	122.44
431.624	115.44
431.846	115.44
432.068	95.44
432.29	98.44
432.512	118.44
432.734	116.44
432.956	140.44
433.178	139.44
433.4	143.44
433.622	137.44
433.844	130.44
434.066	123.44
434.287	117.44
434.509	94.44
434.731	114.44
434.953	117.44
435.175	125.44
435.397	124.44
435.618	124.44
435.84	121.44
436.062	101.44
436.284	123.44
436.505	126.44
436.727	129.44
436.949	137.44
437.17	146.44
437.392	135.44
437.614	116.44
437.835	117.44
438.057	105.44
438.278	117.44
438.5	120.44
438.721	138.44
438.943	140.44
439.165	140.44
439.386	144.44
439.608	157.44
439.829	163.44
440.05	136.44
440.272	150.44
440.493	136.44
440.715	151.44
440.936	150.44
441.158	150.44
441.379	163.44
441.6	147.44
441.822	157.44
442.043	154.44
442.264	158.44
442.486	137.44
442.707	155.44
442.928	151.44
443.149	147.44
443.371	146.44
443.592	137.44
443.813	151.44
444.034	145.44
444.255	150.44
444.476	142.44
444.698	147.44
444.919	145.44
445.14	266.44
445.361	205.44
445.582	144.44
445.803	158.44
446.024	152.44
446.245	176.44
446.466	165.44
446.687	145.44
446.908	161.44
447.129	152.44
447.35	143.44
447.571	153.44
447.792	155.44
448.013	153.44
448.234	140.44
448.455	143.44
448.675	144.44
448.896	143.44
449.117	157.44
449.338	149.44
449.559	159.44
449.779	134.44
450	157.44
450.221	129.44
450.442	146.44
450.662	137.44
450.883	133.44
451.104	139.44
451.324	139.44
451.545	122.44
451.766	126.44
451.986	123.44
452.207	141.44
452.428	125.44
452.648	148.44
452.869	125.44
453.089	127.44
453.31	113.44
453.53	115.44
453.751	102.44
453.971	101.44
454.192	103.44
454.412	107.44
454.633	118.44
454.853	123.44
455.073	123.44
455.294	113.44
455.514	118.44
455.734	104.44
455.955	113.44
456.175	121.44
456.395	115.44
456.616	114.44
456.836	117.44
457.056	123.44
457.276	110.44
457.497	106.44
457.717	101.44
457.937	90.44
458.157	111.44
458.377	97.44
458.598	110.44
458.818	96.44
459.038	85.44
459.258	82.44
459.478	82.44
459.698	89.44
459.918	96.44
460.138	98.44
460.358	115.44
460.578	117.44
460.798	111.44
461.018	124.44
461.238	115.44
461.458	111.44
461.678	112.44
461.898	123.44
462.118	109.44
462.338	114.44
462.558	110.44
462.777	126.44
462.997	112.44
463.217	100.44
463.437	110.44
463.657	118.44
463.876	104.44
464.096	117.44
464.316	104.44
464.536	125.44
464.755	125.44
464.975	112.44
465.195	119.44
465.414	120.44
465.634	119.44
465.854	121.44
466.073	132.44
466.293	131.44
466.512	137.44
466.732	144.44
466.951	143.44
467.171	125.44
467.391	128.44
467.61	134.44
467.829	129.44
468.049	122.44
468.268	132.44
468.488	145.44
468.707	141.44
468.927	130.44
469.146	149.44
469.365	149.44
469.585	137.44
469.804	155.44
470.023	141.44
470.243	126.44
470.462	153.44
470.681	133.44
470.901	143.44
471.12	165.44
471.339	147.44
471.558	140.44
471.777	139.44
471.997	139.44
472.216	134.44
472.435	121.44
472.654	119.44
472.873	120.44
473.092	139.44
473.311	136.44
473.53	138.44
473.749	139.44
473.968	126.44
474.187	130.44
474.406	113.44
474.625	132.44
474.844	139.44
475.063	118.44
475.282	114.44
475.501	115.44
475.72	119.44
475.939	137.44
476.158	131.44
476.377	137.44
476.596	117.44
476.814	122.44
477.033	93.44
477.252	116.44
477.471	130.44
477.69	146.44
477.908	136.44
478.127	145.44
478.346	143.44
478.564	135.44
478.783	141.44
479.002	134.44
479.22	149.44
479.439	144.44
479.658	121.44
479.876	129.44
480.095	117.44
480.313	117.44
480.532	111.44
480.751	96.44
480.969	96.44
481.188	90.44
481.406	75.44
481.624	91.44
481.843	73.44
482.061	91.44
482.28	133.44
482.498	136.44
482.717	122.44
482.935	130.44
483.153	162.44
483.372	163.44
483.59	155.44
483.808	143.44
484.027	145.44
484.245	132.44
484.463	152.44
484.681	185.44
484.9	166.44
485.118	131.44
485.336	133.44
485.554	117.44
485.772	107.44
485.99	102.44
486.209	128.44
486.427	106.44
486.645	127.44
486.863	139.44
487.081	136.44
487.299	133.44
487.517	158.44
487.735	196.44
487.953	195.44
488.171	185.44
488.389	182.44
488.607	173.44
488.825	146.44
489.043	140.44
489.261	140.44
489.479	158.44
489.696	159.44
489.914	137.44
490.132	137.44
490.35	146.44
490.568	168.44
490.786	177.44
491.003	197.44
491.221	180.44
491.439	191.44
491.657	187.44
491.874	198.44
492.092	228.44
492.31	254.44
492.527	243.44
492.745	212.44
492.963	189.44
493.18	207.44
493.398	196.44
493.615	196.44
493.833	177.44
494.05	185.44
494.268	193.44
494.485	185.44
494.703	196.44
494.92	194.44
495.138	181.44
495.355	181.44
495.573	176.44
495.79	170.44
496.008	171.44
496.225	193.44
496.442	154.44
496.66	180.44
496.877	163.44
497.094	162.44
497.312	186.44
497.529	171.44
497.746	164.44
497.963	145.44
498.181	117.44
498.398	132.44
498.615	125.44
498.832	122.44
499.049	121.44
499.267	117.44
499.484	118.44
499.701	139.44
499.918	142.44
500.135	139.44
500.352	140.44
500.569	147.44
500.786	160.44
501.003	154.44
501.22	153.44
501.437	158.44
501.654	141.44
501.871	141.44
502.088	126.44
502.305	146.44
502.522	131.44
502.739	144.44
502.956	144.44
503.172	131.44
503.389	129.44
503.606	136.44
503.823	113.44
504.04	116.44
504.256	125.44
504.473	128.44
504.69	122.44
504.907	129.44
505.123	130.44
505.34	125.44
505.557	121.44
505.773	120.44
505.99	119.44
506.207	117.44
506.423	127.44
506.64	134.44
506.856	130.44
507.073	122.44
507.289	115.44
507.506	115.44
507.722	117.44
507.939	118.44
508.155	118.44
508.372	129.44
508.588	121.44
508.805	112.44
509.021	104.44
509.238	111.44
509.454	91.44
509.67	100.44
509.887	86.44
510.103	95.44
510.319	94.44
510.536	85.44
510.752	85.44
510.968	87.44
511.184	79.44
511.401	73.44
511.617	91.44
