Data from Location6.07152019.Energy5.Lamp.07192019.3%Agarose_HRD10591_16-11-16-395.txt Node
Date: Fri Jul 19 16:11:16 EDT 2019
User: cochatt
Spectrometer: HR+D1059
Trigger mode: 1
Integration Time (sec): 1.000000E-1
Scans to average: 1
Electric dark correction enabled: true
Nonlinearity correction enabled: false
Boxcar width: 0
XAxis mode: Wavelengths
Number of Pixels in Spectrum: 2048
>>>>>Begin Spectral Data<<<<<
223.165	-9.69
223.4	-9.69
223.635	-9.69
223.869	-16.69
224.104	-27.69
224.338	-19.69
224.573	-15.69
224.808	-4.69
225.042	-5.69
225.277	5.31
225.511	-12.69
225.746	-10.69
225.98	6.31
226.215	13.31
226.449	2.31
226.683	25.31
226.918	36.31
227.152	34.31
227.387	27.31
227.621	29.31
227.856	50.31
228.09	35.31
228.324	44.31
228.559	58.31
228.793	54.31
229.027	56.31
229.262	72.31
229.496	58.31
229.73	61.31
229.964	63.31
230.199	67.31
230.433	76.31
230.667	83.31
230.901	86.31
231.136	66.31
231.37	77.31
231.604	90.31
231.838	79.31
232.072	77.31
232.306	87.31
232.541	79.31
232.775	85.31
233.009	80.31
233.243	81.31
233.477	85.31
233.711	80.31
233.945	83.31
234.179	100.31
234.413	79.31
234.647	72.31
234.881	82.31
235.115	74.31
235.349	76.31
235.583	81.31
235.817	74.31
236.051	66.31
236.285	76.31
236.519	86.31
236.753	81.31
236.987	85.31
237.221	68.31
237.455	87.31
237.689	80.31
237.922	77.31
238.156	75.31
238.39	80.31
238.624	85.31
238.858	78.31
239.091	78.31
239.325	75.31
239.559	78.31
239.793	73.31
240.027	86.31
240.26	73.31
240.494	77.31
240.728	55.31
240.961	67.31
241.195	96.31
241.429	85.31
241.662	74.31
241.896	65.31
242.13	81.31
242.363	85.31
242.597	82.31
242.83	90.31
243.064	97.31
243.298	67.31
243.531	73.31
243.765	72.31
243.998	76.31
244.232	93.31
244.465	84.31
244.699	61.31
244.932	83.31
245.166	76.31
245.399	78.31
245.633	73.31
245.866	82.31
246.099	92.31
246.333	75.31
246.566	74.31
246.8	90.31
247.033	77.31
247.266	81.31
247.5	87.31
247.733	87.31
247.966	76.31
248.2	81.31
248.433	78.31
248.666	85.31
248.899	84.31
249.133	73.31
249.366	84.31
249.599	77.31
249.832	83.31
250.066	83.31
250.299	83.31
250.532	85.31
250.765	77.31
250.998	80.31
251.231	76.31
251.465	74.31
251.698	72.31
251.931	80.31
252.164	70.31
252.397	70.31
252.63	82.31
252.863	92.31
253.096	80.31
253.329	76.31
253.562	73.31
253.795	75.31
254.028	66.31
254.261	85.31
254.494	89.31
254.727	100.31
254.96	73.31
255.193	83.31
255.426	75.31
255.659	94.31
255.892	76.31
256.124	73.31
256.357	84.31
256.59	74.31
256.823	84.31
257.056	86.31
257.289	84.31
257.521	94.31
257.754	82.31
257.987	86.31
258.22	89.31
258.452	88.31
258.685	77.31
258.918	81.31
259.151	78.31
259.383	75.31
259.616	84.31
259.849	71.31
260.081	81.31
260.314	84.31
260.547	73.31
260.779	86.31
261.012	66.31
261.244	87.31
261.477	96.31
261.71	86.31
261.942	84.31
262.175	87.31
262.407	87.31
262.64	81.31
262.872	88.31
263.105	71.31
263.337	87.31
263.57	76.31
263.802	77.31
264.035	70.31
264.267	82.31
264.499	98.31
264.732	82.31
264.964	82.31
265.197	73.31
265.429	65.31
265.661	69.31
265.894	80.31
266.126	87.31
266.358	80.31
266.591	85.31
266.823	79.31
267.055	92.31
267.287	74.31
267.52	73.31
267.752	89.31
267.984	62.31
268.216	85.31
268.448	84.31
268.681	89.31
268.913	102.31
269.145	87.31
269.377	87.31
269.609	77.31
269.841	80.31
270.073	88.31
270.306	87.31
270.538	76.31
270.77	78.31
271.002	67.31
271.234	73.31
271.466	86.31
271.698	87.31
271.93	87.31
272.162	85.31
272.394	80.31
272.626	80.31
272.858	82.31
273.09	74.31
273.322	81.31
273.553	85.31
273.785	79.31
274.017	83.31
274.249	80.31
274.481	90.31
274.713	72.31
274.945	82.31
275.176	81.31
275.408	80.31
275.64	81.31
275.872	81.31
276.104	77.31
276.335	74.31
276.567	80.31
276.799	72.31
277.031	89.31
277.262	89.31
277.494	98.31
277.726	91.31
277.957	88.31
278.189	72.31
278.421	74.31
278.652	87.31
278.884	71.31
279.115	78.31
279.347	80.31
279.579	93.31
279.81	75.31
280.042	84.31
280.273	85.31
280.505	98.31
280.736	91.31
280.968	91.31
281.199	89.31
281.431	88.31
281.662	90.31
281.894	102.31
282.125	91.31
282.356	88.31
282.588	81.31
282.819	90.31
283.051	87.31
283.282	95.31
283.513	84.31
283.745	86.31
283.976	68.31
284.207	89.31
284.439	85.31
284.67	84.31
284.901	70.31
285.132	89.31
285.364	83.31
285.595	88.31
285.826	81.31
286.057	75.31
286.288	78.31
286.52	74.31
286.751	85.31
286.982	102.31
287.213	83.31
287.444	80.31
287.675	97.31
287.906	85.31
288.138	76.31
288.369	81.31
288.6	79.31
288.831	90.31
289.062	82.31
289.293	95.31
289.524	85.31
289.755	78.31
289.986	72.31
290.217	91.31
290.448	87.31
290.679	80.31
290.91	96.31
291.141	85.31
291.371	93.31
291.602	98.31
291.833	85.31
292.064	71.31
292.295	82.31
292.526	78.31
292.757	76.31
292.987	99.31
293.218	99.31
293.449	86.31
293.68	81.31
293.91	96.31
294.141	81.31
294.372	77.31
294.603	104.31
294.833	96.31
295.064	100.31
295.295	96.31
295.525	96.31
295.756	97.31
295.987	83.31
296.217	85.31
296.448	90.31
296.679	95.31
296.909	96.31
297.14	84.31
297.37	92.31
297.601	83.31
297.831	74.31
298.062	93.31
298.292	82.31
298.523	77.31
298.753	69.31
298.984	89.31
299.214	88.31
299.445	95.31
299.675	84.31
299.905	88.31
300.136	85.31
300.366	91.31
300.597	87.31
300.827	99.31
301.057	80.31
301.288	95.31
301.518	105.31
301.748	73.31
301.979	89.31
302.209	84.31
302.439	87.31
302.669	89.31
302.9	91.31
303.13	82.31
303.36	95.31
303.59	92.31
303.82	77.31
304.051	90.31
304.281	88.31
304.511	88.31
304.741	85.31
304.971	91.31
305.201	94.31
305.431	92.31
305.661	90.31
305.891	79.31
306.121	91.31
306.352	82.31
306.582	92.31
306.812	97.31
307.042	90.31
307.272	85.31
307.502	93.31
307.731	79.31
307.961	83.31
308.191	90.31
308.421	104.31
308.651	83.31
308.881	87.31
309.111	83.31
309.341	90.31
309.571	80.31
309.8	78.31
310.03	70.31
310.26	91.31
310.49	82.31
310.72	83.31
310.949	90.31
311.179	83.31
311.409	88.31
311.639	83.31
311.868	89.31
312.098	76.31
312.328	77.31
312.557	83.31
312.787	86.31
313.017	82.31
313.246	82.31
313.476	92.31
313.706	78.31
313.935	84.31
314.165	104.31
314.394	84.31
314.624	90.31
314.853	82.31
315.083	82.31
315.312	83.31
315.542	82.31
315.771	93.31
316.001	84.31
316.23	76.31
316.46	89.31
316.689	84.31
316.919	69.31
317.148	83.31
317.377	97.31
317.607	115.31
317.836	90.31
318.065	80.31
318.295	72.31
318.524	77.31
318.753	91.31
318.983	98.31
319.212	89.31
319.441	90.31
319.67	76.31
319.9	73.31
320.129	94.31
320.358	83.31
320.587	84.31
320.816	78.31
321.046	81.31
321.275	95.31
321.504	83.31
321.733	84.31
321.962	77.31
322.191	67.31
322.42	82.31
322.649	90.31
322.878	85.31
323.108	88.31
323.337	89.31
323.566	85.31
323.795	82.31
324.024	74.31
324.253	95.31
324.482	79.31
324.71	83.31
324.939	87.31
325.168	83.31
325.397	79.31
325.626	80.31
325.855	93.31
326.084	84.31
326.313	76.31
326.542	76.31
326.77	82.31
326.999	86.31
327.228	77.31
327.457	85.31
327.686	90.31
327.914	71.31
328.143	95.31
328.372	79.31
328.6	87.31
328.829	87.31
329.058	92.31
329.287	77.31
329.515	91.31
329.744	74.31
329.972	79.31
330.201	90.31
330.43	79.31
330.658	80.31
330.887	91.31
331.115	89.31
331.344	92.31
331.572	89.31
331.801	82.31
332.03	75.31
332.258	88.31
332.486	79.31
332.715	76.31
332.943	76.31
333.172	87.31
333.4	87.31
333.629	92.31
333.857	95.31
334.085	82.31
334.314	88.31
334.542	71.31
334.771	71.31
334.999	92.31
335.227	99.31
335.455	83.31
335.684	88.31
335.912	77.31
336.14	76.31
336.369	86.31
336.597	73.31
336.825	93.31
337.053	86.31
337.281	79.31
337.51	85.31
337.738	87.31
337.966	82.31
338.194	82.31
338.422	88.31
338.65	89.31
338.878	88.31
339.106	89.31
339.334	73.31
339.562	86.31
339.79	80.31
340.018	85.31
340.246	81.31
340.474	73.31
340.702	70.31
340.93	85.31
341.158	88.31
341.386	104.31
341.614	73.31
341.842	77.31
342.07	78.31
342.298	89.31
342.526	90.31
342.754	81.31
342.981	93.31
343.209	80.31
343.437	74.31
343.665	77.31
343.893	86.31
344.12	78.31
344.348	84.31
344.576	79.31
344.804	86.31
345.031	91.31
345.259	80.31
345.487	86.31
345.714	70.31
345.942	74.31
346.17	88.31
346.397	85.31
346.625	87.31
346.853	82.31
347.08	90.31
347.308	81.31
347.535	90.31
347.763	100.31
347.99	82.31
348.218	78.31
348.445	57.31
348.673	79.31
348.9	100.31
349.128	83.31
349.355	91.31
349.583	82.31
349.81	63.31
350.037	86.31
350.265	91.31
350.492	82.31
350.72	81.31
350.947	101.31
351.174	102.31
351.402	80.31
351.629	89.31
351.856	96.31
352.083	85.31
352.311	96.31
352.538	92.31
352.765	85.31
352.992	84.31
353.22	67.31
353.447	78.31
353.674	86.31
353.901	86.31
354.128	89.31
354.355	73.31
354.583	77.31
354.81	92.31
355.037	85.31
355.264	101.31
355.491	77.31
355.718	87.31
355.945	95.31
356.172	104.31
356.399	100.31
356.626	78.31
356.853	92.31
357.08	85.31
357.307	84.31
357.534	77.31
357.761	69.31
357.988	90.31
358.215	91.31
358.441	83.31
358.668	79.31
358.895	83.31
359.122	93.31
359.349	92.31
359.576	83.31
359.802	98.31
360.029	90.31
360.256	93.31
360.483	94.31
360.709	85.31
360.936	89.31
361.163	80.31
361.39	89.31
361.616	88.31
361.843	92.31
362.07	83.31
362.296	84.31
362.523	89.31
362.749	87.31
362.976	85.31
363.203	95.31
363.429	81.31
363.656	89.31
363.882	95.31
364.109	82.31
364.335	90.31
364.562	92.31
364.788	75.31
365.015	85.31
365.241	90.31
365.468	87.31
365.694	88.31
365.92	83.31
366.147	86.31
366.373	96.31
366.599	81.31
366.826	72.31
367.052	87.31
367.278	83.31
367.505	89.31
367.731	97.31
367.957	93.31
368.184	87.31
368.41	85.31
368.636	109.31
368.862	87.31
369.089	83.31
369.315	91.31
369.541	105.31
369.767	82.31
369.993	80.31
370.219	84.31
370.445	90.31
370.672	76.31
370.898	89.31
371.124	88.31
371.35	97.31
371.576	93.31
371.802	87.31
372.028	78.31
372.254	87.31
372.48	83.31
372.706	96.31
372.932	83.31
373.158	95.31
373.384	107.31
373.61	99.31
373.835	92.31
374.061	94.31
374.287	99.31
374.513	82.31
374.739	104.31
374.965	96.31
375.191	97.31
375.416	85.31
375.642	98.31
375.868	88.31
376.094	87.31
376.319	96.31
376.545	99.31
376.771	82.31
376.997	89.31
377.222	81.31
377.448	101.31
377.674	84.31
377.899	94.31
378.125	90.31
378.35	96.31
378.576	90.31
378.802	97.31
379.027	107.31
379.253	102.31
379.478	89.31
379.704	100.31
379.929	95.31
380.155	121.31
380.38	97.31
380.606	103.31
380.831	98.31
381.057	98.31
381.282	101.31
381.507	106.31
381.733	89.31
381.958	94.31
382.184	91.31
382.409	89.31
382.634	106.31
382.86	111.31
383.085	101.31
383.31	117.31
383.535	92.31
383.761	93.31
383.986	83.31
384.211	105.31
384.436	91.31
384.662	100.31
384.887	94.31
385.112	104.31
385.337	91.31
385.562	88.31
385.787	105.31
386.013	111.31
386.238	106.31
386.463	117.31
386.688	108.31
386.913	76.31
387.138	91.31
387.363	102.31
387.588	99.31
387.813	99.31
388.038	102.31
388.263	111.31
388.488	98.31
388.713	94.31
388.938	98.31
389.163	104.31
389.387	103.31
389.612	107.31
389.837	132.31
390.062	115.31
390.287	105.31
390.512	97.31
390.736	102.31
390.961	105.31
391.186	118.31
391.411	111.31
391.636	105.31
391.86	119.31
392.085	118.31
392.31	106.31
392.534	120.31
392.759	92.31
392.984	96.31
393.208	95.31
393.433	112.31
393.658	111.31
393.882	107.31
394.107	107.31
394.331	113.31
394.556	107.31
394.78	109.31
395.005	111.31
395.229	97.31
395.454	120.31
395.678	95.31
395.903	123.31
396.127	118.31
396.352	116.31
396.576	97.31
396.801	99.31
397.025	101.31
397.249	103.31
397.474	106.31
397.698	124.31
397.922	105.31
398.147	106.31
398.371	115.31
398.595	107.31
398.82	112.31
399.044	113.31
399.268	111.31
399.492	123.31
399.717	116.31
399.941	118.31
400.165	118.31
400.389	105.31
400.613	107.31
400.837	113.31
401.062	97.31
401.286	105.31
401.51	120.31
401.734	117.31
401.958	121.31
402.182	119.31
402.406	113.31
402.63	105.31
402.854	122.31
403.078	119.31
403.302	125.31
403.526	107.31
403.75	119.31
403.974	123.31
404.198	123.31
404.422	132.31
404.645	118.31
404.869	101.31
405.093	135.31
405.317	117.31
405.541	101.31
405.765	113.31
405.988	117.31
406.212	96.31
406.436	120.31
406.66	123.31
406.883	129.31
407.107	105.31
407.331	127.31
407.555	129.31
407.778	131.31
408.002	116.31
408.226	115.31
408.449	119.31
408.673	135.31
408.896	123.31
409.12	124.31
409.344	133.31
409.567	124.31
409.791	114.31
410.014	125.31
410.238	127.31
410.461	127.31
410.685	119.31
410.908	124.31
411.132	129.31
411.355	131.31
411.578	121.31
411.802	105.31
412.025	133.31
412.249	136.31
412.472	129.31
412.695	127.31
412.919	125.31
413.142	128.31
413.365	128.31
413.589	115.31
413.812	140.31
414.035	139.31
414.258	112.31
414.482	114.31
414.705	128.31
414.928	133.31
415.151	124.31
415.374	135.31
415.597	132.31
415.821	124.31
416.044	136.31
416.267	119.31
416.49	131.31
416.713	149.31
416.936	128.31
417.159	131.31
417.382	120.31
417.605	138.31
417.828	150.31
418.051	127.31
418.274	125.31
418.497	131.31
418.72	133.31
418.943	130.31
419.166	138.31
419.389	133.31
419.611	147.31
419.834	138.31
420.057	138.31
420.28	135.31
420.503	158.31
420.726	123.31
420.948	123.31
421.171	142.31
421.394	140.31
421.617	146.31
421.839	161.31
422.062	129.31
422.285	149.31
422.507	130.31
422.73	129.31
422.953	139.31
423.175	145.31
423.398	139.31
423.621	139.31
423.843	128.31
424.066	145.31
424.288	149.31
424.511	144.31
424.733	144.31
424.956	149.31
425.178	144.31
425.401	137.31
425.623	142.31
425.846	138.31
426.068	140.31
426.291	147.31
426.513	131.31
426.735	135.31
426.958	138.31
427.18	133.31
427.402	132.31
427.625	138.31
427.847	128.31
428.069	134.31
428.292	128.31
428.514	157.31
428.736	145.31
428.958	130.31
429.181	125.31
429.403	137.31
429.625	129.31
429.847	128.31
430.069	135.31
430.292	140.31
430.514	144.31
430.736	150.31
430.958	141.31
431.18	126.31
431.402	135.31
431.624	132.31
431.846	113.31
432.068	98.31
432.29	107.31
432.512	119.31
432.734	127.31
432.956	141.31
433.178	153.31
433.4	154.31
433.622	141.31
433.844	141.31
434.066	125.31
434.287	112.31
434.509	107.31
434.731	117.31
434.953	112.31
435.175	113.31
435.397	135.31
435.618	123.31
435.84	121.31
436.062	115.31
436.284	123.31
436.505	122.31
436.727	118.31
436.949	131.31
437.17	143.31
437.392	124.31
437.614	125.31
437.835	123.31
438.057	108.31
438.278	121.31
438.5	141.31
438.721	133.31
438.943	146.31
439.165	148.31
439.386	140.31
439.608	150.31
439.829	133.31
440.05	163.31
440.272	155.31
440.493	151.31
440.715	151.31
440.936	154.31
441.158	151.31
441.379	155.31
441.6	155.31
441.822	156.31
442.043	153.31
442.264	146.31
442.486	146.31
442.707	159.31
442.928	156.31
443.149	131.31
443.371	162.31
443.592	146.31
443.813	149.31
444.034	141.31
444.255	133.31
444.476	136.31
444.698	144.31
444.919	154.31
445.14	263.31
445.361	209.31
445.582	151.31
445.803	162.31
446.024	149.31
446.245	163.31
446.466	149.31
446.687	159.31
446.908	149.31
447.129	161.31
447.35	159.31
447.571	164.31
447.792	151.31
448.013	141.31
448.234	155.31
448.455	153.31
448.675	146.31
448.896	152.31
449.117	138.31
449.338	135.31
449.559	123.31
449.779	144.31
450	141.31
450.221	147.31
450.442	151.31
450.662	152.31
450.883	156.31
451.104	137.31
451.324	123.31
451.545	119.31
451.766	129.31
451.986	132.31
452.207	117.31
452.428	133.31
452.648	132.31
452.869	133.31
453.089	123.31
453.31	122.31
453.53	120.31
453.751	112.31
453.971	78.31
454.192	112.31
454.412	123.31
454.633	127.31
454.853	116.31
455.073	127.31
455.294	122.31
455.514	120.31
455.734	123.31
455.955	119.31
456.175	116.31
456.395	112.31
456.616	103.31
456.836	117.31
457.056	121.31
457.276	112.31
457.497	120.31
457.717	112.31
457.937	108.31
458.157	105.31
458.377	106.31
458.598	102.31
458.818	99.31
459.038	85.31
459.258	93.31
459.478	86.31
459.698	95.31
459.918	97.31
460.138	108.31
460.358	119.31
460.578	113.31
460.798	108.31
461.018	123.31
461.238	114.31
461.458	133.31
461.678	129.31
461.898	130.31
462.118	127.31
462.338	130.31
462.558	123.31
462.777	119.31
462.997	111.31
463.217	116.31
463.437	111.31
463.657	105.31
463.876	108.31
464.096	106.31
464.316	106.31
464.536	122.31
464.755	123.31
464.975	116.31
465.195	125.31
465.414	116.31
465.634	137.31
465.854	120.31
466.073	120.31
466.293	123.31
466.512	129.31
466.732	135.31
466.951	136.31
467.171	135.31
467.391	145.31
467.61	147.31
467.829	138.31
468.049	144.31
468.268	129.31
468.488	127.31
468.707	137.31
468.927	144.31
469.146	139.31
469.365	140.31
469.585	152.31
469.804	145.31
470.023	138.31
470.243	153.31
470.462	161.31
470.681	156.31
470.901	145.31
471.12	152.31
471.339	151.31
471.558	144.31
471.777	156.31
471.997	153.31
472.216	144.31
472.435	129.31
472.654	109.31
472.873	118.31
473.092	117.31
473.311	119.31
473.53	126.31
473.749	123.31
473.968	135.31
474.187	128.31
474.406	118.31
474.625	149.31
474.844	143.31
475.063	133.31
475.282	132.31
475.501	132.31
475.72	120.31
475.939	129.31
476.158	131.31
476.377	157.31
476.596	151.31
476.814	111.31
477.033	123.31
477.252	125.31
477.471	125.31
477.69	130.31
477.908	135.31
478.127	164.31
478.346	149.31
478.564	144.31
478.783	160.31
479.002	142.31
479.22	146.31
479.439	135.31
479.658	125.31
479.876	131.31
480.095	105.31
480.313	119.31
480.532	133.31
480.751	111.31
480.969	83.31
481.188	96.31
481.406	104.31
481.624	92.31
481.843	98.31
482.061	103.31
482.28	103.31
482.498	132.31
482.717	116.31
482.935	121.31
483.153	154.31
483.372	168.31
483.59	141.31
483.808	147.31
484.027	143.31
484.245	148.31
484.463	158.31
484.681	179.31
484.9	159.31
485.118	157.31
485.336	144.31
485.554	119.31
485.772	117.31
485.99	101.31
486.209	118.31
486.427	113.31
486.645	120.31
486.863	156.31
487.081	160.31
487.299	139.31
487.517	143.31
487.735	185.31
487.953	190.31
488.171	199.31
488.389	198.31
488.607	155.31
488.825	147.31
489.043	151.31
489.261	152.31
489.479	142.31
489.696	148.31
489.914	141.31
490.132	148.31
490.35	141.31
490.568	170.31
490.786	192.31
491.003	190.31
491.221	192.31
491.439	188.31
491.657	204.31
491.874	204.31
492.092	243.31
492.31	269.31
492.527	246.31
492.745	217.31
492.963	197.31
493.18	202.31
493.398	189.31
493.615	183.31
493.833	177.31
494.05	187.31
494.268	166.31
494.485	172.31
494.703	187.31
494.92	181.31
495.138	182.31
495.355	201.31
495.573	180.31
495.79	177.31
496.008	193.31
496.225	178.31
496.442	170.31
496.66	174.31
496.877	171.31
497.094	167.31
497.312	168.31
497.529	156.31
497.746	143.31
497.963	151.31
498.181	125.31
498.398	134.31
498.615	131.31
498.832	129.31
499.049	116.31
499.267	119.31
499.484	134.31
499.701	145.31
499.918	133.31
500.135	144.31
500.352	149.31
500.569	161.31
500.786	166.31
501.003	148.31
501.22	135.31
501.437	148.31
501.654	141.31
501.871	132.31
502.088	141.31
502.305	135.31
502.522	147.31
502.739	151.31
502.956	137.31
503.172	139.31
503.389	121.31
503.606	127.31
503.823	128.31
504.04	125.31
504.256	125.31
504.473	127.31
504.69	113.31
504.907	128.31
505.123	120.31
505.34	117.31
505.557	126.31
505.773	118.31
505.99	126.31
506.207	133.31
506.423	135.31
506.64	123.31
506.856	124.31
507.073	119.31
507.289	123.31
507.506	140.31
507.722	119.31
507.939	119.31
508.155	118.31
508.372	109.31
508.588	123.31
508.805	124.31
509.021	106.31
509.238	106.31
509.454	111.31
509.67	113.31
509.887	102.31
510.103	106.31
510.319	98.31
510.536	95.31
510.752	94.31
510.968	91.31
511.184	101.31
