Data from Location6.07152019.Energy5.Lamp.07192019.3%Agarose_HRD10591_16-13-30-397.txt Node
Date: Fri Jul 19 16:13:30 EDT 2019
User: cochatt
Spectrometer: HR+D1059
Trigger mode: 1
Integration Time (sec): 1.000000E-1
Scans to average: 1
Electric dark correction enabled: true
Nonlinearity correction enabled: false
Boxcar width: 0
XAxis mode: Wavelengths
Number of Pixels in Spectrum: 2048
>>>>>Begin Spectral Data<<<<<
223.165	-20
223.4	-20
223.635	-20
223.869	-12
224.104	-14
224.338	-24
224.573	-14
224.808	-10
225.042	2
225.277	-13
225.511	3
225.746	1
225.98	18
226.215	12
226.449	1
226.683	19
226.918	26
227.152	25
227.387	20
227.621	41
227.856	53
228.09	53
228.324	59
228.559	66
228.793	56
229.027	63
229.262	56
229.496	65
229.73	62
229.964	74
230.199	71
230.433	78
230.667	87
230.901	90
231.136	75
231.37	82
231.604	82
231.838	83
232.072	86
232.306	82
232.541	79
232.775	83
233.009	86
233.243	85
233.477	80
233.711	90
233.945	86
234.179	82
234.413	87
234.647	85
234.881	76
235.115	78
235.349	82
235.583	94
235.817	62
236.051	69
236.285	84
236.519	80
236.753	82
236.987	72
237.221	79
237.455	79
237.689	85
237.922	83
238.156	83
238.39	83
238.624	77
238.858	79
239.091	68
239.325	63
239.559	78
239.793	74
240.027	55
240.26	81
240.494	66
240.728	93
240.961	75
241.195	90
241.429	62
241.662	72
241.896	80
242.13	59
242.363	65
242.597	85
242.83	85
243.064	66
243.298	74
243.531	71
243.765	74
243.998	82
244.232	86
244.465	82
244.699	96
244.932	72
245.166	75
245.399	91
245.633	78
245.866	91
246.099	87
246.333	84
246.566	82
246.8	71
247.033	71
247.266	78
247.5	81
247.733	73
247.966	80
248.2	81
248.433	80
248.666	66
248.899	73
249.133	82
249.366	82
249.599	69
249.832	70
250.066	90
250.299	77
250.532	86
250.765	81
250.998	83
251.231	73
251.465	74
251.698	77
251.931	89
252.164	92
252.397	78
252.63	80
252.863	78
253.096	76
253.329	75
253.562	81
253.795	81
254.028	85
254.261	83
254.494	73
254.727	87
254.96	89
255.193	75
255.426	81
255.659	79
255.892	79
256.124	65
256.357	76
256.59	85
256.823	94
257.056	79
257.289	87
257.521	86
257.754	89
257.987	74
258.22	96
258.452	85
258.685	87
258.918	75
259.151	76
259.383	87
259.616	89
259.849	84
260.081	85
260.314	82
260.547	79
260.779	89
261.012	86
261.244	78
261.477	86
261.71	77
261.942	76
262.175	82
262.407	81
262.64	95
262.872	88
263.105	81
263.337	80
263.57	93
263.802	87
264.035	82
264.267	76
264.499	86
264.732	91
264.964	82
265.197	88
265.429	70
265.661	71
265.894	85
266.126	98
266.358	77
266.591	96
266.823	75
267.055	77
267.287	73
267.52	86
267.752	86
267.984	84
268.216	101
268.448	94
268.681	81
268.913	88
269.145	78
269.377	74
269.609	82
269.841	81
270.073	85
270.306	86
270.538	76
270.77	81
271.002	82
271.234	82
271.466	83
271.698	88
271.93	87
272.162	82
272.394	100
272.626	91
272.858	83
273.09	84
273.322	83
273.553	80
273.785	87
274.017	90
274.249	90
274.481	83
274.713	86
274.945	84
275.176	80
275.408	87
275.64	85
275.872	95
276.104	88
276.335	89
276.567	103
276.799	84
277.031	95
277.262	100
277.494	92
277.726	72
277.957	88
278.189	82
278.421	93
278.652	83
278.884	78
279.115	75
279.347	84
279.579	87
279.81	95
280.042	82
280.273	86
280.505	84
280.736	74
280.968	89
281.199	93
281.431	87
281.662	74
281.894	84
282.125	85
282.356	92
282.588	89
282.819	82
283.051	86
283.282	78
283.513	96
283.745	95
283.976	78
284.207	90
284.439	91
284.67	80
284.901	85
285.132	86
285.364	83
285.595	72
285.826	101
286.057	90
286.288	94
286.52	95
286.751	86
286.982	73
287.213	91
287.444	102
287.675	81
287.906	85
288.138	62
288.369	98
288.6	87
288.831	105
289.062	92
289.293	91
289.524	90
289.755	90
289.986	92
290.217	86
290.448	93
290.679	89
290.91	92
291.141	86
291.371	87
291.602	78
291.833	102
292.064	88
292.295	82
292.526	87
292.757	95
292.987	83
293.218	90
293.449	91
293.68	92
293.91	89
294.141	83
294.372	83
294.603	78
294.833	86
295.064	91
295.295	84
295.525	81
295.756	81
295.987	81
296.217	79
296.448	89
296.679	90
296.909	94
297.14	91
297.37	78
297.601	88
297.831	75
298.062	78
298.292	81
298.523	73
298.753	81
298.984	90
299.214	96
299.445	92
299.675	88
299.905	91
300.136	92
300.366	86
300.597	89
300.827	73
301.057	90
301.288	95
301.518	86
301.748	86
301.979	99
302.209	84
302.439	66
302.669	91
302.9	94
303.13	87
303.36	89
303.59	97
303.82	92
304.051	83
304.281	77
304.511	77
304.741	85
304.971	86
305.201	94
305.431	84
305.661	86
305.891	76
306.121	74
306.352	89
306.582	87
306.812	89
307.042	98
307.272	74
307.502	92
307.731	89
307.961	77
308.191	72
308.421	92
308.651	82
308.881	86
309.111	79
309.341	84
309.571	90
309.8	69
310.03	82
310.26	85
310.49	85
310.72	82
310.949	78
311.179	81
311.409	85
311.639	99
311.868	80
312.098	78
312.328	83
312.557	77
312.787	80
313.017	86
313.246	76
313.476	91
313.706	83
313.935	73
314.165	91
314.394	92
314.624	85
314.853	99
315.083	98
315.312	92
315.542	84
315.771	90
316.001	79
316.23	95
316.46	74
316.689	90
316.919	85
317.148	83
317.377	83
317.607	95
317.836	74
318.065	88
318.295	80
318.524	72
318.753	86
318.983	80
319.212	92
319.441	92
319.67	89
319.9	94
320.129	94
320.358	94
320.587	82
320.816	85
321.046	89
321.275	87
321.504	79
321.733	96
321.962	98
322.191	79
322.42	97
322.649	77
322.878	88
323.108	93
323.337	99
323.566	78
323.795	84
324.024	78
324.253	87
324.482	80
324.71	97
324.939	89
325.168	74
325.397	87
325.626	95
325.855	87
326.084	90
326.313	96
326.542	89
326.77	77
326.999	87
327.228	85
327.457	84
327.686	83
327.914	74
328.143	86
328.372	90
328.6	90
328.829	94
329.058	70
329.287	93
329.515	87
329.744	87
329.972	93
330.201	90
330.43	93
330.658	76
330.887	92
331.115	90
331.344	91
331.572	90
331.801	90
332.03	86
332.258	79
332.486	83
332.715	84
332.943	94
333.172	94
333.4	89
333.629	78
333.857	92
334.085	92
334.314	83
334.542	90
334.771	95
334.999	89
335.227	90
335.455	76
335.684	105
335.912	87
336.14	79
336.369	91
336.597	95
336.825	94
337.053	78
337.281	87
337.51	86
337.738	82
337.966	83
338.194	86
338.422	92
338.65	86
338.878	87
339.106	74
339.334	85
339.562	66
339.79	83
340.018	97
340.246	91
340.474	106
340.702	82
340.93	87
341.158	92
341.386	90
341.614	78
341.842	87
342.07	84
342.298	75
342.526	81
342.754	83
342.981	92
343.209	97
343.437	80
343.665	71
343.893	85
344.12	87
344.348	82
344.576	93
344.804	77
345.031	77
345.259	92
345.487	98
345.714	92
345.942	91
346.17	78
346.397	82
346.625	84
346.853	87
347.08	89
347.308	82
347.535	97
347.763	91
347.99	83
348.218	84
348.445	86
348.673	86
348.9	87
349.128	83
349.355	78
349.583	81
349.81	94
350.037	87
350.265	101
350.492	93
350.72	99
350.947	99
351.174	78
351.402	90
351.629	86
351.856	103
352.083	96
352.311	74
352.538	84
352.765	90
352.992	92
353.22	99
353.447	75
353.674	88
353.901	90
354.128	97
354.355	85
354.583	83
354.81	93
355.037	88
355.264	79
355.491	74
355.718	74
355.945	77
356.172	72
356.399	95
356.626	81
356.853	88
357.08	83
357.307	82
357.534	86
357.761	84
357.988	80
358.215	80
358.441	90
358.668	81
358.895	90
359.122	91
359.349	93
359.576	105
359.802	88
360.029	87
360.256	95
360.483	82
360.709	87
360.936	85
361.163	84
361.39	90
361.616	89
361.843	82
362.07	77
362.296	94
362.523	68
362.749	76
362.976	94
363.203	86
363.429	90
363.656	67
363.882	91
364.109	97
364.335	90
364.562	82
364.788	95
365.015	81
365.241	88
365.468	82
365.694	74
365.92	79
366.147	86
366.373	87
366.599	87
366.826	90
367.052	93
367.278	89
367.505	90
367.731	101
367.957	87
368.184	94
368.41	82
368.636	99
368.862	100
369.089	89
369.315	72
369.541	93
369.767	85
369.993	84
370.219	90
370.445	91
370.672	98
370.898	94
371.124	91
371.35	91
371.576	88
371.802	91
372.028	92
372.254	96
372.48	99
372.706	93
372.932	98
373.158	97
373.384	89
373.61	86
373.835	87
374.061	84
374.287	106
374.513	114
374.739	93
374.965	97
375.191	91
375.416	98
375.642	106
375.868	112
376.094	83
376.319	111
376.545	99
376.771	87
376.997	98
377.222	90
377.448	94
377.674	91
377.899	114
378.125	91
378.35	89
378.576	95
378.802	97
379.027	117
379.253	101
379.478	94
379.704	100
379.929	99
380.155	103
380.38	108
380.606	106
380.831	115
381.057	83
381.282	99
381.507	105
381.733	94
381.958	93
382.184	96
382.409	94
382.634	94
382.86	96
383.085	105
383.31	103
383.535	97
383.761	102
383.986	100
384.211	107
384.436	105
384.662	97
384.887	104
385.112	94
385.337	101
385.562	92
385.787	91
386.013	108
386.238	106
386.463	94
386.688	107
386.913	104
387.138	102
387.363	94
387.588	105
387.813	107
388.038	94
388.263	99
388.488	98
388.713	92
388.938	100
389.163	113
389.387	113
389.612	105
389.837	98
390.062	106
390.287	100
390.512	99
390.736	122
390.961	111
391.186	92
391.411	104
391.636	111
391.86	117
392.085	103
392.31	111
392.534	107
392.759	115
392.984	117
393.208	117
393.433	119
393.658	115
393.882	103
394.107	113
394.331	105
394.556	111
394.78	102
395.005	110
395.229	120
395.454	109
395.678	112
395.903	108
396.127	126
396.352	116
396.576	115
396.801	107
397.025	98
397.249	119
397.474	115
397.698	104
397.922	117
398.147	109
398.371	114
398.595	121
398.82	111
399.044	117
399.268	103
399.492	115
399.717	118
399.941	126
400.165	114
400.389	115
400.613	107
400.837	126
401.062	110
401.286	114
401.51	109
401.734	109
401.958	120
402.182	134
402.406	105
402.63	107
402.854	100
403.078	122
403.302	114
403.526	143
403.75	115
403.974	116
404.198	113
404.422	122
404.645	129
404.869	126
405.093	118
405.317	125
405.541	129
405.765	141
405.988	123
406.212	114
406.436	122
406.66	122
406.883	126
407.107	110
407.331	121
407.555	125
407.778	102
408.002	125
408.226	111
408.449	129
408.673	125
408.896	136
409.12	129
409.344	110
409.567	113
409.791	125
410.014	111
410.238	131
410.461	117
410.685	129
410.908	123
411.132	126
411.355	135
411.578	138
411.802	138
412.025	128
412.249	128
412.472	134
412.695	129
412.919	122
413.142	129
413.365	133
413.589	118
413.812	131
414.035	126
414.258	124
414.482	123
414.705	123
414.928	140
415.151	129
415.374	113
415.597	125
415.821	135
416.044	122
416.267	137
416.49	143
416.713	125
416.936	129
417.159	132
417.382	119
417.605	133
417.828	135
418.051	139
418.274	142
418.497	126
418.72	123
418.943	148
419.166	142
419.389	149
419.611	143
419.834	143
420.057	137
420.28	143
420.503	143
420.726	130
420.948	140
421.171	134
421.394	158
421.617	161
421.839	165
422.062	154
422.285	139
422.507	149
422.73	142
422.953	143
423.175	118
423.398	130
423.621	146
423.843	132
424.066	150
424.288	163
424.511	158
424.733	139
424.956	135
425.178	151
425.401	153
425.623	151
425.846	127
426.068	128
426.291	125
426.513	126
426.735	140
426.958	136
427.18	128
427.402	125
427.625	127
427.847	151
428.069	131
428.292	141
428.514	140
428.736	127
428.958	133
429.181	132
429.403	131
429.625	153
429.847	131
430.069	124
430.292	149
430.514	143
430.736	135
430.958	132
431.18	117
431.402	135
431.624	124
431.846	109
432.068	106
432.29	110
432.512	125
432.734	138
432.956	131
433.178	150
433.4	130
433.622	135
433.844	140
434.066	129
434.287	114
434.509	103
434.731	99
434.953	108
435.175	122
435.397	121
435.618	125
435.84	109
436.062	134
436.284	126
436.505	133
436.727	123
436.949	134
437.17	149
437.392	156
437.614	123
437.835	130
438.057	119
438.278	123
438.5	131
438.721	134
438.943	135
439.165	138
439.386	144
439.608	157
439.829	155
440.05	154
440.272	150
440.493	152
440.715	153
440.936	152
441.158	139
441.379	151
441.6	151
441.822	154
442.043	159
442.264	153
442.486	150
442.707	132
442.928	146
443.149	140
443.371	155
443.592	131
443.813	143
444.034	153
444.255	162
444.476	149
444.698	164
444.919	134
445.14	279
445.361	211
445.582	158
445.803	160
446.024	157
446.245	163
446.466	165
446.687	168
446.908	172
447.129	165
447.35	173
447.571	172
447.792	155
448.013	157
448.234	148
448.455	173
448.675	156
448.896	140
449.117	137
449.338	132
449.559	141
449.779	141
450	140
450.221	129
450.442	140
450.662	139
450.883	163
451.104	139
451.324	134
451.545	150
451.766	138
451.986	126
452.207	126
452.428	135
452.648	141
452.869	135
453.089	134
453.31	138
453.53	107
453.751	119
453.971	121
454.192	112
454.412	122
454.633	123
454.853	123
455.073	132
455.294	125
455.514	107
455.734	117
455.955	123
456.175	123
456.395	120
456.616	110
456.836	109
457.056	110
457.276	122
457.497	120
457.717	126
457.937	110
458.157	101
458.377	125
458.598	99
458.818	118
459.038	91
459.258	87
459.478	80
459.698	94
459.918	105
460.138	108
460.358	123
460.578	115
460.798	121
461.018	127
461.238	125
461.458	127
461.678	107
461.898	117
462.118	113
462.338	125
462.558	114
462.777	124
462.997	137
463.217	116
463.437	118
463.657	117
463.876	108
464.096	125
464.316	112
464.536	108
464.755	129
464.975	131
465.195	131
465.414	116
465.634	130
465.854	133
466.073	136
466.293	137
466.512	115
466.732	127
466.951	153
467.171	139
467.391	140
467.61	139
467.829	155
468.049	150
468.268	141
468.488	133
468.707	142
468.927	150
469.146	155
469.365	144
469.585	146
469.804	131
470.023	158
470.243	154
470.462	163
470.681	143
470.901	147
471.12	134
471.339	155
471.558	145
471.777	149
471.997	140
472.216	137
472.435	141
472.654	129
472.873	107
473.092	128
473.311	123
473.53	127
473.749	143
473.968	146
474.187	135
474.406	115
474.625	125
474.844	142
475.063	144
475.282	142
475.501	125
475.72	117
475.939	141
476.158	138
476.377	131
476.596	133
476.814	113
477.033	114
477.252	118
477.471	124
477.69	132
477.908	144
478.127	145
478.346	139
478.564	144
478.783	133
479.002	154
479.22	140
479.439	98
479.658	129
479.876	124
480.095	108
480.313	128
480.532	103
480.751	114
480.969	103
481.188	87
481.406	105
481.624	93
481.843	82
482.061	110
482.28	133
482.498	122
482.717	130
482.935	133
483.153	150
483.372	161
483.59	162
483.808	151
484.027	125
484.245	143
484.463	149
484.681	176
484.9	169
485.118	147
485.336	146
485.554	115
485.772	96
485.99	106
486.209	119
486.427	108
486.645	123
486.863	130
487.081	140
487.299	141
487.517	149
487.735	171
487.953	197
488.171	200
488.389	167
488.607	175
488.825	151
489.043	166
489.261	141
489.479	141
489.696	135
489.914	155
490.132	154
490.35	170
490.568	190
490.786	181
491.003	182
491.221	197
491.439	199
491.657	213
491.874	231
492.092	253
492.31	257
492.527	239
492.745	226
492.963	220
493.18	212
493.398	198
493.615	193
493.833	190
494.05	169
494.268	183
494.485	187
494.703	183
494.92	186
495.138	189
495.355	190
495.573	182
495.79	173
496.008	177
496.225	168
496.442	175
496.66	189
496.877	177
497.094	186
497.312	166
497.529	156
497.746	147
497.963	151
498.181	132
498.398	135
498.615	133
498.832	119
499.049	124
499.267	129
499.484	133
499.701	150
499.918	133
500.135	142
500.352	154
500.569	134
500.786	140
501.003	166
501.22	142
501.437	157
501.654	126
501.871	133
502.088	138
502.305	143
502.522	157
502.739	126
502.956	141
503.172	125
503.389	125
503.606	126
503.823	135
504.04	121
504.256	116
504.473	108
504.69	125
504.907	131
505.123	137
505.34	126
505.557	132
505.773	126
505.99	128
506.207	125
506.423	137
506.64	134
506.856	137
507.073	129
507.289	125
507.506	127
507.722	124
507.939	123
508.155	119
508.372	117
508.588	124
508.805	119
509.021	121
509.238	115
509.454	108
509.67	115
509.887	113
510.103	92
510.319	91
510.536	89
510.752	94
510.968	81
511.184	87
511.401	98
511.617	97
511.833	95
512.049	101
512.265	97
512.481	101
512.698	121
512.914	95
513.13	105
513.346	101
513.562	90
513.778	93
513.994	95
514.21	97
514.426	96
514.642	98
514.858	94
515.074	90
515.29	101
515.506	83
515.721	90
515.937	101
516.153	99
516.369	92
516.585	89
516.801	89
517.016	106
517.232	92
517.448	98
517.664	98
517.879	85
518.095	105
518.311	103
518.527	94
518.742	107
518.958	110
519.173	102
519.389	109
519.605	123
519.82	109
520.036	129
520.251	124
520.467	97
520.682	93
520.898	109
521.113	101
521.329	107
521.544	83
521.76	93
521.975	108
522.19	99
522.406	107
522.621	113
522.836	100
523.052	83
523.267	114
523.482	128
523.698	103
523.913	115
524.128	125
524.343	109
524.559	116
524.774	120
524.989	136
525.204	125
525.419	136
525.634	126
525.849	111
526.064	123
526.28	113
526.495	90
526.71	91
526.925	82
527.14	93
527.355	104
527.57	88
527.785	102
527.999	90
528.214	111
528.429	102
528.644	123
528.859	141
529.074	152
529.289	157
529.503	167
529.718	150
529.933	130
530.148	91
530.363	110
530.577	100
530.792	87
531.007	77
531.221	81
531.436	89
531.651	78
531.865	78
532.08	87
532.295	89
532.509	90
532.724	85
532.938	88
533.153	115
533.367	125
533.582	125
533.796	122
534.011	98
534.225	99
534.44	98
534.654	101
534.868	102
535.083	113
535.297	114
535.511	110
535.726	115
535.94	101
536.154	115
536.369	92
536.583	77
536.797	95
537.011	87
537.225	81
537.44	89
537.654	110
537.868	94
538.082	92
538.296	102
538.51	105
538.724	117
538.938	121
539.153	133
539.367	131
539.581	108
539.795	114
540.009	104
540.222	107
540.436	127
540.65	134
540.864	139
541.078	147
541.292	161
541.506	151
541.72	174
541.934	204
542.147	215
542.361	219
542.575	168
542.789	165
543.002	125
543.216	133
543.43	154
543.644	139
543.857	166
544.071	173
544.285	173
544.498	167
544.712	168
544.925	169
545.139	174
545.352	169
545.566	162
545.779	170
545.993	185
546.206	166
546.42	189
546.633	181
546.847	173
547.06	166
547.274	182
547.487	189
547.7	189
547.914	185
548.127	161
548.34	179
548.554	169
548.767	161
548.98	158
549.193	159
549.407	167
549.62	172
549.833	167
550.046	146
550.259	163
550.473	156
550.686	148
550.899	170
551.112	145
551.325	135
551.538	150
551.751	127
551.964	131
552.177	142
552.39	153
552.603	150
552.816	163
553.029	144
553.242	172
553.455	169
553.667	164
553.88	153
554.093	145
554.306	148
554.519	158
554.732	151
554.944	163
555.157	152
555.37	154
555.583	156
555.795	131
556.008	151
556.221	128
556.433	137
556.646	142
556.859	140
557.071	143
557.284	147
557.496	156
557.709	161
557.921	157
558.134	148
558.346	140
558.559	139
558.771	130
558.984	141
559.196	147
559.409	143
559.621	140
559.833	126
560.046	140
560.258	122
560.47	126
560.683	131
560.895	138
561.107	139
561.32	132
561.532	152
561.744	139
561.956	147
562.168	151
562.381	126
562.593	152
562.805	125
563.017	138
563.229	122
563.441	118
563.653	131
563.865	129
564.077	133
564.289	126
564.501	147
564.713	133
564.925	134
565.137	123
565.349	122
565.561	119
565.773	120
565.985	119
566.197	126
566.408	129
566.62	119
566.832	129
567.044	122
567.255	124
567.467	123
567.679	114
567.891	103
568.102	103
568.314	98
568.526	94
568.737	94
568.949	97
569.161	85
569.372	98
569.584	79
569.795	87
570.007	83
570.218	94
570.43	104
570.641	92
570.853	107
571.064	106
571.276	118
571.487	113
571.698	109
571.91	107
572.121	98
572.333	105
572.544	104
572.755	102
572.966	95
573.178	86
573.389	89
573.6	83
573.811	93
574.023	67
574.234	82
574.445	96
574.656	95
574.867	98
575.078	106
575.289	92
575.501	100
575.712	99
575.923	91
576.134	98
