Data from Location6.07152019.Energy5.Lamp.07192019.3%Agarose_HRD10591_16-13-27-396.txt Node
Date: Fri Jul 19 16:13:27 EDT 2019
User: cochatt
Spectrometer: HR+D1059
Trigger mode: 1
Integration Time (sec): 1.000000E-1
Scans to average: 1
Electric dark correction enabled: true
Nonlinearity correction enabled: false
Boxcar width: 0
XAxis mode: Wavelengths
Number of Pixels in Spectrum: 2048
>>>>>Begin Spectral Data<<<<<
223.165	-14.5
223.4	-14.5
223.635	-14.5
223.869	-25.5
224.104	-18.5
224.338	-14.5
224.573	-25.5
224.808	-16.5
225.042	2.5
225.277	-4.5
225.511	4.5
225.746	-4.5
225.98	-0.5
226.215	15.5
226.449	21.5
226.683	15.5
226.918	27.5
227.152	37.5
227.387	35.5
227.621	24.5
227.856	59.5
228.09	43.5
228.324	54.5
228.559	55.5
228.793	57.5
229.027	54.5
229.262	69.5
229.496	64.5
229.73	72.5
229.964	73.5
230.199	73.5
230.433	75.5
230.667	69.5
230.901	56.5
231.136	71.5
231.37	73.5
231.604	78.5
231.838	71.5
232.072	67.5
232.306	74.5
232.541	74.5
232.775	79.5
233.009	71.5
233.243	72.5
233.477	78.5
233.711	78.5
233.945	85.5
234.179	74.5
234.413	82.5
234.647	91.5
234.881	98.5
235.115	79.5
235.349	73.5
235.583	83.5
235.817	75.5
236.051	74.5
236.285	82.5
236.519	71.5
236.753	79.5
236.987	78.5
237.221	84.5
237.455	84.5
237.689	68.5
237.922	71.5
238.156	79.5
238.39	80.5
238.624	73.5
238.858	76.5
239.091	78.5
239.325	65.5
239.559	71.5
239.793	78.5
240.027	86.5
240.26	64.5
240.494	65.5
240.728	76.5
240.961	83.5
241.195	77.5
241.429	72.5
241.662	77.5
241.896	77.5
242.13	70.5
242.363	61.5
242.597	77.5
242.83	79.5
243.064	70.5
243.298	82.5
243.531	93.5
243.765	87.5
243.998	72.5
244.232	85.5
244.465	82.5
244.699	83.5
244.932	61.5
245.166	96.5
245.399	83.5
245.633	75.5
245.866	88.5
246.099	88.5
246.333	78.5
246.566	80.5
246.8	80.5
247.033	94.5
247.266	78.5
247.5	81.5
247.733	73.5
247.966	88.5
248.2	77.5
248.433	83.5
248.666	82.5
248.899	81.5
249.133	82.5
249.366	77.5
249.599	68.5
249.832	69.5
250.066	76.5
250.299	70.5
250.532	71.5
250.765	75.5
250.998	85.5
251.231	74.5
251.465	78.5
251.698	87.5
251.931	74.5
252.164	63.5
252.397	76.5
252.63	77.5
252.863	72.5
253.096	69.5
253.329	72.5
253.562	91.5
253.795	74.5
254.028	90.5
254.261	70.5
254.494	73.5
254.727	72.5
254.96	82.5
255.193	72.5
255.426	76.5
255.659	73.5
255.892	85.5
256.124	63.5
256.357	75.5
256.59	81.5
256.823	77.5
257.056	52.5
257.289	80.5
257.521	69.5
257.754	74.5
257.987	87.5
258.22	79.5
258.452	88.5
258.685	72.5
258.918	78.5
259.151	82.5
259.383	80.5
259.616	65.5
259.849	77.5
260.081	68.5
260.314	72.5
260.547	87.5
260.779	71.5
261.012	84.5
261.244	67.5
261.477	80.5
261.71	83.5
261.942	81.5
262.175	79.5
262.407	76.5
262.64	72.5
262.872	88.5
263.105	82.5
263.337	79.5
263.57	64.5
263.802	73.5
264.035	75.5
264.267	81.5
264.499	89.5
264.732	69.5
264.964	68.5
265.197	79.5
265.429	81.5
265.661	81.5
265.894	94.5
266.126	81.5
266.358	83.5
266.591	78.5
266.823	93.5
267.055	79.5
267.287	96.5
267.52	77.5
267.752	97.5
267.984	81.5
268.216	78.5
268.448	79.5
268.681	82.5
268.913	87.5
269.145	85.5
269.377	79.5
269.609	80.5
269.841	91.5
270.073	79.5
270.306	85.5
270.538	77.5
270.77	73.5
271.002	89.5
271.234	75.5
271.466	88.5
271.698	75.5
271.93	85.5
272.162	79.5
272.394	77.5
272.626	89.5
272.858	88.5
273.09	72.5
273.322	87.5
273.553	80.5
273.785	88.5
274.017	78.5
274.249	75.5
274.481	71.5
274.713	76.5
274.945	85.5
275.176	78.5
275.408	78.5
275.64	78.5
275.872	90.5
276.104	79.5
276.335	71.5
276.567	82.5
276.799	83.5
277.031	82.5
277.262	94.5
277.494	74.5
277.726	66.5
277.957	81.5
278.189	71.5
278.421	73.5
278.652	80.5
278.884	78.5
279.115	86.5
279.347	81.5
279.579	76.5
279.81	81.5
280.042	82.5
280.273	92.5
280.505	84.5
280.736	78.5
280.968	76.5
281.199	81.5
281.431	73.5
281.662	87.5
281.894	81.5
282.125	66.5
282.356	90.5
282.588	75.5
282.819	88.5
283.051	90.5
283.282	75.5
283.513	74.5
283.745	81.5
283.976	75.5
284.207	70.5
284.439	87.5
284.67	88.5
284.901	81.5
285.132	83.5
285.364	86.5
285.595	90.5
285.826	75.5
286.057	80.5
286.288	84.5
286.52	84.5
286.751	83.5
286.982	78.5
287.213	91.5
287.444	77.5
287.675	86.5
287.906	66.5
288.138	84.5
288.369	77.5
288.6	76.5
288.831	79.5
289.062	93.5
289.293	91.5
289.524	85.5
289.755	81.5
289.986	81.5
290.217	71.5
290.448	76.5
290.679	97.5
290.91	90.5
291.141	72.5
291.371	81.5
291.602	76.5
291.833	98.5
292.064	96.5
292.295	92.5
292.526	81.5
292.757	79.5
292.987	81.5
293.218	90.5
293.449	84.5
293.68	81.5
293.91	86.5
294.141	82.5
294.372	69.5
294.603	81.5
294.833	93.5
295.064	82.5
295.295	81.5
295.525	78.5
295.756	89.5
295.987	82.5
296.217	92.5
296.448	104.5
296.679	81.5
296.909	69.5
297.14	83.5
297.37	92.5
297.601	88.5
297.831	80.5
298.062	73.5
298.292	86.5
298.523	86.5
298.753	86.5
298.984	73.5
299.214	79.5
299.445	84.5
299.675	83.5
299.905	72.5
300.136	89.5
300.366	84.5
300.597	89.5
300.827	68.5
301.057	84.5
301.288	87.5
301.518	81.5
301.748	95.5
301.979	75.5
302.209	90.5
302.439	87.5
302.669	75.5
302.9	83.5
303.13	86.5
303.36	78.5
303.59	85.5
303.82	77.5
304.051	91.5
304.281	81.5
304.511	79.5
304.741	69.5
304.971	73.5
305.201	82.5
305.431	90.5
305.661	94.5
305.891	79.5
306.121	75.5
306.352	73.5
306.582	79.5
306.812	72.5
307.042	78.5
307.272	71.5
307.502	94.5
307.731	87.5
307.961	71.5
308.191	90.5
308.421	93.5
308.651	85.5
308.881	79.5
309.111	72.5
309.341	77.5
309.571	81.5
309.8	81.5
310.03	79.5
310.26	63.5
310.49	89.5
310.72	92.5
310.949	90.5
311.179	81.5
311.409	80.5
311.639	66.5
311.868	94.5
312.098	85.5
312.328	82.5
312.557	84.5
312.787	85.5
313.017	86.5
313.246	106.5
313.476	93.5
313.706	79.5
313.935	84.5
314.165	91.5
314.394	71.5
314.624	73.5
314.853	96.5
315.083	74.5
315.312	91.5
315.542	92.5
315.771	87.5
316.001	78.5
316.23	86.5
316.46	81.5
316.689	86.5
316.919	97.5
317.148	75.5
317.377	85.5
317.607	85.5
317.836	72.5
318.065	79.5
318.295	77.5
318.524	67.5
318.753	90.5
318.983	93.5
319.212	71.5
319.441	88.5
319.67	69.5
319.9	79.5
320.129	85.5
320.358	70.5
320.587	76.5
320.816	75.5
321.046	81.5
321.275	82.5
321.504	80.5
321.733	73.5
321.962	65.5
322.191	86.5
322.42	74.5
322.649	93.5
322.878	81.5
323.108	86.5
323.337	74.5
323.566	82.5
323.795	76.5
324.024	77.5
324.253	75.5
324.482	84.5
324.71	75.5
324.939	78.5
325.168	80.5
325.397	78.5
325.626	83.5
325.855	83.5
326.084	86.5
326.313	92.5
326.542	73.5
326.77	89.5
326.999	92.5
327.228	88.5
327.457	86.5
327.686	81.5
327.914	85.5
328.143	81.5
328.372	83.5
328.6	84.5
328.829	94.5
329.058	83.5
329.287	90.5
329.515	86.5
329.744	75.5
329.972	79.5
330.201	79.5
330.43	78.5
330.658	80.5
330.887	79.5
331.115	89.5
331.344	89.5
331.572	82.5
331.801	73.5
332.03	72.5
332.258	88.5
332.486	90.5
332.715	83.5
332.943	86.5
333.172	81.5
333.4	81.5
333.629	74.5
333.857	71.5
334.085	83.5
334.314	95.5
334.542	92.5
334.771	86.5
334.999	71.5
335.227	74.5
335.455	87.5
335.684	84.5
335.912	85.5
336.14	70.5
336.369	60.5
336.597	75.5
336.825	77.5
337.053	82.5
337.281	71.5
337.51	90.5
337.738	85.5
337.966	87.5
338.194	94.5
338.422	87.5
338.65	99.5
338.878	76.5
339.106	71.5
339.334	83.5
339.562	91.5
339.79	73.5
340.018	77.5
340.246	89.5
340.474	95.5
340.702	78.5
340.93	81.5
341.158	86.5
341.386	75.5
341.614	87.5
341.842	93.5
342.07	78.5
342.298	78.5
342.526	80.5
342.754	73.5
342.981	81.5
343.209	79.5
343.437	81.5
343.665	85.5
343.893	84.5
344.12	89.5
344.348	74.5
344.576	81.5
344.804	72.5
345.031	79.5
345.259	75.5
345.487	74.5
345.714	100.5
345.942	68.5
346.17	90.5
346.397	72.5
346.625	96.5
346.853	83.5
347.08	74.5
347.308	82.5
347.535	73.5
347.763	97.5
347.99	69.5
348.218	78.5
348.445	84.5
348.673	80.5
348.9	80.5
349.128	82.5
349.355	73.5
349.583	75.5
349.81	80.5
350.037	65.5
350.265	103.5
350.492	78.5
350.72	75.5
350.947	90.5
351.174	82.5
351.402	79.5
351.629	87.5
351.856	87.5
352.083	80.5
352.311	75.5
352.538	82.5
352.765	81.5
352.992	71.5
353.22	75.5
353.447	77.5
353.674	93.5
353.901	77.5
354.128	72.5
354.355	77.5
354.583	74.5
354.81	74.5
355.037	75.5
355.264	95.5
355.491	85.5
355.718	81.5
355.945	82.5
356.172	80.5
356.399	71.5
356.626	65.5
356.853	83.5
357.08	78.5
357.307	79.5
357.534	73.5
357.761	90.5
357.988	87.5
358.215	73.5
358.441	87.5
358.668	74.5
358.895	76.5
359.122	100.5
359.349	87.5
359.576	76.5
359.802	83.5
360.029	86.5
360.256	89.5
360.483	76.5
360.709	71.5
360.936	81.5
361.163	80.5
361.39	82.5
361.616	85.5
361.843	74.5
362.07	77.5
362.296	88.5
362.523	79.5
362.749	89.5
362.976	77.5
363.203	81.5
363.429	87.5
363.656	70.5
363.882	81.5
364.109	79.5
364.335	89.5
364.562	83.5
364.788	80.5
365.015	72.5
365.241	89.5
365.468	85.5
365.694	88.5
365.92	98.5
366.147	97.5
366.373	82.5
366.599	84.5
366.826	83.5
367.052	88.5
367.278	80.5
367.505	76.5
367.731	87.5
367.957	84.5
368.184	78.5
368.41	73.5
368.636	90.5
368.862	85.5
369.089	95.5
369.315	95.5
369.541	88.5
369.767	89.5
369.993	87.5
370.219	76.5
370.445	98.5
370.672	95.5
370.898	90.5
371.124	94.5
371.35	89.5
371.576	79.5
371.802	87.5
372.028	96.5
372.254	88.5
372.48	83.5
372.706	76.5
372.932	93.5
373.158	98.5
373.384	97.5
373.61	92.5
373.835	104.5
374.061	79.5
374.287	86.5
374.513	93.5
374.739	87.5
374.965	86.5
375.191	99.5
375.416	99.5
375.642	98.5
375.868	93.5
376.094	90.5
376.319	94.5
376.545	92.5
376.771	94.5
376.997	79.5
377.222	88.5
377.448	96.5
377.674	103.5
377.899	88.5
378.125	92.5
378.35	88.5
378.576	92.5
378.802	100.5
379.027	80.5
379.253	80.5
379.478	87.5
379.704	104.5
379.929	88.5
380.155	97.5
380.38	93.5
380.606	86.5
380.831	85.5
381.057	105.5
381.282	91.5
381.507	99.5
381.733	87.5
381.958	89.5
382.184	94.5
382.409	96.5
382.634	100.5
382.86	104.5
383.085	91.5
383.31	105.5
383.535	114.5
383.761	101.5
383.986	94.5
384.211	104.5
384.436	89.5
384.662	81.5
384.887	104.5
385.112	96.5
385.337	108.5
385.562	106.5
385.787	85.5
386.013	100.5
386.238	93.5
386.463	103.5
386.688	111.5
386.913	109.5
387.138	111.5
387.363	86.5
387.588	88.5
387.813	96.5
388.038	112.5
388.263	94.5
388.488	91.5
388.713	86.5
388.938	104.5
389.163	103.5
389.387	102.5
389.612	106.5
389.837	85.5
390.062	111.5
390.287	108.5
390.512	96.5
390.736	113.5
390.961	93.5
391.186	106.5
391.411	99.5
391.636	105.5
391.86	111.5
392.085	89.5
392.31	96.5
392.534	105.5
392.759	104.5
392.984	102.5
393.208	101.5
393.433	100.5
393.658	112.5
393.882	117.5
394.107	103.5
394.331	101.5
394.556	120.5
394.78	97.5
395.005	104.5
395.229	100.5
395.454	112.5
395.678	98.5
395.903	117.5
396.127	106.5
396.352	105.5
396.576	107.5
396.801	99.5
397.025	106.5
397.249	79.5
397.474	114.5
397.698	124.5
397.922	100.5
398.147	113.5
398.371	112.5
398.595	106.5
398.82	98.5
399.044	125.5
399.268	98.5
399.492	118.5
399.717	114.5
399.941	104.5
400.165	115.5
400.389	127.5
400.613	121.5
400.837	118.5
401.062	102.5
401.286	99.5
401.51	113.5
401.734	106.5
401.958	111.5
402.182	97.5
402.406	119.5
402.63	120.5
402.854	110.5
403.078	123.5
403.302	116.5
403.526	114.5
403.75	98.5
403.974	104.5
404.198	112.5
404.422	118.5
404.645	121.5
404.869	124.5
405.093	129.5
405.317	125.5
405.541	122.5
405.765	123.5
405.988	113.5
406.212	123.5
406.436	106.5
406.66	135.5
406.883	125.5
407.107	116.5
407.331	112.5
407.555	101.5
407.778	118.5
408.002	123.5
408.226	115.5
408.449	126.5
408.673	123.5
408.896	118.5
409.12	115.5
409.344	126.5
409.567	113.5
409.791	108.5
410.014	101.5
410.238	98.5
410.461	120.5
410.685	109.5
410.908	109.5
411.132	127.5
411.355	126.5
411.578	130.5
411.802	127.5
412.025	114.5
412.249	127.5
412.472	122.5
412.695	106.5
412.919	111.5
413.142	121.5
413.365	127.5
413.589	113.5
413.812	110.5
414.035	110.5
414.258	116.5
414.482	111.5
414.705	124.5
414.928	125.5
415.151	123.5
415.374	119.5
415.597	112.5
415.821	141.5
416.044	129.5
416.267	122.5
416.49	111.5
416.713	131.5
416.936	133.5
417.159	126.5
417.382	122.5
417.605	127.5
417.828	118.5
418.051	119.5
418.274	131.5
418.497	132.5
418.72	131.5
418.943	137.5
419.166	123.5
419.389	139.5
419.611	136.5
419.834	122.5
420.057	138.5
420.28	126.5
420.503	143.5
420.726	123.5
420.948	134.5
421.171	143.5
421.394	139.5
421.617	161.5
421.839	134.5
422.062	135.5
422.285	137.5
422.507	156.5
422.73	130.5
422.953	129.5
423.175	127.5
423.398	135.5
423.621	132.5
423.843	127.5
424.066	162.5
424.288	136.5
424.511	139.5
424.733	152.5
424.956	146.5
425.178	137.5
425.401	135.5
425.623	129.5
425.846	143.5
426.068	135.5
426.291	124.5
426.513	133.5
426.735	146.5
426.958	137.5
427.18	133.5
427.402	133.5
427.625	137.5
427.847	119.5
428.069	126.5
428.292	122.5
428.514	139.5
428.736	149.5
428.958	145.5
429.181	140.5
429.403	129.5
429.625	121.5
429.847	136.5
430.069	115.5
430.292	133.5
430.514	117.5
430.736	116.5
430.958	130.5
431.18	129.5
431.402	130.5
431.624	122.5
431.846	106.5
432.068	87.5
432.29	98.5
432.512	106.5
432.734	130.5
432.956	141.5
433.178	128.5
433.4	131.5
433.622	134.5
433.844	131.5
434.066	119.5
434.287	120.5
434.509	111.5
434.731	109.5
434.953	104.5
435.175	119.5
435.397	120.5
435.618	121.5
435.84	123.5
436.062	116.5
436.284	119.5
436.505	129.5
436.727	121.5
436.949	117.5
437.17	122.5
437.392	126.5
437.614	118.5
437.835	106.5
438.057	122.5
438.278	117.5
438.5	117.5
438.721	130.5
438.943	149.5
439.165	141.5
439.386	155.5
439.608	140.5
439.829	133.5
440.05	152.5
440.272	152.5
440.493	143.5
440.715	141.5
440.936	137.5
441.158	133.5
441.379	145.5
441.6	154.5
441.822	168.5
442.043	151.5
442.264	144.5
442.486	154.5
442.707	139.5
442.928	145.5
443.149	131.5
443.371	142.5
443.592	146.5
443.813	146.5
444.034	134.5
444.255	157.5
444.476	142.5
444.698	143.5
444.919	137.5
445.14	266.5
445.361	222.5
445.582	162.5
445.803	160.5
446.024	153.5
446.245	167.5
446.466	158.5
446.687	153.5
446.908	161.5
447.129	165.5
447.35	158.5
447.571	161.5
447.792	142.5
448.013	166.5
448.234	153.5
448.455	148.5
448.675	145.5
448.896	126.5
449.117	144.5
449.338	133.5
449.559	148.5
449.779	150.5
450	137.5
450.221	137.5
450.442	134.5
450.662	137.5
450.883	122.5
451.104	145.5
451.324	129.5
451.545	140.5
451.766	135.5
451.986	130.5
452.207	136.5
452.428	131.5
452.648	131.5
452.869	112.5
453.089	124.5
453.31	116.5
453.53	101.5
453.751	102.5
453.971	122.5
454.192	93.5
454.412	109.5
454.633	105.5
454.853	125.5
455.073	117.5
455.294	104.5
455.514	122.5
455.734	103.5
455.955	104.5
456.175	110.5
456.395	109.5
456.616	118.5
456.836	112.5
457.056	103.5
457.276	109.5
457.497	105.5
457.717	106.5
457.937	118.5
458.157	116.5
458.377	87.5
458.598	95.5
458.818	103.5
459.038	86.5
459.258	105.5
459.478	101.5
459.698	103.5
459.918	79.5
460.138	106.5
460.358	114.5
460.578	110.5
460.798	121.5
461.018	118.5
461.238	123.5
461.458	112.5
461.678	118.5
461.898	113.5
462.118	119.5
462.338	98.5
462.558	117.5
462.777	106.5
462.997	118.5
463.217	117.5
463.437	112.5
463.657	111.5
463.876	105.5
464.096	113.5
464.316	107.5
464.536	116.5
464.755	116.5
464.975	103.5
465.195	115.5
465.414	114.5
465.634	124.5
465.854	137.5
466.073	122.5
466.293	140.5
466.512	129.5
466.732	135.5
466.951	122.5
467.171	130.5
467.391	139.5
467.61	127.5
467.829	149.5
468.049	148.5
468.268	137.5
468.488	123.5
468.707	133.5
468.927	130.5
469.146	138.5
469.365	146.5
469.585	138.5
469.804	150.5
470.023	139.5
470.243	136.5
470.462	126.5
470.681	137.5
470.901	151.5
471.12	143.5
471.339	142.5
471.558	137.5
471.777	125.5
471.997	126.5
472.216	129.5
472.435	107.5
472.654	114.5
472.873	100.5
473.092	121.5
473.311	138.5
473.53	131.5
473.749	136.5
473.968	128.5
474.187	127.5
474.406	118.5
474.625	127.5
474.844	122.5
475.063	127.5
475.282	143.5
475.501	123.5
475.72	113.5
475.939	119.5
476.158	131.5
476.377	124.5
476.596	125.5
476.814	121.5
477.033	116.5
477.252	119.5
477.471	134.5
477.69	150.5
477.908	130.5
478.127	135.5
478.346	124.5
478.564	134.5
478.783	132.5
479.002	141.5
479.22	140.5
479.439	133.5
479.658	122.5
479.876	115.5
480.095	100.5
480.313	121.5
480.532	118.5
480.751	100.5
480.969	97.5
481.188	87.5
481.406	91.5
481.624	89.5
481.843	94.5
482.061	89.5
482.28	109.5
482.498	120.5
482.717	115.5
482.935	136.5
483.153	144.5
483.372	159.5
483.59	154.5
483.808	151.5
484.027	137.5
484.245	139.5
484.463	168.5
484.681	168.5
484.9	146.5
485.118	154.5
485.336	121.5
485.554	109.5
485.772	96.5
485.99	101.5
486.209	121.5
486.427	94.5
486.645	118.5
486.863	137.5
487.081	147.5
487.299	152.5
487.517	143.5
487.735	177.5
487.953	190.5
488.171	183.5
488.389	183.5
488.607	158.5
488.825	148.5
489.043	144.5
489.261	137.5
489.479	146.5
489.696	145.5
489.914	144.5
490.132	160.5
490.35	155.5
490.568	177.5
490.786	177.5
491.003	177.5
491.221	189.5
491.439	203.5
491.657	181.5
491.874	210.5
492.092	239.5
492.31	246.5
492.527	240.5
492.745	230.5
492.963	201.5
493.18	185.5
493.398	186.5
493.615	199.5
493.833	177.5
494.05	182.5
494.268	176.5
494.485	174.5
494.703	180.5
494.92	174.5
495.138	166.5
495.355	166.5
495.573	171.5
495.79	162.5
496.008	164.5
496.225	183.5
496.442	176.5
496.66	167.5
496.877	160.5
497.094	164.5
497.312	176.5
497.529	176.5
497.746	155.5
497.963	158.5
498.181	129.5
498.398	123.5
498.615	117.5
498.832	125.5
499.049	114.5
499.267	131.5
499.484	121.5
499.701	140.5
499.918	133.5
500.135	139.5
500.352	144.5
500.569	152.5
500.786	145.5
501.003	155.5
501.22	145.5
501.437	117.5
501.654	123.5
501.871	133.5
502.088	124.5
502.305	138.5
502.522	117.5
502.739	142.5
502.956	128.5
503.172	122.5
503.389	118.5
503.606	123.5
503.823	139.5
504.04	113.5
504.256	119.5
504.473	125.5
504.69	109.5
504.907	137.5
505.123	122.5
505.34	125.5
505.557	123.5
505.773	132.5
505.99	130.5
506.207	119.5
506.423	135.5
506.64	130.5
506.856	114.5
507.073	121.5
507.289	120.5
507.506	116.5
507.722	113.5
507.939	117.5
508.155	114.5
508.372	111.5
508.588	134.5
508.805	115.5
509.021	116.5
509.238	100.5
509.454	104.5
509.67	95.5
509.887	95.5
510.103	76.5
510.319	90.5
510.536	83.5
510.752	91.5
510.968	84.5
511.184	83.5
511.401	85.5
511.617	89.5
511.833	86.5
512.049	91.5
512.265	90.5
512.481	103.5
512.698	91.5
512.914	98.5
513.13	94.5
513.346	111.5
513.562	101.5
513.778	89.5
513.994	93.5
514.21	101.5
514.426	93.5
514.642	99.5
514.858	91.5
515.074	88.5
515.29	92.5
515.506	90.5
515.721	94.5
515.937	91.5
516.153	83.5
516.369	96.5
516.585	79.5
516.801	97.5
517.016	97.5
517.232	92.5
517.448	89.5
517.664	90.5
517.879	93.5
518.095	84.5
518.311	103.5
518.527	96.5
518.742	93.5
518.958	108.5
519.173	96.5
519.389	119.5
519.605	111.5
519.82	109.5
520.036	93.5
520.251	94.5
520.467	102.5
520.682	94.5
520.898	99.5
521.113	90.5
521.329	74.5
521.544	89.5
521.76	88.5
521.975	95.5
522.19	101.5
522.406	87.5
522.621	102.5
522.836	97.5
523.052	117.5
523.267	106.5
523.482	109.5
523.698	104.5
523.913	98.5
524.128	116.5
524.343	105.5
524.559	117.5
524.774	115.5
524.989	115.5
525.204	116.5
525.419	102.5
525.634	119.5
525.849	121.5
526.064	103.5
526.28	102.5
526.495	96.5
526.71	94.5
526.925	89.5
527.14	73.5
527.355	88.5
527.57	90.5
527.785	88.5
527.999	95.5
528.214	117.5
528.429	121.5
528.644	126.5
528.859	141.5
529.074	153.5
529.289	176.5
529.503	169.5
529.718	155.5
529.933	125.5
530.148	109.5
530.363	104.5
530.577	87.5
530.792	88.5
531.007	86.5
