Data from Location6.07152019.Energy5.Lamp.07192019.3%Agarose_HRD10591_16-11-26-394.txt Node
Date: Fri Jul 19 16:11:26 EDT 2019
User: cochatt
Spectrometer: HR+D1059
Trigger mode: 1
Integration Time (sec): 1.000000E-1
Scans to average: 1
Electric dark correction enabled: true
Nonlinearity correction enabled: false
Boxcar width: 0
XAxis mode: Wavelengths
Number of Pixels in Spectrum: 2048
>>>>>Begin Spectral Data<<<<<
223.165	-12.56
223.4	-12.56
223.635	-12.56
223.869	-8.56
224.104	-31.56
224.338	-20.56
224.573	-13.56
224.808	-18.56
225.042	-7.56
225.277	-19.56
225.511	-5.56
225.746	5.44
225.98	5.44
226.215	8.44
226.449	18.44
226.683	35.44
226.918	29.44
227.152	35.44
227.387	27.44
227.621	41.44
227.856	45.44
228.09	47.44
228.324	48.44
228.559	59.44
228.793	60.44
229.027	67.44
229.262	66.44
229.496	59.44
229.73	70.44
229.964	82.44
230.199	76.44
230.433	53.44
230.667	78.44
230.901	85.44
231.136	87.44
231.37	88.44
231.604	80.44
231.838	80.44
232.072	74.44
232.306	84.44
232.541	72.44
232.775	87.44
233.009	80.44
233.243	65.44
233.477	90.44
233.711	86.44
233.945	90.44
234.179	58.44
234.413	86.44
234.647	71.44
234.881	81.44
235.115	95.44
235.349	80.44
235.583	81.44
235.817	79.44
236.051	67.44
236.285	80.44
236.519	88.44
236.753	73.44
236.987	79.44
237.221	78.44
237.455	79.44
237.689	85.44
237.922	76.44
238.156	68.44
238.39	78.44
238.624	73.44
238.858	80.44
239.091	71.44
239.325	95.44
239.559	79.44
239.793	70.44
240.027	91.44
240.26	65.44
240.494	69.44
240.728	62.44
240.961	78.44
241.195	73.44
241.429	74.44
241.662	72.44
241.896	75.44
242.13	74.44
242.363	62.44
242.597	81.44
242.83	57.44
243.064	70.44
243.298	67.44
243.531	80.44
243.765	96.44
243.998	72.44
244.232	83.44
244.465	81.44
244.699	66.44
244.932	72.44
245.166	78.44
245.399	57.44
245.633	74.44
245.866	79.44
246.099	72.44
246.333	92.44
246.566	81.44
246.8	82.44
247.033	74.44
247.266	84.44
247.5	81.44
247.733	84.44
247.966	74.44
248.2	79.44
248.433	93.44
248.666	76.44
248.899	84.44
249.133	74.44
249.366	74.44
249.599	82.44
249.832	72.44
250.066	83.44
250.299	61.44
250.532	89.44
250.765	82.44
250.998	83.44
251.231	77.44
251.465	84.44
251.698	75.44
251.931	73.44
252.164	73.44
252.397	87.44
252.63	86.44
252.863	77.44
253.096	72.44
253.329	73.44
253.562	68.44
253.795	77.44
254.028	79.44
254.261	74.44
254.494	87.44
254.727	84.44
254.96	72.44
255.193	82.44
255.426	66.44
255.659	77.44
255.892	81.44
256.124	80.44
256.357	89.44
256.59	79.44
256.823	74.44
257.056	76.44
257.289	70.44
257.521	73.44
257.754	77.44
257.987	65.44
258.22	75.44
258.452	73.44
258.685	84.44
258.918	79.44
259.151	79.44
259.383	69.44
259.616	71.44
259.849	81.44
260.081	81.44
260.314	83.44
260.547	84.44
260.779	76.44
261.012	72.44
261.244	84.44
261.477	84.44
261.71	70.44
261.942	82.44
262.175	75.44
262.407	65.44
262.64	82.44
262.872	94.44
263.105	75.44
263.337	79.44
263.57	80.44
263.802	82.44
264.035	75.44
264.267	89.44
264.499	89.44
264.732	82.44
264.964	89.44
265.197	79.44
265.429	81.44
265.661	68.44
265.894	84.44
266.126	88.44
266.358	80.44
266.591	77.44
266.823	78.44
267.055	82.44
267.287	71.44
267.52	73.44
267.752	75.44
267.984	85.44
268.216	87.44
268.448	95.44
268.681	91.44
268.913	75.44
269.145	76.44
269.377	77.44
269.609	85.44
269.841	67.44
270.073	90.44
270.306	82.44
270.538	80.44
270.77	62.44
271.002	89.44
271.234	85.44
271.466	87.44
271.698	86.44
271.93	83.44
272.162	91.44
272.394	83.44
272.626	87.44
272.858	82.44
273.09	85.44
273.322	81.44
273.553	70.44
273.785	87.44
274.017	92.44
274.249	75.44
274.481	81.44
274.713	96.44
274.945	86.44
275.176	71.44
275.408	86.44
275.64	80.44
275.872	91.44
276.104	81.44
276.335	73.44
276.567	75.44
276.799	80.44
277.031	85.44
277.262	83.44
277.494	89.44
277.726	74.44
277.957	87.44
278.189	97.44
278.421	75.44
278.652	77.44
278.884	87.44
279.115	70.44
279.347	75.44
279.579	82.44
279.81	77.44
280.042	74.44
280.273	74.44
280.505	77.44
280.736	89.44
280.968	91.44
281.199	78.44
281.431	78.44
281.662	81.44
281.894	90.44
282.125	83.44
282.356	71.44
282.588	67.44
282.819	82.44
283.051	79.44
283.282	82.44
283.513	79.44
283.745	99.44
283.976	74.44
284.207	90.44
284.439	93.44
284.67	81.44
284.901	87.44
285.132	86.44
285.364	89.44
285.595	82.44
285.826	78.44
286.057	95.44
286.288	89.44
286.52	82.44
286.751	70.44
286.982	69.44
287.213	88.44
287.444	69.44
287.675	69.44
287.906	87.44
288.138	73.44
288.369	82.44
288.6	93.44
288.831	89.44
289.062	85.44
289.293	86.44
289.524	79.44
289.755	71.44
289.986	70.44
290.217	100.44
290.448	104.44
290.679	83.44
290.91	91.44
291.141	83.44
291.371	84.44
291.602	90.44
291.833	80.44
292.064	93.44
292.295	74.44
292.526	108.44
292.757	93.44
292.987	83.44
293.218	85.44
293.449	82.44
293.68	93.44
293.91	88.44
294.141	85.44
294.372	91.44
294.603	67.44
294.833	79.44
295.064	78.44
295.295	85.44
295.525	69.44
295.756	75.44
295.987	75.44
296.217	72.44
296.448	88.44
296.679	77.44
296.909	102.44
297.14	90.44
297.37	87.44
297.601	89.44
297.831	68.44
298.062	83.44
298.292	77.44
298.523	78.44
298.753	70.44
298.984	80.44
299.214	88.44
299.445	86.44
299.675	87.44
299.905	82.44
300.136	83.44
300.366	82.44
300.597	78.44
300.827	95.44
301.057	82.44
301.288	67.44
301.518	81.44
301.748	90.44
301.979	69.44
302.209	79.44
302.439	89.44
302.669	92.44
302.9	86.44
303.13	90.44
303.36	94.44
303.59	93.44
303.82	84.44
304.051	84.44
304.281	93.44
304.511	86.44
304.741	85.44
304.971	92.44
305.201	85.44
305.431	83.44
305.661	77.44
305.891	91.44
306.121	84.44
306.352	79.44
306.582	87.44
306.812	79.44
307.042	83.44
307.272	87.44
307.502	86.44
307.731	85.44
307.961	74.44
308.191	83.44
308.421	88.44
308.651	74.44
308.881	77.44
309.111	81.44
309.341	96.44
309.571	92.44
309.8	98.44
310.03	75.44
310.26	86.44
310.49	73.44
310.72	70.44
310.949	89.44
311.179	71.44
311.409	93.44
311.639	89.44
311.868	78.44
312.098	74.44
312.328	91.44
312.557	88.44
312.787	76.44
313.017	87.44
313.246	98.44
313.476	92.44
313.706	81.44
313.935	95.44
314.165	100.44
314.394	88.44
314.624	85.44
314.853	94.44
315.083	84.44
315.312	83.44
315.542	85.44
315.771	85.44
316.001	87.44
316.23	83.44
316.46	88.44
316.689	79.44
316.919	82.44
317.148	86.44
317.377	75.44
317.607	90.44
317.836	90.44
318.065	83.44
318.295	79.44
318.524	81.44
318.753	82.44
318.983	80.44
319.212	82.44
319.441	79.44
319.67	89.44
319.9	84.44
320.129	93.44
320.358	95.44
320.587	80.44
320.816	85.44
321.046	85.44
321.275	72.44
321.504	74.44
321.733	92.44
321.962	81.44
322.191	83.44
322.42	92.44
322.649	79.44
322.878	80.44
323.108	82.44
323.337	98.44
323.566	77.44
323.795	84.44
324.024	82.44
324.253	85.44
324.482	79.44
324.71	86.44
324.939	89.44
325.168	79.44
325.397	81.44
325.626	87.44
325.855	84.44
326.084	80.44
326.313	89.44
326.542	72.44
326.77	76.44
326.999	78.44
327.228	73.44
327.457	87.44
327.686	87.44
327.914	93.44
328.143	93.44
328.372	80.44
328.6	103.44
328.829	89.44
329.058	87.44
329.287	86.44
329.515	83.44
329.744	85.44
329.972	83.44
330.201	83.44
330.43	77.44
330.658	78.44
330.887	81.44
331.115	83.44
331.344	96.44
331.572	88.44
331.801	89.44
332.03	82.44
332.258	84.44
332.486	79.44
332.715	80.44
332.943	74.44
333.172	88.44
333.4	88.44
333.629	83.44
333.857	82.44
334.085	78.44
334.314	86.44
334.542	87.44
334.771	84.44
334.999	79.44
335.227	95.44
335.455	81.44
335.684	87.44
335.912	78.44
336.14	91.44
336.369	90.44
336.597	95.44
336.825	81.44
337.053	83.44
337.281	93.44
337.51	85.44
337.738	89.44
337.966	93.44
338.194	79.44
338.422	85.44
338.65	80.44
338.878	86.44
339.106	88.44
339.334	88.44
339.562	105.44
339.79	74.44
340.018	78.44
340.246	92.44
340.474	78.44
340.702	78.44
340.93	76.44
341.158	81.44
341.386	81.44
341.614	70.44
341.842	77.44
342.07	77.44
342.298	85.44
342.526	93.44
342.754	88.44
342.981	90.44
343.209	94.44
343.437	84.44
343.665	79.44
343.893	80.44
344.12	83.44
344.348	95.44
344.576	74.44
344.804	83.44
345.031	75.44
345.259	88.44
345.487	66.44
345.714	90.44
345.942	90.44
346.17	83.44
346.397	93.44
346.625	77.44
346.853	78.44
347.08	83.44
347.308	87.44
347.535	83.44
347.763	95.44
347.99	81.44
348.218	83.44
348.445	83.44
348.673	106.44
348.9	89.44
349.128	85.44
349.355	82.44
349.583	87.44
349.81	92.44
350.037	85.44
350.265	90.44
350.492	82.44
350.72	83.44
350.947	84.44
351.174	84.44
351.402	75.44
351.629	84.44
351.856	88.44
352.083	84.44
352.311	80.44
352.538	71.44
352.765	85.44
352.992	91.44
353.22	70.44
353.447	84.44
353.674	77.44
353.901	90.44
354.128	75.44
354.355	68.44
354.583	82.44
354.81	76.44
355.037	74.44
355.264	87.44
355.491	84.44
355.718	80.44
355.945	83.44
356.172	83.44
356.399	79.44
356.626	78.44
356.853	86.44
357.08	82.44
357.307	82.44
357.534	78.44
357.761	77.44
357.988	73.44
358.215	80.44
358.441	81.44
358.668	79.44
358.895	78.44
359.122	100.44
359.349	83.44
359.576	85.44
359.802	80.44
360.029	96.44
360.256	91.44
360.483	98.44
360.709	78.44
360.936	86.44
361.163	89.44
361.39	87.44
361.616	70.44
361.843	82.44
362.07	92.44
362.296	89.44
362.523	83.44
362.749	87.44
362.976	96.44
363.203	97.44
363.429	75.44
363.656	93.44
363.882	91.44
364.109	77.44
364.335	87.44
364.562	85.44
364.788	86.44
365.015	89.44
365.241	103.44
365.468	73.44
365.694	88.44
365.92	98.44
366.147	75.44
366.373	81.44
366.599	93.44
366.826	86.44
367.052	78.44
367.278	90.44
367.505	88.44
367.731	77.44
367.957	89.44
368.184	77.44
368.41	92.44
368.636	90.44
368.862	100.44
369.089	86.44
369.315	82.44
369.541	86.44
369.767	97.44
369.993	93.44
370.219	99.44
370.445	88.44
370.672	93.44
370.898	88.44
371.124	99.44
371.35	84.44
371.576	83.44
371.802	91.44
372.028	89.44
372.254	97.44
372.48	79.44
372.706	87.44
372.932	93.44
373.158	81.44
373.384	94.44
373.61	99.44
373.835	99.44
374.061	95.44
374.287	85.44
374.513	92.44
374.739	93.44
374.965	88.44
375.191	86.44
375.416	84.44
375.642	90.44
375.868	83.44
376.094	79.44
376.319	101.44
376.545	85.44
376.771	99.44
376.997	82.44
377.222	98.44
377.448	95.44
377.674	78.44
377.899	88.44
378.125	103.44
378.35	89.44
378.576	86.44
378.802	88.44
379.027	100.44
379.253	96.44
379.478	91.44
379.704	103.44
379.929	84.44
380.155	85.44
380.38	101.44
380.606	93.44
380.831	96.44
381.057	87.44
381.282	102.44
381.507	109.44
381.733	93.44
381.958	88.44
382.184	86.44
382.409	93.44
382.634	98.44
382.86	92.44
383.085	93.44
383.31	83.44
383.535	99.44
383.761	107.44
383.986	106.44
384.211	115.44
384.436	100.44
384.662	96.44
384.887	99.44
385.112	88.44
385.337	94.44
385.562	92.44
385.787	84.44
386.013	87.44
386.238	93.44
386.463	97.44
386.688	91.44
386.913	92.44
387.138	99.44
387.363	93.44
387.588	93.44
387.813	119.44
388.038	97.44
388.263	95.44
388.488	106.44
388.713	91.44
388.938	93.44
389.163	116.44
389.387	97.44
389.612	90.44
389.837	99.44
390.062	109.44
390.287	106.44
390.512	120.44
390.736	109.44
390.961	106.44
391.186	99.44
391.411	103.44
391.636	96.44
391.86	98.44
392.085	110.44
392.31	90.44
392.534	97.44
392.759	103.44
392.984	118.44
393.208	106.44
393.433	101.44
393.658	98.44
393.882	113.44
394.107	113.44
394.331	99.44
394.556	105.44
394.78	104.44
395.005	110.44
395.229	104.44
395.454	104.44
395.678	104.44
395.903	102.44
396.127	106.44
396.352	110.44
396.576	108.44
396.801	104.44
397.025	98.44
397.249	99.44
397.474	114.44
397.698	119.44
397.922	110.44
398.147	108.44
398.371	102.44
398.595	109.44
398.82	114.44
399.044	103.44
399.268	122.44
399.492	118.44
399.717	120.44
399.941	124.44
400.165	102.44
400.389	116.44
400.613	103.44
400.837	115.44
401.062	114.44
401.286	99.44
401.51	117.44
401.734	93.44
401.958	107.44
402.182	113.44
402.406	99.44
402.63	110.44
402.854	120.44
403.078	116.44
403.302	113.44
403.526	117.44
403.75	113.44
403.974	113.44
404.198	110.44
404.422	105.44
404.645	101.44
404.869	113.44
405.093	110.44
405.317	117.44
405.541	115.44
405.765	121.44
405.988	120.44
406.212	108.44
406.436	117.44
406.66	118.44
406.883	117.44
407.107	113.44
407.331	115.44
407.555	123.44
407.778	113.44
408.002	123.44
408.226	115.44
408.449	114.44
408.673	112.44
408.896	115.44
409.12	125.44
409.344	121.44
409.567	110.44
409.791	133.44
410.014	126.44
410.238	127.44
410.461	129.44
410.685	123.44
410.908	119.44
411.132	121.44
411.355	125.44
411.578	116.44
411.802	130.44
412.025	127.44
412.249	136.44
412.472	129.44
412.695	114.44
412.919	118.44
413.142	125.44
413.365	117.44
413.589	125.44
413.812	127.44
414.035	119.44
414.258	114.44
414.482	117.44
414.705	106.44
414.928	121.44
415.151	135.44
415.374	123.44
415.597	123.44
415.821	123.44
416.044	119.44
416.267	115.44
416.49	132.44
416.713	135.44
416.936	138.44
417.159	133.44
417.382	130.44
417.605	138.44
417.828	144.44
418.051	123.44
418.274	140.44
418.497	115.44
418.72	145.44
418.943	114.44
419.166	136.44
419.389	144.44
419.611	127.44
419.834	129.44
420.057	134.44
420.28	138.44
420.503	136.44
420.726	131.44
420.948	132.44
421.171	124.44
421.394	130.44
421.617	153.44
421.839	145.44
422.062	146.44
422.285	144.44
422.507	134.44
422.73	137.44
422.953	133.44
423.175	126.44
423.398	120.44
423.621	128.44
423.843	136.44
424.066	145.44
424.288	136.44
424.511	160.44
424.733	143.44
424.956	138.44
425.178	145.44
425.401	135.44
425.623	143.44
425.846	135.44
426.068	133.44
426.291	135.44
426.513	132.44
426.735	113.44
426.958	121.44
427.18	127.44
427.402	133.44
427.625	126.44
427.847	124.44
428.069	115.44
428.292	137.44
428.514	128.44
428.736	125.44
428.958	118.44
429.181	126.44
429.403	127.44
429.625	119.44
429.847	136.44
430.069	133.44
430.292	135.44
430.514	133.44
430.736	135.44
430.958	147.44
431.18	119.44
431.402	132.44
431.624	116.44
431.846	124.44
432.068	84.44
432.29	110.44
432.512	108.44
432.734	105.44
432.956	127.44
433.178	138.44
433.4	131.44
433.622	145.44
433.844	136.44
434.066	128.44
434.287	110.44
434.509	87.44
434.731	105.44
434.953	118.44
435.175	121.44
435.397	102.44
435.618	103.44
435.84	120.44
436.062	111.44
436.284	122.44
436.505	135.44
436.727	138.44
436.949	125.44
437.17	133.44
437.392	125.44
437.614	112.44
437.835	113.44
438.057	107.44
438.278	114.44
438.5	127.44
438.721	122.44
438.943	134.44
439.165	136.44
439.386	149.44
439.608	155.44
439.829	137.44
440.05	146.44
440.272	149.44
440.493	149.44
440.715	153.44
440.936	144.44
441.158	145.44
441.379	153.44
441.6	156.44
441.822	149.44
442.043	153.44
442.264	129.44
442.486	129.44
442.707	134.44
442.928	133.44
443.149	129.44
443.371	152.44
443.592	153.44
443.813	128.44
444.034	129.44
444.255	124.44
444.476	147.44
444.698	150.44
444.919	139.44
445.14	270.44
445.361	200.44
445.582	152.44
445.803	160.44
446.024	146.44
446.245	158.44
446.466	154.44
446.687	162.44
446.908	153.44
447.129	152.44
447.35	170.44
447.571	153.44
447.792	149.44
448.013	146.44
448.234	159.44
448.455	146.44
448.675	143.44
448.896	140.44
449.117	145.44
449.338	146.44
449.559	134.44
449.779	139.44
450	136.44
450.221	135.44
450.442	151.44
450.662	146.44
450.883	150.44
451.104	142.44
451.324	121.44
451.545	131.44
451.766	140.44
451.986	146.44
452.207	117.44
452.428	125.44
452.648	130.44
452.869	99.44
453.089	99.44
453.31	111.44
453.53	109.44
453.751	108.44
453.971	103.44
454.192	106.44
454.412	116.44
454.633	124.44
454.853	131.44
455.073	120.44
455.294	121.44
455.514	111.44
455.734	118.44
455.955	121.44
456.175	118.44
456.395	121.44
456.616	110.44
456.836	110.44
457.056	121.44
457.276	107.44
457.497	109.44
457.717	115.44
457.937	114.44
458.157	114.44
458.377	120.44
458.598	113.44
458.818	104.44
459.038	96.44
459.258	88.44
459.478	83.44
459.698	86.44
459.918	102.44
460.138	109.44
460.358	117.44
460.578	130.44
460.798	121.44
461.018	111.44
461.238	118.44
461.458	114.44
461.678	109.44
461.898	115.44
462.118	118.44
462.338	102.44
462.558	119.44
462.777	123.44
462.997	111.44
463.217	115.44
463.437	110.44
463.657	122.44
463.876	105.44
464.096	104.44
464.316	108.44
464.536	113.44
464.755	118.44
464.975	128.44
465.195	119.44
465.414	120.44
465.634	109.44
465.854	121.44
466.073	115.44
466.293	128.44
466.512	129.44
466.732	128.44
466.951	143.44
467.171	142.44
467.391	127.44
467.61	129.44
467.829	144.44
468.049	135.44
468.268	148.44
468.488	127.44
468.707	135.44
468.927	146.44
469.146	146.44
469.365	147.44
469.585	139.44
469.804	150.44
470.023	143.44
470.243	144.44
470.462	151.44
470.681	149.44
470.901	147.44
471.12	158.44
471.339	143.44
471.558	138.44
471.777	138.44
471.997	140.44
472.216	126.44
472.435	109.44
472.654	110.44
472.873	105.44
473.092	113.44
473.311	117.44
473.53	121.44
473.749	118.44
473.968	138.44
474.187	138.44
474.406	117.44
474.625	139.44
474.844	148.44
475.063	139.44
475.282	137.44
475.501	126.44
475.72	127.44
475.939	128.44
476.158	128.44
476.377	134.44
476.596	114.44
476.814	124.44
477.033	112.44
477.252	110.44
477.471	125.44
477.69	133.44
477.908	139.44
478.127	133.44
478.346	136.44
478.564	140.44
478.783	148.44
479.002	153.44
479.22	146.44
479.439	144.44
479.658	126.44
479.876	113.44
480.095	111.44
480.313	107.44
480.532	125.44
480.751	106.44
480.969	103.44
481.188	113.44
481.406	88.44
481.624	95.44
481.843	86.44
482.061	91.44
482.28	112.44
482.498	112.44
482.717	112.44
482.935	125.44
483.153	122.44
483.372	159.44
483.59	155.44
483.808	141.44
484.027	150.44
484.245	131.44
484.463	147.44
484.681	179.44
484.9	153.44
485.118	146.44
485.336	126.44
485.554	114.44
485.772	88.44
485.99	108.44
486.209	116.44
486.427	112.44
486.645	126.44
486.863	133.44
487.081	151.44
487.299	143.44
487.517	152.44
487.735	165.44
487.953	181.44
488.171	189.44
488.389	189.44
488.607	171.44
488.825	151.44
489.043	137.44
489.261	137.44
489.479	149.44
489.696	152.44
489.914	148.44
490.132	130.44
490.35	152.44
490.568	176.44
490.786	174.44
491.003	187.44
491.221	187.44
491.439	181.44
491.657	191.44
491.874	217.44
492.092	249.44
492.31	253.44
492.527	229.44
492.745	212.44
492.963	214.44
493.18	197.44
493.398	181.44
493.615	189.44
493.833	175.44
494.05	191.44
494.268	191.44
494.485	181.44
494.703	182.44
494.92	169.44
495.138	175.44
495.355	186.44
495.573	181.44
495.79	165.44
496.008	163.44
496.225	173.44
496.442	176.44
496.66	177.44
496.877	173.44
497.094	170.44
497.312	145.44
497.529	157.44
497.746	144.44
497.963	147.44
498.181	137.44
498.398	127.44
498.615	117.44
498.832	119.44
499.049	123.44
499.267	126.44
499.484	122.44
499.701	141.44
499.918	145.44
500.135	135.44
500.352	144.44
500.569	145.44
500.786	152.44
501.003	139.44
501.22	138.44
501.437	115.44
501.654	145.44
501.871	141.44
502.088	143.44
502.305	138.44
502.522	123.44
502.739	129.44
502.956	141.44
503.172	118.44
503.389	123.44
503.606	134.44
503.823	111.44
504.04	119.44
504.256	119.44
504.473	122.44
504.69	111.44
504.907	132.44
505.123	119.44
505.34	123.44
505.557	136.44
505.773	125.44
505.99	116.44
506.207	128.44
506.423	140.44
506.64	127.44
506.856	113.44
507.073	119.44
507.289	126.44
507.506	133.44
507.722	118.44
507.939	130.44
508.155	101.44
508.372	111.44
508.588	122.44
508.805	125.44
509.021	107.44
509.238	104.44
509.454	102.44
509.67	98.44
509.887	99.44
510.103	93.44
510.319	93.44
510.536	81.44
510.752	93.44
510.968	94.44
511.184	89.44
511.401	87.44
511.617	81.44
