Data from Location6.07152019.Energy5.Lamp.07192019.3%Agarose_HRD10591_16-12-49-395.txt Node
Date: Fri Jul 19 16:12:49 EDT 2019
User: cochatt
Spectrometer: HR+D1059
Trigger mode: 1
Integration Time (sec): 1.000000E-1
Scans to average: 1
Electric dark correction enabled: true
Nonlinearity correction enabled: false
Boxcar width: 0
XAxis mode: Wavelengths
Number of Pixels in Spectrum: 2048
>>>>>Begin Spectral Data<<<<<
223.165	-18.88
223.4	-18.88
223.635	-18.88
223.869	-19.88
224.104	-24.88
224.338	-10.88
224.573	-8.88
224.808	9.12
225.042	-1.88
225.277	-1.88
225.511	-12.88
225.746	-2.88
225.98	0.12
226.215	19.12
226.449	19.12
226.683	20.12
226.918	8.12
227.152	27.12
227.387	29.12
227.621	40.12
227.856	38.12
228.09	49.12
228.324	44.12
228.559	53.12
228.793	50.12
229.027	55.12
229.262	64.12
229.496	80.12
229.73	86.12
229.964	65.12
230.199	76.12
230.433	76.12
230.667	84.12
230.901	86.12
231.136	95.12
231.37	75.12
231.604	84.12
231.838	78.12
232.072	89.12
232.306	75.12
232.541	87.12
232.775	84.12
233.009	86.12
233.243	83.12
233.477	78.12
233.711	68.12
233.945	85.12
234.179	78.12
234.413	70.12
234.647	65.12
234.881	69.12
235.115	67.12
235.349	77.12
235.583	86.12
235.817	68.12
236.051	91.12
236.285	76.12
236.519	73.12
236.753	82.12
236.987	66.12
237.221	71.12
237.455	69.12
237.689	66.12
237.922	76.12
238.156	75.12
238.39	78.12
238.624	83.12
238.858	62.12
239.091	78.12
239.325	72.12
239.559	59.12
239.793	73.12
240.027	84.12
240.26	74.12
240.494	63.12
240.728	82.12
240.961	68.12
241.195	81.12
241.429	80.12
241.662	71.12
241.896	75.12
242.13	81.12
242.363	74.12
242.597	60.12
242.83	86.12
243.064	68.12
243.298	80.12
243.531	62.12
243.765	86.12
243.998	70.12
244.232	85.12
244.465	76.12
244.699	73.12
244.932	68.12
245.166	80.12
245.399	76.12
245.633	76.12
245.866	82.12
246.099	78.12
246.333	73.12
246.566	68.12
246.8	67.12
247.033	73.12
247.266	87.12
247.5	79.12
247.733	70.12
247.966	69.12
248.2	71.12
248.433	84.12
248.666	80.12
248.899	89.12
249.133	80.12
249.366	90.12
249.599	77.12
249.832	75.12
250.066	86.12
250.299	72.12
250.532	66.12
250.765	77.12
250.998	62.12
251.231	76.12
251.465	95.12
251.698	79.12
251.931	81.12
252.164	78.12
252.397	64.12
252.63	88.12
252.863	87.12
253.096	89.12
253.329	90.12
253.562	86.12
253.795	75.12
254.028	82.12
254.261	74.12
254.494	84.12
254.727	84.12
254.96	90.12
255.193	79.12
255.426	89.12
255.659	92.12
255.892	84.12
256.124	83.12
256.357	84.12
256.59	77.12
256.823	65.12
257.056	74.12
257.289	97.12
257.521	89.12
257.754	92.12
257.987	74.12
258.22	79.12
258.452	78.12
258.685	82.12
258.918	74.12
259.151	86.12
259.383	98.12
259.616	70.12
259.849	78.12
260.081	74.12
260.314	66.12
260.547	91.12
260.779	80.12
261.012	82.12
261.244	73.12
261.477	77.12
261.71	97.12
261.942	86.12
262.175	86.12
262.407	77.12
262.64	90.12
262.872	85.12
263.105	76.12
263.337	98.12
263.57	84.12
263.802	86.12
264.035	82.12
264.267	89.12
264.499	78.12
264.732	95.12
264.964	82.12
265.197	88.12
265.429	83.12
265.661	72.12
265.894	64.12
266.126	99.12
266.358	82.12
266.591	98.12
266.823	83.12
267.055	64.12
267.287	73.12
267.52	83.12
267.752	89.12
267.984	83.12
268.216	62.12
268.448	97.12
268.681	94.12
268.913	82.12
269.145	75.12
269.377	90.12
269.609	72.12
269.841	72.12
270.073	87.12
270.306	88.12
270.538	95.12
270.77	86.12
271.002	81.12
271.234	93.12
271.466	88.12
271.698	80.12
271.93	77.12
272.162	86.12
272.394	78.12
272.626	90.12
272.858	72.12
273.09	88.12
273.322	75.12
273.553	79.12
273.785	97.12
274.017	80.12
274.249	79.12
274.481	94.12
274.713	96.12
274.945	83.12
275.176	82.12
275.408	96.12
275.64	92.12
275.872	70.12
276.104	82.12
276.335	66.12
276.567	67.12
276.799	87.12
277.031	91.12
277.262	84.12
277.494	84.12
277.726	86.12
277.957	75.12
278.189	80.12
278.421	72.12
278.652	75.12
278.884	77.12
279.115	92.12
279.347	88.12
279.579	90.12
279.81	78.12
280.042	78.12
280.273	86.12
280.505	77.12
280.736	87.12
280.968	80.12
281.199	91.12
281.431	87.12
281.662	93.12
281.894	91.12
282.125	77.12
282.356	85.12
282.588	89.12
282.819	85.12
283.051	92.12
283.282	82.12
283.513	94.12
283.745	77.12
283.976	94.12
284.207	86.12
284.439	75.12
284.67	78.12
284.901	76.12
285.132	85.12
285.364	89.12
285.595	97.12
285.826	74.12
286.057	86.12
286.288	85.12
286.52	79.12
286.751	90.12
286.982	91.12
287.213	76.12
287.444	90.12
287.675	84.12
287.906	89.12
288.138	86.12
288.369	87.12
288.6	87.12
288.831	85.12
289.062	75.12
289.293	82.12
289.524	79.12
289.755	69.12
289.986	82.12
290.217	85.12
290.448	94.12
290.679	79.12
290.91	82.12
291.141	82.12
291.371	86.12
291.602	84.12
291.833	80.12
292.064	82.12
292.295	89.12
292.526	76.12
292.757	81.12
292.987	75.12
293.218	94.12
293.449	81.12
293.68	86.12
293.91	86.12
294.141	91.12
294.372	79.12
294.603	76.12
294.833	78.12
295.064	93.12
295.295	101.12
295.525	77.12
295.756	81.12
295.987	84.12
296.217	91.12
296.448	90.12
296.679	79.12
296.909	80.12
297.14	72.12
297.37	92.12
297.601	79.12
297.831	86.12
298.062	75.12
298.292	82.12
298.523	96.12
298.753	76.12
298.984	78.12
299.214	82.12
299.445	71.12
299.675	88.12
299.905	82.12
300.136	68.12
300.366	97.12
300.597	85.12
300.827	90.12
301.057	84.12
301.288	98.12
301.518	66.12
301.748	99.12
301.979	74.12
302.209	82.12
302.439	94.12
302.669	83.12
302.9	85.12
303.13	84.12
303.36	79.12
303.59	71.12
303.82	74.12
304.051	92.12
304.281	76.12
304.511	86.12
304.741	74.12
304.971	94.12
305.201	92.12
305.431	73.12
305.661	85.12
305.891	80.12
306.121	95.12
306.352	77.12
306.582	85.12
306.812	85.12
307.042	88.12
307.272	96.12
307.502	78.12
307.731	93.12
307.961	78.12
308.191	91.12
308.421	84.12
308.651	87.12
308.881	92.12
309.111	81.12
309.341	84.12
309.571	94.12
309.8	91.12
310.03	63.12
310.26	76.12
310.49	79.12
310.72	90.12
310.949	83.12
311.179	83.12
311.409	89.12
311.639	94.12
311.868	98.12
312.098	87.12
312.328	84.12
312.557	89.12
312.787	88.12
313.017	87.12
313.246	100.12
313.476	80.12
313.706	74.12
313.935	74.12
314.165	84.12
314.394	81.12
314.624	71.12
314.853	79.12
315.083	83.12
315.312	87.12
315.542	84.12
315.771	86.12
316.001	89.12
316.23	76.12
316.46	94.12
316.689	72.12
316.919	84.12
317.148	94.12
317.377	81.12
317.607	88.12
317.836	103.12
318.065	87.12
318.295	96.12
318.524	90.12
318.753	79.12
318.983	85.12
319.212	85.12
319.441	82.12
319.67	82.12
319.9	91.12
320.129	71.12
320.358	84.12
320.587	83.12
320.816	81.12
321.046	82.12
321.275	83.12
321.504	82.12
321.733	83.12
321.962	88.12
322.191	73.12
322.42	88.12
322.649	81.12
322.878	90.12
323.108	93.12
323.337	69.12
323.566	98.12
323.795	96.12
324.024	95.12
324.253	88.12
324.482	91.12
324.71	99.12
324.939	84.12
325.168	73.12
325.397	87.12
325.626	94.12
325.855	86.12
326.084	80.12
326.313	91.12
326.542	69.12
326.77	82.12
326.999	84.12
327.228	100.12
327.457	83.12
327.686	84.12
327.914	80.12
328.143	93.12
328.372	91.12
328.6	83.12
328.829	81.12
329.058	90.12
329.287	80.12
329.515	82.12
329.744	94.12
329.972	76.12
330.201	85.12
330.43	77.12
330.658	70.12
330.887	78.12
331.115	92.12
331.344	83.12
331.572	99.12
331.801	83.12
332.03	82.12
332.258	95.12
332.486	90.12
332.715	82.12
332.943	82.12
333.172	82.12
333.4	92.12
333.629	75.12
333.857	84.12
334.085	90.12
334.314	87.12
334.542	81.12
334.771	82.12
334.999	79.12
335.227	88.12
335.455	68.12
335.684	78.12
335.912	76.12
336.14	82.12
336.369	99.12
336.597	88.12
336.825	88.12
337.053	78.12
337.281	78.12
337.51	92.12
337.738	86.12
337.966	96.12
338.194	88.12
338.422	78.12
338.65	106.12
338.878	76.12
339.106	96.12
339.334	86.12
339.562	103.12
339.79	80.12
340.018	91.12
340.246	71.12
340.474	88.12
340.702	72.12
340.93	83.12
341.158	82.12
341.386	88.12
341.614	90.12
341.842	76.12
342.07	90.12
342.298	72.12
342.526	88.12
342.754	71.12
342.981	96.12
343.209	90.12
343.437	84.12
343.665	92.12
343.893	86.12
344.12	96.12
344.348	92.12
344.576	94.12
344.804	91.12
345.031	78.12
345.259	100.12
345.487	88.12
345.714	89.12
345.942	85.12
346.17	83.12
346.397	100.12
346.625	91.12
346.853	87.12
347.08	83.12
347.308	88.12
347.535	83.12
347.763	97.12
347.99	89.12
348.218	84.12
348.445	89.12
348.673	76.12
348.9	84.12
349.128	89.12
349.355	79.12
349.583	85.12
349.81	86.12
350.037	92.12
350.265	75.12
350.492	88.12
350.72	79.12
350.947	90.12
351.174	71.12
351.402	84.12
351.629	99.12
351.856	100.12
352.083	87.12
352.311	87.12
352.538	87.12
352.765	82.12
352.992	80.12
353.22	88.12
353.447	84.12
353.674	87.12
353.901	90.12
354.128	90.12
354.355	84.12
354.583	92.12
354.81	94.12
355.037	87.12
355.264	86.12
355.491	80.12
355.718	76.12
355.945	89.12
356.172	86.12
356.399	83.12
356.626	89.12
356.853	87.12
357.08	83.12
357.307	74.12
357.534	75.12
357.761	87.12
357.988	80.12
358.215	88.12
358.441	86.12
358.668	69.12
358.895	90.12
359.122	88.12
359.349	78.12
359.576	90.12
359.802	87.12
360.029	75.12
360.256	72.12
360.483	96.12
360.709	66.12
360.936	95.12
361.163	92.12
361.39	82.12
361.616	84.12
361.843	75.12
362.07	84.12
362.296	75.12
362.523	77.12
362.749	79.12
362.976	85.12
363.203	84.12
363.429	64.12
363.656	74.12
363.882	94.12
364.109	89.12
364.335	85.12
364.562	95.12
364.788	92.12
365.015	97.12
365.241	82.12
365.468	91.12
365.694	85.12
365.92	96.12
366.147	81.12
366.373	89.12
366.599	93.12
366.826	94.12
367.052	79.12
367.278	84.12
367.505	84.12
367.731	85.12
367.957	101.12
368.184	95.12
368.41	89.12
368.636	84.12
368.862	95.12
369.089	90.12
369.315	80.12
369.541	88.12
369.767	88.12
369.993	92.12
370.219	99.12
370.445	91.12
370.672	74.12
370.898	105.12
371.124	91.12
371.35	84.12
371.576	89.12
371.802	92.12
372.028	90.12
372.254	84.12
372.48	98.12
372.706	85.12
372.932	94.12
373.158	94.12
373.384	101.12
373.61	79.12
373.835	101.12
374.061	85.12
374.287	89.12
374.513	75.12
374.739	90.12
374.965	99.12
375.191	108.12
375.416	102.12
375.642	89.12
375.868	101.12
376.094	94.12
376.319	86.12
376.545	88.12
376.771	92.12
376.997	94.12
377.222	104.12
377.448	87.12
377.674	98.12
377.899	86.12
378.125	87.12
378.35	96.12
378.576	93.12
378.802	85.12
379.027	95.12
379.253	97.12
379.478	88.12
379.704	99.12
379.929	89.12
380.155	95.12
380.38	99.12
380.606	99.12
380.831	99.12
381.057	106.12
381.282	93.12
381.507	82.12
381.733	91.12
381.958	104.12
382.184	82.12
382.409	88.12
382.634	87.12
382.86	100.12
383.085	99.12
383.31	97.12
383.535	97.12
383.761	107.12
383.986	97.12
384.211	95.12
384.436	91.12
384.662	74.12
384.887	100.12
385.112	87.12
385.337	89.12
385.562	101.12
385.787	93.12
386.013	101.12
386.238	102.12
386.463	92.12
386.688	86.12
386.913	108.12
387.138	96.12
387.363	93.12
387.588	101.12
387.813	91.12
388.038	96.12
388.263	94.12
388.488	111.12
388.713	100.12
388.938	103.12
389.163	95.12
389.387	100.12
389.612	104.12
389.837	106.12
390.062	97.12
390.287	101.12
390.512	111.12
390.736	110.12
390.961	109.12
391.186	101.12
391.411	117.12
391.636	102.12
391.86	98.12
392.085	103.12
392.31	119.12
392.534	110.12
392.759	104.12
392.984	104.12
393.208	92.12
393.433	117.12
393.658	98.12
393.882	92.12
394.107	115.12
394.331	107.12
394.556	106.12
394.78	119.12
395.005	107.12
395.229	110.12
395.454	110.12
395.678	118.12
395.903	92.12
396.127	91.12
396.352	107.12
396.576	103.12
396.801	106.12
397.025	121.12
397.249	116.12
397.474	118.12
397.698	112.12
397.922	103.12
398.147	102.12
398.371	109.12
398.595	119.12
398.82	114.12
399.044	124.12
399.268	104.12
399.492	105.12
399.717	103.12
399.941	107.12
400.165	112.12
400.389	118.12
400.613	110.12
400.837	106.12
401.062	124.12
401.286	124.12
401.51	118.12
401.734	100.12
401.958	121.12
402.182	110.12
402.406	115.12
402.63	108.12
402.854	123.12
403.078	114.12
403.302	103.12
403.526	108.12
403.75	117.12
403.974	130.12
404.198	118.12
404.422	111.12
404.645	120.12
404.869	128.12
405.093	130.12
405.317	123.12
405.541	132.12
405.765	119.12
405.988	120.12
406.212	125.12
406.436	124.12
406.66	125.12
406.883	123.12
407.107	118.12
407.331	111.12
407.555	119.12
407.778	119.12
408.002	121.12
408.226	112.12
408.449	124.12
408.673	137.12
408.896	115.12
409.12	120.12
409.344	117.12
409.567	145.12
409.791	131.12
410.014	136.12
410.238	124.12
410.461	120.12
410.685	128.12
410.908	126.12
411.132	119.12
411.355	119.12
411.578	129.12
411.802	129.12
412.025	132.12
412.249	120.12
412.472	136.12
412.695	128.12
412.919	121.12
413.142	132.12
413.365	126.12
413.589	122.12
413.812	132.12
414.035	134.12
414.258	127.12
414.482	114.12
414.705	115.12
414.928	123.12
415.151	127.12
415.374	122.12
415.597	128.12
415.821	138.12
416.044	128.12
416.267	146.12
416.49	115.12
416.713	117.12
416.936	127.12
417.159	138.12
417.382	116.12
417.605	123.12
417.828	128.12
418.051	134.12
418.274	129.12
418.497	129.12
418.72	140.12
418.943	120.12
419.166	143.12
419.389	144.12
419.611	137.12
419.834	146.12
420.057	131.12
420.28	155.12
420.503	143.12
420.726	140.12
420.948	131.12
421.171	135.12
421.394	149.12
421.617	146.12
421.839	137.12
422.062	139.12
422.285	137.12
422.507	143.12
422.73	126.12
422.953	120.12
423.175	131.12
423.398	127.12
423.621	160.12
423.843	135.12
424.066	150.12
424.288	148.12
424.511	151.12
424.733	147.12
424.956	138.12
425.178	146.12
425.401	166.12
425.623	146.12
425.846	144.12
426.068	144.12
426.291	122.12
426.513	144.12
426.735	131.12
426.958	126.12
427.18	137.12
427.402	137.12
427.625	123.12
427.847	114.12
428.069	117.12
428.292	128.12
428.514	115.12
428.736	115.12
428.958	130.12
429.181	145.12
429.403	129.12
429.625	141.12
429.847	126.12
430.069	129.12
430.292	131.12
430.514	110.12
430.736	130.12
430.958	137.12
431.18	122.12
431.402	117.12
431.624	126.12
431.846	120.12
432.068	103.12
432.29	118.12
432.512	116.12
432.734	127.12
432.956	124.12
433.178	124.12
433.4	148.12
433.622	136.12
433.844	145.12
434.066	125.12
434.287	118.12
434.509	99.12
434.731	112.12
434.953	112.12
435.175	109.12
435.397	123.12
435.618	132.12
435.84	117.12
436.062	102.12
436.284	112.12
436.505	116.12
436.727	131.12
436.949	132.12
437.17	131.12
437.392	118.12
437.614	116.12
437.835	111.12
438.057	107.12
438.278	124.12
438.5	132.12
438.721	128.12
438.943	143.12
439.165	133.12
439.386	143.12
439.608	152.12
439.829	148.12
440.05	160.12
440.272	170.12
440.493	152.12
440.715	152.12
440.936	143.12
441.158	146.12
441.379	147.12
441.6	151.12
441.822	162.12
442.043	156.12
442.264	158.12
442.486	144.12
442.707	153.12
442.928	151.12
443.149	144.12
443.371	151.12
443.592	144.12
443.813	140.12
444.034	150.12
444.255	138.12
444.476	156.12
444.698	151.12
444.919	146.12
445.14	279.12
445.361	216.12
445.582	150.12
445.803	155.12
446.024	154.12
446.245	158.12
446.466	153.12
446.687	152.12
446.908	164.12
447.129	166.12
447.35	164.12
447.571	160.12
447.792	155.12
448.013	151.12
448.234	155.12
448.455	145.12
448.675	145.12
448.896	158.12
449.117	136.12
449.338	139.12
449.559	131.12
449.779	139.12
450	127.12
450.221	151.12
450.442	149.12
450.662	133.12
450.883	154.12
451.104	154.12
451.324	133.12
451.545	148.12
451.766	148.12
451.986	138.12
452.207	132.12
452.428	139.12
452.648	121.12
452.869	135.12
453.089	117.12
453.31	96.12
453.53	97.12
453.751	122.12
453.971	93.12
454.192	106.12
454.412	122.12
454.633	124.12
454.853	119.12
455.073	139.12
455.294	124.12
455.514	118.12
455.734	127.12
455.955	128.12
456.175	118.12
456.395	117.12
456.616	120.12
456.836	115.12
457.056	117.12
457.276	120.12
457.497	100.12
457.717	98.12
457.937	131.12
458.157	116.12
458.377	96.12
458.598	104.12
458.818	96.12
459.038	89.12
459.258	84.12
459.478	94.12
459.698	91.12
459.918	100.12
460.138	118.12
460.358	131.12
460.578	126.12
460.798	128.12
461.018	118.12
461.238	126.12
461.458	106.12
461.678	119.12
461.898	116.12
462.118	114.12
462.338	117.12
462.558	114.12
462.777	111.12
462.997	124.12
463.217	108.12
463.437	112.12
463.657	125.12
463.876	112.12
464.096	112.12
464.316	115.12
464.536	131.12
464.755	129.12
464.975	121.12
465.195	131.12
465.414	105.12
465.634	122.12
465.854	118.12
466.073	127.12
466.293	122.12
466.512	136.12
466.732	139.12
466.951	132.12
467.171	135.12
467.391	130.12
467.61	135.12
467.829	136.12
468.049	146.12
468.268	117.12
468.488	135.12
468.707	152.12
468.927	141.12
469.146	151.12
469.365	134.12
469.585	139.12
469.804	132.12
470.023	153.12
470.243	129.12
470.462	153.12
470.681	130.12
470.901	147.12
471.12	154.12
471.339	155.12
471.558	143.12
471.777	137.12
471.997	131.12
472.216	152.12
472.435	125.12
472.654	122.12
472.873	104.12
473.092	121.12
473.311	130.12
473.53	138.12
473.749	149.12
473.968	144.12
474.187	129.12
474.406	119.12
474.625	121.12
474.844	138.12
475.063	136.12
475.282	128.12
475.501	128.12
475.72	127.12
475.939	140.12
476.158	144.12
476.377	126.12
476.596	121.12
476.814	114.12
477.033	102.12
477.252	111.12
477.471	133.12
477.69	135.12
477.908	142.12
478.127	146.12
478.346	150.12
478.564	135.12
478.783	146.12
479.002	140.12
479.22	150.12
479.439	148.12
479.658	144.12
479.876	121.12
480.095	116.12
480.313	133.12
480.532	128.12
480.751	107.12
480.969	102.12
481.188	97.12
481.406	90.12
481.624	91.12
481.843	84.12
482.061	112.12
482.28	104.12
482.498	114.12
482.717	130.12
482.935	147.12
483.153	153.12
483.372	130.12
483.59	159.12
483.808	140.12
484.027	128.12
484.245	139.12
484.463	150.12
484.681	168.12
484.9	171.12
485.118	156.12
485.336	141.12
485.554	118.12
485.772	126.12
485.99	96.12
486.209	113.12
486.427	120.12
486.645	121.12
486.863	140.12
487.081	150.12
487.299	144.12
487.517	159.12
487.735	182.12
487.953	193.12
488.171	202.12
488.389	182.12
488.607	160.12
488.825	146.12
489.043	139.12
489.261	137.12
489.479	147.12
489.696	158.12
489.914	155.12
490.132	153.12
490.35	157.12
490.568	174.12
490.786	171.12
491.003	186.12
491.221	176.12
491.439	208.12
491.657	202.12
491.874	215.12
492.092	247.12
492.31	265.12
492.527	240.12
492.745	216.12
492.963	211.12
493.18	195.12
493.398	193.12
493.615	196.12
493.833	174.12
494.05	176.12
494.268	179.12
494.485	187.12
494.703	182.12
494.92	198.12
495.138	166.12
495.355	178.12
495.573	170.12
495.79	178.12
496.008	161.12
496.225	190.12
496.442	180.12
496.66	183.12
496.877	169.12
497.094	178.12
497.312	171.12
497.529	162.12
497.746	157.12
497.963	143.12
498.181	140.12
498.398	125.12
498.615	145.12
498.832	124.12
499.049	124.12
499.267	125.12
499.484	137.12
499.701	132.12
499.918	140.12
500.135	128.12
500.352	143.12
500.569	148.12
500.786	139.12
501.003	145.12
501.22	141.12
501.437	127.12
501.654	131.12
501.871	133.12
502.088	142.12
502.305	138.12
502.522	142.12
502.739	130.12
502.956	142.12
503.172	138.12
503.389	110.12
503.606	112.12
503.823	132.12
504.04	123.12
504.256	141.12
504.473	114.12
504.69	122.12
504.907	122.12
505.123	117.12
505.34	122.12
505.557	137.12
505.773	142.12
505.99	119.12
506.207	129.12
506.423	116.12
506.64	115.12
506.856	132.12
507.073	132.12
507.289	112.12
507.506	136.12
507.722	133.12
507.939	116.12
508.155	124.12
508.372	110.12
508.588	112.12
508.805	112.12
509.021	111.12
509.238	118.12
509.454	99.12
509.67	107.12
509.887	101.12
510.103	102.12
510.319	90.12
510.536	91.12
510.752	85.12
510.968	91.12
511.184	82.12
511.401	83.12
511.617	101.12
