Data from Location6.07152019.Energy5.Lamp.07192019.3%Agarose_HRD10591_16-11-43-394.txt Node
Date: Fri Jul 19 16:11:43 EDT 2019
User: cochatt
Spectrometer: HR+D1059
Trigger mode: 1
Integration Time (sec): 1.000000E-1
Scans to average: 1
Electric dark correction enabled: true
Nonlinearity correction enabled: false
Boxcar width: 0
XAxis mode: Wavelengths
Number of Pixels in Spectrum: 2048
>>>>>Begin Spectral Data<<<<<
223.165	-10.69
223.4	-10.69
223.635	-10.69
223.869	-14.69
224.104	-16.69
224.338	-3.69
224.573	-27.69
224.808	-13.69
225.042	-8.69
225.277	1.31
225.511	6.31
225.746	-4.69
225.98	6.31
226.215	-0.69
226.449	7.31
226.683	13.31
226.918	23.31
227.152	43.31
227.387	26.31
227.621	35.31
227.856	35.31
228.09	42.31
228.324	40.31
228.559	39.31
228.793	64.31
229.027	63.31
229.262	81.31
229.496	75.31
229.73	63.31
229.964	71.31
230.199	75.31
230.433	87.31
230.667	87.31
230.901	77.31
231.136	73.31
231.37	89.31
231.604	82.31
231.838	72.31
232.072	69.31
232.306	79.31
232.541	77.31
232.775	84.31
233.009	89.31
233.243	81.31
233.477	95.31
233.711	82.31
233.945	89.31
234.179	91.31
234.413	93.31
234.647	80.31
234.881	84.31
235.115	75.31
235.349	77.31
235.583	82.31
235.817	90.31
236.051	77.31
236.285	87.31
236.519	84.31
236.753	77.31
236.987	68.31
237.221	75.31
237.455	72.31
237.689	65.31
237.922	93.31
238.156	72.31
238.39	77.31
238.624	85.31
238.858	86.31
239.091	72.31
239.325	77.31
239.559	85.31
239.793	84.31
240.027	83.31
240.26	81.31
240.494	89.31
240.728	69.31
240.961	68.31
241.195	75.31
241.429	74.31
241.662	75.31
241.896	87.31
242.13	80.31
242.363	68.31
242.597	61.31
242.83	72.31
243.064	63.31
243.298	80.31
243.531	77.31
243.765	76.31
243.998	65.31
244.232	68.31
244.465	81.31
244.699	76.31
244.932	75.31
245.166	77.31
245.399	84.31
245.633	65.31
245.866	76.31
246.099	81.31
246.333	73.31
246.566	90.31
246.8	73.31
247.033	91.31
247.266	85.31
247.5	71.31
247.733	76.31
247.966	84.31
248.2	84.31
248.433	64.31
248.666	73.31
248.899	89.31
249.133	87.31
249.366	76.31
249.599	80.31
249.832	80.31
250.066	86.31
250.299	76.31
250.532	88.31
250.765	69.31
250.998	83.31
251.231	85.31
251.465	82.31
251.698	72.31
251.931	74.31
252.164	87.31
252.397	72.31
252.63	85.31
252.863	83.31
253.096	76.31
253.329	84.31
253.562	71.31
253.795	92.31
254.028	81.31
254.261	85.31
254.494	84.31
254.727	85.31
254.96	88.31
255.193	88.31
255.426	73.31
255.659	70.31
255.892	97.31
256.124	82.31
256.357	76.31
256.59	84.31
256.823	89.31
257.056	82.31
257.289	76.31
257.521	84.31
257.754	83.31
257.987	77.31
258.22	79.31
258.452	74.31
258.685	76.31
258.918	66.31
259.151	82.31
259.383	99.31
259.616	72.31
259.849	86.31
260.081	83.31
260.314	71.31
260.547	79.31
260.779	77.31
261.012	82.31
261.244	87.31
261.477	74.31
261.71	72.31
261.942	87.31
262.175	91.31
262.407	84.31
262.64	68.31
262.872	80.31
263.105	86.31
263.337	88.31
263.57	82.31
263.802	88.31
264.035	73.31
264.267	86.31
264.499	73.31
264.732	74.31
264.964	83.31
265.197	82.31
265.429	81.31
265.661	86.31
265.894	82.31
266.126	80.31
266.358	76.31
266.591	72.31
266.823	73.31
267.055	90.31
267.287	91.31
267.52	71.31
267.752	83.31
267.984	89.31
268.216	83.31
268.448	81.31
268.681	73.31
268.913	74.31
269.145	83.31
269.377	91.31
269.609	85.31
269.841	84.31
270.073	79.31
270.306	78.31
270.538	74.31
270.77	85.31
271.002	83.31
271.234	77.31
271.466	66.31
271.698	82.31
271.93	87.31
272.162	73.31
272.394	86.31
272.626	94.31
272.858	79.31
273.09	86.31
273.322	86.31
273.553	76.31
273.785	70.31
274.017	72.31
274.249	80.31
274.481	87.31
274.713	94.31
274.945	78.31
275.176	84.31
275.408	79.31
275.64	85.31
275.872	77.31
276.104	72.31
276.335	82.31
276.567	97.31
276.799	96.31
277.031	84.31
277.262	87.31
277.494	93.31
277.726	87.31
277.957	94.31
278.189	100.31
278.421	93.31
278.652	75.31
278.884	68.31
279.115	96.31
279.347	77.31
279.579	79.31
279.81	77.31
280.042	79.31
280.273	77.31
280.505	84.31
280.736	79.31
280.968	80.31
281.199	97.31
281.431	96.31
281.662	84.31
281.894	82.31
282.125	74.31
282.356	88.31
282.588	82.31
282.819	89.31
283.051	75.31
283.282	88.31
283.513	68.31
283.745	91.31
283.976	85.31
284.207	82.31
284.439	81.31
284.67	71.31
284.901	67.31
285.132	75.31
285.364	94.31
285.595	94.31
285.826	79.31
286.057	90.31
286.288	97.31
286.52	76.31
286.751	99.31
286.982	73.31
287.213	83.31
287.444	83.31
287.675	81.31
287.906	90.31
288.138	79.31
288.369	79.31
288.6	83.31
288.831	68.31
289.062	93.31
289.293	84.31
289.524	78.31
289.755	88.31
289.986	89.31
290.217	70.31
290.448	76.31
290.679	79.31
290.91	103.31
291.141	74.31
291.371	79.31
291.602	85.31
291.833	73.31
292.064	93.31
292.295	70.31
292.526	95.31
292.757	94.31
292.987	84.31
293.218	90.31
293.449	85.31
293.68	83.31
293.91	85.31
294.141	81.31
294.372	89.31
294.603	81.31
294.833	93.31
295.064	89.31
295.295	95.31
295.525	84.31
295.756	76.31
295.987	88.31
296.217	98.31
296.448	69.31
296.679	91.31
296.909	77.31
297.14	84.31
297.37	75.31
297.601	85.31
297.831	76.31
298.062	93.31
298.292	75.31
298.523	87.31
298.753	86.31
298.984	96.31
299.214	82.31
299.445	87.31
299.675	92.31
299.905	74.31
300.136	77.31
300.366	86.31
300.597	97.31
300.827	77.31
301.057	80.31
301.288	67.31
301.518	90.31
301.748	91.31
301.979	90.31
302.209	93.31
302.439	94.31
302.669	89.31
302.9	82.31
303.13	79.31
303.36	92.31
303.59	89.31
303.82	79.31
304.051	101.31
304.281	96.31
304.511	91.31
304.741	100.31
304.971	78.31
305.201	80.31
305.431	90.31
305.661	91.31
305.891	95.31
306.121	90.31
306.352	75.31
306.582	90.31
306.812	85.31
307.042	81.31
307.272	90.31
307.502	79.31
307.731	88.31
307.961	88.31
308.191	91.31
308.421	82.31
308.651	76.31
308.881	95.31
309.111	88.31
309.341	95.31
309.571	87.31
309.8	74.31
310.03	76.31
310.26	88.31
310.49	82.31
310.72	97.31
310.949	94.31
311.179	96.31
311.409	75.31
311.639	70.31
311.868	85.31
312.098	80.31
312.328	80.31
312.557	88.31
312.787	84.31
313.017	82.31
313.246	67.31
313.476	91.31
313.706	84.31
313.935	81.31
314.165	75.31
314.394	85.31
314.624	81.31
314.853	94.31
315.083	82.31
315.312	97.31
315.542	84.31
315.771	86.31
316.001	85.31
316.23	93.31
316.46	92.31
316.689	89.31
316.919	86.31
317.148	77.31
317.377	100.31
317.607	85.31
317.836	72.31
318.065	97.31
318.295	82.31
318.524	87.31
318.753	88.31
318.983	88.31
319.212	82.31
319.441	89.31
319.67	90.31
319.9	92.31
320.129	81.31
320.358	91.31
320.587	83.31
320.816	80.31
321.046	90.31
321.275	82.31
321.504	90.31
321.733	77.31
321.962	89.31
322.191	101.31
322.42	82.31
322.649	90.31
322.878	92.31
323.108	80.31
323.337	81.31
323.566	81.31
323.795	83.31
324.024	78.31
324.253	79.31
324.482	88.31
324.71	90.31
324.939	83.31
325.168	94.31
325.397	82.31
325.626	95.31
325.855	83.31
326.084	94.31
326.313	81.31
326.542	87.31
326.77	91.31
326.999	77.31
327.228	76.31
327.457	76.31
327.686	77.31
327.914	81.31
328.143	72.31
328.372	81.31
328.6	91.31
328.829	88.31
329.058	77.31
329.287	98.31
329.515	83.31
329.744	85.31
329.972	85.31
330.201	75.31
330.43	89.31
330.658	82.31
330.887	83.31
331.115	88.31
331.344	76.31
331.572	101.31
331.801	87.31
332.03	70.31
332.258	83.31
332.486	88.31
332.715	83.31
332.943	113.31
333.172	75.31
333.4	89.31
333.629	86.31
333.857	83.31
334.085	79.31
334.314	78.31
334.542	79.31
334.771	83.31
334.999	93.31
335.227	89.31
335.455	87.31
335.684	88.31
335.912	95.31
336.14	79.31
336.369	85.31
336.597	90.31
336.825	79.31
337.053	87.31
337.281	83.31
337.51	90.31
337.738	97.31
337.966	88.31
338.194	84.31
338.422	85.31
338.65	91.31
338.878	75.31
339.106	77.31
339.334	83.31
339.562	77.31
339.79	73.31
340.018	98.31
340.246	77.31
340.474	81.31
340.702	92.31
340.93	78.31
341.158	92.31
341.386	91.31
341.614	64.31
341.842	77.31
342.07	84.31
342.298	81.31
342.526	77.31
342.754	88.31
342.981	82.31
343.209	91.31
343.437	87.31
343.665	80.31
343.893	96.31
344.12	91.31
344.348	82.31
344.576	90.31
344.804	91.31
345.031	86.31
345.259	85.31
345.487	87.31
345.714	80.31
345.942	84.31
346.17	92.31
346.397	93.31
346.625	87.31
346.853	77.31
347.08	83.31
347.308	86.31
347.535	85.31
347.763	76.31
347.99	79.31
348.218	86.31
348.445	84.31
348.673	79.31
348.9	85.31
349.128	82.31
349.355	89.31
349.583	90.31
349.81	94.31
350.037	95.31
350.265	93.31
350.492	98.31
350.72	72.31
350.947	86.31
351.174	87.31
351.402	87.31
351.629	88.31
351.856	85.31
352.083	85.31
352.311	82.31
352.538	89.31
352.765	84.31
352.992	90.31
353.22	81.31
353.447	100.31
353.674	89.31
353.901	85.31
354.128	81.31
354.355	76.31
354.583	92.31
354.81	87.31
355.037	87.31
355.264	74.31
355.491	91.31
355.718	76.31
355.945	82.31
356.172	74.31
356.399	72.31
356.626	85.31
356.853	83.31
357.08	78.31
357.307	75.31
357.534	68.31
357.761	83.31
357.988	83.31
358.215	93.31
358.441	75.31
358.668	86.31
358.895	84.31
359.122	107.31
359.349	83.31
359.576	76.31
359.802	87.31
360.029	80.31
360.256	78.31
360.483	97.31
360.709	91.31
360.936	89.31
361.163	85.31
361.39	86.31
361.616	83.31
361.843	84.31
362.07	96.31
362.296	88.31
362.523	73.31
362.749	85.31
362.976	90.31
363.203	90.31
363.429	90.31
363.656	80.31
363.882	84.31
364.109	78.31
364.335	85.31
364.562	83.31
364.788	92.31
365.015	77.31
365.241	85.31
365.468	101.31
365.694	84.31
365.92	89.31
366.147	75.31
366.373	76.31
366.599	71.31
366.826	73.31
367.052	81.31
367.278	88.31
367.505	105.31
367.731	81.31
367.957	83.31
368.184	79.31
368.41	83.31
368.636	91.31
368.862	80.31
369.089	87.31
369.315	105.31
369.541	94.31
369.767	109.31
369.993	91.31
370.219	83.31
370.445	95.31
370.672	82.31
370.898	90.31
371.124	84.31
371.35	89.31
371.576	88.31
371.802	87.31
372.028	89.31
372.254	91.31
372.48	87.31
372.706	103.31
372.932	83.31
373.158	92.31
373.384	85.31
373.61	87.31
373.835	83.31
374.061	95.31
374.287	82.31
374.513	96.31
374.739	109.31
374.965	100.31
375.191	95.31
375.416	104.31
375.642	95.31
375.868	90.31
376.094	87.31
376.319	99.31
376.545	101.31
376.771	107.31
376.997	91.31
377.222	96.31
377.448	110.31
377.674	93.31
377.899	119.31
378.125	91.31
378.35	111.31
378.576	103.31
378.802	96.31
379.027	86.31
379.253	93.31
379.478	111.31
379.704	102.31
379.929	95.31
380.155	101.31
380.38	101.31
380.606	101.31
380.831	94.31
381.057	104.31
381.282	98.31
381.507	97.31
381.733	97.31
381.958	88.31
382.184	101.31
382.409	109.31
382.634	100.31
382.86	98.31
383.085	95.31
383.31	94.31
383.535	97.31
383.761	107.31
383.986	92.31
384.211	104.31
384.436	111.31
384.662	103.31
384.887	86.31
385.112	102.31
385.337	95.31
385.562	90.31
385.787	101.31
386.013	98.31
386.238	113.31
386.463	97.31
386.688	109.31
386.913	99.31
387.138	104.31
387.363	95.31
387.588	111.31
387.813	109.31
388.038	112.31
388.263	105.31
388.488	100.31
388.713	91.31
388.938	91.31
389.163	101.31
389.387	107.31
389.612	104.31
389.837	99.31
390.062	116.31
390.287	123.31
390.512	116.31
390.736	106.31
390.961	86.31
391.186	96.31
391.411	105.31
391.636	106.31
391.86	118.31
392.085	96.31
392.31	98.31
392.534	128.31
392.759	107.31
392.984	108.31
393.208	106.31
393.433	96.31
393.658	100.31
393.882	104.31
394.107	108.31
394.331	96.31
394.556	104.31
394.78	115.31
395.005	111.31
395.229	91.31
395.454	116.31
395.678	106.31
395.903	93.31
396.127	105.31
396.352	117.31
396.576	115.31
396.801	111.31
397.025	111.31
397.249	92.31
397.474	122.31
397.698	100.31
397.922	111.31
398.147	100.31
398.371	111.31
398.595	104.31
398.82	107.31
399.044	116.31
399.268	121.31
399.492	110.31
399.717	106.31
399.941	112.31
400.165	121.31
400.389	107.31
400.613	119.31
400.837	107.31
401.062	111.31
401.286	118.31
401.51	108.31
401.734	120.31
401.958	115.31
402.182	108.31
402.406	111.31
402.63	121.31
402.854	121.31
403.078	121.31
403.302	107.31
403.526	115.31
403.75	131.31
403.974	121.31
404.198	121.31
404.422	116.31
404.645	102.31
404.869	119.31
405.093	124.31
405.317	115.31
405.541	107.31
405.765	110.31
405.988	115.31
406.212	108.31
406.436	102.31
406.66	109.31
406.883	123.31
407.107	127.31
407.331	123.31
407.555	123.31
407.778	128.31
408.002	119.31
408.226	122.31
408.449	123.31
408.673	127.31
408.896	108.31
409.12	110.31
409.344	119.31
409.567	135.31
409.791	139.31
410.014	124.31
410.238	122.31
410.461	122.31
410.685	119.31
410.908	123.31
411.132	137.31
411.355	124.31
411.578	115.31
411.802	113.31
412.025	122.31
412.249	128.31
412.472	118.31
412.695	119.31
412.919	120.31
413.142	125.31
413.365	146.31
413.589	119.31
413.812	129.31
414.035	118.31
414.258	129.31
414.482	129.31
414.705	138.31
414.928	132.31
415.151	128.31
415.374	120.31
415.597	135.31
415.821	132.31
416.044	138.31
416.267	118.31
416.49	143.31
416.713	133.31
416.936	130.31
417.159	129.31
417.382	137.31
417.605	139.31
417.828	138.31
418.051	123.31
418.274	123.31
418.497	132.31
418.72	134.31
418.943	144.31
419.166	130.31
419.389	129.31
419.611	139.31
419.834	129.31
420.057	152.31
420.28	134.31
420.503	129.31
420.726	122.31
420.948	125.31
421.171	123.31
421.394	140.31
421.617	139.31
421.839	135.31
422.062	142.31
422.285	130.31
422.507	127.31
422.73	141.31
422.953	137.31
423.175	125.31
423.398	142.31
423.621	144.31
423.843	137.31
424.066	146.31
424.288	138.31
424.511	141.31
424.733	144.31
424.956	157.31
425.178	151.31
425.401	154.31
425.623	142.31
425.846	135.31
426.068	129.31
426.291	128.31
426.513	135.31
426.735	136.31
426.958	119.31
427.18	135.31
427.402	142.31
427.625	130.31
427.847	129.31
428.069	122.31
428.292	135.31
428.514	131.31
428.736	131.31
428.958	145.31
429.181	136.31
429.403	137.31
429.625	125.31
429.847	147.31
430.069	129.31
430.292	116.31
430.514	119.31
430.736	128.31
430.958	128.31
431.18	142.31
431.402	139.31
431.624	133.31
431.846	128.31
432.068	108.31
432.29	101.31
432.512	129.31
432.734	127.31
432.956	127.31
433.178	137.31
433.4	144.31
433.622	150.31
433.844	140.31
434.066	127.31
434.287	109.31
434.509	103.31
434.731	97.31
434.953	111.31
435.175	121.31
435.397	131.31
435.618	131.31
435.84	116.31
436.062	132.31
436.284	127.31
436.505	136.31
436.727	127.31
436.949	132.31
437.17	135.31
437.392	132.31
437.614	123.31
437.835	112.31
438.057	122.31
438.278	122.31
438.5	129.31
438.721	126.31
438.943	131.31
439.165	145.31
439.386	146.31
439.608	124.31
439.829	151.31
440.05	148.31
440.272	150.31
440.493	159.31
440.715	145.31
440.936	145.31
441.158	157.31
441.379	143.31
441.6	154.31
441.822	153.31
442.043	151.31
442.264	147.31
442.486	163.31
442.707	133.31
442.928	149.31
443.149	141.31
443.371	124.31
443.592	149.31
443.813	175.31
444.034	151.31
444.255	142.31
444.476	147.31
444.698	152.31
444.919	142.31
445.14	273.31
445.361	193.31
445.582	150.31
445.803	152.31
446.024	157.31
446.245	151.31
446.466	147.31
446.687	166.31
446.908	156.31
447.129	151.31
447.35	156.31
447.571	160.31
447.792	163.31
448.013	138.31
448.234	137.31
448.455	140.31
448.675	146.31
448.896	134.31
449.117	129.31
449.338	162.31
449.559	140.31
449.779	141.31
450	153.31
450.221	125.31
450.442	136.31
450.662	134.31
450.883	146.31
451.104	136.31
451.324	139.31
451.545	126.31
451.766	130.31
451.986	154.31
452.207	126.31
452.428	125.31
452.648	137.31
452.869	117.31
453.089	111.31
453.31	121.31
453.53	111.31
453.751	125.31
453.971	103.31
454.192	115.31
454.412	108.31
454.633	125.31
454.853	137.31
455.073	114.31
455.294	119.31
455.514	123.31
455.734	131.31
455.955	133.31
456.175	112.31
456.395	111.31
456.616	120.31
456.836	91.31
457.056	127.31
457.276	133.31
457.497	108.31
457.717	103.31
457.937	124.31
458.157	120.31
458.377	113.31
458.598	93.31
458.818	84.31
459.038	78.31
459.258	89.31
459.478	77.31
459.698	91.31
459.918	101.31
460.138	114.31
460.358	116.31
460.578	108.31
460.798	125.31
461.018	124.31
461.238	125.31
461.458	107.31
461.678	113.31
461.898	113.31
462.118	112.31
462.338	106.31
462.558	111.31
462.777	115.31
462.997	119.31
463.217	109.31
463.437	121.31
463.657	104.31
463.876	123.31
464.096	97.31
464.316	115.31
464.536	115.31
464.755	144.31
464.975	133.31
465.195	125.31
465.414	120.31
465.634	128.31
465.854	124.31
466.073	134.31
466.293	118.31
466.512	130.31
466.732	134.31
466.951	135.31
467.171	148.31
467.391	128.31
467.61	133.31
467.829	143.31
468.049	141.31
468.268	117.31
468.488	139.31
468.707	137.31
468.927	133.31
469.146	143.31
469.365	153.31
469.585	144.31
469.804	140.31
470.023	138.31
470.243	138.31
470.462	144.31
470.681	138.31
470.901	140.31
471.12	139.31
471.339	141.31
471.558	161.31
471.777	151.31
471.997	138.31
472.216	130.31
472.435	128.31
472.654	140.31
472.873	101.31
473.092	127.31
473.311	127.31
473.53	115.31
473.749	131.31
473.968	130.31
474.187	112.31
474.406	116.31
474.625	124.31
474.844	142.31
475.063	117.31
475.282	117.31
475.501	136.31
475.72	139.31
475.939	125.31
476.158	143.31
476.377	123.31
476.596	125.31
476.814	103.31
477.033	129.31
477.252	125.31
477.471	135.31
477.69	138.31
477.908	148.31
478.127	136.31
478.346	133.31
478.564	124.31
478.783	131.31
479.002	142.31
479.22	136.31
479.439	139.31
479.658	134.31
479.876	132.31
480.095	113.31
480.313	121.31
480.532	145.31
480.751	111.31
480.969	112.31
481.188	85.31
481.406	96.31
481.624	100.31
481.843	101.31
482.061	88.31
482.28	120.31
482.498	118.31
482.717	108.31
482.935	130.31
483.153	150.31
483.372	156.31
483.59	173.31
483.808	143.31
484.027	136.31
484.245	144.31
484.463	156.31
484.681	178.31
484.9	145.31
485.118	140.31
485.336	139.31
485.554	109.31
485.772	107.31
485.99	96.31
486.209	107.31
486.427	120.31
486.645	113.31
486.863	149.31
487.081	145.31
487.299	136.31
487.517	140.31
487.735	178.31
487.953	197.31
488.171	190.31
488.389	194.31
488.607	164.31
488.825	146.31
489.043	144.31
489.261	140.31
489.479	143.31
489.696	142.31
489.914	149.31
490.132	136.31
490.35	168.31
490.568	159.31
490.786	157.31
491.003	185.31
491.221	177.31
491.439	193.31
491.657	211.31
491.874	220.31
492.092	224.31
492.31	269.31
492.527	256.31
492.745	243.31
492.963	210.31
493.18	187.31
493.398	200.31
493.615	189.31
493.833	181.31
494.05	185.31
494.268	169.31
494.485	179.31
494.703	163.31
494.92	177.31
495.138	169.31
495.355	176.31
495.573	195.31
495.79	178.31
496.008	176.31
496.225	164.31
496.442	169.31
496.66	166.31
496.877	167.31
497.094	171.31
497.312	170.31
497.529	171.31
497.746	163.31
497.963	147.31
498.181	121.31
498.398	129.31
498.615	123.31
498.832	121.31
499.049	124.31
499.267	128.31
499.484	137.31
499.701	138.31
499.918	134.31
500.135	140.31
500.352	146.31
500.569	144.31
500.786	140.31
501.003	157.31
501.22	131.31
501.437	146.31
501.654	140.31
501.871	144.31
502.088	145.31
502.305	138.31
502.522	125.31
502.739	131.31
502.956	135.31
503.172	123.31
503.389	125.31
503.606	131.31
503.823	124.31
504.04	124.31
504.256	120.31
504.473	129.31
504.69	121.31
504.907	120.31
505.123	132.31
505.34	139.31
505.557	121.31
505.773	132.31
505.99	123.31
506.207	147.31
506.423	116.31
506.64	132.31
506.856	125.31
507.073	123.31
507.289	121.31
507.506	104.31
507.722	120.31
507.939	115.31
508.155	122.31
508.372	116.31
508.588	130.31
508.805	125.31
509.021	105.31
509.238	102.31
509.454	100.31
509.67	105.31
509.887	104.31
510.103	89.31
510.319	104.31
510.536	100.31
510.752	88.31
510.968	90.31
511.184	68.31
