Data from Location6.07152019.Energy5.Lamp.07192019.3%Agarose_HRD10591_16-13-20-396.txt Node
Date: Fri Jul 19 16:13:20 EDT 2019
User: cochatt
Spectrometer: HR+D1059
Trigger mode: 1
Integration Time (sec): 1.000000E-1
Scans to average: 1
Electric dark correction enabled: true
Nonlinearity correction enabled: false
Boxcar width: 0
XAxis mode: Wavelengths
Number of Pixels in Spectrum: 2048
>>>>>Begin Spectral Data<<<<<
223.165	-17.56
223.4	-17.56
223.635	-17.56
223.869	-22.56
224.104	-14.56
224.338	-14.56
224.573	-9.56
224.808	-29.56
225.042	-11.56
225.277	-0.56
225.511	1.44
225.746	1.44
225.98	10.44
226.215	5.44
226.449	12.44
226.683	37.44
226.918	23.44
227.152	28.44
227.387	25.44
227.621	39.44
227.856	40.44
228.09	44.44
228.324	58.44
228.559	64.44
228.793	49.44
229.027	68.44
229.262	63.44
229.496	69.44
229.73	69.44
229.964	74.44
230.199	68.44
230.433	75.44
230.667	74.44
230.901	78.44
231.136	87.44
231.37	66.44
231.604	74.44
231.838	86.44
232.072	72.44
232.306	73.44
232.541	85.44
232.775	82.44
233.009	84.44
233.243	91.44
233.477	85.44
233.711	81.44
233.945	80.44
234.179	76.44
234.413	75.44
234.647	78.44
234.881	91.44
235.115	88.44
235.349	87.44
235.583	69.44
235.817	88.44
236.051	90.44
236.285	86.44
236.519	78.44
236.753	71.44
236.987	70.44
237.221	71.44
237.455	64.44
237.689	89.44
237.922	81.44
238.156	78.44
238.39	75.44
238.624	82.44
238.858	60.44
239.091	73.44
239.325	73.44
239.559	73.44
239.793	76.44
240.027	90.44
240.26	69.44
240.494	85.44
240.728	77.44
240.961	75.44
241.195	86.44
241.429	74.44
241.662	89.44
241.896	79.44
242.13	73.44
242.363	76.44
242.597	90.44
242.83	92.44
243.064	95.44
243.298	82.44
243.531	79.44
243.765	69.44
243.998	74.44
244.232	82.44
244.465	75.44
244.699	77.44
244.932	70.44
245.166	75.44
245.399	74.44
245.633	66.44
245.866	69.44
246.099	76.44
246.333	71.44
246.566	79.44
246.8	84.44
247.033	84.44
247.266	87.44
247.5	75.44
247.733	72.44
247.966	79.44
248.2	98.44
248.433	86.44
248.666	88.44
248.899	80.44
249.133	83.44
249.366	91.44
249.599	62.44
249.832	79.44
250.066	74.44
250.299	75.44
250.532	88.44
250.765	89.44
250.998	88.44
251.231	77.44
251.465	74.44
251.698	78.44
251.931	92.44
252.164	88.44
252.397	86.44
252.63	89.44
252.863	77.44
253.096	83.44
253.329	80.44
253.562	82.44
253.795	87.44
254.028	87.44
254.261	84.44
254.494	82.44
254.727	82.44
254.96	88.44
255.193	83.44
255.426	64.44
255.659	73.44
255.892	74.44
256.124	74.44
256.357	87.44
256.59	72.44
256.823	88.44
257.056	89.44
257.289	87.44
257.521	84.44
257.754	87.44
257.987	73.44
258.22	78.44
258.452	89.44
258.685	79.44
258.918	76.44
259.151	81.44
259.383	82.44
259.616	85.44
259.849	88.44
260.081	84.44
260.314	83.44
260.547	79.44
260.779	82.44
261.012	83.44
261.244	78.44
261.477	85.44
261.71	76.44
261.942	80.44
262.175	88.44
262.407	83.44
262.64	75.44
262.872	92.44
263.105	84.44
263.337	87.44
263.57	73.44
263.802	78.44
264.035	100.44
264.267	93.44
264.499	80.44
264.732	88.44
264.964	74.44
265.197	88.44
265.429	82.44
265.661	98.44
265.894	85.44
266.126	88.44
266.358	79.44
266.591	83.44
266.823	92.44
267.055	97.44
267.287	86.44
267.52	86.44
267.752	76.44
267.984	82.44
268.216	77.44
268.448	81.44
268.681	92.44
268.913	64.44
269.145	77.44
269.377	93.44
269.609	79.44
269.841	85.44
270.073	90.44
270.306	75.44
270.538	97.44
270.77	84.44
271.002	83.44
271.234	86.44
271.466	87.44
271.698	73.44
271.93	77.44
272.162	75.44
272.394	92.44
272.626	81.44
272.858	71.44
273.09	77.44
273.322	89.44
273.553	75.44
273.785	84.44
274.017	87.44
274.249	87.44
274.481	78.44
274.713	96.44
274.945	84.44
275.176	78.44
275.408	87.44
275.64	84.44
275.872	81.44
276.104	86.44
276.335	84.44
276.567	102.44
276.799	71.44
277.031	84.44
277.262	74.44
277.494	94.44
277.726	84.44
277.957	98.44
278.189	80.44
278.421	89.44
278.652	95.44
278.884	68.44
279.115	79.44
279.347	88.44
279.579	83.44
279.81	86.44
280.042	85.44
280.273	98.44
280.505	74.44
280.736	85.44
280.968	77.44
281.199	78.44
281.431	88.44
281.662	78.44
281.894	83.44
282.125	93.44
282.356	88.44
282.588	81.44
282.819	87.44
283.051	80.44
283.282	87.44
283.513	81.44
283.745	80.44
283.976	93.44
284.207	74.44
284.439	78.44
284.67	91.44
284.901	71.44
285.132	82.44
285.364	87.44
285.595	87.44
285.826	92.44
286.057	88.44
286.288	74.44
286.52	77.44
286.751	78.44
286.982	75.44
287.213	78.44
287.444	84.44
287.675	68.44
287.906	78.44
288.138	84.44
288.369	80.44
288.6	84.44
288.831	86.44
289.062	91.44
289.293	87.44
289.524	69.44
289.755	82.44
289.986	98.44
290.217	89.44
290.448	77.44
290.679	78.44
290.91	96.44
291.141	88.44
291.371	91.44
291.602	94.44
291.833	81.44
292.064	98.44
292.295	83.44
292.526	96.44
292.757	85.44
292.987	76.44
293.218	95.44
293.449	86.44
293.68	84.44
293.91	90.44
294.141	74.44
294.372	89.44
294.603	71.44
294.833	93.44
295.064	88.44
295.295	82.44
295.525	78.44
295.756	85.44
295.987	80.44
296.217	82.44
296.448	86.44
296.679	79.44
296.909	86.44
297.14	83.44
297.37	82.44
297.601	81.44
297.831	83.44
298.062	85.44
298.292	76.44
298.523	80.44
298.753	72.44
298.984	74.44
299.214	83.44
299.445	96.44
299.675	89.44
299.905	77.44
300.136	90.44
300.366	91.44
300.597	89.44
300.827	90.44
301.057	89.44
301.288	86.44
301.518	77.44
301.748	70.44
301.979	88.44
302.209	80.44
302.439	79.44
302.669	81.44
302.9	79.44
303.13	79.44
303.36	84.44
303.59	80.44
303.82	81.44
304.051	82.44
304.281	78.44
304.511	83.44
304.741	92.44
304.971	86.44
305.201	79.44
305.431	79.44
305.661	91.44
305.891	85.44
306.121	88.44
306.352	99.44
306.582	95.44
306.812	99.44
307.042	87.44
307.272	89.44
307.502	78.44
307.731	76.44
307.961	80.44
308.191	80.44
308.421	90.44
308.651	77.44
308.881	79.44
309.111	86.44
309.341	88.44
309.571	85.44
309.8	80.44
310.03	78.44
310.26	88.44
310.49	100.44
310.72	89.44
310.949	73.44
311.179	94.44
311.409	85.44
311.639	73.44
311.868	92.44
312.098	86.44
312.328	91.44
312.557	92.44
312.787	70.44
313.017	84.44
313.246	81.44
313.476	84.44
313.706	92.44
313.935	78.44
314.165	73.44
314.394	81.44
314.624	86.44
314.853	80.44
315.083	95.44
315.312	84.44
315.542	94.44
315.771	78.44
316.001	78.44
316.23	87.44
316.46	87.44
316.689	96.44
316.919	80.44
317.148	83.44
317.377	91.44
317.607	83.44
317.836	89.44
318.065	86.44
318.295	95.44
318.524	90.44
318.753	69.44
318.983	97.44
319.212	82.44
319.441	93.44
319.67	85.44
319.9	83.44
320.129	75.44
320.358	86.44
320.587	80.44
320.816	94.44
321.046	89.44
321.275	84.44
321.504	84.44
321.733	90.44
321.962	96.44
322.191	88.44
322.42	92.44
322.649	88.44
322.878	84.44
323.108	87.44
323.337	88.44
323.566	81.44
323.795	92.44
324.024	83.44
324.253	89.44
324.482	83.44
324.71	86.44
324.939	89.44
325.168	92.44
325.397	79.44
325.626	81.44
325.855	70.44
326.084	90.44
326.313	88.44
326.542	82.44
326.77	79.44
326.999	88.44
327.228	88.44
327.457	96.44
327.686	73.44
327.914	87.44
328.143	94.44
328.372	69.44
328.6	89.44
328.829	88.44
329.058	93.44
329.287	89.44
329.515	83.44
329.744	65.44
329.972	78.44
330.201	81.44
330.43	83.44
330.658	77.44
330.887	92.44
331.115	85.44
331.344	98.44
331.572	90.44
331.801	90.44
332.03	77.44
332.258	83.44
332.486	87.44
332.715	82.44
332.943	88.44
333.172	81.44
333.4	90.44
333.629	90.44
333.857	86.44
334.085	76.44
334.314	93.44
334.542	87.44
334.771	93.44
334.999	76.44
335.227	80.44
335.455	86.44
335.684	95.44
335.912	93.44
336.14	98.44
336.369	84.44
336.597	70.44
336.825	82.44
337.053	68.44
337.281	76.44
337.51	92.44
337.738	85.44
337.966	85.44
338.194	78.44
338.422	94.44
338.65	93.44
338.878	73.44
339.106	86.44
339.334	83.44
339.562	80.44
339.79	86.44
340.018	88.44
340.246	92.44
340.474	77.44
340.702	86.44
340.93	98.44
341.158	82.44
341.386	96.44
341.614	84.44
341.842	76.44
342.07	81.44
342.298	76.44
342.526	80.44
342.754	80.44
342.981	87.44
343.209	88.44
343.437	90.44
343.665	82.44
343.893	94.44
344.12	89.44
344.348	90.44
344.576	86.44
344.804	78.44
345.031	88.44
345.259	101.44
345.487	90.44
345.714	79.44
345.942	70.44
346.17	86.44
346.397	99.44
346.625	78.44
346.853	93.44
347.08	78.44
347.308	79.44
347.535	94.44
347.763	84.44
347.99	86.44
348.218	85.44
348.445	90.44
348.673	74.44
348.9	94.44
349.128	85.44
349.355	93.44
349.583	78.44
349.81	86.44
350.037	77.44
350.265	95.44
350.492	79.44
350.72	69.44
350.947	90.44
351.174	68.44
351.402	91.44
351.629	84.44
351.856	73.44
352.083	74.44
352.311	91.44
352.538	77.44
352.765	79.44
352.992	80.44
353.22	77.44
353.447	80.44
353.674	73.44
353.901	85.44
354.128	79.44
354.355	85.44
354.583	88.44
354.81	85.44
355.037	84.44
355.264	83.44
355.491	83.44
355.718	89.44
355.945	78.44
356.172	88.44
356.399	76.44
356.626	77.44
356.853	90.44
357.08	77.44
357.307	83.44
357.534	91.44
357.761	91.44
357.988	82.44
358.215	91.44
358.441	82.44
358.668	94.44
358.895	98.44
359.122	81.44
359.349	80.44
359.576	99.44
359.802	93.44
360.029	88.44
360.256	91.44
360.483	88.44
360.709	76.44
360.936	86.44
361.163	85.44
361.39	75.44
361.616	83.44
361.843	80.44
362.07	90.44
362.296	81.44
362.523	86.44
362.749	78.44
362.976	90.44
363.203	87.44
363.429	77.44
363.656	102.44
363.882	76.44
364.109	69.44
364.335	86.44
364.562	101.44
364.788	82.44
365.015	92.44
365.241	97.44
365.468	90.44
365.694	88.44
365.92	90.44
366.147	94.44
366.373	88.44
366.599	96.44
366.826	84.44
367.052	98.44
367.278	91.44
367.505	98.44
367.731	94.44
367.957	88.44
368.184	92.44
368.41	92.44
368.636	96.44
368.862	96.44
369.089	78.44
369.315	95.44
369.541	80.44
369.767	84.44
369.993	78.44
370.219	86.44
370.445	89.44
370.672	94.44
370.898	90.44
371.124	106.44
371.35	91.44
371.576	84.44
371.802	88.44
372.028	82.44
372.254	101.44
372.48	95.44
372.706	92.44
372.932	84.44
373.158	92.44
373.384	102.44
373.61	93.44
373.835	92.44
374.061	100.44
374.287	92.44
374.513	88.44
374.739	93.44
374.965	87.44
375.191	97.44
375.416	96.44
375.642	96.44
375.868	81.44
376.094	82.44
376.319	100.44
376.545	80.44
376.771	79.44
376.997	90.44
377.222	88.44
377.448	91.44
377.674	97.44
377.899	83.44
378.125	105.44
378.35	97.44
378.576	93.44
378.802	113.44
379.027	103.44
379.253	93.44
379.478	81.44
379.704	95.44
379.929	97.44
380.155	100.44
380.38	92.44
380.606	84.44
380.831	101.44
381.057	101.44
381.282	86.44
381.507	105.44
381.733	112.44
381.958	100.44
382.184	102.44
382.409	98.44
382.634	97.44
382.86	96.44
383.085	105.44
383.31	93.44
383.535	104.44
383.761	95.44
383.986	109.44
384.211	85.44
384.436	95.44
384.662	104.44
384.887	96.44
385.112	93.44
385.337	105.44
385.562	108.44
385.787	89.44
386.013	104.44
386.238	103.44
386.463	110.44
386.688	103.44
386.913	90.44
387.138	104.44
387.363	103.44
387.588	117.44
387.813	117.44
388.038	102.44
388.263	113.44
388.488	112.44
388.713	94.44
388.938	96.44
389.163	93.44
389.387	98.44
389.612	108.44
389.837	118.44
390.062	103.44
390.287	108.44
390.512	109.44
390.736	121.44
390.961	109.44
391.186	102.44
391.411	112.44
391.636	116.44
391.86	109.44
392.085	90.44
392.31	96.44
392.534	120.44
392.759	99.44
392.984	114.44
393.208	112.44
393.433	106.44
393.658	108.44
393.882	114.44
394.107	113.44
394.331	101.44
394.556	112.44
394.78	96.44
395.005	105.44
395.229	103.44
395.454	115.44
395.678	124.44
395.903	115.44
396.127	102.44
396.352	124.44
396.576	99.44
396.801	115.44
397.025	112.44
397.249	114.44
397.474	97.44
397.698	114.44
397.922	114.44
398.147	101.44
398.371	98.44
398.595	107.44
398.82	99.44
399.044	121.44
399.268	105.44
399.492	116.44
399.717	124.44
399.941	117.44
400.165	122.44
400.389	110.44
400.613	124.44
400.837	108.44
401.062	109.44
401.286	117.44
401.51	118.44
401.734	115.44
401.958	105.44
402.182	108.44
402.406	105.44
402.63	121.44
402.854	124.44
403.078	113.44
403.302	115.44
403.526	123.44
403.75	123.44
403.974	117.44
404.198	125.44
404.422	115.44
404.645	112.44
404.869	134.44
405.093	119.44
405.317	119.44
405.541	124.44
405.765	108.44
405.988	124.44
406.212	143.44
406.436	124.44
406.66	123.44
406.883	127.44
407.107	124.44
407.331	130.44
407.555	128.44
407.778	126.44
408.002	127.44
408.226	133.44
408.449	115.44
408.673	137.44
408.896	112.44
409.12	114.44
409.344	120.44
409.567	132.44
409.791	136.44
410.014	123.44
410.238	120.44
410.461	105.44
410.685	122.44
410.908	128.44
411.132	129.44
411.355	129.44
411.578	112.44
411.802	120.44
412.025	126.44
412.249	136.44
412.472	122.44
412.695	116.44
412.919	122.44
413.142	124.44
413.365	124.44
413.589	134.44
413.812	124.44
414.035	135.44
414.258	126.44
414.482	120.44
414.705	120.44
414.928	134.44
415.151	116.44
415.374	140.44
415.597	112.44
415.821	116.44
416.044	124.44
416.267	130.44
416.49	121.44
416.713	125.44
416.936	143.44
417.159	138.44
417.382	127.44
417.605	133.44
417.828	136.44
418.051	140.44
418.274	153.44
418.497	149.44
418.72	149.44
418.943	142.44
419.166	126.44
419.389	132.44
419.611	148.44
419.834	132.44
420.057	127.44
420.28	108.44
420.503	139.44
420.726	137.44
420.948	155.44
421.171	131.44
421.394	148.44
421.617	135.44
421.839	145.44
422.062	159.44
422.285	126.44
422.507	138.44
422.73	122.44
422.953	128.44
423.175	141.44
423.398	138.44
423.621	127.44
423.843	148.44
424.066	146.44
424.288	152.44
424.511	163.44
424.733	164.44
424.956	138.44
425.178	137.44
425.401	140.44
425.623	136.44
425.846	153.44
426.068	144.44
426.291	138.44
426.513	125.44
426.735	115.44
426.958	136.44
427.18	130.44
427.402	139.44
427.625	129.44
427.847	134.44
428.069	137.44
428.292	111.44
428.514	126.44
428.736	131.44
428.958	134.44
429.181	126.44
429.403	126.44
429.625	133.44
429.847	139.44
430.069	132.44
430.292	137.44
430.514	138.44
430.736	124.44
430.958	138.44
431.18	129.44
431.402	126.44
431.624	117.44
431.846	107.44
432.068	93.44
432.29	95.44
432.512	113.44
432.734	130.44
432.956	141.44
433.178	140.44
433.4	142.44
433.622	149.44
433.844	138.44
434.066	137.44
434.287	118.44
434.509	97.44
434.731	98.44
434.953	125.44
435.175	123.44
435.397	135.44
435.618	121.44
435.84	129.44
436.062	125.44
436.284	130.44
436.505	134.44
436.727	153.44
436.949	122.44
437.17	139.44
437.392	137.44
437.614	127.44
437.835	109.44
438.057	112.44
438.278	120.44
438.5	123.44
438.721	133.44
438.943	131.44
439.165	137.44
439.386	130.44
439.608	128.44
439.829	149.44
440.05	150.44
440.272	155.44
440.493	162.44
440.715	151.44
440.936	149.44
441.158	142.44
441.379	152.44
441.6	142.44
441.822	158.44
442.043	156.44
442.264	140.44
442.486	164.44
442.707	153.44
442.928	141.44
443.149	143.44
443.371	152.44
443.592	144.44
443.813	145.44
444.034	146.44
444.255	153.44
444.476	164.44
444.698	148.44
444.919	150.44
445.14	298.44
445.361	204.44
445.582	148.44
445.803	159.44
446.024	155.44
446.245	159.44
446.466	166.44
446.687	157.44
446.908	170.44
447.129	165.44
447.35	163.44
447.571	160.44
447.792	161.44
448.013	152.44
448.234	141.44
448.455	146.44
448.675	157.44
448.896	146.44
449.117	143.44
449.338	150.44
449.559	138.44
449.779	142.44
450	133.44
450.221	140.44
450.442	148.44
450.662	136.44
450.883	128.44
451.104	132.44
451.324	145.44
451.545	133.44
451.766	129.44
451.986	131.44
452.207	139.44
452.428	119.44
452.648	130.44
452.869	122.44
453.089	120.44
453.31	110.44
453.53	106.44
453.751	112.44
453.971	113.44
454.192	112.44
454.412	120.44
454.633	125.44
454.853	130.44
455.073	127.44
455.294	138.44
455.514	131.44
455.734	137.44
455.955	123.44
456.175	113.44
456.395	121.44
456.616	119.44
456.836	123.44
457.056	118.44
457.276	118.44
457.497	106.44
457.717	114.44
457.937	109.44
458.157	120.44
458.377	114.44
458.598	101.44
458.818	99.44
459.038	82.44
459.258	89.44
459.478	88.44
459.698	87.44
459.918	94.44
460.138	116.44
460.358	117.44
460.578	116.44
460.798	115.44
461.018	123.44
461.238	108.44
461.458	124.44
461.678	104.44
461.898	106.44
462.118	122.44
462.338	117.44
462.558	104.44
462.777	116.44
462.997	112.44
463.217	120.44
463.437	106.44
463.657	115.44
463.876	128.44
464.096	105.44
464.316	114.44
464.536	126.44
464.755	128.44
464.975	130.44
465.195	124.44
465.414	112.44
465.634	118.44
465.854	128.44
466.073	124.44
466.293	119.44
466.512	128.44
466.732	129.44
466.951	145.44
467.171	138.44
467.391	143.44
467.61	115.44
467.829	149.44
468.049	145.44
468.268	157.44
468.488	155.44
468.707	137.44
468.927	141.44
469.146	155.44
469.365	120.44
469.585	154.44
469.804	147.44
470.023	152.44
470.243	142.44
470.462	138.44
470.681	168.44
470.901	153.44
471.12	155.44
471.339	133.44
471.558	160.44
471.777	143.44
471.997	138.44
472.216	138.44
472.435	105.44
472.654	112.44
472.873	116.44
473.092	144.44
473.311	128.44
473.53	130.44
473.749	121.44
473.968	125.44
474.187	126.44
474.406	124.44
474.625	128.44
474.844	128.44
475.063	135.44
475.282	124.44
475.501	116.44
475.72	135.44
475.939	126.44
476.158	132.44
476.377	130.44
476.596	143.44
476.814	131.44
477.033	121.44
477.252	128.44
477.471	120.44
477.69	146.44
477.908	142.44
478.127	134.44
478.346	148.44
478.564	144.44
478.783	135.44
479.002	147.44
479.22	137.44
479.439	149.44
479.658	135.44
479.876	116.44
480.095	100.44
480.313	108.44
480.532	119.44
480.751	114.44
480.969	96.44
481.188	97.44
481.406	104.44
481.624	84.44
481.843	91.44
482.061	112.44
482.28	112.44
482.498	100.44
482.717	111.44
482.935	124.44
483.153	148.44
483.372	150.44
483.59	149.44
483.808	125.44
484.027	142.44
484.245	127.44
484.463	144.44
484.681	171.44
484.9	156.44
485.118	136.44
485.336	133.44
485.554	121.44
485.772	104.44
485.99	96.44
486.209	121.44
486.427	136.44
486.645	121.44
486.863	144.44
487.081	148.44
487.299	137.44
487.517	151.44
487.735	171.44
487.953	203.44
488.171	180.44
488.389	177.44
488.607	168.44
488.825	148.44
489.043	131.44
489.261	131.44
489.479	151.44
489.696	138.44
489.914	142.44
490.132	143.44
490.35	151.44
490.568	162.44
490.786	181.44
491.003	181.44
491.221	189.44
491.439	177.44
491.657	206.44
491.874	217.44
492.092	241.44
492.31	258.44
492.527	244.44
492.745	225.44
492.963	206.44
493.18	208.44
493.398	187.44
493.615	196.44
493.833	188.44
494.05	185.44
494.268	178.44
494.485	184.44
494.703	187.44
494.92	183.44
495.138	166.44
495.355	171.44
495.573	180.44
495.79	190.44
496.008	177.44
496.225	173.44
496.442	169.44
496.66	186.44
496.877	177.44
497.094	164.44
497.312	181.44
497.529	171.44
497.746	153.44
497.963	160.44
498.181	132.44
498.398	140.44
498.615	129.44
498.832	123.44
499.049	144.44
499.267	130.44
499.484	124.44
499.701	128.44
499.918	129.44
500.135	144.44
500.352	142.44
500.569	150.44
500.786	149.44
501.003	146.44
501.22	146.44
501.437	134.44
501.654	145.44
501.871	138.44
502.088	141.44
502.305	143.44
502.522	131.44
502.739	147.44
502.956	145.44
503.172	129.44
503.389	135.44
503.606	128.44
503.823	129.44
504.04	128.44
504.256	133.44
504.473	114.44
504.69	133.44
504.907	122.44
505.123	122.44
505.34	121.44
505.557	139.44
505.773	140.44
505.99	115.44
506.207	136.44
506.423	146.44
506.64	119.44
506.856	110.44
507.073	126.44
507.289	110.44
507.506	127.44
507.722	120.44
507.939	124.44
508.155	125.44
508.372	118.44
508.588	117.44
508.805	116.44
509.021	126.44
509.238	105.44
509.454	116.44
509.67	108.44
509.887	105.44
510.103	97.44
510.319	101.44
510.536	97.44
510.752	92.44
510.968	75.44
511.184	75.44
511.401	82.44
