Data from Location6.07152019.Energy5.Lamp.07192019.3%Agarose_HRD10591_16-13-29-395.txt Node
Date: Fri Jul 19 16:13:29 EDT 2019
User: cochatt
Spectrometer: HR+D1059
Trigger mode: 1
Integration Time (sec): 1.000000E-1
Scans to average: 1
Electric dark correction enabled: true
Nonlinearity correction enabled: false
Boxcar width: 0
XAxis mode: Wavelengths
Number of Pixels in Spectrum: 2048
>>>>>Begin Spectral Data<<<<<
223.165	-22.25
223.4	-22.25
223.635	-22.25
223.869	-19.25
224.104	-19.25
224.338	3.75
224.573	-5.25
224.808	-9.25
225.042	-17.25
225.277	-19.25
225.511	-9.25
225.746	11.75
225.98	9.75
226.215	11.75
226.449	5.75
226.683	21.75
226.918	27.75
227.152	28.75
227.387	46.75
227.621	41.75
227.856	49.75
228.09	45.75
228.324	45.75
228.559	58.75
228.793	57.75
229.027	62.75
229.262	72.75
229.496	63.75
229.73	61.75
229.964	69.75
230.199	89.75
230.433	74.75
230.667	88.75
230.901	82.75
231.136	68.75
231.37	74.75
231.604	74.75
231.838	90.75
232.072	79.75
232.306	87.75
232.541	69.75
232.775	67.75
233.009	88.75
233.243	100.75
233.477	89.75
233.711	84.75
233.945	71.75
234.179	78.75
234.413	75.75
234.647	79.75
234.881	77.75
235.115	90.75
235.349	71.75
235.583	77.75
235.817	82.75
236.051	85.75
236.285	76.75
236.519	74.75
236.753	75.75
236.987	87.75
237.221	78.75
237.455	101.75
237.689	76.75
237.922	77.75
238.156	85.75
238.39	68.75
238.624	76.75
238.858	84.75
239.091	76.75
239.325	61.75
239.559	73.75
239.793	72.75
240.027	85.75
240.26	85.75
240.494	54.75
240.728	79.75
240.961	91.75
241.195	78.75
241.429	79.75
241.662	82.75
241.896	79.75
242.13	79.75
242.363	68.75
242.597	81.75
242.83	78.75
243.064	57.75
243.298	82.75
243.531	77.75
243.765	76.75
243.998	84.75
244.232	83.75
244.465	84.75
244.699	74.75
244.932	78.75
245.166	80.75
245.399	89.75
245.633	86.75
245.866	75.75
246.099	82.75
246.333	69.75
246.566	78.75
246.8	97.75
247.033	81.75
247.266	53.75
247.5	76.75
247.733	91.75
247.966	79.75
248.2	89.75
248.433	86.75
248.666	92.75
248.899	87.75
249.133	75.75
249.366	91.75
249.599	76.75
249.832	75.75
250.066	75.75
250.299	90.75
250.532	72.75
250.765	69.75
250.998	82.75
251.231	91.75
251.465	83.75
251.698	76.75
251.931	80.75
252.164	86.75
252.397	86.75
252.63	84.75
252.863	75.75
253.096	66.75
253.329	77.75
253.562	84.75
253.795	90.75
254.028	87.75
254.261	72.75
254.494	70.75
254.727	89.75
254.96	71.75
255.193	76.75
255.426	88.75
255.659	77.75
255.892	77.75
256.124	87.75
256.357	81.75
256.59	67.75
256.823	76.75
257.056	77.75
257.289	80.75
257.521	99.75
257.754	81.75
257.987	61.75
258.22	89.75
258.452	83.75
258.685	89.75
258.918	89.75
259.151	83.75
259.383	75.75
259.616	73.75
259.849	76.75
260.081	78.75
260.314	79.75
260.547	84.75
260.779	74.75
261.012	79.75
261.244	91.75
261.477	87.75
261.71	93.75
261.942	77.75
262.175	79.75
262.407	88.75
262.64	90.75
262.872	89.75
263.105	96.75
263.337	91.75
263.57	84.75
263.802	75.75
264.035	85.75
264.267	85.75
264.499	93.75
264.732	92.75
264.964	83.75
265.197	78.75
265.429	78.75
265.661	88.75
265.894	89.75
266.126	81.75
266.358	78.75
266.591	77.75
266.823	82.75
267.055	73.75
267.287	78.75
267.52	78.75
267.752	81.75
267.984	77.75
268.216	84.75
268.448	85.75
268.681	97.75
268.913	84.75
269.145	80.75
269.377	80.75
269.609	91.75
269.841	86.75
270.073	79.75
270.306	83.75
270.538	86.75
270.77	70.75
271.002	67.75
271.234	83.75
271.466	84.75
271.698	100.75
271.93	78.75
272.162	83.75
272.394	74.75
272.626	75.75
272.858	86.75
273.09	86.75
273.322	84.75
273.553	89.75
273.785	81.75
274.017	86.75
274.249	81.75
274.481	80.75
274.713	74.75
274.945	73.75
275.176	83.75
275.408	69.75
275.64	93.75
275.872	92.75
276.104	86.75
276.335	78.75
276.567	86.75
276.799	81.75
277.031	80.75
277.262	85.75
277.494	98.75
277.726	70.75
277.957	87.75
278.189	94.75
278.421	91.75
278.652	88.75
278.884	79.75
279.115	100.75
279.347	93.75
279.579	89.75
279.81	98.75
280.042	94.75
280.273	78.75
280.505	90.75
280.736	75.75
280.968	85.75
281.199	70.75
281.431	76.75
281.662	89.75
281.894	87.75
282.125	89.75
282.356	77.75
282.588	85.75
282.819	85.75
283.051	70.75
283.282	86.75
283.513	101.75
283.745	92.75
283.976	86.75
284.207	88.75
284.439	92.75
284.67	94.75
284.901	85.75
285.132	94.75
285.364	78.75
285.595	87.75
285.826	68.75
286.057	78.75
286.288	89.75
286.52	74.75
286.751	96.75
286.982	90.75
287.213	74.75
287.444	81.75
287.675	89.75
287.906	88.75
288.138	86.75
288.369	92.75
288.6	80.75
288.831	96.75
289.062	97.75
289.293	86.75
289.524	81.75
289.755	90.75
289.986	85.75
290.217	81.75
290.448	97.75
290.679	84.75
290.91	90.75
291.141	73.75
291.371	83.75
291.602	83.75
291.833	84.75
292.064	86.75
292.295	87.75
292.526	78.75
292.757	77.75
292.987	83.75
293.218	85.75
293.449	94.75
293.68	89.75
293.91	91.75
294.141	82.75
294.372	90.75
294.603	88.75
294.833	75.75
295.064	93.75
295.295	108.75
295.525	97.75
295.756	79.75
295.987	90.75
296.217	85.75
296.448	84.75
296.679	82.75
296.909	92.75
297.14	89.75
297.37	75.75
297.601	88.75
297.831	75.75
298.062	66.75
298.292	90.75
298.523	93.75
298.753	76.75
298.984	82.75
299.214	69.75
299.445	85.75
299.675	78.75
299.905	83.75
300.136	89.75
300.366	90.75
300.597	86.75
300.827	105.75
301.057	81.75
301.288	87.75
301.518	91.75
301.748	78.75
301.979	90.75
302.209	86.75
302.439	90.75
302.669	89.75
302.9	85.75
303.13	88.75
303.36	88.75
303.59	81.75
303.82	67.75
304.051	75.75
304.281	68.75
304.511	81.75
304.741	81.75
304.971	83.75
305.201	77.75
305.431	79.75
305.661	96.75
305.891	86.75
306.121	86.75
306.352	95.75
306.582	88.75
306.812	107.75
307.042	80.75
307.272	90.75
307.502	99.75
307.731	88.75
307.961	78.75
308.191	89.75
308.421	82.75
308.651	86.75
308.881	89.75
309.111	94.75
309.341	93.75
309.571	84.75
309.8	73.75
310.03	102.75
310.26	87.75
310.49	89.75
310.72	78.75
310.949	87.75
311.179	86.75
311.409	70.75
311.639	93.75
311.868	73.75
312.098	84.75
312.328	92.75
312.557	84.75
312.787	85.75
313.017	82.75
313.246	84.75
313.476	86.75
313.706	72.75
313.935	94.75
314.165	80.75
314.394	83.75
314.624	72.75
314.853	91.75
315.083	84.75
315.312	86.75
315.542	83.75
315.771	93.75
316.001	84.75
316.23	86.75
316.46	95.75
316.689	95.75
316.919	81.75
317.148	93.75
317.377	86.75
317.607	92.75
317.836	97.75
318.065	79.75
318.295	85.75
318.524	95.75
318.753	85.75
318.983	87.75
319.212	92.75
319.441	92.75
319.67	94.75
319.9	88.75
320.129	96.75
320.358	78.75
320.587	80.75
320.816	88.75
321.046	95.75
321.275	99.75
321.504	91.75
321.733	79.75
321.962	84.75
322.191	93.75
322.42	81.75
322.649	100.75
322.878	94.75
323.108	66.75
323.337	97.75
323.566	101.75
323.795	108.75
324.024	96.75
324.253	77.75
324.482	86.75
324.71	96.75
324.939	104.75
325.168	78.75
325.397	85.75
325.626	78.75
325.855	93.75
326.084	87.75
326.313	86.75
326.542	78.75
326.77	88.75
326.999	86.75
327.228	82.75
327.457	89.75
327.686	88.75
327.914	106.75
328.143	92.75
328.372	71.75
328.6	98.75
328.829	94.75
329.058	91.75
329.287	102.75
329.515	85.75
329.744	89.75
329.972	79.75
330.201	85.75
330.43	86.75
330.658	88.75
330.887	90.75
331.115	84.75
331.344	90.75
331.572	73.75
331.801	91.75
332.03	84.75
332.258	83.75
332.486	93.75
332.715	106.75
332.943	89.75
333.172	104.75
333.4	86.75
333.629	94.75
333.857	84.75
334.085	87.75
334.314	78.75
334.542	102.75
334.771	71.75
334.999	84.75
335.227	79.75
335.455	88.75
335.684	90.75
335.912	80.75
336.14	87.75
336.369	79.75
336.597	87.75
336.825	79.75
337.053	90.75
337.281	74.75
337.51	70.75
337.738	80.75
337.966	89.75
338.194	84.75
338.422	91.75
338.65	70.75
338.878	85.75
339.106	90.75
339.334	80.75
339.562	78.75
339.79	91.75
340.018	79.75
340.246	85.75
340.474	79.75
340.702	87.75
340.93	88.75
341.158	82.75
341.386	86.75
341.614	87.75
341.842	84.75
342.07	86.75
342.298	82.75
342.526	89.75
342.754	81.75
342.981	86.75
343.209	85.75
343.437	89.75
343.665	98.75
343.893	69.75
344.12	74.75
344.348	86.75
344.576	91.75
344.804	80.75
345.031	87.75
345.259	79.75
345.487	78.75
345.714	89.75
345.942	89.75
346.17	76.75
346.397	79.75
346.625	91.75
346.853	93.75
347.08	82.75
347.308	92.75
347.535	91.75
347.763	89.75
347.99	97.75
348.218	92.75
348.445	99.75
348.673	99.75
348.9	83.75
349.128	92.75
349.355	86.75
349.583	90.75
349.81	95.75
350.037	103.75
350.265	90.75
350.492	96.75
350.72	84.75
350.947	91.75
351.174	89.75
351.402	79.75
351.629	85.75
351.856	80.75
352.083	87.75
352.311	97.75
352.538	92.75
352.765	86.75
352.992	88.75
353.22	103.75
353.447	87.75
353.674	89.75
353.901	75.75
354.128	80.75
354.355	75.75
354.583	85.75
354.81	88.75
355.037	89.75
355.264	86.75
355.491	90.75
355.718	86.75
355.945	90.75
356.172	86.75
356.399	90.75
356.626	86.75
356.853	88.75
357.08	71.75
357.307	80.75
357.534	93.75
357.761	90.75
357.988	94.75
358.215	86.75
358.441	89.75
358.668	76.75
358.895	81.75
359.122	99.75
359.349	82.75
359.576	87.75
359.802	77.75
360.029	95.75
360.256	87.75
360.483	83.75
360.709	83.75
360.936	87.75
361.163	81.75
361.39	98.75
361.616	84.75
361.843	91.75
362.07	98.75
362.296	81.75
362.523	88.75
362.749	77.75
362.976	93.75
363.203	71.75
363.429	86.75
363.656	84.75
363.882	85.75
364.109	88.75
364.335	87.75
364.562	106.75
364.788	84.75
365.015	75.75
365.241	76.75
365.468	90.75
365.694	79.75
365.92	76.75
366.147	76.75
366.373	83.75
366.599	90.75
366.826	90.75
367.052	101.75
367.278	93.75
367.505	89.75
367.731	100.75
367.957	91.75
368.184	103.75
368.41	97.75
368.636	94.75
368.862	86.75
369.089	92.75
369.315	78.75
369.541	107.75
369.767	101.75
369.993	76.75
370.219	79.75
370.445	88.75
370.672	81.75
370.898	98.75
371.124	100.75
371.35	90.75
371.576	82.75
371.802	85.75
372.028	97.75
372.254	87.75
372.48	87.75
372.706	92.75
372.932	90.75
373.158	79.75
373.384	96.75
373.61	114.75
373.835	94.75
374.061	98.75
374.287	98.75
374.513	104.75
374.739	90.75
374.965	97.75
375.191	96.75
375.416	96.75
375.642	102.75
375.868	94.75
376.094	91.75
376.319	105.75
376.545	99.75
376.771	87.75
376.997	101.75
377.222	98.75
377.448	91.75
377.674	85.75
377.899	98.75
378.125	85.75
378.35	114.75
378.576	98.75
378.802	94.75
379.027	84.75
379.253	106.75
379.478	94.75
379.704	116.75
379.929	97.75
380.155	94.75
380.38	96.75
380.606	97.75
380.831	110.75
381.057	100.75
381.282	112.75
381.507	100.75
381.733	97.75
381.958	97.75
382.184	101.75
382.409	106.75
382.634	109.75
382.86	101.75
383.085	101.75
383.31	93.75
383.535	92.75
383.761	97.75
383.986	107.75
384.211	93.75
384.436	105.75
384.662	116.75
384.887	109.75
385.112	101.75
385.337	105.75
385.562	94.75
385.787	88.75
386.013	90.75
386.238	111.75
386.463	94.75
386.688	99.75
386.913	109.75
387.138	93.75
387.363	119.75
387.588	101.75
387.813	105.75
388.038	113.75
388.263	118.75
388.488	83.75
388.713	103.75
388.938	113.75
389.163	105.75
389.387	114.75
389.612	107.75
389.837	95.75
390.062	108.75
390.287	107.75
390.512	113.75
390.736	90.75
390.961	111.75
391.186	100.75
391.411	119.75
391.636	102.75
391.86	104.75
392.085	105.75
392.31	103.75
392.534	103.75
392.759	98.75
392.984	120.75
393.208	108.75
393.433	109.75
393.658	102.75
393.882	110.75
394.107	98.75
394.331	114.75
394.556	94.75
394.78	107.75
395.005	123.75
395.229	121.75
395.454	118.75
395.678	117.75
395.903	102.75
396.127	104.75
396.352	115.75
396.576	131.75
396.801	115.75
397.025	113.75
397.249	97.75
397.474	119.75
397.698	121.75
397.922	114.75
398.147	125.75
398.371	103.75
398.595	112.75
398.82	108.75
399.044	110.75
399.268	116.75
399.492	119.75
399.717	127.75
399.941	115.75
400.165	110.75
400.389	113.75
400.613	121.75
400.837	119.75
401.062	109.75
401.286	115.75
401.51	116.75
401.734	127.75
401.958	127.75
402.182	131.75
402.406	123.75
402.63	116.75
402.854	125.75
403.078	106.75
403.302	110.75
403.526	117.75
403.75	120.75
403.974	125.75
404.198	125.75
404.422	117.75
404.645	125.75
404.869	122.75
405.093	127.75
405.317	125.75
405.541	139.75
405.765	130.75
405.988	136.75
406.212	120.75
406.436	117.75
406.66	134.75
406.883	119.75
407.107	129.75
407.331	119.75
407.555	121.75
407.778	121.75
408.002	130.75
408.226	120.75
408.449	121.75
408.673	111.75
408.896	133.75
409.12	127.75
409.344	133.75
409.567	121.75
409.791	116.75
410.014	137.75
410.238	121.75
410.461	136.75
410.685	114.75
410.908	125.75
411.132	139.75
411.355	113.75
411.578	122.75
411.802	127.75
412.025	140.75
412.249	131.75
412.472	140.75
412.695	124.75
412.919	141.75
413.142	124.75
413.365	120.75
413.589	131.75
413.812	123.75
414.035	127.75
414.258	124.75
414.482	121.75
414.705	125.75
414.928	129.75
415.151	139.75
415.374	121.75
415.597	125.75
415.821	121.75
416.044	126.75
416.267	119.75
416.49	133.75
416.713	124.75
416.936	124.75
417.159	149.75
417.382	123.75
417.605	117.75
417.828	134.75
418.051	145.75
418.274	140.75
418.497	152.75
418.72	139.75
418.943	145.75
419.166	148.75
419.389	149.75
419.611	131.75
419.834	143.75
420.057	144.75
420.28	135.75
420.503	122.75
420.726	131.75
420.948	130.75
421.171	124.75
421.394	149.75
421.617	136.75
421.839	141.75
422.062	161.75
422.285	143.75
422.507	142.75
422.73	127.75
422.953	140.75
423.175	148.75
423.398	123.75
423.621	132.75
423.843	141.75
424.066	143.75
424.288	149.75
424.511	167.75
424.733	146.75
424.956	149.75
425.178	137.75
425.401	145.75
425.623	155.75
425.846	134.75
426.068	142.75
426.291	147.75
426.513	142.75
426.735	133.75
426.958	131.75
427.18	138.75
427.402	135.75
427.625	133.75
427.847	129.75
428.069	135.75
428.292	150.75
428.514	134.75
428.736	133.75
428.958	137.75
429.181	122.75
429.403	135.75
429.625	131.75
429.847	129.75
430.069	125.75
430.292	137.75
430.514	137.75
430.736	129.75
430.958	143.75
431.18	122.75
431.402	127.75
431.624	121.75
431.846	106.75
432.068	111.75
432.29	102.75
432.512	125.75
432.734	140.75
432.956	129.75
433.178	129.75
433.4	155.75
433.622	147.75
433.844	134.75
434.066	121.75
434.287	119.75
434.509	114.75
434.731	106.75
434.953	119.75
435.175	129.75
435.397	122.75
435.618	117.75
435.84	115.75
436.062	125.75
436.284	126.75
436.505	123.75
436.727	130.75
436.949	141.75
437.17	136.75
437.392	139.75
437.614	132.75
437.835	123.75
438.057	108.75
438.278	122.75
438.5	130.75
438.721	141.75
438.943	137.75
439.165	142.75
439.386	148.75
439.608	147.75
439.829	164.75
440.05	155.75
440.272	145.75
440.493	170.75
440.715	151.75
440.936	161.75
441.158	163.75
441.379	151.75
441.6	148.75
441.822	163.75
442.043	149.75
442.264	128.75
442.486	133.75
442.707	151.75
442.928	166.75
443.149	151.75
443.371	151.75
443.592	129.75
443.813	136.75
444.034	151.75
444.255	147.75
444.476	143.75
444.698	156.75
444.919	149.75
445.14	263.75
445.361	217.75
445.582	172.75
445.803	154.75
446.024	154.75
446.245	156.75
446.466	153.75
446.687	162.75
446.908	177.75
447.129	171.75
447.35	152.75
447.571	149.75
447.792	151.75
448.013	168.75
448.234	141.75
448.455	144.75
448.675	156.75
448.896	133.75
449.117	141.75
449.338	135.75
449.559	140.75
449.779	141.75
450	146.75
450.221	129.75
450.442	137.75
450.662	142.75
450.883	127.75
451.104	132.75
451.324	133.75
451.545	134.75
451.766	144.75
451.986	139.75
452.207	130.75
452.428	133.75
452.648	135.75
452.869	120.75
453.089	129.75
453.31	125.75
453.53	116.75
453.751	106.75
453.971	113.75
454.192	119.75
454.412	120.75
454.633	118.75
454.853	127.75
455.073	147.75
455.294	125.75
455.514	125.75
455.734	142.75
455.955	142.75
456.175	114.75
456.395	129.75
456.616	122.75
456.836	131.75
457.056	106.75
457.276	102.75
457.497	103.75
457.717	102.75
457.937	118.75
458.157	123.75
458.377	85.75
458.598	112.75
458.818	108.75
459.038	89.75
459.258	90.75
459.478	97.75
459.698	92.75
459.918	97.75
460.138	101.75
460.358	118.75
460.578	118.75
460.798	126.75
461.018	123.75
461.238	117.75
461.458	129.75
461.678	122.75
461.898	119.75
462.118	116.75
462.338	115.75
462.558	118.75
462.777	123.75
462.997	109.75
463.217	115.75
463.437	115.75
463.657	115.75
463.876	111.75
464.096	117.75
464.316	118.75
464.536	117.75
464.755	113.75
464.975	105.75
465.195	125.75
465.414	130.75
465.634	112.75
465.854	133.75
466.073	117.75
466.293	127.75
466.512	139.75
466.732	129.75
466.951	130.75
467.171	129.75
467.391	141.75
467.61	137.75
467.829	135.75
468.049	140.75
468.268	131.75
468.488	127.75
468.707	139.75
468.927	150.75
469.146	147.75
469.365	151.75
469.585	155.75
469.804	151.75
470.023	141.75
470.243	146.75
470.462	168.75
470.681	144.75
470.901	144.75
471.12	134.75
471.339	147.75
471.558	150.75
471.777	149.75
471.997	140.75
472.216	129.75
472.435	128.75
472.654	120.75
472.873	119.75
473.092	113.75
473.311	142.75
473.53	137.75
473.749	139.75
473.968	142.75
474.187	137.75
474.406	139.75
474.625	128.75
474.844	138.75
475.063	139.75
475.282	139.75
475.501	134.75
475.72	131.75
475.939	129.75
476.158	138.75
476.377	135.75
476.596	129.75
476.814	119.75
477.033	109.75
477.252	115.75
477.471	137.75
477.69	147.75
477.908	146.75
478.127	148.75
478.346	142.75
478.564	132.75
478.783	137.75
479.002	143.75
479.22	138.75
479.439	143.75
479.658	124.75
479.876	117.75
480.095	113.75
480.313	110.75
480.532	118.75
480.751	118.75
480.969	106.75
481.188	108.75
481.406	92.75
481.624	88.75
481.843	97.75
482.061	108.75
482.28	112.75
482.498	123.75
482.717	140.75
482.935	131.75
483.153	155.75
483.372	171.75
483.59	163.75
483.808	148.75
484.027	122.75
484.245	140.75
484.463	153.75
484.681	159.75
484.9	157.75
485.118	154.75
485.336	148.75
485.554	131.75
485.772	100.75
485.99	123.75
486.209	117.75
486.427	98.75
486.645	117.75
486.863	137.75
487.081	132.75
487.299	139.75
487.517	151.75
487.735	172.75
487.953	211.75
488.171	196.75
488.389	175.75
488.607	170.75
488.825	156.75
489.043	143.75
489.261	139.75
489.479	160.75
489.696	157.75
489.914	161.75
490.132	161.75
490.35	167.75
490.568	177.75
490.786	164.75
491.003	178.75
491.221	190.75
491.439	199.75
491.657	212.75
491.874	209.75
492.092	236.75
492.31	245.75
492.527	259.75
492.745	228.75
492.963	197.75
493.18	198.75
493.398	193.75
493.615	183.75
493.833	180.75
494.05	192.75
494.268	198.75
494.485	181.75
494.703	176.75
494.92	170.75
495.138	180.75
495.355	193.75
495.573	173.75
495.79	183.75
496.008	190.75
496.225	190.75
496.442	180.75
496.66	173.75
496.877	174.75
497.094	170.75
497.312	166.75
497.529	173.75
497.746	157.75
497.963	137.75
498.181	140.75
498.398	129.75
498.615	113.75
498.832	124.75
499.049	108.75
499.267	126.75
499.484	123.75
499.701	129.75
499.918	134.75
500.135	139.75
500.352	135.75
500.569	146.75
500.786	153.75
501.003	153.75
501.22	146.75
501.437	153.75
501.654	137.75
501.871	143.75
502.088	151.75
502.305	143.75
502.522	134.75
502.739	132.75
502.956	126.75
503.172	151.75
503.389	131.75
503.606	119.75
503.823	135.75
504.04	130.75
504.256	121.75
504.473	125.75
504.69	139.75
504.907	132.75
505.123	139.75
505.34	119.75
505.557	114.75
505.773	143.75
505.99	140.75
506.207	140.75
506.423	130.75
506.64	126.75
506.856	133.75
507.073	147.75
507.289	123.75
507.506	119.75
507.722	114.75
507.939	127.75
508.155	124.75
508.372	120.75
508.588	115.75
508.805	116.75
509.021	113.75
509.238	101.75
509.454	93.75
509.67	104.75
509.887	92.75
510.103	89.75
510.319	98.75
510.536	98.75
510.752	90.75
510.968	87.75
