Data from Location6.07152019.Energy5.Lamp.07192019.3%Agarose_HRD10591_16-12-18-395.txt Node
Date: Fri Jul 19 16:12:18 EDT 2019
User: cochatt
Spectrometer: HR+D1059
Trigger mode: 1
Integration Time (sec): 1.000000E-1
Scans to average: 1
Electric dark correction enabled: true
Nonlinearity correction enabled: false
Boxcar width: 0
XAxis mode: Wavelengths
Number of Pixels in Spectrum: 2048
>>>>>Begin Spectral Data<<<<<
223.165	-17.44
223.4	-17.44
223.635	-17.44
223.869	-4.44
224.104	-25.44
224.338	-26.44
224.573	-22.44
224.808	-2.44
225.042	-3.44
225.277	-13.44
225.511	-9.44
225.746	6.56
225.98	20.56
226.215	9.56
226.449	16.56
226.683	11.56
226.918	21.56
227.152	38.56
227.387	38.56
227.621	39.56
227.856	40.56
228.09	36.56
228.324	50.56
228.559	73.56
228.793	66.56
229.027	60.56
229.262	63.56
229.496	80.56
229.73	79.56
229.964	62.56
230.199	78.56
230.433	78.56
230.667	72.56
230.901	72.56
231.136	88.56
231.37	83.56
231.604	88.56
231.838	88.56
232.072	75.56
232.306	96.56
232.541	82.56
232.775	88.56
233.009	88.56
233.243	80.56
233.477	77.56
233.711	90.56
233.945	103.56
234.179	93.56
234.413	92.56
234.647	79.56
234.881	94.56
235.115	89.56
235.349	84.56
235.583	78.56
235.817	79.56
236.051	86.56
236.285	74.56
236.519	79.56
236.753	82.56
236.987	80.56
237.221	82.56
237.455	67.56
237.689	57.56
237.922	75.56
238.156	71.56
238.39	80.56
238.624	74.56
238.858	70.56
239.091	76.56
239.325	78.56
239.559	94.56
239.793	75.56
240.027	85.56
240.26	79.56
240.494	75.56
240.728	85.56
240.961	77.56
241.195	71.56
241.429	81.56
241.662	78.56
241.896	85.56
242.13	90.56
242.363	92.56
242.597	73.56
242.83	89.56
243.064	79.56
243.298	79.56
243.531	76.56
243.765	74.56
243.998	74.56
244.232	92.56
244.465	84.56
244.699	83.56
244.932	85.56
245.166	81.56
245.399	77.56
245.633	79.56
245.866	86.56
246.099	84.56
246.333	90.56
246.566	75.56
246.8	57.56
247.033	86.56
247.266	82.56
247.5	71.56
247.733	80.56
247.966	79.56
248.2	99.56
248.433	88.56
248.666	94.56
248.899	79.56
249.133	86.56
249.366	81.56
249.599	83.56
249.832	80.56
250.066	87.56
250.299	78.56
250.532	85.56
250.765	73.56
250.998	78.56
251.231	78.56
251.465	81.56
251.698	86.56
251.931	75.56
252.164	91.56
252.397	89.56
252.63	86.56
252.863	81.56
253.096	88.56
253.329	80.56
253.562	74.56
253.795	95.56
254.028	82.56
254.261	82.56
254.494	90.56
254.727	85.56
254.96	84.56
255.193	73.56
255.426	87.56
255.659	91.56
255.892	73.56
256.124	82.56
256.357	77.56
256.59	90.56
256.823	73.56
257.056	81.56
257.289	83.56
257.521	77.56
257.754	92.56
257.987	90.56
258.22	84.56
258.452	91.56
258.685	67.56
258.918	79.56
259.151	90.56
259.383	82.56
259.616	84.56
259.849	85.56
260.081	83.56
260.314	91.56
260.547	84.56
260.779	87.56
261.012	84.56
261.244	69.56
261.477	79.56
261.71	89.56
261.942	83.56
262.175	87.56
262.407	77.56
262.64	74.56
262.872	79.56
263.105	83.56
263.337	86.56
263.57	110.56
263.802	100.56
264.035	94.56
264.267	82.56
264.499	85.56
264.732	78.56
264.964	85.56
265.197	81.56
265.429	80.56
265.661	91.56
265.894	89.56
266.126	90.56
266.358	88.56
266.591	75.56
266.823	77.56
267.055	87.56
267.287	100.56
267.52	82.56
267.752	88.56
267.984	72.56
268.216	85.56
268.448	88.56
268.681	85.56
268.913	81.56
269.145	65.56
269.377	90.56
269.609	90.56
269.841	82.56
270.073	89.56
270.306	89.56
270.538	71.56
270.77	91.56
271.002	79.56
271.234	85.56
271.466	93.56
271.698	93.56
271.93	83.56
272.162	75.56
272.394	89.56
272.626	81.56
272.858	97.56
273.09	72.56
273.322	93.56
273.553	96.56
273.785	70.56
274.017	88.56
274.249	81.56
274.481	91.56
274.713	82.56
274.945	95.56
275.176	93.56
275.408	83.56
275.64	93.56
275.872	79.56
276.104	82.56
276.335	79.56
276.567	92.56
276.799	69.56
277.031	91.56
277.262	87.56
277.494	89.56
277.726	84.56
277.957	89.56
278.189	93.56
278.421	75.56
278.652	90.56
278.884	93.56
279.115	91.56
279.347	85.56
279.579	99.56
279.81	80.56
280.042	81.56
280.273	93.56
280.505	90.56
280.736	88.56
280.968	92.56
281.199	77.56
281.431	76.56
281.662	89.56
281.894	91.56
282.125	95.56
282.356	74.56
282.588	92.56
282.819	87.56
283.051	98.56
283.282	79.56
283.513	92.56
283.745	84.56
283.976	80.56
284.207	92.56
284.439	80.56
284.67	88.56
284.901	91.56
285.132	83.56
285.364	86.56
285.595	92.56
285.826	88.56
286.057	93.56
286.288	87.56
286.52	84.56
286.751	90.56
286.982	87.56
287.213	93.56
287.444	97.56
287.675	88.56
287.906	106.56
288.138	90.56
288.369	82.56
288.6	97.56
288.831	83.56
289.062	82.56
289.293	84.56
289.524	87.56
289.755	89.56
289.986	106.56
290.217	92.56
290.448	97.56
290.679	83.56
290.91	89.56
291.141	69.56
291.371	99.56
291.602	83.56
291.833	68.56
292.064	89.56
292.295	95.56
292.526	80.56
292.757	87.56
292.987	85.56
293.218	75.56
293.449	90.56
293.68	89.56
293.91	92.56
294.141	104.56
294.372	97.56
294.603	85.56
294.833	96.56
295.064	87.56
295.295	94.56
295.525	96.56
295.756	78.56
295.987	75.56
296.217	103.56
296.448	88.56
296.679	87.56
296.909	89.56
297.14	75.56
297.37	85.56
297.601	87.56
297.831	89.56
298.062	85.56
298.292	83.56
298.523	95.56
298.753	97.56
298.984	101.56
299.214	86.56
299.445	90.56
299.675	86.56
299.905	79.56
300.136	87.56
300.366	77.56
300.597	84.56
300.827	85.56
301.057	94.56
301.288	96.56
301.518	89.56
301.748	76.56
301.979	90.56
302.209	91.56
302.439	86.56
302.669	82.56
302.9	92.56
303.13	82.56
303.36	83.56
303.59	77.56
303.82	98.56
304.051	82.56
304.281	86.56
304.511	94.56
304.741	92.56
304.971	71.56
305.201	93.56
305.431	91.56
305.661	85.56
305.891	97.56
306.121	91.56
306.352	77.56
306.582	90.56
306.812	93.56
307.042	83.56
307.272	85.56
307.502	90.56
307.731	97.56
307.961	92.56
308.191	87.56
308.421	85.56
308.651	88.56
308.881	93.56
309.111	77.56
309.341	79.56
309.571	85.56
309.8	78.56
310.03	88.56
310.26	92.56
310.49	76.56
310.72	72.56
310.949	82.56
311.179	75.56
311.409	106.56
311.639	77.56
311.868	85.56
312.098	82.56
312.328	84.56
312.557	94.56
312.787	84.56
313.017	97.56
313.246	94.56
313.476	90.56
313.706	78.56
313.935	77.56
314.165	85.56
314.394	90.56
314.624	85.56
314.853	93.56
315.083	101.56
315.312	92.56
315.542	95.56
315.771	94.56
316.001	98.56
316.23	82.56
316.46	93.56
316.689	75.56
316.919	102.56
317.148	86.56
317.377	101.56
317.607	94.56
317.836	86.56
318.065	97.56
318.295	86.56
318.524	92.56
318.753	79.56
318.983	86.56
319.212	74.56
319.441	94.56
319.67	86.56
319.9	98.56
320.129	83.56
320.358	89.56
320.587	97.56
320.816	99.56
321.046	91.56
321.275	96.56
321.504	97.56
321.733	83.56
321.962	86.56
322.191	78.56
322.42	89.56
322.649	89.56
322.878	89.56
323.108	74.56
323.337	92.56
323.566	77.56
323.795	65.56
324.024	79.56
324.253	94.56
324.482	85.56
324.71	83.56
324.939	68.56
325.168	85.56
325.397	90.56
325.626	92.56
325.855	85.56
326.084	77.56
326.313	94.56
326.542	82.56
326.77	91.56
326.999	89.56
327.228	82.56
327.457	92.56
327.686	93.56
327.914	78.56
328.143	97.56
328.372	95.56
328.6	93.56
328.829	83.56
329.058	93.56
329.287	81.56
329.515	97.56
329.744	96.56
329.972	90.56
330.201	89.56
330.43	89.56
330.658	80.56
330.887	75.56
331.115	89.56
331.344	72.56
331.572	92.56
331.801	98.56
332.03	95.56
332.258	102.56
332.486	87.56
332.715	106.56
332.943	87.56
333.172	85.56
333.4	86.56
333.629	77.56
333.857	96.56
334.085	87.56
334.314	98.56
334.542	88.56
334.771	92.56
334.999	87.56
335.227	86.56
335.455	82.56
335.684	79.56
335.912	84.56
336.14	85.56
336.369	87.56
336.597	93.56
336.825	94.56
337.053	93.56
337.281	100.56
337.51	99.56
337.738	95.56
337.966	81.56
338.194	70.56
338.422	81.56
338.65	78.56
338.878	86.56
339.106	88.56
339.334	82.56
339.562	88.56
339.79	86.56
340.018	89.56
340.246	82.56
340.474	80.56
340.702	78.56
340.93	106.56
341.158	79.56
341.386	79.56
341.614	90.56
341.842	102.56
342.07	86.56
342.298	80.56
342.526	94.56
342.754	83.56
342.981	89.56
343.209	77.56
343.437	88.56
343.665	77.56
343.893	87.56
344.12	99.56
344.348	93.56
344.576	84.56
344.804	83.56
345.031	79.56
345.259	91.56
345.487	79.56
345.714	96.56
345.942	85.56
346.17	85.56
346.397	91.56
346.625	79.56
346.853	85.56
347.08	77.56
347.308	74.56
347.535	81.56
347.763	95.56
347.99	86.56
348.218	89.56
348.445	85.56
348.673	108.56
348.9	93.56
349.128	75.56
349.355	85.56
349.583	81.56
349.81	82.56
350.037	87.56
350.265	97.56
350.492	94.56
350.72	95.56
350.947	98.56
351.174	69.56
351.402	92.56
351.629	89.56
351.856	84.56
352.083	87.56
352.311	98.56
352.538	88.56
352.765	81.56
352.992	83.56
353.22	93.56
353.447	97.56
353.674	83.56
353.901	91.56
354.128	90.56
354.355	82.56
354.583	85.56
354.81	95.56
355.037	94.56
355.264	76.56
355.491	102.56
355.718	85.56
355.945	86.56
356.172	85.56
356.399	83.56
356.626	89.56
356.853	91.56
357.08	80.56
357.307	90.56
357.534	86.56
357.761	87.56
357.988	90.56
358.215	96.56
358.441	89.56
358.668	82.56
358.895	78.56
359.122	93.56
359.349	88.56
359.576	96.56
359.802	98.56
360.029	90.56
360.256	82.56
360.483	92.56
360.709	84.56
360.936	77.56
361.163	91.56
361.39	93.56
361.616	95.56
361.843	94.56
362.07	93.56
362.296	90.56
362.523	101.56
362.749	92.56
362.976	76.56
363.203	93.56
363.429	94.56
363.656	90.56
363.882	94.56
364.109	80.56
364.335	84.56
364.562	82.56
364.788	91.56
365.015	83.56
365.241	88.56
365.468	70.56
365.694	78.56
365.92	84.56
366.147	83.56
366.373	86.56
366.599	87.56
366.826	75.56
367.052	93.56
367.278	91.56
367.505	79.56
367.731	95.56
367.957	92.56
368.184	96.56
368.41	87.56
368.636	100.56
368.862	103.56
369.089	93.56
369.315	89.56
369.541	97.56
369.767	94.56
369.993	102.56
370.219	109.56
370.445	91.56
370.672	85.56
370.898	89.56
371.124	92.56
371.35	121.56
371.576	110.56
371.802	95.56
372.028	106.56
372.254	89.56
372.48	87.56
372.706	99.56
372.932	89.56
373.158	89.56
373.384	93.56
373.61	100.56
373.835	102.56
374.061	86.56
374.287	90.56
374.513	102.56
374.739	98.56
374.965	101.56
375.191	107.56
375.416	100.56
375.642	92.56
375.868	92.56
376.094	90.56
376.319	101.56
376.545	88.56
376.771	97.56
376.997	98.56
377.222	88.56
377.448	107.56
377.674	119.56
377.899	90.56
378.125	92.56
378.35	110.56
378.576	96.56
378.802	94.56
379.027	85.56
379.253	104.56
379.478	103.56
379.704	107.56
379.929	99.56
380.155	80.56
380.38	98.56
380.606	97.56
380.831	104.56
381.057	101.56
381.282	79.56
381.507	85.56
381.733	104.56
381.958	98.56
382.184	103.56
382.409	85.56
382.634	99.56
382.86	97.56
383.085	98.56
383.31	87.56
383.535	109.56
383.761	100.56
383.986	105.56
384.211	102.56
384.436	101.56
384.662	97.56
384.887	98.56
385.112	87.56
385.337	97.56
385.562	97.56
385.787	88.56
386.013	103.56
386.238	89.56
386.463	108.56
386.688	92.56
386.913	99.56
387.138	117.56
387.363	92.56
387.588	95.56
387.813	104.56
388.038	110.56
388.263	107.56
388.488	107.56
388.713	118.56
388.938	107.56
389.163	97.56
389.387	102.56
389.612	99.56
389.837	115.56
390.062	96.56
390.287	91.56
390.512	90.56
390.736	93.56
390.961	115.56
391.186	99.56
391.411	100.56
391.636	105.56
391.86	111.56
392.085	107.56
392.31	125.56
392.534	105.56
392.759	107.56
392.984	115.56
393.208	116.56
393.433	106.56
393.658	119.56
393.882	115.56
394.107	100.56
394.331	115.56
394.556	117.56
394.78	110.56
395.005	117.56
395.229	105.56
395.454	99.56
395.678	116.56
395.903	98.56
396.127	119.56
396.352	110.56
396.576	102.56
396.801	101.56
397.025	113.56
397.249	105.56
397.474	118.56
397.698	121.56
397.922	117.56
398.147	107.56
398.371	95.56
398.595	122.56
398.82	104.56
399.044	106.56
399.268	104.56
399.492	131.56
399.717	119.56
399.941	122.56
400.165	127.56
400.389	107.56
400.613	121.56
400.837	106.56
401.062	123.56
401.286	121.56
401.51	111.56
401.734	115.56
401.958	131.56
402.182	119.56
402.406	113.56
402.63	114.56
402.854	118.56
403.078	121.56
403.302	129.56
403.526	131.56
403.75	118.56
403.974	140.56
404.198	110.56
404.422	111.56
404.645	126.56
404.869	123.56
405.093	122.56
405.317	129.56
405.541	125.56
405.765	108.56
405.988	117.56
406.212	115.56
406.436	126.56
406.66	131.56
406.883	123.56
407.107	123.56
407.331	110.56
407.555	126.56
407.778	115.56
408.002	105.56
408.226	117.56
408.449	127.56
408.673	117.56
408.896	123.56
409.12	126.56
409.344	123.56
409.567	115.56
409.791	122.56
410.014	133.56
410.238	116.56
410.461	125.56
410.685	126.56
410.908	133.56
411.132	131.56
411.355	134.56
411.578	137.56
411.802	140.56
412.025	122.56
412.249	110.56
412.472	137.56
412.695	126.56
412.919	127.56
413.142	114.56
413.365	121.56
413.589	118.56
413.812	133.56
414.035	135.56
414.258	133.56
414.482	119.56
414.705	143.56
414.928	121.56
415.151	129.56
415.374	122.56
415.597	123.56
415.821	141.56
416.044	135.56
416.267	142.56
416.49	135.56
416.713	127.56
416.936	127.56
417.159	132.56
417.382	131.56
417.605	127.56
417.828	142.56
418.051	146.56
418.274	120.56
418.497	152.56
418.72	135.56
418.943	146.56
419.166	136.56
419.389	144.56
419.611	143.56
419.834	138.56
420.057	137.56
420.28	150.56
420.503	144.56
420.726	136.56
420.948	132.56
421.171	139.56
421.394	144.56
421.617	155.56
421.839	142.56
422.062	143.56
422.285	135.56
422.507	124.56
422.73	123.56
422.953	137.56
423.175	120.56
423.398	133.56
423.621	128.56
423.843	140.56
424.066	144.56
424.288	151.56
424.511	149.56
424.733	162.56
424.956	147.56
425.178	142.56
425.401	154.56
425.623	149.56
425.846	151.56
426.068	127.56
426.291	144.56
426.513	135.56
426.735	137.56
426.958	138.56
427.18	142.56
427.402	133.56
427.625	126.56
427.847	129.56
428.069	129.56
428.292	147.56
428.514	136.56
428.736	133.56
428.958	145.56
429.181	143.56
429.403	133.56
429.625	129.56
429.847	122.56
430.069	121.56
430.292	129.56
430.514	135.56
430.736	134.56
430.958	129.56
431.18	126.56
431.402	129.56
431.624	129.56
431.846	114.56
432.068	104.56
432.29	106.56
432.512	128.56
432.734	127.56
432.956	140.56
433.178	133.56
433.4	154.56
433.622	142.56
433.844	146.56
434.066	130.56
434.287	126.56
434.509	117.56
434.731	120.56
434.953	127.56
435.175	142.56
435.397	146.56
435.618	120.56
435.84	119.56
436.062	127.56
436.284	127.56
436.505	138.56
436.727	139.56
436.949	122.56
437.17	143.56
437.392	140.56
437.614	117.56
437.835	108.56
438.057	117.56
438.278	125.56
438.5	123.56
438.721	138.56
438.943	151.56
439.165	138.56
439.386	145.56
439.608	150.56
439.829	163.56
440.05	158.56
440.272	154.56
440.493	142.56
440.715	155.56
440.936	144.56
441.158	151.56
441.379	153.56
441.6	170.56
441.822	177.56
442.043	149.56
442.264	143.56
442.486	137.56
442.707	143.56
442.928	140.56
443.149	142.56
443.371	165.56
443.592	146.56
443.813	137.56
444.034	141.56
444.255	136.56
444.476	147.56
444.698	137.56
444.919	146.56
445.14	286.56
445.361	215.56
445.582	166.56
445.803	158.56
446.024	157.56
446.245	169.56
446.466	166.56
446.687	166.56
446.908	174.56
447.129	188.56
447.35	161.56
447.571	157.56
447.792	154.56
448.013	156.56
448.234	141.56
448.455	163.56
448.675	147.56
448.896	154.56
449.117	154.56
449.338	132.56
449.559	140.56
449.779	149.56
450	141.56
450.221	135.56
450.442	132.56
450.662	135.56
450.883	145.56
451.104	139.56
451.324	124.56
451.545	134.56
451.766	131.56
451.986	142.56
452.207	129.56
452.428	135.56
452.648	130.56
452.869	134.56
453.089	118.56
453.31	121.56
453.53	108.56
453.751	124.56
453.971	103.56
454.192	118.56
454.412	121.56
454.633	121.56
454.853	133.56
455.073	142.56
455.294	103.56
455.514	141.56
455.734	137.56
455.955	119.56
456.175	126.56
456.395	126.56
456.616	116.56
456.836	119.56
457.056	115.56
457.276	108.56
457.497	121.56
457.717	113.56
457.937	126.56
458.157	117.56
458.377	118.56
458.598	115.56
458.818	112.56
459.038	83.56
459.258	90.56
459.478	99.56
459.698	104.56
459.918	104.56
460.138	124.56
460.358	117.56
460.578	129.56
460.798	125.56
461.018	111.56
461.238	132.56
461.458	139.56
461.678	109.56
461.898	112.56
462.118	120.56
462.338	126.56
462.558	114.56
462.777	114.56
462.997	104.56
463.217	133.56
463.437	120.56
463.657	116.56
463.876	123.56
464.096	124.56
464.316	120.56
464.536	130.56
464.755	103.56
464.975	116.56
465.195	142.56
465.414	133.56
465.634	126.56
465.854	115.56
466.073	126.56
466.293	133.56
466.512	129.56
466.732	117.56
466.951	142.56
467.171	147.56
467.391	141.56
467.61	138.56
467.829	143.56
468.049	151.56
468.268	144.56
468.488	133.56
468.707	139.56
468.927	145.56
469.146	132.56
469.365	149.56
469.585	157.56
469.804	134.56
470.023	143.56
470.243	144.56
470.462	149.56
470.681	149.56
470.901	129.56
471.12	143.56
471.339	142.56
471.558	150.56
471.777	147.56
471.997	147.56
472.216	121.56
472.435	121.56
472.654	117.56
472.873	121.56
473.092	109.56
473.311	150.56
473.53	129.56
473.749	129.56
473.968	144.56
474.187	127.56
474.406	121.56
474.625	119.56
474.844	127.56
475.063	137.56
475.282	119.56
475.501	110.56
475.72	139.56
475.939	121.56
476.158	131.56
476.377	130.56
476.596	124.56
476.814	116.56
477.033	124.56
477.252	116.56
477.471	126.56
477.69	147.56
477.908	128.56
478.127	160.56
478.346	146.56
478.564	129.56
478.783	120.56
479.002	149.56
479.22	140.56
479.439	129.56
479.658	126.56
479.876	115.56
480.095	106.56
480.313	125.56
480.532	119.56
480.751	110.56
480.969	96.56
481.188	101.56
481.406	104.56
481.624	110.56
481.843	102.56
482.061	108.56
482.28	118.56
482.498	116.56
482.717	123.56
482.935	125.56
483.153	139.56
483.372	154.56
483.59	159.56
483.808	155.56
484.027	135.56
484.245	133.56
484.463	156.56
484.681	170.56
484.9	156.56
485.118	161.56
485.336	137.56
485.554	109.56
485.772	94.56
485.99	106.56
486.209	113.56
486.427	116.56
486.645	132.56
486.863	144.56
487.081	138.56
487.299	157.56
487.517	135.56
487.735	178.56
487.953	189.56
488.171	196.56
488.389	200.56
488.607	178.56
488.825	135.56
489.043	125.56
489.261	133.56
489.479	157.56
489.696	144.56
489.914	161.56
490.132	144.56
490.35	163.56
490.568	149.56
490.786	184.56
491.003	174.56
491.221	204.56
491.439	192.56
491.657	199.56
491.874	216.56
492.092	237.56
492.31	262.56
492.527	263.56
492.745	221.56
492.963	195.56
493.18	188.56
493.398	182.56
493.615	189.56
493.833	184.56
494.05	191.56
494.268	183.56
494.485	178.56
494.703	180.56
494.92	172.56
495.138	198.56
495.355	169.56
495.573	181.56
495.79	185.56
496.008	180.56
496.225	182.56
496.442	187.56
496.66	178.56
496.877	179.56
497.094	180.56
497.312	174.56
497.529	151.56
497.746	157.56
497.963	145.56
498.181	136.56
498.398	129.56
498.615	131.56
498.832	137.56
499.049	127.56
499.267	135.56
499.484	133.56
499.701	140.56
499.918	141.56
500.135	154.56
500.352	138.56
500.569	144.56
500.786	154.56
501.003	142.56
501.22	156.56
501.437	158.56
501.654	143.56
501.871	147.56
502.088	139.56
502.305	142.56
502.522	152.56
502.739	141.56
502.956	126.56
503.172	134.56
503.389	128.56
503.606	134.56
503.823	128.56
504.04	122.56
504.256	124.56
504.473	135.56
504.69	124.56
504.907	107.56
505.123	123.56
505.34	111.56
505.557	129.56
505.773	126.56
505.99	127.56
506.207	140.56
506.423	121.56
506.64	127.56
506.856	138.56
507.073	125.56
507.289	134.56
507.506	125.56
507.722	126.56
507.939	136.56
508.155	125.56
508.372	118.56
508.588	111.56
508.805	120.56
509.021	106.56
509.238	112.56
509.454	118.56
509.67	87.56
509.887	98.56
510.103	113.56
510.319	96.56
510.536	108.56
510.752	97.56
510.968	115.56
