Data from Location6.07152019.Energy5.Lamp.07192019.3%Agarose_HRD10591_16-11-52-394.txt Node
Date: Fri Jul 19 16:11:52 EDT 2019
User: cochatt
Spectrometer: HR+D1059
Trigger mode: 1
Integration Time (sec): 1.000000E-1
Scans to average: 1
Electric dark correction enabled: true
Nonlinearity correction enabled: false
Boxcar width: 0
XAxis mode: Wavelengths
Number of Pixels in Spectrum: 2048
>>>>>Begin Spectral Data<<<<<
223.165	-15.56
223.4	-15.56
223.635	-15.56
223.869	0.44
224.104	-27.56
224.338	0.44
224.573	-9.56
224.808	-8.56
225.042	-7.56
225.277	-19.56
225.511	-7.56
225.746	7.44
225.98	2.44
226.215	10.44
226.449	15.44
226.683	17.44
226.918	19.44
227.152	22.44
227.387	46.44
227.621	45.44
227.856	51.44
228.09	49.44
228.324	42.44
228.559	59.44
228.793	49.44
229.027	67.44
229.262	66.44
229.496	68.44
229.73	73.44
229.964	75.44
230.199	78.44
230.433	71.44
230.667	91.44
230.901	72.44
231.136	74.44
231.37	73.44
231.604	87.44
231.838	98.44
232.072	65.44
232.306	85.44
232.541	76.44
232.775	92.44
233.009	87.44
233.243	99.44
233.477	89.44
233.711	76.44
233.945	94.44
234.179	98.44
234.413	93.44
234.647	86.44
234.881	71.44
235.115	79.44
235.349	75.44
235.583	71.44
235.817	81.44
236.051	76.44
236.285	66.44
236.519	59.44
236.753	81.44
236.987	79.44
237.221	74.44
237.455	86.44
237.689	75.44
237.922	76.44
238.156	79.44
238.39	84.44
238.624	70.44
238.858	73.44
239.091	79.44
239.325	82.44
239.559	71.44
239.793	76.44
240.027	82.44
240.26	66.44
240.494	71.44
240.728	80.44
240.961	77.44
241.195	89.44
241.429	74.44
241.662	75.44
241.896	73.44
242.13	73.44
242.363	85.44
242.597	74.44
242.83	67.44
243.064	71.44
243.298	71.44
243.531	76.44
243.765	75.44
243.998	91.44
244.232	66.44
244.465	68.44
244.699	68.44
244.932	65.44
245.166	75.44
245.399	85.44
245.633	71.44
245.866	82.44
246.099	85.44
246.333	72.44
246.566	70.44
246.8	77.44
247.033	78.44
247.266	70.44
247.5	83.44
247.733	78.44
247.966	86.44
248.2	81.44
248.433	74.44
248.666	98.44
248.899	79.44
249.133	90.44
249.366	83.44
249.599	81.44
249.832	85.44
250.066	83.44
250.299	77.44
250.532	84.44
250.765	79.44
250.998	88.44
251.231	74.44
251.465	85.44
251.698	87.44
251.931	73.44
252.164	74.44
252.397	74.44
252.63	89.44
252.863	88.44
253.096	82.44
253.329	74.44
253.562	87.44
253.795	75.44
254.028	75.44
254.261	89.44
254.494	81.44
254.727	73.44
254.96	67.44
255.193	88.44
255.426	83.44
255.659	79.44
255.892	81.44
256.124	79.44
256.357	81.44
256.59	74.44
256.823	73.44
257.056	72.44
257.289	74.44
257.521	85.44
257.754	69.44
257.987	81.44
258.22	92.44
258.452	89.44
258.685	88.44
258.918	76.44
259.151	96.44
259.383	80.44
259.616	68.44
259.849	77.44
260.081	91.44
260.314	91.44
260.547	83.44
260.779	75.44
261.012	90.44
261.244	88.44
261.477	88.44
261.71	77.44
261.942	73.44
262.175	75.44
262.407	71.44
262.64	82.44
262.872	73.44
263.105	79.44
263.337	77.44
263.57	76.44
263.802	77.44
264.035	75.44
264.267	65.44
264.499	95.44
264.732	84.44
264.964	104.44
265.197	72.44
265.429	77.44
265.661	78.44
265.894	80.44
266.126	79.44
266.358	90.44
266.591	86.44
266.823	93.44
267.055	97.44
267.287	103.44
267.52	82.44
267.752	83.44
267.984	76.44
268.216	78.44
268.448	78.44
268.681	81.44
268.913	85.44
269.145	87.44
269.377	71.44
269.609	79.44
269.841	86.44
270.073	83.44
270.306	67.44
270.538	76.44
270.77	90.44
271.002	91.44
271.234	90.44
271.466	97.44
271.698	84.44
271.93	88.44
272.162	85.44
272.394	81.44
272.626	76.44
272.858	81.44
273.09	86.44
273.322	86.44
273.553	79.44
273.785	97.44
274.017	95.44
274.249	94.44
274.481	85.44
274.713	75.44
274.945	87.44
275.176	82.44
275.408	85.44
275.64	93.44
275.872	90.44
276.104	86.44
276.335	87.44
276.567	76.44
276.799	85.44
277.031	86.44
277.262	95.44
277.494	67.44
277.726	92.44
277.957	81.44
278.189	90.44
278.421	90.44
278.652	82.44
278.884	77.44
279.115	83.44
279.347	95.44
279.579	76.44
279.81	84.44
280.042	80.44
280.273	89.44
280.505	72.44
280.736	82.44
280.968	94.44
281.199	98.44
281.431	75.44
281.662	82.44
281.894	91.44
282.125	88.44
282.356	81.44
282.588	75.44
282.819	75.44
283.051	91.44
283.282	83.44
283.513	89.44
283.745	80.44
283.976	97.44
284.207	79.44
284.439	91.44
284.67	88.44
284.901	75.44
285.132	78.44
285.364	82.44
285.595	64.44
285.826	81.44
286.057	82.44
286.288	88.44
286.52	91.44
286.751	89.44
286.982	90.44
287.213	95.44
287.444	94.44
287.675	91.44
287.906	72.44
288.138	83.44
288.369	82.44
288.6	92.44
288.831	100.44
289.062	84.44
289.293	100.44
289.524	89.44
289.755	87.44
289.986	76.44
290.217	88.44
290.448	78.44
290.679	92.44
290.91	92.44
291.141	84.44
291.371	93.44
291.602	99.44
291.833	75.44
292.064	76.44
292.295	94.44
292.526	86.44
292.757	90.44
292.987	93.44
293.218	80.44
293.449	71.44
293.68	90.44
293.91	80.44
294.141	82.44
294.372	78.44
294.603	85.44
294.833	77.44
295.064	73.44
295.295	90.44
295.525	85.44
295.756	83.44
295.987	86.44
296.217	92.44
296.448	80.44
296.679	86.44
296.909	86.44
297.14	90.44
297.37	87.44
297.601	94.44
297.831	84.44
298.062	97.44
298.292	88.44
298.523	93.44
298.753	73.44
298.984	86.44
299.214	83.44
299.445	105.44
299.675	85.44
299.905	82.44
300.136	77.44
300.366	81.44
300.597	88.44
300.827	95.44
301.057	88.44
301.288	93.44
301.518	94.44
301.748	92.44
301.979	86.44
302.209	88.44
302.439	87.44
302.669	73.44
302.9	75.44
303.13	75.44
303.36	78.44
303.59	74.44
303.82	77.44
304.051	73.44
304.281	89.44
304.511	88.44
304.741	93.44
304.971	83.44
305.201	81.44
305.431	84.44
305.661	93.44
305.891	88.44
306.121	85.44
306.352	88.44
306.582	77.44
306.812	72.44
307.042	88.44
307.272	90.44
307.502	91.44
307.731	90.44
307.961	86.44
308.191	92.44
308.421	95.44
308.651	62.44
308.881	96.44
309.111	77.44
309.341	81.44
309.571	86.44
309.8	91.44
310.03	83.44
310.26	92.44
310.49	88.44
310.72	78.44
310.949	92.44
311.179	93.44
311.409	84.44
311.639	86.44
311.868	73.44
312.098	82.44
312.328	81.44
312.557	87.44
312.787	104.44
313.017	96.44
313.246	85.44
313.476	84.44
313.706	78.44
313.935	75.44
314.165	90.44
314.394	92.44
314.624	96.44
314.853	103.44
315.083	84.44
315.312	92.44
315.542	100.44
315.771	92.44
316.001	84.44
316.23	87.44
316.46	93.44
316.689	85.44
316.919	89.44
317.148	93.44
317.377	88.44
317.607	90.44
317.836	84.44
318.065	100.44
318.295	83.44
318.524	80.44
318.753	71.44
318.983	90.44
319.212	91.44
319.441	84.44
319.67	86.44
319.9	80.44
320.129	79.44
320.358	74.44
320.587	90.44
320.816	84.44
321.046	80.44
321.275	89.44
321.504	82.44
321.733	74.44
321.962	88.44
322.191	83.44
322.42	81.44
322.649	82.44
322.878	71.44
323.108	88.44
323.337	78.44
323.566	75.44
323.795	83.44
324.024	81.44
324.253	80.44
324.482	76.44
324.71	88.44
324.939	88.44
325.168	81.44
325.397	74.44
325.626	86.44
325.855	102.44
326.084	77.44
326.313	90.44
326.542	89.44
326.77	95.44
326.999	90.44
327.228	84.44
327.457	82.44
327.686	85.44
327.914	80.44
328.143	82.44
328.372	83.44
328.6	86.44
328.829	89.44
329.058	76.44
329.287	90.44
329.515	77.44
329.744	89.44
329.972	76.44
330.201	92.44
330.43	88.44
330.658	100.44
330.887	87.44
331.115	88.44
331.344	95.44
331.572	88.44
331.801	101.44
332.03	102.44
332.258	86.44
332.486	87.44
332.715	82.44
332.943	92.44
333.172	81.44
333.4	77.44
333.629	83.44
333.857	76.44
334.085	99.44
334.314	59.44
334.542	90.44
334.771	84.44
334.999	79.44
335.227	75.44
335.455	88.44
335.684	82.44
335.912	82.44
336.14	87.44
336.369	87.44
336.597	85.44
336.825	90.44
337.053	81.44
337.281	90.44
337.51	85.44
337.738	86.44
337.966	72.44
338.194	90.44
338.422	76.44
338.65	91.44
338.878	88.44
339.106	74.44
339.334	87.44
339.562	61.44
339.79	84.44
340.018	86.44
340.246	94.44
340.474	100.44
340.702	86.44
340.93	75.44
341.158	95.44
341.386	89.44
341.614	82.44
341.842	74.44
342.07	83.44
342.298	81.44
342.526	90.44
342.754	91.44
342.981	79.44
343.209	89.44
343.437	87.44
343.665	93.44
343.893	77.44
344.12	85.44
344.348	84.44
344.576	85.44
344.804	73.44
345.031	75.44
345.259	93.44
345.487	84.44
345.714	83.44
345.942	71.44
346.17	85.44
346.397	80.44
346.625	84.44
346.853	76.44
347.08	84.44
347.308	91.44
347.535	77.44
347.763	87.44
347.99	85.44
348.218	83.44
348.445	89.44
348.673	82.44
348.9	75.44
349.128	84.44
349.355	74.44
349.583	77.44
349.81	74.44
350.037	84.44
350.265	88.44
350.492	88.44
350.72	85.44
350.947	72.44
351.174	80.44
351.402	91.44
351.629	90.44
351.856	100.44
352.083	85.44
352.311	69.44
352.538	96.44
352.765	88.44
352.992	77.44
353.22	89.44
353.447	82.44
353.674	85.44
353.901	88.44
354.128	89.44
354.355	84.44
354.583	73.44
354.81	85.44
355.037	83.44
355.264	97.44
355.491	90.44
355.718	80.44
355.945	95.44
356.172	86.44
356.399	102.44
356.626	84.44
356.853	89.44
357.08	86.44
357.307	81.44
357.534	86.44
357.761	67.44
357.988	82.44
358.215	84.44
358.441	91.44
358.668	90.44
358.895	93.44
359.122	71.44
359.349	91.44
359.576	102.44
359.802	87.44
360.029	89.44
360.256	91.44
360.483	88.44
360.709	88.44
360.936	77.44
361.163	77.44
361.39	88.44
361.616	91.44
361.843	77.44
362.07	77.44
362.296	98.44
362.523	87.44
362.749	82.44
362.976	101.44
363.203	86.44
363.429	68.44
363.656	78.44
363.882	101.44
364.109	74.44
364.335	83.44
364.562	86.44
364.788	76.44
365.015	83.44
365.241	82.44
365.468	90.44
365.694	88.44
365.92	104.44
366.147	84.44
366.373	70.44
366.599	84.44
366.826	94.44
367.052	76.44
367.278	94.44
367.505	98.44
367.731	83.44
367.957	100.44
368.184	92.44
368.41	93.44
368.636	83.44
368.862	83.44
369.089	94.44
369.315	89.44
369.541	90.44
369.767	87.44
369.993	98.44
370.219	86.44
370.445	89.44
370.672	82.44
370.898	100.44
371.124	99.44
371.35	90.44
371.576	90.44
371.802	101.44
372.028	96.44
372.254	94.44
372.48	106.44
372.706	99.44
372.932	89.44
373.158	100.44
373.384	107.44
373.61	101.44
373.835	97.44
374.061	90.44
374.287	90.44
374.513	112.44
374.739	70.44
374.965	83.44
375.191	91.44
375.416	81.44
375.642	89.44
375.868	100.44
376.094	93.44
376.319	109.44
376.545	97.44
376.771	85.44
376.997	98.44
377.222	100.44
377.448	92.44
377.674	107.44
377.899	85.44
378.125	102.44
378.35	105.44
378.576	114.44
378.802	95.44
379.027	106.44
379.253	91.44
379.478	111.44
379.704	96.44
379.929	99.44
380.155	95.44
380.38	99.44
380.606	99.44
380.831	92.44
381.057	100.44
381.282	82.44
381.507	88.44
381.733	103.44
381.958	98.44
382.184	86.44
382.409	104.44
382.634	101.44
382.86	105.44
383.085	116.44
383.31	100.44
383.535	99.44
383.761	87.44
383.986	112.44
384.211	93.44
384.436	101.44
384.662	106.44
384.887	97.44
385.112	90.44
385.337	92.44
385.562	102.44
385.787	93.44
386.013	110.44
386.238	109.44
386.463	100.44
386.688	106.44
386.913	99.44
387.138	93.44
387.363	105.44
387.588	124.44
387.813	107.44
388.038	104.44
388.263	97.44
388.488	108.44
388.713	103.44
388.938	94.44
389.163	105.44
389.387	114.44
389.612	94.44
389.837	113.44
390.062	114.44
390.287	103.44
390.512	112.44
390.736	102.44
390.961	101.44
391.186	114.44
391.411	111.44
391.636	93.44
391.86	107.44
392.085	113.44
392.31	109.44
392.534	110.44
392.759	100.44
392.984	105.44
393.208	118.44
393.433	108.44
393.658	118.44
393.882	92.44
394.107	98.44
394.331	108.44
394.556	104.44
394.78	103.44
395.005	104.44
395.229	112.44
395.454	109.44
395.678	109.44
395.903	116.44
396.127	121.44
396.352	101.44
396.576	114.44
396.801	106.44
397.025	103.44
397.249	109.44
397.474	106.44
397.698	120.44
397.922	128.44
398.147	101.44
398.371	128.44
398.595	114.44
398.82	119.44
399.044	120.44
399.268	113.44
399.492	112.44
399.717	113.44
399.941	127.44
400.165	123.44
400.389	129.44
400.613	112.44
400.837	122.44
401.062	124.44
401.286	94.44
401.51	117.44
401.734	120.44
401.958	116.44
402.182	119.44
402.406	121.44
402.63	107.44
402.854	114.44
403.078	113.44
403.302	118.44
403.526	99.44
403.75	121.44
403.974	126.44
404.198	133.44
404.422	127.44
404.645	124.44
404.869	122.44
405.093	115.44
405.317	113.44
405.541	121.44
405.765	105.44
405.988	124.44
406.212	124.44
406.436	106.44
406.66	122.44
406.883	106.44
407.107	117.44
407.331	122.44
407.555	133.44
407.778	108.44
408.002	130.44
408.226	131.44
408.449	132.44
408.673	125.44
408.896	120.44
409.12	116.44
409.344	120.44
409.567	107.44
409.791	110.44
410.014	139.44
410.238	144.44
410.461	118.44
410.685	123.44
410.908	117.44
411.132	136.44
411.355	113.44
411.578	120.44
411.802	116.44
412.025	117.44
412.249	124.44
412.472	136.44
412.695	117.44
412.919	139.44
413.142	125.44
413.365	119.44
413.589	105.44
413.812	135.44
414.035	130.44
414.258	130.44
414.482	124.44
414.705	124.44
414.928	114.44
415.151	129.44
415.374	137.44
415.597	142.44
415.821	132.44
416.044	125.44
416.267	117.44
416.49	129.44
416.713	148.44
416.936	144.44
417.159	132.44
417.382	130.44
417.605	126.44
417.828	134.44
418.051	124.44
418.274	128.44
418.497	141.44
418.72	133.44
418.943	132.44
419.166	144.44
419.389	135.44
419.611	129.44
419.834	124.44
420.057	145.44
420.28	132.44
420.503	135.44
420.726	142.44
420.948	148.44
421.171	138.44
421.394	148.44
421.617	144.44
421.839	159.44
422.062	146.44
422.285	120.44
422.507	126.44
422.73	139.44
422.953	139.44
423.175	126.44
423.398	122.44
423.621	129.44
423.843	135.44
424.066	141.44
424.288	146.44
424.511	140.44
424.733	158.44
424.956	151.44
425.178	140.44
425.401	147.44
425.623	141.44
425.846	139.44
426.068	133.44
426.291	125.44
426.513	139.44
426.735	136.44
426.958	139.44
427.18	140.44
427.402	142.44
427.625	139.44
427.847	148.44
428.069	144.44
428.292	138.44
428.514	147.44
428.736	143.44
428.958	125.44
429.181	137.44
429.403	139.44
429.625	136.44
429.847	135.44
430.069	127.44
430.292	132.44
430.514	141.44
430.736	140.44
430.958	139.44
431.18	134.44
431.402	136.44
431.624	124.44
431.846	121.44
432.068	90.44
432.29	102.44
432.512	108.44
432.734	110.44
432.956	130.44
433.178	131.44
433.4	147.44
433.622	139.44
433.844	129.44
434.066	120.44
434.287	110.44
434.509	103.44
434.731	113.44
434.953	117.44
435.175	131.44
435.397	107.44
435.618	119.44
435.84	123.44
436.062	124.44
436.284	130.44
436.505	126.44
436.727	149.44
436.949	127.44
437.17	133.44
437.392	136.44
437.614	134.44
437.835	106.44
438.057	126.44
438.278	120.44
438.5	122.44
438.721	137.44
438.943	144.44
439.165	147.44
439.386	124.44
439.608	142.44
439.829	143.44
440.05	154.44
440.272	129.44
440.493	146.44
440.715	147.44
440.936	150.44
441.158	169.44
441.379	152.44
441.6	150.44
441.822	142.44
442.043	144.44
442.264	143.44
442.486	159.44
442.707	146.44
442.928	126.44
443.149	153.44
443.371	137.44
443.592	145.44
443.813	145.44
444.034	148.44
444.255	137.44
444.476	137.44
444.698	162.44
444.919	161.44
445.14	280.44
445.361	220.44
445.582	164.44
445.803	144.44
446.024	158.44
446.245	156.44
446.466	155.44
446.687	163.44
446.908	151.44
447.129	164.44
447.35	153.44
447.571	163.44
447.792	155.44
448.013	160.44
448.234	130.44
448.455	141.44
448.675	162.44
448.896	133.44
449.117	132.44
449.338	149.44
449.559	152.44
449.779	133.44
450	151.44
450.221	126.44
450.442	143.44
450.662	150.44
450.883	146.44
451.104	125.44
451.324	134.44
451.545	150.44
451.766	146.44
451.986	133.44
452.207	133.44
452.428	134.44
452.648	138.44
452.869	125.44
453.089	128.44
453.31	118.44
453.53	119.44
453.751	109.44
453.971	120.44
454.192	103.44
454.412	105.44
454.633	125.44
454.853	133.44
455.073	128.44
455.294	129.44
455.514	124.44
455.734	125.44
455.955	122.44
456.175	132.44
456.395	130.44
456.616	113.44
456.836	116.44
457.056	115.44
457.276	104.44
457.497	115.44
457.717	108.44
457.937	119.44
458.157	114.44
458.377	105.44
458.598	104.44
458.818	116.44
459.038	110.44
459.258	105.44
459.478	98.44
459.698	98.44
459.918	128.44
460.138	123.44
460.358	116.44
460.578	134.44
460.798	123.44
461.018	112.44
461.238	116.44
461.458	136.44
461.678	117.44
461.898	117.44
462.118	125.44
462.338	132.44
462.558	105.44
462.777	109.44
462.997	110.44
463.217	90.44
463.437	126.44
463.657	118.44
463.876	110.44
464.096	101.44
464.316	126.44
464.536	125.44
464.755	121.44
464.975	107.44
465.195	125.44
465.414	126.44
465.634	122.44
465.854	137.44
466.073	140.44
466.293	130.44
466.512	134.44
466.732	125.44
466.951	135.44
467.171	130.44
467.391	141.44
467.61	150.44
467.829	142.44
468.049	151.44
468.268	144.44
468.488	147.44
468.707	160.44
468.927	130.44
469.146	137.44
469.365	143.44
469.585	139.44
469.804	128.44
470.023	133.44
470.243	160.44
470.462	136.44
470.681	152.44
470.901	142.44
471.12	175.44
471.339	146.44
471.558	149.44
471.777	146.44
471.997	143.44
472.216	133.44
472.435	120.44
472.654	125.44
472.873	121.44
473.092	129.44
473.311	134.44
473.53	142.44
473.749	139.44
473.968	139.44
474.187	126.44
474.406	120.44
474.625	135.44
474.844	124.44
475.063	148.44
475.282	135.44
475.501	120.44
475.72	124.44
475.939	135.44
476.158	134.44
476.377	136.44
476.596	133.44
476.814	109.44
477.033	107.44
477.252	122.44
477.471	125.44
477.69	125.44
477.908	141.44
478.127	148.44
478.346	143.44
478.564	141.44
478.783	150.44
479.002	148.44
479.22	143.44
479.439	138.44
479.658	141.44
479.876	125.44
480.095	117.44
480.313	103.44
480.532	143.44
480.751	112.44
480.969	102.44
481.188	91.44
481.406	85.44
481.624	85.44
481.843	101.44
482.061	120.44
482.28	116.44
482.498	100.44
482.717	122.44
482.935	141.44
483.153	142.44
483.372	161.44
483.59	158.44
483.808	140.44
484.027	151.44
484.245	140.44
484.463	144.44
484.681	174.44
484.9	152.44
485.118	143.44
485.336	144.44
485.554	123.44
485.772	112.44
485.99	103.44
486.209	119.44
486.427	120.44
486.645	121.44
486.863	139.44
487.081	153.44
487.299	128.44
487.517	162.44
487.735	193.44
487.953	204.44
488.171	195.44
488.389	180.44
488.607	171.44
488.825	135.44
489.043	132.44
489.261	138.44
489.479	149.44
489.696	160.44
489.914	155.44
490.132	165.44
490.35	180.44
490.568	164.44
490.786	177.44
491.003	186.44
491.221	185.44
491.439	196.44
491.657	198.44
491.874	213.44
492.092	222.44
492.31	258.44
492.527	234.44
492.745	206.44
492.963	207.44
493.18	191.44
493.398	193.44
493.615	203.44
493.833	191.44
494.05	196.44
494.268	194.44
494.485	181.44
494.703	176.44
494.92	178.44
495.138	166.44
495.355	189.44
495.573	166.44
495.79	168.44
496.008	193.44
496.225	187.44
496.442	182.44
496.66	194.44
496.877	180.44
497.094	161.44
497.312	176.44
497.529	182.44
497.746	139.44
497.963	145.44
498.181	141.44
498.398	119.44
498.615	125.44
498.832	114.44
499.049	134.44
499.267	133.44
499.484	118.44
499.701	128.44
499.918	133.44
500.135	131.44
500.352	134.44
500.569	136.44
500.786	145.44
501.003	154.44
501.22	151.44
501.437	140.44
501.654	149.44
501.871	141.44
502.088	135.44
502.305	138.44
502.522	136.44
502.739	137.44
502.956	135.44
503.172	143.44
503.389	127.44
503.606	135.44
503.823	123.44
504.04	120.44
504.256	126.44
504.473	126.44
504.69	124.44
504.907	126.44
505.123	133.44
505.34	124.44
505.557	142.44
505.773	132.44
505.99	129.44
506.207	120.44
506.423	132.44
506.64	123.44
506.856	128.44
507.073	134.44
507.289	125.44
507.506	128.44
507.722	115.44
507.939	117.44
508.155	115.44
508.372	114.44
508.588	114.44
508.805	114.44
509.021	118.44
509.238	116.44
509.454	95.44
509.67	106.44
509.887	103.44
510.103	97.44
510.319	96.44
510.536	106.44
510.752	107.44
510.968	95.44
