Data from Location6.07152019.Energy5.Lamp.07192019.3%Agarose_HRD10591_16-12-04-395.txt Node
Date: Fri Jul 19 16:12:04 EDT 2019
User: cochatt
Spectrometer: HR+D1059
Trigger mode: 1
Integration Time (sec): 1.000000E-1
Scans to average: 1
Electric dark correction enabled: true
Nonlinearity correction enabled: false
Boxcar width: 0
XAxis mode: Wavelengths
Number of Pixels in Spectrum: 2048
>>>>>Begin Spectral Data<<<<<
223.165	-20.44
223.4	-20.44
223.635	-20.44
223.869	-25.44
224.104	-32.44
224.338	-21.44
224.573	-7.44
224.808	-11.44
225.042	11.56
225.277	-8.44
225.511	-20.44
225.746	0.56
225.98	1.56
226.215	24.56
226.449	21.56
226.683	14.56
226.918	36.56
227.152	36.56
227.387	36.56
227.621	44.56
227.856	48.56
228.09	44.56
228.324	56.56
228.559	55.56
228.793	46.56
229.027	70.56
229.262	70.56
229.496	62.56
229.73	62.56
229.964	70.56
230.199	82.56
230.433	80.56
230.667	74.56
230.901	74.56
231.136	85.56
231.37	56.56
231.604	98.56
231.838	87.56
232.072	85.56
232.306	83.56
232.541	85.56
232.775	90.56
233.009	80.56
233.243	85.56
233.477	66.56
233.711	87.56
233.945	90.56
234.179	92.56
234.413	76.56
234.647	87.56
234.881	75.56
235.115	75.56
235.349	76.56
235.583	80.56
235.817	76.56
236.051	80.56
236.285	85.56
236.519	81.56
236.753	87.56
236.987	84.56
237.221	68.56
237.455	83.56
237.689	65.56
237.922	77.56
238.156	68.56
238.39	74.56
238.624	84.56
238.858	68.56
239.091	88.56
239.325	70.56
239.559	79.56
239.793	84.56
240.027	80.56
240.26	75.56
240.494	82.56
240.728	72.56
240.961	73.56
241.195	81.56
241.429	79.56
241.662	80.56
241.896	72.56
242.13	78.56
242.363	78.56
242.597	79.56
242.83	76.56
243.064	76.56
243.298	84.56
243.531	71.56
243.765	72.56
243.998	76.56
244.232	77.56
244.465	68.56
244.699	76.56
244.932	85.56
245.166	81.56
245.399	95.56
245.633	91.56
245.866	91.56
246.099	86.56
246.333	70.56
246.566	83.56
246.8	76.56
247.033	84.56
247.266	70.56
247.5	74.56
247.733	84.56
247.966	60.56
248.2	63.56
248.433	66.56
248.666	88.56
248.899	77.56
249.133	90.56
249.366	86.56
249.599	68.56
249.832	91.56
250.066	84.56
250.299	78.56
250.532	62.56
250.765	72.56
250.998	69.56
251.231	79.56
251.465	73.56
251.698	72.56
251.931	86.56
252.164	72.56
252.397	78.56
252.63	80.56
252.863	75.56
253.096	74.56
253.329	78.56
253.562	83.56
253.795	88.56
254.028	82.56
254.261	87.56
254.494	86.56
254.727	85.56
254.96	83.56
255.193	78.56
255.426	76.56
255.659	88.56
255.892	82.56
256.124	80.56
256.357	88.56
256.59	87.56
256.823	74.56
257.056	91.56
257.289	82.56
257.521	87.56
257.754	73.56
257.987	85.56
258.22	82.56
258.452	79.56
258.685	93.56
258.918	90.56
259.151	82.56
259.383	82.56
259.616	81.56
259.849	74.56
260.081	83.56
260.314	83.56
260.547	84.56
260.779	97.56
261.012	89.56
261.244	90.56
261.477	94.56
261.71	74.56
261.942	86.56
262.175	68.56
262.407	77.56
262.64	82.56
262.872	69.56
263.105	82.56
263.337	85.56
263.57	93.56
263.802	77.56
264.035	74.56
264.267	81.56
264.499	73.56
264.732	81.56
264.964	83.56
265.197	92.56
265.429	89.56
265.661	83.56
265.894	90.56
266.126	82.56
266.358	77.56
266.591	76.56
266.823	83.56
267.055	84.56
267.287	88.56
267.52	83.56
267.752	77.56
267.984	78.56
268.216	93.56
268.448	75.56
268.681	88.56
268.913	80.56
269.145	86.56
269.377	85.56
269.609	69.56
269.841	85.56
270.073	79.56
270.306	83.56
270.538	92.56
270.77	85.56
271.002	86.56
271.234	74.56
271.466	81.56
271.698	87.56
271.93	88.56
272.162	91.56
272.394	80.56
272.626	83.56
272.858	77.56
273.09	81.56
273.322	72.56
273.553	77.56
273.785	73.56
274.017	84.56
274.249	81.56
274.481	92.56
274.713	73.56
274.945	89.56
275.176	94.56
275.408	82.56
275.64	87.56
275.872	104.56
276.104	87.56
276.335	81.56
276.567	82.56
276.799	83.56
277.031	80.56
277.262	87.56
277.494	78.56
277.726	96.56
277.957	76.56
278.189	62.56
278.421	80.56
278.652	84.56
278.884	92.56
279.115	77.56
279.347	75.56
279.579	88.56
279.81	93.56
280.042	80.56
280.273	90.56
280.505	84.56
280.736	88.56
280.968	91.56
281.199	89.56
281.431	85.56
281.662	76.56
281.894	90.56
282.125	80.56
282.356	80.56
282.588	79.56
282.819	76.56
283.051	82.56
283.282	75.56
283.513	86.56
283.745	90.56
283.976	76.56
284.207	106.56
284.439	79.56
284.67	77.56
284.901	68.56
285.132	82.56
285.364	75.56
285.595	92.56
285.826	90.56
286.057	99.56
286.288	82.56
286.52	78.56
286.751	80.56
286.982	87.56
287.213	87.56
287.444	74.56
287.675	88.56
287.906	89.56
288.138	88.56
288.369	87.56
288.6	94.56
288.831	71.56
289.062	77.56
289.293	72.56
289.524	82.56
289.755	82.56
289.986	95.56
290.217	96.56
290.448	85.56
290.679	85.56
290.91	88.56
291.141	85.56
291.371	77.56
291.602	82.56
291.833	81.56
292.064	85.56
292.295	93.56
292.526	84.56
292.757	76.56
292.987	82.56
293.218	81.56
293.449	87.56
293.68	78.56
293.91	81.56
294.141	95.56
294.372	84.56
294.603	91.56
294.833	88.56
295.064	92.56
295.295	72.56
295.525	64.56
295.756	87.56
295.987	75.56
296.217	83.56
296.448	84.56
296.679	85.56
296.909	73.56
297.14	93.56
297.37	87.56
297.601	91.56
297.831	87.56
298.062	81.56
298.292	81.56
298.523	67.56
298.753	82.56
298.984	85.56
299.214	85.56
299.445	87.56
299.675	75.56
299.905	83.56
300.136	86.56
300.366	82.56
300.597	76.56
300.827	78.56
301.057	79.56
301.288	78.56
301.518	89.56
301.748	93.56
301.979	85.56
302.209	80.56
302.439	90.56
302.669	90.56
302.9	81.56
303.13	73.56
303.36	82.56
303.59	77.56
303.82	82.56
304.051	86.56
304.281	94.56
304.511	79.56
304.741	80.56
304.971	84.56
305.201	82.56
305.431	86.56
305.661	89.56
305.891	84.56
306.121	86.56
306.352	89.56
306.582	92.56
306.812	58.56
307.042	87.56
307.272	83.56
307.502	78.56
307.731	77.56
307.961	81.56
308.191	85.56
308.421	76.56
308.651	92.56
308.881	93.56
309.111	97.56
309.341	96.56
309.571	82.56
309.8	89.56
310.03	92.56
310.26	82.56
310.49	91.56
310.72	99.56
310.949	95.56
311.179	81.56
311.409	81.56
311.639	83.56
311.868	87.56
312.098	102.56
312.328	83.56
312.557	90.56
312.787	85.56
313.017	93.56
313.246	96.56
313.476	83.56
313.706	83.56
313.935	92.56
314.165	82.56
314.394	78.56
314.624	94.56
314.853	90.56
315.083	83.56
315.312	90.56
315.542	81.56
315.771	86.56
316.001	87.56
316.23	89.56
316.46	97.56
316.689	90.56
316.919	89.56
317.148	79.56
317.377	88.56
317.607	95.56
317.836	90.56
318.065	88.56
318.295	82.56
318.524	91.56
318.753	87.56
318.983	77.56
319.212	70.56
319.441	101.56
319.67	83.56
319.9	78.56
320.129	101.56
320.358	81.56
320.587	76.56
320.816	72.56
321.046	64.56
321.275	89.56
321.504	80.56
321.733	87.56
321.962	83.56
322.191	76.56
322.42	92.56
322.649	85.56
322.878	89.56
323.108	70.56
323.337	80.56
323.566	75.56
323.795	73.56
324.024	97.56
324.253	78.56
324.482	74.56
324.71	80.56
324.939	84.56
325.168	81.56
325.397	95.56
325.626	88.56
325.855	64.56
326.084	83.56
326.313	86.56
326.542	83.56
326.77	101.56
326.999	97.56
327.228	88.56
327.457	85.56
327.686	92.56
327.914	101.56
328.143	82.56
328.372	88.56
328.6	75.56
328.829	89.56
329.058	84.56
329.287	77.56
329.515	96.56
329.744	87.56
329.972	86.56
330.201	90.56
330.43	75.56
330.658	81.56
330.887	88.56
331.115	83.56
331.344	88.56
331.572	86.56
331.801	89.56
332.03	82.56
332.258	73.56
332.486	90.56
332.715	71.56
332.943	75.56
333.172	100.56
333.4	84.56
333.629	78.56
333.857	94.56
334.085	93.56
334.314	74.56
334.542	78.56
334.771	93.56
334.999	72.56
335.227	95.56
335.455	69.56
335.684	84.56
335.912	76.56
336.14	75.56
336.369	88.56
336.597	101.56
336.825	87.56
337.053	91.56
337.281	97.56
337.51	87.56
337.738	86.56
337.966	66.56
338.194	71.56
338.422	82.56
338.65	100.56
338.878	81.56
339.106	77.56
339.334	77.56
339.562	74.56
339.79	88.56
340.018	98.56
340.246	83.56
340.474	72.56
340.702	77.56
340.93	93.56
341.158	84.56
341.386	92.56
341.614	89.56
341.842	90.56
342.07	90.56
342.298	91.56
342.526	91.56
342.754	85.56
342.981	92.56
343.209	87.56
343.437	104.56
343.665	81.56
343.893	97.56
344.12	86.56
344.348	83.56
344.576	70.56
344.804	81.56
345.031	79.56
345.259	86.56
345.487	89.56
345.714	79.56
345.942	85.56
346.17	85.56
346.397	85.56
346.625	98.56
346.853	82.56
347.08	91.56
347.308	90.56
347.535	82.56
347.763	91.56
347.99	78.56
348.218	87.56
348.445	88.56
348.673	92.56
348.9	91.56
349.128	75.56
349.355	86.56
349.583	84.56
349.81	68.56
350.037	84.56
350.265	85.56
350.492	75.56
350.72	89.56
350.947	86.56
351.174	96.56
351.402	84.56
351.629	99.56
351.856	90.56
352.083	83.56
352.311	75.56
352.538	94.56
352.765	81.56
352.992	81.56
353.22	72.56
353.447	84.56
353.674	93.56
353.901	91.56
354.128	79.56
354.355	79.56
354.583	81.56
354.81	81.56
355.037	83.56
355.264	93.56
355.491	89.56
355.718	82.56
355.945	78.56
356.172	92.56
356.399	92.56
356.626	87.56
356.853	93.56
357.08	89.56
357.307	72.56
357.534	93.56
357.761	89.56
357.988	76.56
358.215	90.56
358.441	80.56
358.668	71.56
358.895	76.56
359.122	85.56
359.349	85.56
359.576	99.56
359.802	75.56
360.029	72.56
360.256	76.56
360.483	69.56
360.709	82.56
360.936	89.56
361.163	93.56
361.39	96.56
361.616	111.56
361.843	93.56
362.07	82.56
362.296	87.56
362.523	85.56
362.749	76.56
362.976	98.56
363.203	97.56
363.429	82.56
363.656	93.56
363.882	78.56
364.109	87.56
364.335	98.56
364.562	90.56
364.788	96.56
365.015	81.56
365.241	78.56
365.468	87.56
365.694	70.56
365.92	84.56
366.147	77.56
366.373	83.56
366.599	82.56
366.826	89.56
367.052	96.56
367.278	103.56
367.505	80.56
367.731	96.56
367.957	80.56
368.184	84.56
368.41	93.56
368.636	95.56
368.862	81.56
369.089	94.56
369.315	101.56
369.541	93.56
369.767	103.56
369.993	98.56
370.219	95.56
370.445	106.56
370.672	98.56
370.898	100.56
371.124	92.56
371.35	89.56
371.576	90.56
371.802	103.56
372.028	88.56
372.254	102.56
372.48	90.56
372.706	83.56
372.932	93.56
373.158	99.56
373.384	106.56
373.61	81.56
373.835	91.56
374.061	91.56
374.287	107.56
374.513	98.56
374.739	96.56
374.965	96.56
375.191	96.56
375.416	94.56
375.642	114.56
375.868	101.56
376.094	96.56
376.319	89.56
376.545	92.56
376.771	109.56
376.997	103.56
377.222	94.56
377.448	104.56
377.674	101.56
377.899	94.56
378.125	97.56
378.35	101.56
378.576	100.56
378.802	87.56
379.027	106.56
379.253	97.56
379.478	100.56
379.704	97.56
379.929	92.56
380.155	97.56
380.38	101.56
380.606	99.56
380.831	97.56
381.057	116.56
381.282	100.56
381.507	123.56
381.733	109.56
381.958	82.56
382.184	85.56
382.409	112.56
382.634	94.56
382.86	91.56
383.085	101.56
383.31	102.56
383.535	101.56
383.761	93.56
383.986	111.56
384.211	96.56
384.436	104.56
384.662	97.56
384.887	93.56
385.112	86.56
385.337	91.56
385.562	108.56
385.787	86.56
386.013	102.56
386.238	94.56
386.463	105.56
386.688	114.56
386.913	85.56
387.138	98.56
387.363	116.56
387.588	95.56
387.813	96.56
388.038	99.56
388.263	97.56
388.488	95.56
388.713	89.56
388.938	101.56
389.163	112.56
389.387	104.56
389.612	110.56
389.837	116.56
390.062	117.56
390.287	98.56
390.512	118.56
390.736	101.56
390.961	103.56
391.186	93.56
391.411	108.56
391.636	110.56
391.86	107.56
392.085	113.56
392.31	118.56
392.534	118.56
392.759	105.56
392.984	114.56
393.208	99.56
393.433	111.56
393.658	120.56
393.882	117.56
394.107	93.56
394.331	101.56
394.556	114.56
394.78	103.56
395.005	100.56
395.229	90.56
395.454	105.56
395.678	102.56
395.903	112.56
396.127	104.56
396.352	122.56
396.576	105.56
396.801	112.56
397.025	120.56
397.249	96.56
397.474	103.56
397.698	100.56
397.922	118.56
398.147	103.56
398.371	116.56
398.595	105.56
398.82	112.56
399.044	105.56
399.268	112.56
399.492	115.56
399.717	114.56
399.941	108.56
400.165	119.56
400.389	120.56
400.613	112.56
400.837	116.56
401.062	109.56
401.286	113.56
401.51	114.56
401.734	107.56
401.958	114.56
402.182	122.56
402.406	117.56
402.63	113.56
402.854	129.56
403.078	115.56
403.302	120.56
403.526	120.56
403.75	112.56
403.974	117.56
404.198	105.56
404.422	126.56
404.645	119.56
404.869	122.56
405.093	117.56
405.317	110.56
405.541	115.56
405.765	114.56
405.988	120.56
406.212	125.56
406.436	126.56
406.66	128.56
406.883	110.56
407.107	133.56
407.331	122.56
407.555	110.56
407.778	129.56
408.002	126.56
408.226	117.56
408.449	116.56
408.673	134.56
408.896	128.56
409.12	130.56
409.344	129.56
409.567	125.56
409.791	119.56
410.014	115.56
410.238	125.56
410.461	120.56
410.685	113.56
410.908	128.56
411.132	130.56
411.355	124.56
411.578	108.56
411.802	125.56
412.025	116.56
412.249	138.56
412.472	125.56
412.695	116.56
412.919	117.56
413.142	123.56
413.365	129.56
413.589	140.56
413.812	117.56
414.035	129.56
414.258	125.56
414.482	134.56
414.705	124.56
414.928	131.56
415.151	128.56
415.374	145.56
415.597	141.56
415.821	133.56
416.044	127.56
416.267	130.56
416.49	143.56
416.713	137.56
416.936	135.56
417.159	133.56
417.382	140.56
417.605	124.56
417.828	125.56
418.051	123.56
418.274	131.56
418.497	148.56
418.72	148.56
418.943	141.56
419.166	128.56
419.389	142.56
419.611	143.56
419.834	134.56
420.057	128.56
420.28	150.56
420.503	142.56
420.726	160.56
420.948	132.56
421.171	138.56
421.394	145.56
421.617	147.56
421.839	146.56
422.062	160.56
422.285	140.56
422.507	143.56
422.73	142.56
422.953	130.56
423.175	131.56
423.398	133.56
423.621	149.56
423.843	136.56
424.066	132.56
424.288	137.56
424.511	142.56
424.733	166.56
424.956	143.56
425.178	152.56
425.401	149.56
425.623	150.56
425.846	128.56
426.068	138.56
426.291	133.56
426.513	124.56
426.735	134.56
426.958	136.56
427.18	133.56
427.402	140.56
427.625	158.56
427.847	143.56
428.069	127.56
428.292	143.56
428.514	132.56
428.736	130.56
428.958	147.56
429.181	149.56
429.403	134.56
429.625	140.56
429.847	129.56
430.069	147.56
430.292	151.56
430.514	136.56
430.736	133.56
430.958	130.56
431.18	125.56
431.402	114.56
431.624	107.56
431.846	116.56
432.068	98.56
432.29	107.56
432.512	117.56
432.734	128.56
432.956	139.56
433.178	151.56
433.4	141.56
433.622	142.56
433.844	145.56
434.066	124.56
434.287	112.56
434.509	98.56
434.731	96.56
434.953	98.56
435.175	133.56
435.397	123.56
435.618	136.56
435.84	125.56
436.062	136.56
436.284	132.56
436.505	136.56
436.727	120.56
436.949	133.56
437.17	128.56
437.392	134.56
437.614	124.56
437.835	128.56
438.057	132.56
438.278	128.56
438.5	119.56
438.721	129.56
438.943	142.56
439.165	138.56
439.386	138.56
439.608	130.56
439.829	149.56
440.05	149.56
440.272	146.56
440.493	155.56
440.715	165.56
440.936	151.56
441.158	156.56
441.379	157.56
441.6	152.56
441.822	157.56
442.043	129.56
442.264	150.56
442.486	153.56
442.707	156.56
442.928	149.56
443.149	141.56
443.371	140.56
443.592	152.56
443.813	150.56
444.034	149.56
444.255	142.56
444.476	147.56
444.698	164.56
444.919	154.56
445.14	265.56
445.361	212.56
445.582	178.56
445.803	164.56
446.024	148.56
446.245	160.56
446.466	151.56
446.687	156.56
446.908	160.56
447.129	167.56
447.35	166.56
447.571	154.56
447.792	150.56
448.013	153.56
448.234	148.56
448.455	145.56
448.675	148.56
448.896	143.56
449.117	144.56
449.338	158.56
449.559	148.56
449.779	142.56
450	143.56
450.221	137.56
450.442	131.56
450.662	141.56
450.883	139.56
451.104	137.56
451.324	145.56
451.545	147.56
451.766	132.56
451.986	130.56
452.207	130.56
452.428	141.56
452.648	136.56
452.869	131.56
453.089	130.56
453.31	128.56
453.53	108.56
453.751	116.56
453.971	115.56
454.192	101.56
454.412	120.56
454.633	118.56
454.853	125.56
455.073	131.56
455.294	136.56
455.514	137.56
455.734	146.56
455.955	124.56
456.175	122.56
456.395	120.56
456.616	107.56
456.836	120.56
457.056	117.56
457.276	111.56
457.497	96.56
457.717	97.56
457.937	108.56
458.157	109.56
458.377	115.56
458.598	98.56
458.818	102.56
459.038	105.56
459.258	76.56
459.478	99.56
459.698	105.56
459.918	106.56
460.138	109.56
460.358	114.56
460.578	129.56
460.798	122.56
461.018	115.56
461.238	122.56
461.458	110.56
461.678	126.56
461.898	120.56
462.118	115.56
462.338	122.56
462.558	131.56
462.777	128.56
462.997	124.56
463.217	114.56
463.437	104.56
463.657	93.56
463.876	115.56
464.096	104.56
464.316	117.56
464.536	100.56
464.755	122.56
464.975	112.56
465.195	113.56
465.414	134.56
465.634	132.56
465.854	124.56
466.073	134.56
466.293	126.56
466.512	118.56
466.732	135.56
466.951	154.56
467.171	150.56
467.391	141.56
467.61	138.56
467.829	133.56
468.049	139.56
468.268	140.56
468.488	142.56
468.707	128.56
468.927	135.56
469.146	150.56
469.365	147.56
469.585	133.56
469.804	157.56
470.023	143.56
470.243	146.56
470.462	150.56
470.681	146.56
470.901	162.56
471.12	143.56
471.339	135.56
471.558	160.56
471.777	139.56
471.997	131.56
472.216	129.56
472.435	110.56
472.654	109.56
472.873	125.56
473.092	120.56
473.311	128.56
473.53	128.56
473.749	123.56
473.968	120.56
474.187	136.56
474.406	127.56
474.625	134.56
474.844	137.56
475.063	138.56
475.282	135.56
475.501	124.56
475.72	123.56
475.939	128.56
476.158	128.56
476.377	134.56
476.596	129.56
476.814	124.56
477.033	121.56
477.252	121.56
477.471	130.56
477.69	148.56
477.908	140.56
478.127	160.56
478.346	151.56
478.564	149.56
478.783	124.56
479.002	150.56
479.22	152.56
479.439	142.56
479.658	120.56
479.876	113.56
480.095	113.56
480.313	116.56
480.532	120.56
480.751	112.56
480.969	94.56
481.188	92.56
481.406	85.56
481.624	81.56
481.843	91.56
482.061	92.56
482.28	123.56
482.498	116.56
482.717	109.56
482.935	129.56
483.153	143.56
483.372	171.56
483.59	154.56
483.808	152.56
484.027	142.56
484.245	150.56
484.463	157.56
484.681	163.56
484.9	156.56
485.118	149.56
485.336	148.56
485.554	127.56
485.772	115.56
485.99	91.56
486.209	113.56
486.427	124.56
486.645	125.56
486.863	160.56
487.081	156.56
487.299	122.56
487.517	129.56
487.735	181.56
487.953	171.56
488.171	182.56
488.389	184.56
488.607	177.56
488.825	162.56
489.043	136.56
489.261	139.56
489.479	139.56
489.696	145.56
489.914	147.56
490.132	161.56
490.35	168.56
490.568	164.56
490.786	183.56
491.003	180.56
491.221	190.56
491.439	198.56
491.657	205.56
491.874	229.56
492.092	245.56
492.31	250.56
492.527	252.56
492.745	223.56
492.963	202.56
493.18	196.56
493.398	185.56
493.615	164.56
493.833	171.56
494.05	171.56
494.268	193.56
494.485	167.56
494.703	180.56
494.92	197.56
495.138	197.56
495.355	162.56
495.573	182.56
495.79	175.56
496.008	182.56
496.225	161.56
496.442	169.56
496.66	177.56
496.877	174.56
497.094	163.56
497.312	172.56
497.529	169.56
497.746	148.56
497.963	141.56
498.181	136.56
498.398	137.56
498.615	117.56
498.832	120.56
499.049	141.56
499.267	135.56
499.484	137.56
499.701	136.56
499.918	131.56
500.135	151.56
500.352	148.56
500.569	152.56
500.786	151.56
501.003	143.56
501.22	135.56
501.437	141.56
501.654	138.56
501.871	132.56
502.088	134.56
502.305	139.56
502.522	130.56
502.739	141.56
502.956	124.56
503.172	130.56
503.389	146.56
503.606	112.56
503.823	124.56
504.04	132.56
504.256	135.56
504.473	126.56
504.69	141.56
504.907	138.56
505.123	127.56
505.34	113.56
505.557	143.56
505.773	123.56
505.99	134.56
506.207	101.56
506.423	130.56
506.64	135.56
506.856	126.56
507.073	113.56
507.289	144.56
507.506	129.56
507.722	123.56
507.939	135.56
508.155	139.56
508.372	105.56
508.588	104.56
508.805	125.56
509.021	106.56
509.238	118.56
509.454	122.56
509.67	106.56
509.887	103.56
510.103	94.56
510.319	99.56
510.536	104.56
510.752	96.56
510.968	86.56
511.184	78.56
