Data from Location6.07152019.Energy5.Lamp.07192019.3%Agarose_HRD10591_16-12-38-398.txt Node
Date: Fri Jul 19 16:12:38 EDT 2019
User: cochatt
Spectrometer: HR+D1059
Trigger mode: 1
Integration Time (sec): 1.000000E-1
Scans to average: 1
Electric dark correction enabled: true
Nonlinearity correction enabled: false
Boxcar width: 0
XAxis mode: Wavelengths
Number of Pixels in Spectrum: 2048
>>>>>Begin Spectral Data<<<<<
223.165	-2.75
223.4	-2.75
223.635	-2.75
223.869	-26.75
224.104	-18.75
224.338	-7.75
224.573	-21.75
224.808	-13.75
225.042	-13.75
225.277	-18.75
225.511	2.25
225.746	4.25
225.98	0.25
226.215	28.25
226.449	12.25
226.683	17.25
226.918	31.25
227.152	28.25
227.387	38.25
227.621	40.25
227.856	44.25
228.09	37.25
228.324	58.25
228.559	53.25
228.793	71.25
229.027	64.25
229.262	69.25
229.496	71.25
229.73	72.25
229.964	72.25
230.199	65.25
230.433	82.25
230.667	88.25
230.901	78.25
231.136	85.25
231.37	77.25
231.604	91.25
231.838	71.25
232.072	79.25
232.306	82.25
232.541	89.25
232.775	82.25
233.009	88.25
233.243	68.25
233.477	83.25
233.711	102.25
233.945	81.25
234.179	89.25
234.413	73.25
234.647	90.25
234.881	85.25
235.115	80.25
235.349	85.25
235.583	73.25
235.817	88.25
236.051	78.25
236.285	74.25
236.519	75.25
236.753	98.25
236.987	70.25
237.221	98.25
237.455	72.25
237.689	81.25
237.922	76.25
238.156	77.25
238.39	71.25
238.624	81.25
238.858	73.25
239.091	56.25
239.325	86.25
239.559	82.25
239.793	84.25
240.027	79.25
240.26	82.25
240.494	82.25
240.728	84.25
240.961	86.25
241.195	86.25
241.429	92.25
241.662	98.25
241.896	96.25
242.13	107.25
242.363	78.25
242.597	79.25
242.83	83.25
243.064	88.25
243.298	56.25
243.531	89.25
243.765	88.25
243.998	87.25
244.232	84.25
244.465	81.25
244.699	87.25
244.932	84.25
245.166	94.25
245.399	70.25
245.633	94.25
245.866	82.25
246.099	86.25
246.333	71.25
246.566	79.25
246.8	89.25
247.033	70.25
247.266	89.25
247.5	76.25
247.733	94.25
247.966	68.25
248.2	92.25
248.433	83.25
248.666	75.25
248.899	86.25
249.133	92.25
249.366	97.25
249.599	78.25
249.832	90.25
250.066	92.25
250.299	82.25
250.532	72.25
250.765	72.25
250.998	88.25
251.231	76.25
251.465	77.25
251.698	84.25
251.931	89.25
252.164	92.25
252.397	81.25
252.63	80.25
252.863	88.25
253.096	84.25
253.329	93.25
253.562	92.25
253.795	66.25
254.028	78.25
254.261	71.25
254.494	82.25
254.727	87.25
254.96	90.25
255.193	75.25
255.426	84.25
255.659	94.25
255.892	88.25
256.124	83.25
256.357	86.25
256.59	85.25
256.823	77.25
257.056	86.25
257.289	70.25
257.521	78.25
257.754	91.25
257.987	87.25
258.22	80.25
258.452	84.25
258.685	91.25
258.918	94.25
259.151	82.25
259.383	88.25
259.616	82.25
259.849	81.25
260.081	74.25
260.314	86.25
260.547	86.25
260.779	72.25
261.012	83.25
261.244	76.25
261.477	90.25
261.71	74.25
261.942	80.25
262.175	86.25
262.407	98.25
262.64	65.25
262.872	85.25
263.105	83.25
263.337	93.25
263.57	100.25
263.802	83.25
264.035	79.25
264.267	81.25
264.499	90.25
264.732	71.25
264.964	86.25
265.197	89.25
265.429	105.25
265.661	73.25
265.894	84.25
266.126	90.25
266.358	85.25
266.591	91.25
266.823	77.25
267.055	86.25
267.287	91.25
267.52	77.25
267.752	95.25
267.984	76.25
268.216	85.25
268.448	78.25
268.681	75.25
268.913	94.25
269.145	80.25
269.377	105.25
269.609	95.25
269.841	75.25
270.073	89.25
270.306	78.25
270.538	79.25
270.77	94.25
271.002	86.25
271.234	80.25
271.466	80.25
271.698	90.25
271.93	92.25
272.162	83.25
272.394	90.25
272.626	91.25
272.858	84.25
273.09	82.25
273.322	93.25
273.553	93.25
273.785	108.25
274.017	101.25
274.249	86.25
274.481	95.25
274.713	93.25
274.945	61.25
275.176	108.25
275.408	78.25
275.64	82.25
275.872	76.25
276.104	80.25
276.335	80.25
276.567	84.25
276.799	90.25
277.031	85.25
277.262	91.25
277.494	79.25
277.726	102.25
277.957	82.25
278.189	77.25
278.421	100.25
278.652	88.25
278.884	80.25
279.115	89.25
279.347	87.25
279.579	78.25
279.81	100.25
280.042	86.25
280.273	74.25
280.505	93.25
280.736	86.25
280.968	78.25
281.199	89.25
281.431	86.25
281.662	87.25
281.894	85.25
282.125	73.25
282.356	70.25
282.588	88.25
282.819	92.25
283.051	94.25
283.282	86.25
283.513	95.25
283.745	94.25
283.976	92.25
284.207	91.25
284.439	101.25
284.67	82.25
284.901	92.25
285.132	102.25
285.364	89.25
285.595	86.25
285.826	93.25
286.057	85.25
286.288	75.25
286.52	91.25
286.751	82.25
286.982	81.25
287.213	73.25
287.444	92.25
287.675	89.25
287.906	93.25
288.138	92.25
288.369	94.25
288.6	83.25
288.831	77.25
289.062	106.25
289.293	78.25
289.524	96.25
289.755	102.25
289.986	92.25
290.217	92.25
290.448	94.25
290.679	93.25
290.91	105.25
291.141	88.25
291.371	87.25
291.602	85.25
291.833	109.25
292.064	97.25
292.295	82.25
292.526	82.25
292.757	96.25
292.987	74.25
293.218	96.25
293.449	106.25
293.68	91.25
293.91	98.25
294.141	90.25
294.372	81.25
294.603	83.25
294.833	98.25
295.064	77.25
295.295	96.25
295.525	99.25
295.756	94.25
295.987	88.25
296.217	72.25
296.448	90.25
296.679	102.25
296.909	93.25
297.14	93.25
297.37	88.25
297.601	89.25
297.831	86.25
298.062	87.25
298.292	84.25
298.523	81.25
298.753	96.25
298.984	94.25
299.214	99.25
299.445	82.25
299.675	77.25
299.905	85.25
300.136	93.25
300.366	87.25
300.597	83.25
300.827	94.25
301.057	80.25
301.288	98.25
301.518	93.25
301.748	81.25
301.979	90.25
302.209	90.25
302.439	88.25
302.669	89.25
302.9	89.25
303.13	83.25
303.36	90.25
303.59	82.25
303.82	81.25
304.051	81.25
304.281	96.25
304.511	96.25
304.741	81.25
304.971	89.25
305.201	85.25
305.431	101.25
305.661	94.25
305.891	79.25
306.121	84.25
306.352	113.25
306.582	94.25
306.812	94.25
307.042	96.25
307.272	71.25
307.502	89.25
307.731	81.25
307.961	92.25
308.191	80.25
308.421	87.25
308.651	86.25
308.881	85.25
309.111	83.25
309.341	86.25
309.571	92.25
309.8	92.25
310.03	77.25
310.26	90.25
310.49	90.25
310.72	85.25
310.949	89.25
311.179	86.25
311.409	81.25
311.639	86.25
311.868	83.25
312.098	92.25
312.328	90.25
312.557	86.25
312.787	93.25
313.017	92.25
313.246	105.25
313.476	90.25
313.706	92.25
313.935	91.25
314.165	93.25
314.394	76.25
314.624	85.25
314.853	98.25
315.083	92.25
315.312	90.25
315.542	102.25
315.771	93.25
316.001	78.25
316.23	95.25
316.46	86.25
316.689	86.25
316.919	86.25
317.148	102.25
317.377	94.25
317.607	109.25
317.836	105.25
318.065	98.25
318.295	97.25
318.524	91.25
318.753	103.25
318.983	111.25
319.212	95.25
319.441	86.25
319.67	90.25
319.9	87.25
320.129	95.25
320.358	83.25
320.587	82.25
320.816	92.25
321.046	86.25
321.275	81.25
321.504	86.25
321.733	96.25
321.962	97.25
322.191	84.25
322.42	90.25
322.649	108.25
322.878	88.25
323.108	79.25
323.337	92.25
323.566	90.25
323.795	100.25
324.024	96.25
324.253	103.25
324.482	82.25
324.71	100.25
324.939	78.25
325.168	101.25
325.397	106.25
325.626	85.25
325.855	93.25
326.084	84.25
326.313	72.25
326.542	69.25
326.77	95.25
326.999	88.25
327.228	87.25
327.457	104.25
327.686	105.25
327.914	97.25
328.143	88.25
328.372	89.25
328.6	95.25
328.829	90.25
329.058	77.25
329.287	68.25
329.515	93.25
329.744	93.25
329.972	90.25
330.201	81.25
330.43	80.25
330.658	88.25
330.887	88.25
331.115	87.25
331.344	80.25
331.572	92.25
331.801	90.25
332.03	94.25
332.258	82.25
332.486	85.25
332.715	84.25
332.943	82.25
333.172	92.25
333.4	86.25
333.629	86.25
333.857	96.25
334.085	88.25
334.314	83.25
334.542	76.25
334.771	92.25
334.999	91.25
335.227	106.25
335.455	107.25
335.684	76.25
335.912	93.25
336.14	90.25
336.369	106.25
336.597	69.25
336.825	88.25
337.053	92.25
337.281	97.25
337.51	101.25
337.738	85.25
337.966	95.25
338.194	84.25
338.422	95.25
338.65	101.25
338.878	92.25
339.106	82.25
339.334	86.25
339.562	79.25
339.79	85.25
340.018	81.25
340.246	85.25
340.474	91.25
340.702	87.25
340.93	93.25
341.158	95.25
341.386	83.25
341.614	103.25
341.842	92.25
342.07	100.25
342.298	94.25
342.526	96.25
342.754	90.25
342.981	92.25
343.209	104.25
343.437	90.25
343.665	88.25
343.893	85.25
344.12	82.25
344.348	82.25
344.576	75.25
344.804	95.25
345.031	80.25
345.259	85.25
345.487	80.25
345.714	99.25
345.942	90.25
346.17	81.25
346.397	102.25
346.625	99.25
346.853	87.25
347.08	86.25
347.308	96.25
347.535	89.25
347.763	97.25
347.99	84.25
348.218	80.25
348.445	82.25
348.673	91.25
348.9	85.25
349.128	88.25
349.355	97.25
349.583	98.25
349.81	94.25
350.037	96.25
350.265	84.25
350.492	96.25
350.72	92.25
350.947	89.25
351.174	100.25
351.402	96.25
351.629	91.25
351.856	95.25
352.083	85.25
352.311	87.25
352.538	84.25
352.765	90.25
352.992	95.25
353.22	85.25
353.447	84.25
353.674	87.25
353.901	89.25
354.128	91.25
354.355	92.25
354.583	78.25
354.81	89.25
355.037	107.25
355.264	84.25
355.491	95.25
355.718	94.25
355.945	85.25
356.172	82.25
356.399	92.25
356.626	90.25
356.853	80.25
357.08	78.25
357.307	99.25
357.534	98.25
357.761	98.25
357.988	95.25
358.215	96.25
358.441	94.25
358.668	92.25
358.895	90.25
359.122	89.25
359.349	88.25
359.576	92.25
359.802	81.25
360.029	92.25
360.256	80.25
360.483	89.25
360.709	83.25
360.936	102.25
361.163	81.25
361.39	75.25
361.616	83.25
361.843	96.25
362.07	81.25
362.296	93.25
362.523	78.25
362.749	79.25
362.976	83.25
363.203	100.25
363.429	81.25
363.656	90.25
363.882	93.25
364.109	82.25
364.335	99.25
364.562	76.25
364.788	92.25
365.015	98.25
365.241	90.25
365.468	93.25
365.694	96.25
365.92	94.25
366.147	85.25
366.373	75.25
366.599	82.25
366.826	81.25
367.052	94.25
367.278	99.25
367.505	84.25
367.731	107.25
367.957	97.25
368.184	80.25
368.41	101.25
368.636	104.25
368.862	100.25
369.089	87.25
369.315	89.25
369.541	97.25
369.767	95.25
369.993	89.25
370.219	89.25
370.445	87.25
370.672	94.25
370.898	95.25
371.124	84.25
371.35	106.25
371.576	99.25
371.802	104.25
372.028	101.25
372.254	99.25
372.48	102.25
372.706	88.25
372.932	80.25
373.158	98.25
373.384	114.25
373.61	97.25
373.835	92.25
374.061	106.25
374.287	91.25
374.513	88.25
374.739	81.25
374.965	98.25
375.191	92.25
375.416	92.25
375.642	98.25
375.868	95.25
376.094	96.25
376.319	98.25
376.545	111.25
376.771	93.25
376.997	96.25
377.222	85.25
377.448	100.25
377.674	93.25
377.899	102.25
378.125	96.25
378.35	109.25
378.576	94.25
378.802	101.25
379.027	99.25
379.253	99.25
379.478	94.25
379.704	93.25
379.929	96.25
380.155	103.25
380.38	110.25
380.606	103.25
380.831	78.25
381.057	104.25
381.282	101.25
381.507	108.25
381.733	110.25
381.958	88.25
382.184	96.25
382.409	95.25
382.634	109.25
382.86	108.25
383.085	104.25
383.31	95.25
383.535	101.25
383.761	103.25
383.986	106.25
384.211	109.25
384.436	104.25
384.662	97.25
384.887	84.25
385.112	89.25
385.337	99.25
385.562	97.25
385.787	113.25
386.013	106.25
386.238	103.25
386.463	104.25
386.688	98.25
386.913	92.25
387.138	101.25
387.363	108.25
387.588	105.25
387.813	101.25
388.038	113.25
388.263	99.25
388.488	106.25
388.713	101.25
388.938	120.25
389.163	105.25
389.387	109.25
389.612	103.25
389.837	106.25
390.062	101.25
390.287	104.25
390.512	92.25
390.736	105.25
390.961	102.25
391.186	94.25
391.411	104.25
391.636	100.25
391.86	103.25
392.085	106.25
392.31	116.25
392.534	122.25
392.759	116.25
392.984	104.25
393.208	114.25
393.433	114.25
393.658	112.25
393.882	125.25
394.107	94.25
394.331	120.25
394.556	112.25
394.78	96.25
395.005	121.25
395.229	106.25
395.454	108.25
395.678	121.25
395.903	107.25
396.127	114.25
396.352	112.25
396.576	113.25
396.801	105.25
397.025	111.25
397.249	121.25
397.474	124.25
397.698	109.25
397.922	119.25
398.147	124.25
398.371	125.25
398.595	113.25
398.82	129.25
399.044	123.25
399.268	122.25
399.492	121.25
399.717	119.25
399.941	119.25
400.165	121.25
400.389	103.25
400.613	116.25
400.837	126.25
401.062	122.25
401.286	122.25
401.51	110.25
401.734	114.25
401.958	117.25
402.182	118.25
402.406	122.25
402.63	121.25
402.854	121.25
403.078	140.25
403.302	129.25
403.526	128.25
403.75	117.25
403.974	102.25
404.198	118.25
404.422	109.25
404.645	116.25
404.869	123.25
405.093	119.25
405.317	128.25
405.541	121.25
405.765	119.25
405.988	116.25
406.212	140.25
406.436	125.25
406.66	126.25
406.883	119.25
407.107	128.25
407.331	121.25
407.555	111.25
407.778	123.25
408.002	128.25
408.226	118.25
408.449	122.25
408.673	122.25
408.896	133.25
409.12	134.25
409.344	127.25
409.567	119.25
409.791	136.25
410.014	130.25
410.238	131.25
410.461	123.25
410.685	133.25
410.908	130.25
411.132	155.25
411.355	129.25
411.578	113.25
411.802	138.25
412.025	120.25
412.249	128.25
412.472	130.25
412.695	116.25
412.919	133.25
413.142	133.25
413.365	132.25
413.589	129.25
413.812	128.25
414.035	142.25
414.258	138.25
414.482	138.25
414.705	135.25
414.928	139.25
415.151	125.25
415.374	143.25
415.597	141.25
415.821	129.25
416.044	136.25
416.267	130.25
416.49	127.25
416.713	126.25
416.936	130.25
417.159	138.25
417.382	142.25
417.605	140.25
417.828	142.25
418.051	145.25
418.274	148.25
418.497	135.25
418.72	141.25
418.943	160.25
419.166	140.25
419.389	128.25
419.611	139.25
419.834	141.25
420.057	147.25
420.28	138.25
420.503	150.25
420.726	143.25
420.948	132.25
421.171	144.25
421.394	151.25
421.617	151.25
421.839	155.25
422.062	150.25
422.285	134.25
422.507	162.25
422.73	128.25
422.953	130.25
423.175	132.25
423.398	144.25
423.621	145.25
423.843	142.25
424.066	144.25
424.288	156.25
424.511	141.25
424.733	166.25
424.956	149.25
425.178	158.25
425.401	141.25
425.623	129.25
425.846	152.25
426.068	136.25
426.291	143.25
426.513	134.25
426.735	132.25
426.958	135.25
427.18	136.25
427.402	133.25
427.625	154.25
427.847	141.25
428.069	146.25
428.292	145.25
428.514	146.25
428.736	141.25
428.958	139.25
429.181	145.25
429.403	136.25
429.625	139.25
429.847	128.25
430.069	120.25
430.292	153.25
430.514	146.25
430.736	144.25
430.958	130.25
431.18	142.25
431.402	144.25
431.624	139.25
431.846	105.25
432.068	100.25
432.29	101.25
432.512	117.25
432.734	130.25
432.956	152.25
433.178	151.25
433.4	154.25
433.622	142.25
433.844	139.25
434.066	130.25
434.287	109.25
434.509	106.25
434.731	111.25
434.953	120.25
435.175	131.25
435.397	128.25
435.618	108.25
435.84	132.25
436.062	116.25
436.284	137.25
436.505	140.25
436.727	136.25
436.949	130.25
437.17	140.25
437.392	136.25
437.614	131.25
437.835	127.25
438.057	126.25
438.278	106.25
438.5	158.25
438.721	136.25
438.943	145.25
439.165	143.25
439.386	153.25
439.608	141.25
439.829	145.25
440.05	152.25
440.272	164.25
440.493	170.25
440.715	144.25
440.936	145.25
441.158	152.25
441.379	158.25
441.6	151.25
441.822	157.25
442.043	141.25
442.264	130.25
442.486	148.25
442.707	146.25
442.928	154.25
443.149	150.25
443.371	162.25
443.592	138.25
443.813	152.25
444.034	151.25
444.255	166.25
444.476	141.25
444.698	152.25
444.919	159.25
445.14	293.25
445.361	224.25
445.582	164.25
445.803	180.25
446.024	175.25
446.245	164.25
446.466	171.25
446.687	174.25
446.908	165.25
447.129	168.25
447.35	157.25
447.571	174.25
447.792	159.25
448.013	158.25
448.234	162.25
448.455	159.25
448.675	150.25
448.896	142.25
449.117	148.25
449.338	152.25
449.559	141.25
449.779	148.25
450	136.25
450.221	146.25
450.442	146.25
450.662	151.25
450.883	158.25
451.104	136.25
451.324	133.25
451.545	142.25
451.766	146.25
451.986	139.25
452.207	134.25
452.428	134.25
452.648	132.25
452.869	137.25
453.089	131.25
453.31	128.25
453.53	129.25
453.751	108.25
453.971	102.25
454.192	112.25
454.412	129.25
454.633	130.25
454.853	132.25
455.073	138.25
455.294	130.25
455.514	132.25
455.734	130.25
455.955	132.25
456.175	131.25
456.395	113.25
456.616	120.25
456.836	104.25
457.056	114.25
457.276	111.25
457.497	119.25
457.717	137.25
457.937	119.25
458.157	125.25
458.377	118.25
458.598	105.25
458.818	110.25
459.038	84.25
459.258	100.25
459.478	91.25
459.698	100.25
459.918	109.25
460.138	109.25
460.358	103.25
460.578	120.25
460.798	126.25
461.018	132.25
461.238	134.25
461.458	125.25
461.678	122.25
461.898	132.25
462.118	117.25
462.338	108.25
462.558	124.25
462.777	122.25
462.997	118.25
463.217	113.25
463.437	118.25
463.657	120.25
463.876	122.25
464.096	122.25
464.316	120.25
464.536	124.25
464.755	111.25
464.975	119.25
465.195	124.25
465.414	130.25
465.634	128.25
465.854	134.25
466.073	133.25
466.293	134.25
466.512	136.25
466.732	130.25
466.951	134.25
467.171	146.25
467.391	143.25
467.61	153.25
467.829	131.25
468.049	144.25
468.268	150.25
468.488	140.25
468.707	144.25
468.927	145.25
469.146	132.25
469.365	144.25
469.585	154.25
469.804	142.25
470.023	152.25
470.243	161.25
470.462	144.25
470.681	148.25
470.901	158.25
471.12	152.25
471.339	148.25
471.558	163.25
471.777	143.25
471.997	127.25
472.216	140.25
472.435	124.25
472.654	119.25
472.873	124.25
473.092	138.25
473.311	122.25
473.53	144.25
473.749	143.25
473.968	133.25
474.187	118.25
474.406	138.25
474.625	154.25
474.844	154.25
475.063	143.25
475.282	127.25
475.501	140.25
475.72	139.25
475.939	136.25
476.158	124.25
476.377	134.25
476.596	130.25
476.814	122.25
477.033	116.25
477.252	117.25
477.471	135.25
477.69	136.25
477.908	162.25
478.127	152.25
478.346	150.25
478.564	142.25
478.783	138.25
479.002	150.25
479.22	163.25
479.439	156.25
479.658	144.25
479.876	126.25
480.095	118.25
480.313	108.25
480.532	125.25
480.751	119.25
480.969	108.25
481.188	95.25
481.406	91.25
481.624	101.25
481.843	100.25
482.061	111.25
482.28	109.25
482.498	129.25
482.717	117.25
482.935	129.25
483.153	157.25
483.372	169.25
483.59	162.25
483.808	149.25
484.027	139.25
484.245	142.25
484.463	154.25
484.681	175.25
484.9	156.25
485.118	143.25
485.336	136.25
485.554	135.25
485.772	96.25
485.99	104.25
486.209	114.25
486.427	116.25
486.645	118.25
486.863	149.25
487.081	142.25
487.299	145.25
487.517	160.25
487.735	189.25
487.953	196.25
488.171	203.25
488.389	179.25
488.607	173.25
488.825	144.25
489.043	150.25
489.261	128.25
489.479	141.25
489.696	160.25
489.914	153.25
490.132	153.25
490.35	164.25
490.568	176.25
490.786	188.25
491.003	188.25
491.221	185.25
491.439	206.25
491.657	220.25
491.874	211.25
492.092	242.25
492.31	251.25
492.527	239.25
492.745	235.25
492.963	218.25
493.18	206.25
493.398	202.25
493.615	192.25
493.833	178.25
494.05	168.25
494.268	191.25
494.485	193.25
494.703	188.25
494.92	183.25
495.138	183.25
495.355	190.25
495.573	192.25
495.79	183.25
496.008	183.25
496.225	184.25
496.442	193.25
496.66	184.25
496.877	170.25
497.094	180.25
497.312	176.25
497.529	160.25
497.746	168.25
497.963	159.25
498.181	146.25
498.398	145.25
498.615	125.25
498.832	126.25
499.049	120.25
499.267	136.25
499.484	125.25
499.701	140.25
499.918	128.25
500.135	145.25
500.352	140.25
500.569	156.25
500.786	142.25
501.003	154.25
501.22	154.25
501.437	157.25
501.654	140.25
501.871	150.25
502.088	140.25
502.305	139.25
502.522	145.25
502.739	129.25
502.956	129.25
503.172	120.25
503.389	128.25
503.606	124.25
503.823	128.25
504.04	125.25
504.256	134.25
504.473	134.25
504.69	130.25
504.907	143.25
505.123	123.25
505.34	114.25
505.557	118.25
505.773	130.25
505.99	143.25
506.207	128.25
506.423	124.25
506.64	131.25
506.856	123.25
507.073	130.25
507.289	136.25
507.506	134.25
507.722	136.25
507.939	128.25
508.155	129.25
508.372	123.25
508.588	109.25
508.805	116.25
509.021	126.25
509.238	118.25
509.454	123.25
509.67	112.25
509.887	113.25
510.103	102.25
510.319	97.25
510.536	95.25
