Data from Location6.07152019.Energy5.Lamp.07192019.3%Agarose_HRD10591_16-12-37-395.txt Node
Date: Fri Jul 19 16:12:37 EDT 2019
User: cochatt
Spectrometer: HR+D1059
Trigger mode: 1
Integration Time (sec): 1.000000E-1
Scans to average: 1
Electric dark correction enabled: true
Nonlinearity correction enabled: false
Boxcar width: 0
XAxis mode: Wavelengths
Number of Pixels in Spectrum: 2048
>>>>>Begin Spectral Data<<<<<
223.165	-10.75
223.4	-10.75
223.635	-10.75
223.869	-28.75
224.104	-12.75
224.338	6.25
224.573	-12.75
224.808	-11.75
225.042	-4.75
225.277	-8.75
225.511	-5.75
225.746	-16.75
225.98	3.25
226.215	19.25
226.449	14.25
226.683	28.25
226.918	20.25
227.152	21.25
227.387	36.25
227.621	31.25
227.856	39.25
228.09	61.25
228.324	50.25
228.559	51.25
228.793	68.25
229.027	69.25
229.262	71.25
229.496	66.25
229.73	82.25
229.964	59.25
230.199	69.25
230.433	83.25
230.667	86.25
230.901	77.25
231.136	78.25
231.37	86.25
231.604	84.25
231.838	95.25
232.072	87.25
232.306	83.25
232.541	88.25
232.775	90.25
233.009	71.25
233.243	78.25
233.477	89.25
233.711	82.25
233.945	66.25
234.179	86.25
234.413	73.25
234.647	79.25
234.881	70.25
235.115	77.25
235.349	69.25
235.583	68.25
235.817	71.25
236.051	79.25
236.285	79.25
236.519	80.25
236.753	80.25
236.987	73.25
237.221	80.25
237.455	77.25
237.689	76.25
237.922	90.25
238.156	80.25
238.39	85.25
238.624	87.25
238.858	82.25
239.091	77.25
239.325	83.25
239.559	75.25
239.793	70.25
240.027	79.25
240.26	82.25
240.494	73.25
240.728	75.25
240.961	81.25
241.195	72.25
241.429	76.25
241.662	73.25
241.896	87.25
242.13	80.25
242.363	82.25
242.597	82.25
242.83	82.25
243.064	75.25
243.298	75.25
243.531	86.25
243.765	88.25
243.998	77.25
244.232	84.25
244.465	78.25
244.699	89.25
244.932	81.25
245.166	91.25
245.399	78.25
245.633	74.25
245.866	81.25
246.099	72.25
246.333	90.25
246.566	76.25
246.8	75.25
247.033	72.25
247.266	79.25
247.5	72.25
247.733	67.25
247.966	81.25
248.2	75.25
248.433	88.25
248.666	83.25
248.899	79.25
249.133	82.25
249.366	84.25
249.599	85.25
249.832	88.25
250.066	92.25
250.299	84.25
250.532	74.25
250.765	73.25
250.998	87.25
251.231	86.25
251.465	73.25
251.698	85.25
251.931	82.25
252.164	86.25
252.397	87.25
252.63	84.25
252.863	79.25
253.096	79.25
253.329	78.25
253.562	92.25
253.795	95.25
254.028	87.25
254.261	92.25
254.494	76.25
254.727	83.25
254.96	72.25
255.193	65.25
255.426	70.25
255.659	84.25
255.892	91.25
256.124	94.25
256.357	93.25
256.59	96.25
256.823	85.25
257.056	87.25
257.289	89.25
257.521	92.25
257.754	80.25
257.987	88.25
258.22	76.25
258.452	86.25
258.685	83.25
258.918	74.25
259.151	85.25
259.383	92.25
259.616	70.25
259.849	85.25
260.081	98.25
260.314	88.25
260.547	81.25
260.779	73.25
261.012	77.25
261.244	82.25
261.477	88.25
261.71	78.25
261.942	71.25
262.175	78.25
262.407	98.25
262.64	85.25
262.872	84.25
263.105	80.25
263.337	82.25
263.57	82.25
263.802	84.25
264.035	75.25
264.267	88.25
264.499	74.25
264.732	90.25
264.964	73.25
265.197	88.25
265.429	75.25
265.661	81.25
265.894	79.25
266.126	89.25
266.358	89.25
266.591	87.25
266.823	79.25
267.055	83.25
267.287	87.25
267.52	89.25
267.752	79.25
267.984	82.25
268.216	84.25
268.448	99.25
268.681	87.25
268.913	65.25
269.145	80.25
269.377	71.25
269.609	74.25
269.841	78.25
270.073	74.25
270.306	81.25
270.538	79.25
270.77	79.25
271.002	93.25
271.234	72.25
271.466	76.25
271.698	87.25
271.93	89.25
272.162	82.25
272.394	86.25
272.626	88.25
272.858	83.25
273.09	82.25
273.322	87.25
273.553	89.25
273.785	75.25
274.017	80.25
274.249	99.25
274.481	88.25
274.713	89.25
274.945	96.25
275.176	89.25
275.408	81.25
275.64	93.25
275.872	80.25
276.104	82.25
276.335	89.25
276.567	88.25
276.799	80.25
277.031	82.25
277.262	84.25
277.494	96.25
277.726	80.25
277.957	81.25
278.189	65.25
278.421	83.25
278.652	79.25
278.884	100.25
279.115	92.25
279.347	86.25
279.579	76.25
279.81	88.25
280.042	81.25
280.273	71.25
280.505	67.25
280.736	79.25
280.968	74.25
281.199	82.25
281.431	87.25
281.662	72.25
281.894	76.25
282.125	71.25
282.356	99.25
282.588	88.25
282.819	95.25
283.051	85.25
283.282	66.25
283.513	85.25
283.745	86.25
283.976	99.25
284.207	75.25
284.439	92.25
284.67	95.25
284.901	89.25
285.132	72.25
285.364	84.25
285.595	86.25
285.826	84.25
286.057	80.25
286.288	88.25
286.52	88.25
286.751	98.25
286.982	76.25
287.213	93.25
287.444	89.25
287.675	84.25
287.906	74.25
288.138	95.25
288.369	80.25
288.6	79.25
288.831	84.25
289.062	77.25
289.293	82.25
289.524	71.25
289.755	88.25
289.986	95.25
290.217	87.25
290.448	75.25
290.679	84.25
290.91	81.25
291.141	80.25
291.371	78.25
291.602	79.25
291.833	84.25
292.064	85.25
292.295	71.25
292.526	77.25
292.757	91.25
292.987	92.25
293.218	80.25
293.449	81.25
293.68	79.25
293.91	77.25
294.141	77.25
294.372	91.25
294.603	96.25
294.833	87.25
295.064	90.25
295.295	73.25
295.525	83.25
295.756	84.25
295.987	98.25
296.217	92.25
296.448	91.25
296.679	86.25
296.909	82.25
297.14	101.25
297.37	101.25
297.601	81.25
297.831	67.25
298.062	98.25
298.292	99.25
298.523	83.25
298.753	90.25
298.984	86.25
299.214	80.25
299.445	90.25
299.675	92.25
299.905	103.25
300.136	91.25
300.366	75.25
300.597	78.25
300.827	92.25
301.057	74.25
301.288	89.25
301.518	81.25
301.748	81.25
301.979	91.25
302.209	85.25
302.439	82.25
302.669	86.25
302.9	89.25
303.13	90.25
303.36	69.25
303.59	90.25
303.82	84.25
304.051	77.25
304.281	96.25
304.511	79.25
304.741	85.25
304.971	84.25
305.201	80.25
305.431	94.25
305.661	83.25
305.891	74.25
306.121	82.25
306.352	94.25
306.582	81.25
306.812	75.25
307.042	84.25
307.272	91.25
307.502	90.25
307.731	80.25
307.961	87.25
308.191	88.25
308.421	77.25
308.651	83.25
308.881	86.25
309.111	93.25
309.341	96.25
309.571	79.25
309.8	67.25
310.03	95.25
310.26	89.25
310.49	91.25
310.72	77.25
310.949	82.25
311.179	98.25
311.409	107.25
311.639	88.25
311.868	92.25
312.098	91.25
312.328	76.25
312.557	83.25
312.787	86.25
313.017	80.25
313.246	86.25
313.476	81.25
313.706	94.25
313.935	86.25
314.165	82.25
314.394	87.25
314.624	83.25
314.853	87.25
315.083	79.25
315.312	79.25
315.542	81.25
315.771	87.25
316.001	73.25
316.23	85.25
316.46	80.25
316.689	79.25
316.919	82.25
317.148	83.25
317.377	84.25
317.607	86.25
317.836	84.25
318.065	87.25
318.295	80.25
318.524	87.25
318.753	79.25
318.983	90.25
319.212	81.25
319.441	84.25
319.67	83.25
319.9	84.25
320.129	81.25
320.358	90.25
320.587	90.25
320.816	82.25
321.046	75.25
321.275	92.25
321.504	60.25
321.733	88.25
321.962	75.25
322.191	90.25
322.42	88.25
322.649	90.25
322.878	87.25
323.108	103.25
323.337	69.25
323.566	77.25
323.795	73.25
324.024	72.25
324.253	73.25
324.482	81.25
324.71	84.25
324.939	79.25
325.168	98.25
325.397	79.25
325.626	100.25
325.855	82.25
326.084	79.25
326.313	85.25
326.542	79.25
326.77	81.25
326.999	81.25
327.228	92.25
327.457	81.25
327.686	85.25
327.914	85.25
328.143	75.25
328.372	81.25
328.6	98.25
328.829	84.25
329.058	85.25
329.287	79.25
329.515	84.25
329.744	78.25
329.972	85.25
330.201	97.25
330.43	79.25
330.658	85.25
330.887	85.25
331.115	93.25
331.344	92.25
331.572	83.25
331.801	88.25
332.03	86.25
332.258	99.25
332.486	87.25
332.715	82.25
332.943	87.25
333.172	93.25
333.4	80.25
333.629	86.25
333.857	92.25
334.085	84.25
334.314	91.25
334.542	80.25
334.771	97.25
334.999	94.25
335.227	88.25
335.455	81.25
335.684	95.25
335.912	72.25
336.14	75.25
336.369	82.25
336.597	88.25
336.825	85.25
337.053	80.25
337.281	65.25
337.51	69.25
337.738	83.25
337.966	77.25
338.194	88.25
338.422	92.25
338.65	81.25
338.878	94.25
339.106	94.25
339.334	93.25
339.562	95.25
339.79	91.25
340.018	84.25
340.246	83.25
340.474	88.25
340.702	94.25
340.93	98.25
341.158	91.25
341.386	89.25
341.614	85.25
341.842	86.25
342.07	97.25
342.298	76.25
342.526	101.25
342.754	110.25
342.981	74.25
343.209	80.25
343.437	96.25
343.665	86.25
343.893	97.25
344.12	88.25
344.348	85.25
344.576	95.25
344.804	90.25
345.031	78.25
345.259	83.25
345.487	88.25
345.714	74.25
345.942	87.25
346.17	77.25
346.397	80.25
346.625	91.25
346.853	75.25
347.08	72.25
347.308	77.25
347.535	85.25
347.763	85.25
347.99	85.25
348.218	92.25
348.445	62.25
348.673	78.25
348.9	66.25
349.128	81.25
349.355	69.25
349.583	90.25
349.81	89.25
350.037	85.25
350.265	88.25
350.492	83.25
350.72	80.25
350.947	84.25
351.174	94.25
351.402	92.25
351.629	76.25
351.856	87.25
352.083	91.25
352.311	76.25
352.538	77.25
352.765	94.25
352.992	91.25
353.22	81.25
353.447	90.25
353.674	88.25
353.901	81.25
354.128	80.25
354.355	84.25
354.583	87.25
354.81	83.25
355.037	72.25
355.264	87.25
355.491	71.25
355.718	77.25
355.945	92.25
356.172	89.25
356.399	86.25
356.626	83.25
356.853	76.25
357.08	76.25
357.307	104.25
357.534	92.25
357.761	76.25
357.988	91.25
358.215	87.25
358.441	80.25
358.668	79.25
358.895	80.25
359.122	91.25
359.349	91.25
359.576	83.25
359.802	89.25
360.029	88.25
360.256	80.25
360.483	90.25
360.709	87.25
360.936	91.25
361.163	83.25
361.39	84.25
361.616	60.25
361.843	87.25
362.07	84.25
362.296	88.25
362.523	82.25
362.749	92.25
362.976	90.25
363.203	71.25
363.429	69.25
363.656	89.25
363.882	92.25
364.109	89.25
364.335	89.25
364.562	69.25
364.788	88.25
365.015	88.25
365.241	81.25
365.468	104.25
365.694	74.25
365.92	88.25
366.147	102.25
366.373	89.25
366.599	81.25
366.826	90.25
367.052	91.25
367.278	89.25
367.505	99.25
367.731	98.25
367.957	87.25
368.184	98.25
368.41	96.25
368.636	87.25
368.862	79.25
369.089	95.25
369.315	98.25
369.541	80.25
369.767	85.25
369.993	94.25
370.219	107.25
370.445	96.25
370.672	93.25
370.898	88.25
371.124	87.25
371.35	94.25
371.576	92.25
371.802	86.25
372.028	88.25
372.254	94.25
372.48	95.25
372.706	104.25
372.932	98.25
373.158	92.25
373.384	107.25
373.61	103.25
373.835	108.25
374.061	105.25
374.287	88.25
374.513	103.25
374.739	89.25
374.965	97.25
375.191	98.25
375.416	104.25
375.642	112.25
375.868	106.25
376.094	92.25
376.319	90.25
376.545	102.25
376.771	93.25
376.997	121.25
377.222	99.25
377.448	85.25
377.674	97.25
377.899	99.25
378.125	97.25
378.35	105.25
378.576	91.25
378.802	95.25
379.027	86.25
379.253	95.25
379.478	91.25
379.704	92.25
379.929	99.25
380.155	71.25
380.38	102.25
380.606	90.25
380.831	98.25
381.057	103.25
381.282	99.25
381.507	105.25
381.733	102.25
381.958	83.25
382.184	76.25
382.409	117.25
382.634	103.25
382.86	107.25
383.085	116.25
383.31	94.25
383.535	86.25
383.761	104.25
383.986	97.25
384.211	94.25
384.436	100.25
384.662	98.25
384.887	87.25
385.112	88.25
385.337	92.25
385.562	110.25
385.787	108.25
386.013	104.25
386.238	105.25
386.463	97.25
386.688	105.25
386.913	96.25
387.138	99.25
387.363	101.25
387.588	104.25
387.813	100.25
388.038	100.25
388.263	125.25
388.488	98.25
388.713	107.25
388.938	101.25
389.163	94.25
389.387	105.25
389.612	105.25
389.837	105.25
390.062	97.25
390.287	108.25
390.512	99.25
390.736	94.25
390.961	110.25
391.186	98.25
391.411	106.25
391.636	102.25
391.86	100.25
392.085	119.25
392.31	110.25
392.534	108.25
392.759	114.25
392.984	106.25
393.208	112.25
393.433	108.25
393.658	112.25
393.882	118.25
394.107	115.25
394.331	117.25
394.556	112.25
394.78	99.25
395.005	100.25
395.229	115.25
395.454	111.25
395.678	96.25
395.903	106.25
396.127	104.25
396.352	114.25
396.576	103.25
396.801	116.25
397.025	104.25
397.249	96.25
397.474	112.25
397.698	114.25
397.922	118.25
398.147	118.25
398.371	111.25
398.595	119.25
398.82	107.25
399.044	112.25
399.268	123.25
399.492	108.25
399.717	115.25
399.941	120.25
400.165	114.25
400.389	116.25
400.613	131.25
400.837	118.25
401.062	110.25
401.286	121.25
401.51	111.25
401.734	119.25
401.958	116.25
402.182	104.25
402.406	122.25
402.63	124.25
402.854	129.25
403.078	110.25
403.302	117.25
403.526	130.25
403.75	129.25
403.974	117.25
404.198	103.25
404.422	118.25
404.645	113.25
404.869	116.25
405.093	119.25
405.317	124.25
405.541	140.25
405.765	119.25
405.988	118.25
406.212	118.25
406.436	132.25
406.66	146.25
406.883	123.25
407.107	119.25
407.331	138.25
407.555	133.25
407.778	121.25
408.002	119.25
408.226	126.25
408.449	126.25
408.673	126.25
408.896	115.25
409.12	124.25
409.344	116.25
409.567	121.25
409.791	130.25
410.014	121.25
410.238	128.25
410.461	142.25
410.685	119.25
410.908	128.25
411.132	119.25
411.355	116.25
411.578	128.25
411.802	120.25
412.025	127.25
412.249	124.25
412.472	104.25
412.695	130.25
412.919	122.25
413.142	128.25
413.365	126.25
413.589	125.25
413.812	129.25
414.035	145.25
414.258	124.25
414.482	128.25
414.705	120.25
414.928	131.25
415.151	128.25
415.374	134.25
415.597	136.25
415.821	133.25
416.044	130.25
416.267	145.25
416.49	124.25
416.713	133.25
416.936	124.25
417.159	140.25
417.382	136.25
417.605	120.25
417.828	127.25
418.051	136.25
418.274	143.25
418.497	133.25
418.72	146.25
418.943	119.25
419.166	144.25
419.389	146.25
419.611	140.25
419.834	140.25
420.057	123.25
420.28	145.25
420.503	135.25
420.726	139.25
420.948	145.25
421.171	148.25
421.394	144.25
421.617	149.25
421.839	157.25
422.062	141.25
422.285	144.25
422.507	138.25
422.73	126.25
422.953	134.25
423.175	139.25
423.398	129.25
423.621	147.25
423.843	134.25
424.066	152.25
424.288	151.25
424.511	131.25
424.733	154.25
424.956	148.25
425.178	151.25
425.401	147.25
425.623	152.25
425.846	139.25
426.068	142.25
426.291	128.25
426.513	143.25
426.735	137.25
426.958	138.25
427.18	152.25
427.402	137.25
427.625	131.25
427.847	136.25
428.069	145.25
428.292	145.25
428.514	122.25
428.736	119.25
428.958	132.25
429.181	121.25
429.403	132.25
429.625	134.25
429.847	135.25
430.069	139.25
430.292	141.25
430.514	136.25
430.736	130.25
430.958	129.25
431.18	141.25
431.402	129.25
431.624	113.25
431.846	122.25
432.068	108.25
432.29	99.25
432.512	119.25
432.734	123.25
432.956	128.25
433.178	140.25
433.4	122.25
433.622	132.25
433.844	131.25
434.066	127.25
434.287	123.25
434.509	103.25
434.731	107.25
434.953	120.25
435.175	126.25
435.397	128.25
435.618	134.25
435.84	115.25
436.062	112.25
436.284	123.25
436.505	143.25
436.727	128.25
436.949	141.25
437.17	140.25
437.392	138.25
437.614	130.25
437.835	103.25
438.057	114.25
438.278	122.25
438.5	140.25
438.721	138.25
438.943	151.25
439.165	146.25
439.386	140.25
439.608	164.25
439.829	148.25
440.05	163.25
440.272	134.25
440.493	150.25
440.715	154.25
440.936	144.25
441.158	157.25
441.379	148.25
441.6	162.25
441.822	151.25
442.043	149.25
442.264	145.25
442.486	140.25
442.707	146.25
442.928	140.25
443.149	142.25
443.371	135.25
443.592	143.25
443.813	162.25
444.034	121.25
444.255	144.25
444.476	146.25
444.698	136.25
444.919	141.25
445.14	272.25
445.361	198.25
445.582	157.25
445.803	159.25
446.024	171.25
446.245	158.25
446.466	145.25
446.687	168.25
446.908	148.25
447.129	172.25
447.35	159.25
447.571	168.25
447.792	145.25
448.013	147.25
448.234	146.25
448.455	155.25
448.675	147.25
448.896	154.25
449.117	143.25
449.338	123.25
449.559	146.25
449.779	139.25
450	138.25
450.221	128.25
450.442	155.25
450.662	140.25
450.883	153.25
451.104	137.25
451.324	150.25
451.545	127.25
451.766	136.25
451.986	138.25
452.207	129.25
452.428	139.25
452.648	131.25
452.869	123.25
453.089	123.25
453.31	118.25
453.53	114.25
453.751	119.25
453.971	102.25
454.192	120.25
454.412	128.25
454.633	126.25
454.853	126.25
455.073	118.25
455.294	121.25
455.514	116.25
455.734	121.25
455.955	129.25
456.175	116.25
456.395	117.25
456.616	120.25
456.836	114.25
457.056	98.25
457.276	105.25
457.497	100.25
457.717	102.25
457.937	126.25
458.157	112.25
458.377	107.25
458.598	104.25
458.818	110.25
459.038	85.25
459.258	95.25
459.478	91.25
459.698	91.25
459.918	99.25
460.138	102.25
460.358	116.25
460.578	111.25
460.798	116.25
461.018	118.25
461.238	115.25
461.458	128.25
461.678	106.25
461.898	115.25
462.118	112.25
462.338	100.25
462.558	116.25
462.777	101.25
462.997	109.25
463.217	106.25
463.437	126.25
463.657	112.25
463.876	111.25
464.096	119.25
464.316	121.25
464.536	120.25
464.755	126.25
464.975	132.25
465.195	115.25
465.414	119.25
465.634	121.25
465.854	107.25
466.073	122.25
466.293	125.25
466.512	136.25
466.732	132.25
466.951	121.25
467.171	144.25
467.391	139.25
467.61	160.25
467.829	134.25
468.049	147.25
468.268	142.25
468.488	148.25
468.707	152.25
468.927	156.25
469.146	138.25
469.365	163.25
469.585	144.25
469.804	160.25
470.023	143.25
470.243	153.25
470.462	150.25
470.681	156.25
470.901	138.25
471.12	130.25
471.339	147.25
471.558	140.25
471.777	138.25
471.997	129.25
472.216	141.25
472.435	120.25
472.654	102.25
472.873	108.25
473.092	111.25
473.311	122.25
473.53	121.25
473.749	146.25
473.968	147.25
474.187	133.25
474.406	121.25
474.625	127.25
474.844	137.25
475.063	133.25
475.282	127.25
475.501	121.25
475.72	142.25
475.939	131.25
476.158	129.25
476.377	123.25
476.596	138.25
476.814	112.25
477.033	118.25
477.252	121.25
477.471	128.25
477.69	126.25
477.908	151.25
478.127	146.25
478.346	125.25
478.564	134.25
478.783	130.25
479.002	145.25
479.22	147.25
479.439	123.25
479.658	126.25
479.876	122.25
480.095	119.25
480.313	123.25
480.532	129.25
480.751	122.25
480.969	104.25
481.188	105.25
481.406	74.25
481.624	89.25
481.843	96.25
482.061	106.25
482.28	119.25
482.498	112.25
482.717	114.25
482.935	139.25
483.153	158.25
483.372	165.25
483.59	153.25
483.808	162.25
484.027	143.25
484.245	142.25
484.463	149.25
484.681	167.25
484.9	155.25
485.118	149.25
485.336	133.25
485.554	124.25
485.772	102.25
485.99	110.25
486.209	116.25
486.427	123.25
486.645	118.25
486.863	157.25
487.081	159.25
487.299	146.25
487.517	152.25
487.735	167.25
487.953	188.25
488.171	194.25
488.389	183.25
488.607	171.25
488.825	162.25
489.043	149.25
489.261	147.25
489.479	135.25
489.696	145.25
489.914	154.25
490.132	137.25
490.35	163.25
490.568	150.25
490.786	172.25
491.003	180.25
491.221	178.25
491.439	189.25
491.657	190.25
491.874	203.25
492.092	226.25
492.31	259.25
492.527	233.25
492.745	213.25
492.963	196.25
493.18	195.25
493.398	177.25
493.615	202.25
493.833	185.25
494.05	184.25
494.268	183.25
494.485	184.25
494.703	179.25
494.92	190.25
495.138	167.25
495.355	187.25
495.573	180.25
495.79	184.25
496.008	180.25
496.225	170.25
496.442	176.25
496.66	162.25
496.877	171.25
497.094	176.25
497.312	174.25
497.529	167.25
497.746	165.25
497.963	150.25
498.181	138.25
498.398	128.25
498.615	133.25
498.832	126.25
499.049	121.25
499.267	118.25
499.484	147.25
499.701	137.25
499.918	146.25
500.135	140.25
500.352	151.25
500.569	154.25
500.786	139.25
501.003	166.25
501.22	154.25
501.437	145.25
501.654	144.25
501.871	137.25
502.088	127.25
502.305	145.25
502.522	134.25
502.739	131.25
502.956	143.25
503.172	137.25
503.389	128.25
503.606	132.25
503.823	119.25
504.04	136.25
504.256	132.25
504.473	122.25
504.69	120.25
504.907	138.25
505.123	121.25
505.34	123.25
505.557	131.25
505.773	131.25
505.99	107.25
506.207	119.25
506.423	130.25
506.64	115.25
506.856	122.25
507.073	122.25
507.289	145.25
507.506	123.25
507.722	124.25
507.939	121.25
508.155	134.25
508.372	110.25
508.588	129.25
508.805	113.25
509.021	102.25
509.238	107.25
509.454	107.25
509.67	88.25
509.887	109.25
510.103	97.25
510.319	92.25
510.536	110.25
510.752	92.25
510.968	86.25
511.184	99.25
