Data from Location6.07152019.Energy5.Lamp.07192019.3%Agarose_HRD10591_16-13-39-397.txt Node
Date: Fri Jul 19 16:13:39 EDT 2019
User: cochatt
Spectrometer: HR+D1059
Trigger mode: 1
Integration Time (sec): 1.000000E-1
Scans to average: 1
Electric dark correction enabled: true
Nonlinearity correction enabled: false
Boxcar width: 0
XAxis mode: Wavelengths
Number of Pixels in Spectrum: 2048
>>>>>Begin Spectral Data<<<<<
223.165	-8.31
223.4	-8.31
223.635	-8.31
223.869	-20.31
224.104	-33.31
224.338	-10.31
224.573	-18.31
224.808	-19.31
225.042	-14.31
225.277	-7.31
225.511	1.69
225.746	12.69
225.98	8.69
226.215	8.69
226.449	16.69
226.683	21.69
226.918	29.69
227.152	31.69
227.387	32.69
227.621	46.69
227.856	38.69
228.09	35.69
228.324	59.69
228.559	58.69
228.793	57.69
229.027	66.69
229.262	60.69
229.496	58.69
229.73	66.69
229.964	48.69
230.199	64.69
230.433	76.69
230.667	80.69
230.901	87.69
231.136	68.69
231.37	80.69
231.604	73.69
231.838	76.69
232.072	77.69
232.306	78.69
232.541	82.69
232.775	68.69
233.009	84.69
233.243	73.69
233.477	78.69
233.711	95.69
233.945	75.69
234.179	76.69
234.413	67.69
234.647	73.69
234.881	91.69
235.115	79.69
235.349	71.69
235.583	59.69
235.817	74.69
236.051	65.69
236.285	74.69
236.519	61.69
236.753	94.69
236.987	74.69
237.221	66.69
237.455	65.69
237.689	55.69
237.922	73.69
238.156	67.69
238.39	82.69
238.624	79.69
238.858	76.69
239.091	71.69
239.325	79.69
239.559	63.69
239.793	80.69
240.027	52.69
240.26	62.69
240.494	73.69
240.728	73.69
240.961	72.69
241.195	86.69
241.429	75.69
241.662	68.69
241.896	69.69
242.13	64.69
242.363	69.69
242.597	85.69
242.83	60.69
243.064	83.69
243.298	75.69
243.531	83.69
243.765	71.69
243.998	67.69
244.232	76.69
244.465	72.69
244.699	73.69
244.932	70.69
245.166	64.69
245.399	64.69
245.633	88.69
245.866	66.69
246.099	62.69
246.333	80.69
246.566	86.69
246.8	75.69
247.033	87.69
247.266	76.69
247.5	79.69
247.733	70.69
247.966	74.69
248.2	61.69
248.433	62.69
248.666	80.69
248.899	66.69
249.133	77.69
249.366	67.69
249.599	70.69
249.832	82.69
250.066	80.69
250.299	72.69
250.532	80.69
250.765	79.69
250.998	67.69
251.231	81.69
251.465	72.69
251.698	82.69
251.931	72.69
252.164	77.69
252.397	87.69
252.63	77.69
252.863	72.69
253.096	81.69
253.329	86.69
253.562	71.69
253.795	88.69
254.028	84.69
254.261	69.69
254.494	83.69
254.727	72.69
254.96	76.69
255.193	82.69
255.426	82.69
255.659	77.69
255.892	80.69
256.124	74.69
256.357	101.69
256.59	72.69
256.823	75.69
257.056	85.69
257.289	77.69
257.521	67.69
257.754	85.69
257.987	72.69
258.22	70.69
258.452	84.69
258.685	81.69
258.918	73.69
259.151	85.69
259.383	81.69
259.616	82.69
259.849	78.69
260.081	86.69
260.314	75.69
260.547	69.69
260.779	73.69
261.012	88.69
261.244	82.69
261.477	83.69
261.71	81.69
261.942	81.69
262.175	77.69
262.407	91.69
262.64	78.69
262.872	87.69
263.105	79.69
263.337	76.69
263.57	75.69
263.802	85.69
264.035	77.69
264.267	64.69
264.499	72.69
264.732	83.69
264.964	83.69
265.197	66.69
265.429	62.69
265.661	69.69
265.894	73.69
266.126	81.69
266.358	71.69
266.591	81.69
266.823	87.69
267.055	71.69
267.287	67.69
267.52	65.69
267.752	100.69
267.984	68.69
268.216	75.69
268.448	87.69
268.681	84.69
268.913	65.69
269.145	82.69
269.377	90.69
269.609	71.69
269.841	73.69
270.073	84.69
270.306	73.69
270.538	83.69
270.77	72.69
271.002	71.69
271.234	72.69
271.466	88.69
271.698	76.69
271.93	77.69
272.162	83.69
272.394	88.69
272.626	82.69
272.858	80.69
273.09	80.69
273.322	73.69
273.553	79.69
273.785	79.69
274.017	89.69
274.249	71.69
274.481	82.69
274.713	65.69
274.945	75.69
275.176	68.69
275.408	88.69
275.64	75.69
275.872	84.69
276.104	79.69
276.335	91.69
276.567	81.69
276.799	80.69
277.031	84.69
277.262	76.69
277.494	86.69
277.726	81.69
277.957	79.69
278.189	71.69
278.421	86.69
278.652	68.69
278.884	84.69
279.115	88.69
279.347	71.69
279.579	73.69
279.81	86.69
280.042	96.69
280.273	71.69
280.505	71.69
280.736	78.69
280.968	73.69
281.199	79.69
281.431	67.69
281.662	75.69
281.894	79.69
282.125	81.69
282.356	74.69
282.588	80.69
282.819	72.69
283.051	83.69
283.282	64.69
283.513	78.69
283.745	86.69
283.976	72.69
284.207	97.69
284.439	88.69
284.67	81.69
284.901	80.69
285.132	94.69
285.364	71.69
285.595	74.69
285.826	85.69
286.057	85.69
286.288	83.69
286.52	86.69
286.751	89.69
286.982	104.69
287.213	81.69
287.444	94.69
287.675	91.69
287.906	84.69
288.138	71.69
288.369	73.69
288.6	95.69
288.831	73.69
289.062	88.69
289.293	80.69
289.524	72.69
289.755	84.69
289.986	83.69
290.217	83.69
290.448	69.69
290.679	56.69
290.91	82.69
291.141	75.69
291.371	89.69
291.602	85.69
291.833	71.69
292.064	65.69
292.295	87.69
292.526	80.69
292.757	95.69
292.987	84.69
293.218	79.69
293.449	76.69
293.68	79.69
293.91	65.69
294.141	74.69
294.372	74.69
294.603	82.69
294.833	80.69
295.064	73.69
295.295	79.69
295.525	75.69
295.756	74.69
295.987	84.69
296.217	82.69
296.448	82.69
296.679	56.69
296.909	90.69
297.14	99.69
297.37	81.69
297.601	81.69
297.831	79.69
298.062	74.69
298.292	79.69
298.523	94.69
298.753	83.69
298.984	78.69
299.214	80.69
299.445	88.69
299.675	89.69
299.905	80.69
300.136	73.69
300.366	89.69
300.597	77.69
300.827	86.69
301.057	70.69
301.288	83.69
301.518	77.69
301.748	81.69
301.979	90.69
302.209	87.69
302.439	89.69
302.669	95.69
302.9	82.69
303.13	77.69
303.36	85.69
303.59	108.69
303.82	65.69
304.051	71.69
304.281	92.69
304.511	83.69
304.741	96.69
304.971	82.69
305.201	73.69
305.431	87.69
305.661	79.69
305.891	61.69
306.121	80.69
306.352	87.69
306.582	78.69
306.812	86.69
307.042	73.69
307.272	87.69
307.502	89.69
307.731	100.69
307.961	92.69
308.191	72.69
308.421	82.69
308.651	82.69
308.881	89.69
309.111	73.69
309.341	78.69
309.571	87.69
309.8	83.69
310.03	91.69
310.26	92.69
310.49	74.69
310.72	69.69
310.949	85.69
311.179	91.69
311.409	78.69
311.639	74.69
311.868	73.69
312.098	91.69
312.328	93.69
312.557	88.69
312.787	86.69
313.017	77.69
313.246	86.69
313.476	77.69
313.706	85.69
313.935	82.69
314.165	80.69
314.394	83.69
314.624	80.69
314.853	93.69
315.083	71.69
315.312	78.69
315.542	83.69
315.771	67.69
316.001	73.69
316.23	93.69
316.46	79.69
316.689	67.69
316.919	73.69
317.148	93.69
317.377	86.69
317.607	79.69
317.836	87.69
318.065	76.69
318.295	70.69
318.524	82.69
318.753	88.69
318.983	78.69
319.212	67.69
319.441	77.69
319.67	71.69
319.9	88.69
320.129	86.69
320.358	81.69
320.587	83.69
320.816	85.69
321.046	83.69
321.275	86.69
321.504	89.69
321.733	89.69
321.962	78.69
322.191	92.69
322.42	80.69
322.649	80.69
322.878	80.69
323.108	84.69
323.337	93.69
323.566	89.69
323.795	81.69
324.024	84.69
324.253	63.69
324.482	89.69
324.71	78.69
324.939	84.69
325.168	74.69
325.397	74.69
325.626	90.69
325.855	92.69
326.084	86.69
326.313	80.69
326.542	83.69
326.77	77.69
326.999	87.69
327.228	93.69
327.457	86.69
327.686	71.69
327.914	100.69
328.143	81.69
328.372	90.69
328.6	79.69
328.829	73.69
329.058	86.69
329.287	84.69
329.515	77.69
329.744	84.69
329.972	91.69
330.201	79.69
330.43	72.69
330.658	73.69
330.887	89.69
331.115	81.69
331.344	82.69
331.572	84.69
331.801	83.69
332.03	79.69
332.258	91.69
332.486	92.69
332.715	77.69
332.943	82.69
333.172	80.69
333.4	76.69
333.629	79.69
333.857	89.69
334.085	77.69
334.314	76.69
334.542	71.69
334.771	80.69
334.999	77.69
335.227	71.69
335.455	87.69
335.684	83.69
335.912	72.69
336.14	77.69
336.369	76.69
336.597	90.69
336.825	89.69
337.053	83.69
337.281	92.69
337.51	83.69
337.738	95.69
337.966	71.69
338.194	78.69
338.422	77.69
338.65	86.69
338.878	79.69
339.106	72.69
339.334	79.69
339.562	80.69
339.79	90.69
340.018	83.69
340.246	72.69
340.474	77.69
340.702	73.69
340.93	73.69
341.158	100.69
341.386	85.69
341.614	79.69
341.842	79.69
342.07	76.69
342.298	83.69
342.526	71.69
342.754	73.69
342.981	72.69
343.209	80.69
343.437	83.69
343.665	75.69
343.893	66.69
344.12	86.69
344.348	95.69
344.576	80.69
344.804	95.69
345.031	84.69
345.259	69.69
345.487	68.69
345.714	74.69
345.942	89.69
346.17	84.69
346.397	87.69
346.625	85.69
346.853	80.69
347.08	91.69
347.308	84.69
347.535	79.69
347.763	79.69
347.99	74.69
348.218	85.69
348.445	86.69
348.673	88.69
348.9	90.69
349.128	88.69
349.355	93.69
349.583	80.69
349.81	80.69
350.037	77.69
350.265	78.69
350.492	79.69
350.72	98.69
350.947	89.69
351.174	86.69
351.402	89.69
351.629	73.69
351.856	75.69
352.083	83.69
352.311	92.69
352.538	67.69
352.765	96.69
352.992	79.69
353.22	71.69
353.447	71.69
353.674	84.69
353.901	89.69
354.128	98.69
354.355	86.69
354.583	77.69
354.81	87.69
355.037	79.69
355.264	67.69
355.491	78.69
355.718	75.69
355.945	79.69
356.172	85.69
356.399	73.69
356.626	70.69
356.853	94.69
357.08	88.69
357.307	78.69
357.534	80.69
357.761	75.69
357.988	79.69
358.215	68.69
358.441	71.69
358.668	84.69
358.895	97.69
359.122	74.69
359.349	68.69
359.576	82.69
359.802	85.69
360.029	85.69
360.256	81.69
360.483	89.69
360.709	80.69
360.936	82.69
361.163	88.69
361.39	85.69
361.616	84.69
361.843	80.69
362.07	85.69
362.296	85.69
362.523	88.69
362.749	96.69
362.976	70.69
363.203	81.69
363.429	76.69
363.656	81.69
363.882	76.69
364.109	78.69
364.335	76.69
364.562	91.69
364.788	77.69
365.015	87.69
365.241	61.69
365.468	78.69
365.694	77.69
365.92	74.69
366.147	92.69
366.373	88.69
366.599	73.69
366.826	75.69
367.052	69.69
367.278	85.69
367.505	93.69
367.731	96.69
367.957	82.69
368.184	92.69
368.41	92.69
368.636	84.69
368.862	94.69
369.089	94.69
369.315	67.69
369.541	88.69
369.767	94.69
369.993	91.69
370.219	73.69
370.445	77.69
370.672	98.69
370.898	96.69
371.124	85.69
371.35	95.69
371.576	101.69
371.802	91.69
372.028	81.69
372.254	86.69
372.48	93.69
372.706	89.69
372.932	86.69
373.158	93.69
373.384	100.69
373.61	108.69
373.835	83.69
374.061	81.69
374.287	79.69
374.513	84.69
374.739	85.69
374.965	94.69
375.191	86.69
375.416	91.69
375.642	93.69
375.868	72.69
376.094	88.69
376.319	93.69
376.545	97.69
376.771	97.69
376.997	109.69
377.222	83.69
377.448	90.69
377.674	99.69
377.899	97.69
378.125	91.69
378.35	89.69
378.576	98.69
378.802	93.69
379.027	91.69
379.253	97.69
379.478	81.69
379.704	89.69
379.929	89.69
380.155	95.69
380.38	90.69
380.606	103.69
380.831	106.69
381.057	93.69
381.282	94.69
381.507	108.69
381.733	96.69
381.958	83.69
382.184	93.69
382.409	82.69
382.634	74.69
382.86	108.69
383.085	88.69
383.31	106.69
383.535	97.69
383.761	95.69
383.986	92.69
384.211	100.69
384.436	96.69
384.662	91.69
384.887	101.69
385.112	105.69
385.337	93.69
385.562	94.69
385.787	95.69
386.013	110.69
386.238	91.69
386.463	81.69
386.688	83.69
386.913	95.69
387.138	95.69
387.363	89.69
387.588	91.69
387.813	94.69
388.038	73.69
388.263	89.69
388.488	99.69
388.713	98.69
388.938	94.69
389.163	99.69
389.387	104.69
389.612	115.69
389.837	95.69
390.062	103.69
390.287	105.69
390.512	96.69
390.736	100.69
390.961	103.69
391.186	107.69
391.411	101.69
391.636	94.69
391.86	116.69
392.085	103.69
392.31	97.69
392.534	117.69
392.759	95.69
392.984	109.69
393.208	111.69
393.433	104.69
393.658	104.69
393.882	108.69
394.107	102.69
394.331	115.69
394.556	124.69
394.78	115.69
395.005	107.69
395.229	99.69
395.454	117.69
395.678	107.69
395.903	108.69
396.127	108.69
396.352	101.69
396.576	97.69
396.801	101.69
397.025	116.69
397.249	101.69
397.474	123.69
397.698	98.69
397.922	107.69
398.147	104.69
398.371	107.69
398.595	111.69
398.82	113.69
399.044	99.69
399.268	98.69
399.492	115.69
399.717	109.69
399.941	105.69
400.165	109.69
400.389	120.69
400.613	126.69
400.837	104.69
401.062	113.69
401.286	123.69
401.51	106.69
401.734	115.69
401.958	96.69
402.182	112.69
402.406	123.69
402.63	119.69
402.854	124.69
403.078	107.69
403.302	116.69
403.526	125.69
403.75	120.69
403.974	126.69
404.198	112.69
404.422	116.69
404.645	119.69
404.869	123.69
405.093	109.69
405.317	120.69
405.541	128.69
405.765	116.69
405.988	97.69
406.212	119.69
406.436	109.69
406.66	108.69
406.883	107.69
407.107	132.69
407.331	119.69
407.555	128.69
407.778	115.69
408.002	118.69
408.226	117.69
408.449	122.69
408.673	117.69
408.896	96.69
409.12	111.69
409.344	108.69
409.567	119.69
409.791	118.69
410.014	127.69
410.238	138.69
410.461	119.69
410.685	128.69
410.908	108.69
411.132	131.69
411.355	119.69
411.578	125.69
411.802	123.69
412.025	106.69
412.249	108.69
412.472	109.69
412.695	117.69
412.919	118.69
413.142	119.69
413.365	104.69
413.589	126.69
413.812	127.69
414.035	124.69
414.258	118.69
414.482	122.69
414.705	131.69
414.928	123.69
415.151	102.69
415.374	119.69
415.597	119.69
415.821	118.69
416.044	131.69
416.267	127.69
416.49	138.69
416.713	149.69
416.936	120.69
417.159	127.69
417.382	123.69
417.605	124.69
417.828	124.69
418.051	130.69
418.274	129.69
418.497	123.69
418.72	125.69
418.943	128.69
419.166	142.69
419.389	130.69
419.611	130.69
419.834	125.69
420.057	129.69
420.28	145.69
420.503	133.69
420.726	129.69
420.948	130.69
421.171	139.69
421.394	127.69
421.617	138.69
421.839	151.69
422.062	141.69
422.285	127.69
422.507	130.69
422.73	129.69
422.953	131.69
423.175	108.69
423.398	129.69
423.621	121.69
423.843	146.69
424.066	134.69
424.288	147.69
424.511	148.69
424.733	141.69
424.956	122.69
425.178	134.69
425.401	137.69
425.623	133.69
425.846	151.69
426.068	137.69
426.291	141.69
426.513	125.69
426.735	139.69
426.958	116.69
427.18	124.69
427.402	124.69
427.625	119.69
427.847	124.69
428.069	123.69
428.292	128.69
428.514	127.69
428.736	116.69
428.958	134.69
429.181	131.69
429.403	137.69
429.625	130.69
429.847	122.69
430.069	126.69
430.292	145.69
430.514	137.69
430.736	129.69
430.958	128.69
431.18	131.69
431.402	114.69
431.624	119.69
431.846	108.69
432.068	91.69
432.29	89.69
432.512	110.69
432.734	129.69
432.956	144.69
433.178	133.69
433.4	135.69
433.622	151.69
433.844	131.69
434.066	115.69
434.287	107.69
434.509	103.69
434.731	95.69
434.953	110.69
435.175	117.69
435.397	135.69
435.618	103.69
435.84	103.69
436.062	108.69
436.284	121.69
436.505	130.69
436.727	124.69
436.949	127.69
437.17	136.69
437.392	123.69
437.614	116.69
437.835	111.69
438.057	113.69
438.278	113.69
438.5	127.69
438.721	137.69
438.943	125.69
439.165	135.69
439.386	150.69
439.608	141.69
439.829	132.69
440.05	156.69
440.272	154.69
440.493	139.69
440.715	138.69
440.936	164.69
441.158	137.69
441.379	143.69
441.6	168.69
441.822	162.69
442.043	146.69
442.264	138.69
442.486	138.69
442.707	148.69
442.928	159.69
443.149	137.69
443.371	157.69
443.592	137.69
443.813	127.69
444.034	141.69
444.255	151.69
444.476	142.69
444.698	131.69
444.919	143.69
445.14	269.69
445.361	205.69
445.582	162.69
445.803	141.69
446.024	159.69
446.245	165.69
446.466	158.69
446.687	160.69
446.908	168.69
447.129	145.69
447.35	155.69
447.571	169.69
447.792	144.69
448.013	144.69
448.234	137.69
448.455	133.69
448.675	141.69
448.896	145.69
449.117	135.69
449.338	122.69
449.559	135.69
449.779	147.69
450	145.69
450.221	134.69
450.442	144.69
450.662	137.69
450.883	133.69
451.104	130.69
451.324	124.69
451.545	129.69
451.766	122.69
451.986	122.69
452.207	121.69
452.428	126.69
452.648	121.69
452.869	132.69
453.089	124.69
453.31	115.69
453.53	103.69
453.751	97.69
453.971	99.69
454.192	109.69
454.412	119.69
454.633	115.69
454.853	120.69
455.073	117.69
455.294	118.69
455.514	128.69
455.734	125.69
455.955	120.69
456.175	112.69
456.395	110.69
456.616	108.69
456.836	125.69
457.056	101.69
457.276	121.69
457.497	119.69
457.717	102.69
457.937	112.69
458.157	107.69
458.377	104.69
458.598	97.69
458.818	91.69
459.038	79.69
459.258	80.69
459.478	75.69
459.698	93.69
459.918	94.69
460.138	102.69
460.358	117.69
460.578	129.69
460.798	110.69
461.018	105.69
461.238	118.69
461.458	113.69
461.678	106.69
461.898	102.69
462.118	122.69
462.338	126.69
462.558	118.69
462.777	111.69
462.997	109.69
463.217	111.69
463.437	93.69
463.657	114.69
463.876	101.69
464.096	107.69
464.316	113.69
464.536	112.69
464.755	111.69
464.975	123.69
465.195	128.69
465.414	129.69
465.634	111.69
465.854	107.69
466.073	131.69
466.293	128.69
466.512	116.69
466.732	126.69
466.951	137.69
467.171	131.69
467.391	125.69
467.61	145.69
467.829	133.69
468.049	129.69
468.268	127.69
468.488	125.69
468.707	128.69
468.927	120.69
469.146	139.69
469.365	140.69
469.585	130.69
469.804	141.69
470.023	154.69
470.243	133.69
470.462	143.69
470.681	135.69
470.901	147.69
471.12	138.69
471.339	155.69
471.558	156.69
471.777	151.69
471.997	135.69
472.216	130.69
472.435	109.69
472.654	104.69
472.873	113.69
473.092	125.69
473.311	119.69
473.53	131.69
473.749	129.69
473.968	134.69
474.187	124.69
474.406	119.69
474.625	131.69
474.844	143.69
475.063	121.69
475.282	128.69
475.501	117.69
475.72	121.69
475.939	131.69
476.158	129.69
476.377	127.69
476.596	124.69
476.814	114.69
477.033	115.69
477.252	117.69
477.471	119.69
477.69	141.69
477.908	133.69
478.127	137.69
478.346	140.69
478.564	143.69
478.783	120.69
479.002	141.69
479.22	139.69
479.439	153.69
479.658	124.69
479.876	102.69
480.095	114.69
480.313	118.69
480.532	116.69
480.751	120.69
480.969	101.69
481.188	81.69
481.406	97.69
481.624	92.69
481.843	91.69
482.061	95.69
482.28	110.69
482.498	120.69
482.717	110.69
482.935	132.69
483.153	137.69
483.372	148.69
483.59	156.69
483.808	144.69
484.027	127.69
484.245	137.69
484.463	147.69
484.681	155.69
484.9	154.69
485.118	154.69
485.336	133.69
485.554	112.69
485.772	111.69
485.99	94.69
486.209	102.69
486.427	112.69
486.645	110.69
486.863	138.69
487.081	139.69
487.299	121.69
487.517	156.69
487.735	158.69
487.953	183.69
488.171	175.69
488.389	164.69
488.607	171.69
488.825	155.69
489.043	134.69
489.261	152.69
489.479	141.69
489.696	138.69
489.914	144.69
490.132	145.69
490.35	160.69
490.568	158.69
490.786	175.69
491.003	166.69
491.221	165.69
491.439	199.69
491.657	189.69
491.874	191.69
492.092	226.69
492.31	262.69
492.527	228.69
492.745	235.69
492.963	183.69
493.18	194.69
493.398	180.69
493.615	196.69
493.833	186.69
494.05	179.69
494.268	168.69
494.485	175.69
494.703	161.69
494.92	178.69
495.138	174.69
495.355	181.69
495.573	187.69
495.79	174.69
496.008	177.69
496.225	157.69
496.442	180.69
496.66	161.69
496.877	164.69
497.094	181.69
497.312	173.69
497.529	160.69
497.746	161.69
497.963	132.69
498.181	126.69
498.398	117.69
498.615	117.69
498.832	120.69
499.049	111.69
499.267	128.69
499.484	138.69
499.701	131.69
499.918	120.69
500.135	137.69
500.352	135.69
500.569	141.69
500.786	135.69
501.003	145.69
501.22	136.69
501.437	127.69
501.654	138.69
501.871	131.69
502.088	134.69
502.305	131.69
502.522	121.69
502.739	127.69
502.956	125.69
503.172	132.69
503.389	103.69
503.606	113.69
503.823	129.69
504.04	117.69
504.256	109.69
504.473	127.69
504.69	118.69
504.907	124.69
505.123	125.69
505.34	126.69
505.557	131.69
505.773	119.69
505.99	124.69
506.207	124.69
506.423	117.69
506.64	123.69
506.856	120.69
507.073	120.69
507.289	107.69
507.506	113.69
507.722	117.69
507.939	119.69
508.155	115.69
508.372	113.69
508.588	100.69
508.805	112.69
509.021	118.69
509.238	101.69
509.454	109.69
509.67	100.69
509.887	91.69
510.103	73.69
510.319	84.69
510.536	83.69
510.752	93.69
510.968	94.69
511.184	96.69
511.401	77.69
511.617	97.69
511.833	88.69
