Data from Location6.07152019.Energy5.Lamp.07192019.3%Agarose_HRD10591_16-10-56-394.txt Node
Date: Fri Jul 19 16:10:56 EDT 2019
User: cochatt
Spectrometer: HR+D1059
Trigger mode: 1
Integration Time (sec): 1.000000E-1
Scans to average: 1
Electric dark correction enabled: true
Nonlinearity correction enabled: false
Boxcar width: 0
XAxis mode: Wavelengths
Number of Pixels in Spectrum: 2048
>>>>>Begin Spectral Data<<<<<
223.165	-8.81
223.4	-8.81
223.635	-8.81
223.869	-18.81
224.104	-19.81
224.338	-23.81
224.573	-20.81
224.808	-6.81
225.042	-9.81
225.277	-7.81
225.511	3.19
225.746	8.19
225.98	14.19
226.215	9.19
226.449	16.19
226.683	16.19
226.918	26.19
227.152	23.19
227.387	23.19
227.621	41.19
227.856	45.19
228.09	48.19
228.324	39.19
228.559	51.19
228.793	47.19
229.027	56.19
229.262	68.19
229.496	63.19
229.73	57.19
229.964	77.19
230.199	82.19
230.433	65.19
230.667	70.19
230.901	79.19
231.136	76.19
231.37	81.19
231.604	82.19
231.838	81.19
232.072	92.19
232.306	86.19
232.541	71.19
232.775	86.19
233.009	83.19
233.243	73.19
233.477	87.19
233.711	98.19
233.945	96.19
234.179	82.19
234.413	80.19
234.647	71.19
234.881	73.19
235.115	89.19
235.349	76.19
235.583	88.19
235.817	72.19
236.051	68.19
236.285	78.19
236.519	85.19
236.753	75.19
236.987	71.19
237.221	64.19
237.455	76.19
237.689	61.19
237.922	82.19
238.156	80.19
238.39	81.19
238.624	65.19
238.858	98.19
239.091	70.19
239.325	71.19
239.559	61.19
239.793	67.19
240.027	58.19
240.26	69.19
240.494	75.19
240.728	65.19
240.961	74.19
241.195	77.19
241.429	66.19
241.662	69.19
241.896	71.19
242.13	80.19
242.363	81.19
242.597	56.19
242.83	80.19
243.064	58.19
243.298	77.19
243.531	75.19
243.765	78.19
243.998	78.19
244.232	82.19
244.465	68.19
244.699	60.19
244.932	71.19
245.166	76.19
245.399	65.19
245.633	63.19
245.866	80.19
246.099	78.19
246.333	80.19
246.566	65.19
246.8	77.19
247.033	65.19
247.266	89.19
247.5	82.19
247.733	82.19
247.966	82.19
248.2	76.19
248.433	74.19
248.666	80.19
248.899	77.19
249.133	76.19
249.366	77.19
249.599	58.19
249.832	63.19
250.066	81.19
250.299	80.19
250.532	68.19
250.765	67.19
250.998	64.19
251.231	76.19
251.465	71.19
251.698	87.19
251.931	73.19
252.164	68.19
252.397	80.19
252.63	80.19
252.863	76.19
253.096	73.19
253.329	82.19
253.562	83.19
253.795	72.19
254.028	78.19
254.261	83.19
254.494	80.19
254.727	89.19
254.96	81.19
255.193	84.19
255.426	83.19
255.659	69.19
255.892	76.19
256.124	60.19
256.357	76.19
256.59	64.19
256.823	87.19
257.056	89.19
257.289	79.19
257.521	71.19
257.754	91.19
257.987	82.19
258.22	71.19
258.452	78.19
258.685	68.19
258.918	79.19
259.151	68.19
259.383	87.19
259.616	70.19
259.849	76.19
260.081	90.19
260.314	74.19
260.547	77.19
260.779	78.19
261.012	80.19
261.244	81.19
261.477	84.19
261.71	84.19
261.942	69.19
262.175	82.19
262.407	80.19
262.64	74.19
262.872	77.19
263.105	72.19
263.337	80.19
263.57	88.19
263.802	83.19
264.035	87.19
264.267	80.19
264.499	74.19
264.732	69.19
264.964	67.19
265.197	74.19
265.429	92.19
265.661	86.19
265.894	81.19
266.126	79.19
266.358	81.19
266.591	85.19
266.823	80.19
267.055	83.19
267.287	77.19
267.52	69.19
267.752	91.19
267.984	82.19
268.216	81.19
268.448	79.19
268.681	89.19
268.913	82.19
269.145	82.19
269.377	82.19
269.609	84.19
269.841	89.19
270.073	79.19
270.306	66.19
270.538	77.19
270.77	86.19
271.002	77.19
271.234	91.19
271.466	88.19
271.698	84.19
271.93	88.19
272.162	88.19
272.394	75.19
272.626	85.19
272.858	81.19
273.09	82.19
273.322	77.19
273.553	76.19
273.785	80.19
274.017	70.19
274.249	80.19
274.481	95.19
274.713	68.19
274.945	81.19
275.176	84.19
275.408	87.19
275.64	77.19
275.872	75.19
276.104	64.19
276.335	84.19
276.567	66.19
276.799	74.19
277.031	65.19
277.262	85.19
277.494	66.19
277.726	80.19
277.957	71.19
278.189	73.19
278.421	79.19
278.652	72.19
278.884	85.19
279.115	82.19
279.347	73.19
279.579	84.19
279.81	83.19
280.042	90.19
280.273	68.19
280.505	92.19
280.736	96.19
280.968	79.19
281.199	86.19
281.431	76.19
281.662	76.19
281.894	81.19
282.125	86.19
282.356	85.19
282.588	73.19
282.819	76.19
283.051	68.19
283.282	81.19
283.513	85.19
283.745	92.19
283.976	82.19
284.207	97.19
284.439	78.19
284.67	73.19
284.901	74.19
285.132	85.19
285.364	83.19
285.595	89.19
285.826	85.19
286.057	89.19
286.288	85.19
286.52	80.19
286.751	80.19
286.982	82.19
287.213	86.19
287.444	88.19
287.675	89.19
287.906	74.19
288.138	73.19
288.369	77.19
288.6	74.19
288.831	80.19
289.062	82.19
289.293	85.19
289.524	88.19
289.755	85.19
289.986	81.19
290.217	92.19
290.448	81.19
290.679	90.19
290.91	84.19
291.141	79.19
291.371	83.19
291.602	89.19
291.833	75.19
292.064	83.19
292.295	80.19
292.526	71.19
292.757	72.19
292.987	87.19
293.218	68.19
293.449	73.19
293.68	85.19
293.91	90.19
294.141	78.19
294.372	75.19
294.603	81.19
294.833	85.19
295.064	79.19
295.295	88.19
295.525	83.19
295.756	71.19
295.987	82.19
296.217	81.19
296.448	69.19
296.679	70.19
296.909	85.19
297.14	80.19
297.37	88.19
297.601	85.19
297.831	85.19
298.062	84.19
298.292	73.19
298.523	71.19
298.753	81.19
298.984	83.19
299.214	83.19
299.445	95.19
299.675	86.19
299.905	75.19
300.136	88.19
300.366	81.19
300.597	85.19
300.827	87.19
301.057	88.19
301.288	85.19
301.518	79.19
301.748	78.19
301.979	77.19
302.209	92.19
302.439	73.19
302.669	99.19
302.9	91.19
303.13	73.19
303.36	96.19
303.59	84.19
303.82	87.19
304.051	85.19
304.281	87.19
304.511	98.19
304.741	77.19
304.971	99.19
305.201	89.19
305.431	88.19
305.661	88.19
305.891	77.19
306.121	92.19
306.352	85.19
306.582	77.19
306.812	81.19
307.042	80.19
307.272	86.19
307.502	68.19
307.731	84.19
307.961	75.19
308.191	84.19
308.421	86.19
308.651	68.19
308.881	80.19
309.111	86.19
309.341	75.19
309.571	84.19
309.8	78.19
310.03	90.19
310.26	91.19
310.49	81.19
310.72	78.19
310.949	88.19
311.179	79.19
311.409	84.19
311.639	88.19
311.868	88.19
312.098	78.19
312.328	79.19
312.557	88.19
312.787	86.19
313.017	88.19
313.246	84.19
313.476	86.19
313.706	70.19
313.935	85.19
314.165	67.19
314.394	67.19
314.624	93.19
314.853	80.19
315.083	82.19
315.312	77.19
315.542	92.19
315.771	57.19
316.001	73.19
316.23	75.19
316.46	79.19
316.689	94.19
316.919	83.19
317.148	72.19
317.377	100.19
317.607	92.19
317.836	72.19
318.065	93.19
318.295	78.19
318.524	91.19
318.753	74.19
318.983	75.19
319.212	79.19
319.441	84.19
319.67	72.19
319.9	81.19
320.129	87.19
320.358	88.19
320.587	80.19
320.816	87.19
321.046	89.19
321.275	104.19
321.504	82.19
321.733	92.19
321.962	76.19
322.191	83.19
322.42	75.19
322.649	69.19
322.878	92.19
323.108	78.19
323.337	93.19
323.566	75.19
323.795	76.19
324.024	80.19
324.253	80.19
324.482	86.19
324.71	93.19
324.939	74.19
325.168	75.19
325.397	85.19
325.626	87.19
325.855	86.19
326.084	84.19
326.313	75.19
326.542	77.19
326.77	70.19
326.999	84.19
327.228	73.19
327.457	87.19
327.686	71.19
327.914	80.19
328.143	90.19
328.372	97.19
328.6	88.19
328.829	73.19
329.058	86.19
329.287	89.19
329.515	84.19
329.744	86.19
329.972	78.19
330.201	85.19
330.43	84.19
330.658	77.19
330.887	82.19
331.115	89.19
331.344	82.19
331.572	72.19
331.801	85.19
332.03	78.19
332.258	74.19
332.486	85.19
332.715	84.19
332.943	92.19
333.172	88.19
333.4	77.19
333.629	85.19
333.857	73.19
334.085	81.19
334.314	74.19
334.542	87.19
334.771	79.19
334.999	83.19
335.227	80.19
335.455	93.19
335.684	72.19
335.912	83.19
336.14	83.19
336.369	75.19
336.597	78.19
336.825	69.19
337.053	94.19
337.281	87.19
337.51	86.19
337.738	96.19
337.966	85.19
338.194	84.19
338.422	74.19
338.65	77.19
338.878	71.19
339.106	78.19
339.334	90.19
339.562	93.19
339.79	87.19
340.018	83.19
340.246	79.19
340.474	83.19
340.702	80.19
340.93	100.19
341.158	85.19
341.386	84.19
341.614	86.19
341.842	89.19
342.07	84.19
342.298	84.19
342.526	81.19
342.754	71.19
342.981	87.19
343.209	73.19
343.437	88.19
343.665	70.19
343.893	80.19
344.12	90.19
344.348	89.19
344.576	79.19
344.804	66.19
345.031	84.19
345.259	92.19
345.487	99.19
345.714	77.19
345.942	85.19
346.17	78.19
346.397	86.19
346.625	80.19
346.853	75.19
347.08	88.19
347.308	77.19
347.535	72.19
347.763	80.19
347.99	102.19
348.218	84.19
348.445	89.19
348.673	104.19
348.9	78.19
349.128	104.19
349.355	81.19
349.583	80.19
349.81	87.19
350.037	89.19
350.265	86.19
350.492	85.19
350.72	93.19
350.947	94.19
351.174	73.19
351.402	85.19
351.629	84.19
351.856	83.19
352.083	89.19
352.311	87.19
352.538	84.19
352.765	78.19
352.992	96.19
353.22	88.19
353.447	77.19
353.674	72.19
353.901	86.19
354.128	74.19
354.355	86.19
354.583	78.19
354.81	79.19
355.037	80.19
355.264	69.19
355.491	79.19
355.718	76.19
355.945	90.19
356.172	97.19
356.399	71.19
356.626	83.19
356.853	82.19
357.08	90.19
357.307	74.19
357.534	87.19
357.761	89.19
357.988	90.19
358.215	80.19
358.441	84.19
358.668	80.19
358.895	86.19
359.122	78.19
359.349	87.19
359.576	94.19
359.802	84.19
360.029	79.19
360.256	75.19
360.483	78.19
360.709	82.19
360.936	87.19
361.163	92.19
361.39	86.19
361.616	84.19
361.843	90.19
362.07	87.19
362.296	71.19
362.523	84.19
362.749	89.19
362.976	80.19
363.203	92.19
363.429	82.19
363.656	84.19
363.882	101.19
364.109	70.19
364.335	73.19
364.562	87.19
364.788	91.19
365.015	89.19
365.241	84.19
365.468	70.19
365.694	89.19
365.92	85.19
366.147	90.19
366.373	93.19
366.599	84.19
366.826	81.19
367.052	91.19
367.278	93.19
367.505	71.19
367.731	96.19
367.957	94.19
368.184	94.19
368.41	76.19
368.636	89.19
368.862	79.19
369.089	81.19
369.315	83.19
369.541	89.19
369.767	85.19
369.993	81.19
370.219	85.19
370.445	87.19
370.672	89.19
370.898	92.19
371.124	91.19
371.35	89.19
371.576	95.19
371.802	81.19
372.028	87.19
372.254	82.19
372.48	91.19
372.706	93.19
372.932	92.19
373.158	83.19
373.384	94.19
373.61	100.19
373.835	97.19
374.061	89.19
374.287	96.19
374.513	87.19
374.739	91.19
374.965	82.19
375.191	70.19
375.416	94.19
375.642	87.19
375.868	96.19
376.094	78.19
376.319	92.19
376.545	85.19
376.771	82.19
376.997	93.19
377.222	100.19
377.448	95.19
377.674	96.19
377.899	81.19
378.125	88.19
378.35	84.19
378.576	93.19
378.802	92.19
379.027	93.19
379.253	100.19
379.478	106.19
379.704	110.19
379.929	93.19
380.155	98.19
380.38	86.19
380.606	89.19
380.831	96.19
381.057	102.19
381.282	92.19
381.507	95.19
381.733	102.19
381.958	101.19
382.184	89.19
382.409	109.19
382.634	93.19
382.86	99.19
383.085	101.19
383.31	104.19
383.535	104.19
383.761	96.19
383.986	101.19
384.211	96.19
384.436	82.19
384.662	100.19
384.887	85.19
385.112	88.19
385.337	102.19
385.562	103.19
385.787	105.19
386.013	118.19
386.238	104.19
386.463	93.19
386.688	88.19
386.913	92.19
387.138	94.19
387.363	84.19
387.588	89.19
387.813	97.19
388.038	95.19
388.263	98.19
388.488	97.19
388.713	90.19
388.938	118.19
389.163	112.19
389.387	100.19
389.612	82.19
389.837	97.19
390.062	97.19
390.287	101.19
390.512	116.19
390.736	103.19
390.961	119.19
391.186	101.19
391.411	112.19
391.636	97.19
391.86	106.19
392.085	85.19
392.31	105.19
392.534	112.19
392.759	102.19
392.984	104.19
393.208	107.19
393.433	115.19
393.658	97.19
393.882	95.19
394.107	104.19
394.331	111.19
394.556	98.19
394.78	108.19
395.005	95.19
395.229	96.19
395.454	86.19
395.678	93.19
395.903	109.19
396.127	113.19
396.352	102.19
396.576	94.19
396.801	100.19
397.025	110.19
397.249	103.19
397.474	108.19
397.698	116.19
397.922	99.19
398.147	106.19
398.371	116.19
398.595	111.19
398.82	106.19
399.044	112.19
399.268	98.19
399.492	104.19
399.717	97.19
399.941	112.19
400.165	126.19
400.389	94.19
400.613	100.19
400.837	115.19
401.062	109.19
401.286	102.19
401.51	114.19
401.734	116.19
401.958	119.19
402.182	114.19
402.406	116.19
402.63	108.19
402.854	111.19
403.078	107.19
403.302	103.19
403.526	110.19
403.75	117.19
403.974	117.19
404.198	121.19
404.422	117.19
404.645	110.19
404.869	116.19
405.093	112.19
405.317	109.19
405.541	122.19
405.765	130.19
405.988	106.19
406.212	120.19
406.436	124.19
406.66	116.19
406.883	109.19
407.107	113.19
407.331	118.19
407.555	120.19
407.778	118.19
408.002	118.19
408.226	116.19
408.449	104.19
408.673	122.19
408.896	122.19
409.12	118.19
409.344	114.19
409.567	118.19
409.791	107.19
410.014	116.19
410.238	119.19
410.461	125.19
410.685	126.19
410.908	126.19
411.132	132.19
411.355	117.19
411.578	110.19
411.802	128.19
412.025	122.19
412.249	101.19
412.472	108.19
412.695	128.19
412.919	124.19
413.142	121.19
413.365	127.19
413.589	119.19
413.812	130.19
414.035	119.19
414.258	130.19
414.482	140.19
414.705	127.19
414.928	133.19
415.151	126.19
415.374	131.19
415.597	116.19
415.821	104.19
416.044	124.19
416.267	130.19
416.49	143.19
416.713	132.19
416.936	140.19
417.159	123.19
417.382	136.19
417.605	128.19
417.828	124.19
418.051	122.19
418.274	129.19
418.497	132.19
418.72	132.19
418.943	124.19
419.166	144.19
419.389	146.19
419.611	148.19
419.834	133.19
420.057	141.19
420.28	135.19
420.503	123.19
420.726	142.19
420.948	121.19
421.171	127.19
421.394	134.19
421.617	156.19
421.839	143.19
422.062	135.19
422.285	134.19
422.507	134.19
422.73	120.19
422.953	128.19
423.175	131.19
423.398	121.19
423.621	129.19
423.843	109.19
424.066	134.19
424.288	143.19
424.511	145.19
424.733	146.19
424.956	135.19
425.178	134.19
425.401	144.19
425.623	152.19
425.846	125.19
426.068	130.19
426.291	133.19
426.513	135.19
426.735	133.19
426.958	137.19
427.18	129.19
427.402	134.19
427.625	133.19
427.847	136.19
428.069	132.19
428.292	115.19
428.514	136.19
428.736	123.19
428.958	144.19
429.181	130.19
429.403	146.19
429.625	137.19
429.847	133.19
430.069	133.19
430.292	135.19
430.514	142.19
430.736	124.19
430.958	134.19
431.18	129.19
431.402	132.19
431.624	121.19
431.846	113.19
432.068	106.19
432.29	105.19
432.512	116.19
432.734	120.19
432.956	129.19
433.178	148.19
433.4	142.19
433.622	144.19
433.844	139.19
434.066	136.19
434.287	102.19
434.509	96.19
434.731	102.19
434.953	115.19
435.175	118.19
435.397	130.19
435.618	122.19
435.84	131.19
436.062	116.19
436.284	121.19
436.505	127.19
436.727	134.19
436.949	129.19
437.17	124.19
437.392	136.19
437.614	126.19
437.835	112.19
438.057	124.19
438.278	118.19
438.5	111.19
438.721	126.19
438.943	134.19
439.165	134.19
439.386	143.19
439.608	140.19
439.829	140.19
440.05	128.19
440.272	152.19
440.493	149.19
440.715	145.19
440.936	132.19
441.158	142.19
441.379	140.19
441.6	149.19
441.822	156.19
442.043	146.19
442.264	158.19
442.486	136.19
442.707	140.19
442.928	134.19
443.149	154.19
443.371	139.19
443.592	126.19
443.813	136.19
444.034	152.19
444.255	142.19
444.476	155.19
444.698	150.19
444.919	155.19
445.14	248.19
445.361	196.19
445.582	150.19
445.803	144.19
446.024	143.19
446.245	167.19
446.466	159.19
446.687	162.19
446.908	151.19
447.129	147.19
447.35	150.19
447.571	151.19
447.792	151.19
448.013	153.19
448.234	144.19
448.455	136.19
448.675	154.19
448.896	128.19
449.117	137.19
449.338	146.19
449.559	147.19
449.779	137.19
450	141.19
450.221	137.19
450.442	130.19
450.662	136.19
450.883	149.19
451.104	128.19
451.324	136.19
451.545	127.19
451.766	144.19
451.986	151.19
452.207	126.19
452.428	132.19
452.648	126.19
452.869	142.19
453.089	114.19
453.31	109.19
453.53	92.19
453.751	108.19
453.971	114.19
454.192	119.19
454.412	98.19
454.633	112.19
454.853	130.19
455.073	132.19
455.294	114.19
455.514	136.19
455.734	119.19
455.955	113.19
456.175	117.19
456.395	109.19
456.616	114.19
456.836	102.19
457.056	116.19
457.276	122.19
457.497	114.19
457.717	89.19
457.937	98.19
458.157	103.19
458.377	111.19
458.598	97.19
458.818	81.19
459.038	95.19
459.258	87.19
459.478	85.19
459.698	89.19
459.918	105.19
460.138	112.19
460.358	113.19
460.578	118.19
460.798	118.19
461.018	110.19
461.238	127.19
461.458	118.19
461.678	112.19
461.898	104.19
462.118	117.19
462.338	110.19
462.558	120.19
462.777	116.19
462.997	103.19
463.217	111.19
463.437	118.19
463.657	114.19
463.876	129.19
464.096	100.19
464.316	116.19
464.536	118.19
464.755	128.19
464.975	117.19
465.195	112.19
465.414	117.19
465.634	112.19
465.854	124.19
466.073	118.19
466.293	136.19
466.512	118.19
466.732	124.19
466.951	132.19
467.171	130.19
467.391	129.19
467.61	148.19
467.829	148.19
468.049	145.19
468.268	136.19
468.488	128.19
468.707	132.19
468.927	138.19
469.146	130.19
469.365	151.19
469.585	147.19
469.804	144.19
470.023	143.19
470.243	124.19
470.462	138.19
470.681	121.19
470.901	133.19
471.12	135.19
471.339	154.19
471.558	138.19
471.777	142.19
471.997	133.19
472.216	125.19
472.435	109.19
472.654	119.19
472.873	109.19
473.092	108.19
473.311	124.19
473.53	120.19
473.749	107.19
473.968	127.19
474.187	128.19
474.406	124.19
474.625	131.19
474.844	128.19
475.063	128.19
475.282	126.19
475.501	118.19
475.72	118.19
475.939	117.19
476.158	125.19
476.377	130.19
476.596	121.19
476.814	101.19
477.033	119.19
477.252	117.19
477.471	122.19
477.69	127.19
477.908	137.19
478.127	144.19
478.346	128.19
478.564	137.19
478.783	130.19
479.002	160.19
479.22	153.19
479.439	138.19
479.658	139.19
479.876	113.19
480.095	120.19
480.313	122.19
480.532	101.19
480.751	122.19
480.969	86.19
481.188	89.19
481.406	99.19
481.624	99.19
481.843	83.19
482.061	99.19
482.28	113.19
482.498	116.19
482.717	116.19
482.935	125.19
483.153	151.19
483.372	149.19
483.59	151.19
483.808	144.19
484.027	136.19
484.245	125.19
484.463	142.19
484.681	174.19
484.9	160.19
485.118	142.19
485.336	131.19
485.554	114.19
485.772	108.19
485.99	97.19
486.209	124.19
486.427	102.19
486.645	110.19
486.863	135.19
487.081	130.19
487.299	140.19
487.517	137.19
487.735	167.19
487.953	190.19
488.171	177.19
488.389	169.19
488.607	166.19
488.825	149.19
489.043	124.19
489.261	149.19
489.479	155.19
489.696	162.19
489.914	138.19
490.132	143.19
490.35	138.19
490.568	150.19
490.786	159.19
491.003	173.19
491.221	196.19
491.439	188.19
491.657	208.19
491.874	211.19
492.092	226.19
492.31	249.19
492.527	233.19
492.745	225.19
492.963	197.19
493.18	199.19
493.398	206.19
493.615	206.19
493.833	193.19
494.05	192.19
494.268	158.19
494.485	168.19
494.703	180.19
494.92	186.19
495.138	182.19
495.355	188.19
495.573	173.19
495.79	172.19
496.008	179.19
496.225	167.19
496.442	165.19
496.66	173.19
496.877	161.19
497.094	172.19
497.312	171.19
497.529	154.19
497.746	148.19
497.963	145.19
498.181	138.19
498.398	121.19
498.615	127.19
498.832	130.19
499.049	109.19
499.267	130.19
499.484	118.19
499.701	126.19
499.918	117.19
500.135	130.19
500.352	145.19
500.569	137.19
500.786	136.19
501.003	152.19
501.22	134.19
501.437	135.19
501.654	138.19
501.871	156.19
502.088	131.19
502.305	135.19
502.522	129.19
502.739	133.19
502.956	121.19
503.172	110.19
503.389	121.19
503.606	124.19
503.823	119.19
504.04	123.19
504.256	133.19
504.473	121.19
504.69	119.19
504.907	116.19
505.123	120.19
505.34	129.19
505.557	111.19
505.773	125.19
505.99	118.19
506.207	114.19
506.423	119.19
506.64	117.19
506.856	117.19
507.073	149.19
507.289	120.19
507.506	116.19
507.722	113.19
507.939	115.19
508.155	121.19
508.372	121.19
508.588	114.19
508.805	127.19
509.021	116.19
509.238	105.19
509.454	90.19
509.67	98.19
509.887	98.19
510.103	97.19
510.319	88.19
510.536	88.19
510.752	82.19
510.968	80.19
511.184	84.19
511.401	83.19
511.617	97.19
511.833	82.19
