Data from Location6.07152019.Energy5.Lamp.07192019.3%Agarose_HRD10591_16-10-49-394.txt Node
Date: Fri Jul 19 16:10:49 EDT 2019
User: cochatt
Spectrometer: HR+D1059
Trigger mode: 1
Integration Time (sec): 1.000000E-1
Scans to average: 1
Electric dark correction enabled: true
Nonlinearity correction enabled: false
Boxcar width: 0
XAxis mode: Wavelengths
Number of Pixels in Spectrum: 2048
>>>>>Begin Spectral Data<<<<<
223.165	-14.5
223.4	-14.5
223.635	-14.5
223.869	-17.5
224.104	-21.5
224.338	-0.5
224.573	-3.5
224.808	-33.5
225.042	-7.5
225.277	-1.5
225.511	-12.5
225.746	3.5
225.98	12.5
226.215	12.5
226.449	15.5
226.683	20.5
226.918	24.5
227.152	23.5
227.387	30.5
227.621	27.5
227.856	48.5
228.09	43.5
228.324	54.5
228.559	57.5
228.793	59.5
229.027	60.5
229.262	45.5
229.496	72.5
229.73	72.5
229.964	70.5
230.199	56.5
230.433	83.5
230.667	71.5
230.901	87.5
231.136	73.5
231.37	82.5
231.604	88.5
231.838	83.5
232.072	97.5
232.306	78.5
232.541	97.5
232.775	102.5
233.009	81.5
233.243	74.5
233.477	85.5
233.711	85.5
233.945	84.5
234.179	78.5
234.413	79.5
234.647	82.5
234.881	73.5
235.115	88.5
235.349	81.5
235.583	89.5
235.817	89.5
236.051	81.5
236.285	81.5
236.519	88.5
236.753	80.5
236.987	71.5
237.221	76.5
237.455	80.5
237.689	82.5
237.922	96.5
238.156	77.5
238.39	74.5
238.624	90.5
238.858	87.5
239.091	77.5
239.325	80.5
239.559	92.5
239.793	93.5
240.027	72.5
240.26	71.5
240.494	76.5
240.728	80.5
240.961	70.5
241.195	90.5
241.429	67.5
241.662	73.5
241.896	87.5
242.13	91.5
242.363	80.5
242.597	91.5
242.83	75.5
243.064	66.5
243.298	79.5
243.531	73.5
243.765	77.5
243.998	83.5
244.232	78.5
244.465	73.5
244.699	78.5
244.932	87.5
245.166	75.5
245.399	91.5
245.633	88.5
245.866	90.5
246.099	91.5
246.333	66.5
246.566	70.5
246.8	78.5
247.033	83.5
247.266	72.5
247.5	91.5
247.733	75.5
247.966	96.5
248.2	65.5
248.433	74.5
248.666	78.5
248.899	87.5
249.133	74.5
249.366	85.5
249.599	101.5
249.832	83.5
250.066	85.5
250.299	76.5
250.532	75.5
250.765	75.5
250.998	69.5
251.231	63.5
251.465	84.5
251.698	70.5
251.931	77.5
252.164	76.5
252.397	85.5
252.63	96.5
252.863	79.5
253.096	75.5
253.329	83.5
253.562	85.5
253.795	84.5
254.028	78.5
254.261	76.5
254.494	70.5
254.727	86.5
254.96	64.5
255.193	90.5
255.426	85.5
255.659	70.5
255.892	69.5
256.124	64.5
256.357	76.5
256.59	77.5
256.823	90.5
257.056	81.5
257.289	78.5
257.521	76.5
257.754	79.5
257.987	91.5
258.22	79.5
258.452	89.5
258.685	85.5
258.918	85.5
259.151	95.5
259.383	88.5
259.616	69.5
259.849	88.5
260.081	72.5
260.314	78.5
260.547	90.5
260.779	78.5
261.012	78.5
261.244	76.5
261.477	75.5
261.71	73.5
261.942	84.5
262.175	84.5
262.407	81.5
262.64	84.5
262.872	84.5
263.105	93.5
263.337	78.5
263.57	78.5
263.802	78.5
264.035	95.5
264.267	69.5
264.499	85.5
264.732	91.5
264.964	82.5
265.197	96.5
265.429	84.5
265.661	88.5
265.894	88.5
266.126	89.5
266.358	98.5
266.591	82.5
266.823	81.5
267.055	85.5
267.287	73.5
267.52	78.5
267.752	86.5
267.984	80.5
268.216	81.5
268.448	90.5
268.681	78.5
268.913	82.5
269.145	86.5
269.377	76.5
269.609	78.5
269.841	72.5
270.073	85.5
270.306	78.5
270.538	86.5
270.77	84.5
271.002	78.5
271.234	69.5
271.466	83.5
271.698	68.5
271.93	75.5
272.162	89.5
272.394	89.5
272.626	75.5
272.858	69.5
273.09	90.5
273.322	78.5
273.553	92.5
273.785	88.5
274.017	88.5
274.249	75.5
274.481	103.5
274.713	82.5
274.945	84.5
275.176	85.5
275.408	79.5
275.64	94.5
275.872	81.5
276.104	84.5
276.335	87.5
276.567	74.5
276.799	91.5
277.031	79.5
277.262	91.5
277.494	91.5
277.726	91.5
277.957	87.5
278.189	83.5
278.421	84.5
278.652	85.5
278.884	90.5
279.115	77.5
279.347	79.5
279.579	88.5
279.81	72.5
280.042	90.5
280.273	80.5
280.505	78.5
280.736	86.5
280.968	102.5
281.199	86.5
281.431	91.5
281.662	91.5
281.894	74.5
282.125	86.5
282.356	90.5
282.588	100.5
282.819	81.5
283.051	89.5
283.282	76.5
283.513	90.5
283.745	89.5
283.976	80.5
284.207	86.5
284.439	77.5
284.67	76.5
284.901	82.5
285.132	96.5
285.364	74.5
285.595	85.5
285.826	82.5
286.057	82.5
286.288	77.5
286.52	75.5
286.751	86.5
286.982	82.5
287.213	78.5
287.444	87.5
287.675	63.5
287.906	76.5
288.138	88.5
288.369	108.5
288.6	78.5
288.831	82.5
289.062	92.5
289.293	72.5
289.524	79.5
289.755	69.5
289.986	83.5
290.217	74.5
290.448	90.5
290.679	78.5
290.91	99.5
291.141	90.5
291.371	89.5
291.602	74.5
291.833	78.5
292.064	85.5
292.295	97.5
292.526	87.5
292.757	73.5
292.987	89.5
293.218	83.5
293.449	90.5
293.68	82.5
293.91	78.5
294.141	99.5
294.372	92.5
294.603	83.5
294.833	75.5
295.064	99.5
295.295	78.5
295.525	81.5
295.756	76.5
295.987	101.5
296.217	86.5
296.448	74.5
296.679	92.5
296.909	70.5
297.14	91.5
297.37	81.5
297.601	89.5
297.831	81.5
298.062	80.5
298.292	72.5
298.523	76.5
298.753	87.5
298.984	78.5
299.214	81.5
299.445	118.5
299.675	88.5
299.905	100.5
300.136	102.5
300.366	85.5
300.597	98.5
300.827	69.5
301.057	80.5
301.288	81.5
301.518	78.5
301.748	82.5
301.979	92.5
302.209	63.5
302.439	84.5
302.669	80.5
302.9	80.5
303.13	84.5
303.36	81.5
303.59	71.5
303.82	79.5
304.051	74.5
304.281	84.5
304.511	69.5
304.741	92.5
304.971	89.5
305.201	78.5
305.431	90.5
305.661	88.5
305.891	87.5
306.121	91.5
306.352	76.5
306.582	79.5
306.812	88.5
307.042	94.5
307.272	78.5
307.502	82.5
307.731	93.5
307.961	87.5
308.191	90.5
308.421	101.5
308.651	78.5
308.881	78.5
309.111	90.5
309.341	91.5
309.571	99.5
309.8	89.5
310.03	82.5
310.26	90.5
310.49	93.5
310.72	83.5
310.949	86.5
311.179	77.5
311.409	84.5
311.639	91.5
311.868	87.5
312.098	74.5
312.328	71.5
312.557	91.5
312.787	71.5
313.017	109.5
313.246	91.5
313.476	75.5
313.706	85.5
313.935	91.5
314.165	88.5
314.394	73.5
314.624	83.5
314.853	96.5
315.083	85.5
315.312	78.5
315.542	77.5
315.771	90.5
316.001	86.5
316.23	88.5
316.46	96.5
316.689	87.5
316.919	75.5
317.148	93.5
317.377	77.5
317.607	94.5
317.836	86.5
318.065	80.5
318.295	90.5
318.524	76.5
318.753	80.5
318.983	86.5
319.212	82.5
319.441	83.5
319.67	81.5
319.9	85.5
320.129	97.5
320.358	81.5
320.587	80.5
320.816	71.5
321.046	84.5
321.275	95.5
321.504	90.5
321.733	90.5
321.962	75.5
322.191	70.5
322.42	85.5
322.649	89.5
322.878	96.5
323.108	82.5
323.337	96.5
323.566	73.5
323.795	85.5
324.024	89.5
324.253	73.5
324.482	86.5
324.71	86.5
324.939	88.5
325.168	85.5
325.397	87.5
325.626	89.5
325.855	84.5
326.084	75.5
326.313	88.5
326.542	90.5
326.77	91.5
326.999	75.5
327.228	74.5
327.457	96.5
327.686	97.5
327.914	77.5
328.143	85.5
328.372	99.5
328.6	68.5
328.829	94.5
329.058	82.5
329.287	96.5
329.515	89.5
329.744	86.5
329.972	88.5
330.201	92.5
330.43	76.5
330.658	68.5
330.887	71.5
331.115	87.5
331.344	72.5
331.572	94.5
331.801	74.5
332.03	91.5
332.258	89.5
332.486	84.5
332.715	91.5
332.943	94.5
333.172	74.5
333.4	76.5
333.629	91.5
333.857	90.5
334.085	78.5
334.314	73.5
334.542	85.5
334.771	105.5
334.999	84.5
335.227	88.5
335.455	77.5
335.684	95.5
335.912	79.5
336.14	77.5
336.369	80.5
336.597	73.5
336.825	83.5
337.053	100.5
337.281	78.5
337.51	77.5
337.738	94.5
337.966	95.5
338.194	76.5
338.422	82.5
338.65	81.5
338.878	84.5
339.106	95.5
339.334	86.5
339.562	87.5
339.79	86.5
340.018	90.5
340.246	70.5
340.474	79.5
340.702	88.5
340.93	78.5
341.158	73.5
341.386	86.5
341.614	72.5
341.842	78.5
342.07	89.5
342.298	67.5
342.526	86.5
342.754	85.5
342.981	100.5
343.209	94.5
343.437	91.5
343.665	85.5
343.893	100.5
344.12	83.5
344.348	81.5
344.576	90.5
344.804	75.5
345.031	83.5
345.259	81.5
345.487	73.5
345.714	75.5
345.942	86.5
346.17	85.5
346.397	75.5
346.625	94.5
346.853	72.5
347.08	79.5
347.308	96.5
347.535	60.5
347.763	76.5
347.99	90.5
348.218	86.5
348.445	82.5
348.673	98.5
348.9	98.5
349.128	83.5
349.355	86.5
349.583	88.5
349.81	93.5
350.037	83.5
350.265	97.5
350.492	95.5
350.72	86.5
350.947	83.5
351.174	86.5
351.402	86.5
351.629	86.5
351.856	79.5
352.083	71.5
352.311	62.5
352.538	91.5
352.765	84.5
352.992	88.5
353.22	69.5
353.447	62.5
353.674	98.5
353.901	84.5
354.128	78.5
354.355	80.5
354.583	94.5
354.81	93.5
355.037	83.5
355.264	80.5
355.491	78.5
355.718	85.5
355.945	76.5
356.172	95.5
356.399	84.5
356.626	89.5
356.853	84.5
357.08	89.5
357.307	74.5
357.534	80.5
357.761	88.5
357.988	83.5
358.215	101.5
358.441	88.5
358.668	80.5
358.895	74.5
359.122	86.5
359.349	88.5
359.576	91.5
359.802	86.5
360.029	90.5
360.256	78.5
360.483	82.5
360.709	82.5
360.936	85.5
361.163	92.5
361.39	78.5
361.616	85.5
361.843	74.5
362.07	85.5
362.296	91.5
362.523	80.5
362.749	103.5
362.976	72.5
363.203	96.5
363.429	85.5
363.656	75.5
363.882	75.5
364.109	99.5
364.335	90.5
364.562	82.5
364.788	99.5
365.015	93.5
365.241	87.5
365.468	94.5
365.694	86.5
365.92	89.5
366.147	84.5
366.373	83.5
366.599	78.5
366.826	74.5
367.052	93.5
367.278	80.5
367.505	91.5
367.731	93.5
367.957	88.5
368.184	93.5
368.41	99.5
368.636	93.5
368.862	104.5
369.089	92.5
369.315	88.5
369.541	78.5
369.767	88.5
369.993	74.5
370.219	92.5
370.445	78.5
370.672	80.5
370.898	84.5
371.124	97.5
371.35	97.5
371.576	93.5
371.802	96.5
372.028	102.5
372.254	104.5
372.48	96.5
372.706	98.5
372.932	84.5
373.158	90.5
373.384	95.5
373.61	100.5
373.835	88.5
374.061	90.5
374.287	88.5
374.513	92.5
374.739	100.5
374.965	102.5
375.191	100.5
375.416	94.5
375.642	89.5
375.868	98.5
376.094	103.5
376.319	113.5
376.545	82.5
376.771	93.5
376.997	90.5
377.222	101.5
377.448	94.5
377.674	91.5
377.899	97.5
378.125	90.5
378.35	91.5
378.576	94.5
378.802	96.5
379.027	90.5
379.253	95.5
379.478	97.5
379.704	94.5
379.929	103.5
380.155	89.5
380.38	84.5
380.606	91.5
380.831	93.5
381.057	106.5
381.282	105.5
381.507	102.5
381.733	102.5
381.958	97.5
382.184	98.5
382.409	94.5
382.634	98.5
382.86	87.5
383.085	96.5
383.31	98.5
383.535	99.5
383.761	106.5
383.986	97.5
384.211	109.5
384.436	94.5
384.662	101.5
384.887	103.5
385.112	84.5
385.337	97.5
385.562	95.5
385.787	98.5
386.013	107.5
386.238	100.5
386.463	107.5
386.688	109.5
386.913	110.5
387.138	104.5
387.363	104.5
387.588	99.5
387.813	96.5
388.038	102.5
388.263	100.5
388.488	111.5
388.713	99.5
388.938	101.5
389.163	94.5
389.387	116.5
389.612	99.5
389.837	108.5
390.062	106.5
390.287	112.5
390.512	116.5
390.736	101.5
390.961	92.5
391.186	99.5
391.411	104.5
391.636	99.5
391.86	102.5
392.085	109.5
392.31	98.5
392.534	97.5
392.759	103.5
392.984	103.5
393.208	100.5
393.433	94.5
393.658	93.5
393.882	107.5
394.107	99.5
394.331	113.5
394.556	118.5
394.78	102.5
395.005	110.5
395.229	106.5
395.454	116.5
395.678	110.5
395.903	121.5
396.127	114.5
396.352	121.5
396.576	125.5
396.801	116.5
397.025	104.5
397.249	112.5
397.474	105.5
397.698	101.5
397.922	118.5
398.147	129.5
398.371	105.5
398.595	116.5
398.82	113.5
399.044	112.5
399.268	118.5
399.492	116.5
399.717	126.5
399.941	117.5
400.165	105.5
400.389	123.5
400.613	96.5
400.837	126.5
401.062	126.5
401.286	108.5
401.51	115.5
401.734	122.5
401.958	124.5
402.182	106.5
402.406	104.5
402.63	121.5
402.854	126.5
403.078	99.5
403.302	120.5
403.526	122.5
403.75	129.5
403.974	122.5
404.198	124.5
404.422	125.5
404.645	116.5
404.869	125.5
405.093	126.5
405.317	110.5
405.541	123.5
405.765	116.5
405.988	123.5
406.212	126.5
406.436	118.5
406.66	133.5
406.883	118.5
407.107	129.5
407.331	122.5
407.555	126.5
407.778	113.5
408.002	105.5
408.226	113.5
408.449	117.5
408.673	127.5
408.896	123.5
409.12	119.5
409.344	124.5
409.567	135.5
409.791	123.5
410.014	140.5
410.238	127.5
410.461	124.5
410.685	122.5
410.908	129.5
411.132	117.5
411.355	124.5
411.578	127.5
411.802	107.5
412.025	140.5
412.249	128.5
412.472	121.5
412.695	120.5
412.919	115.5
413.142	129.5
413.365	122.5
413.589	133.5
413.812	132.5
414.035	130.5
414.258	117.5
414.482	128.5
414.705	132.5
414.928	134.5
415.151	130.5
415.374	124.5
415.597	128.5
415.821	133.5
416.044	133.5
416.267	128.5
416.49	134.5
416.713	127.5
416.936	138.5
417.159	143.5
417.382	123.5
417.605	132.5
417.828	121.5
418.051	125.5
418.274	126.5
418.497	137.5
418.72	135.5
418.943	139.5
419.166	139.5
419.389	130.5
419.611	138.5
419.834	129.5
420.057	134.5
420.28	124.5
420.503	140.5
420.726	134.5
420.948	128.5
421.171	139.5
421.394	148.5
421.617	154.5
421.839	163.5
422.062	144.5
422.285	137.5
422.507	151.5
422.73	134.5
422.953	133.5
423.175	131.5
423.398	134.5
423.621	135.5
423.843	128.5
424.066	136.5
424.288	137.5
424.511	146.5
424.733	181.5
424.956	152.5
425.178	143.5
425.401	139.5
425.623	139.5
425.846	143.5
426.068	146.5
426.291	129.5
426.513	125.5
426.735	138.5
426.958	134.5
427.18	141.5
427.402	128.5
427.625	132.5
427.847	133.5
428.069	133.5
428.292	128.5
428.514	122.5
428.736	123.5
428.958	127.5
429.181	138.5
429.403	146.5
429.625	135.5
429.847	139.5
430.069	130.5
430.292	142.5
430.514	136.5
430.736	132.5
430.958	131.5
431.18	133.5
431.402	142.5
431.624	130.5
431.846	118.5
432.068	98.5
432.29	100.5
432.512	113.5
432.734	130.5
432.956	136.5
433.178	125.5
433.4	118.5
433.622	142.5
433.844	143.5
434.066	134.5
434.287	123.5
434.509	102.5
434.731	93.5
434.953	104.5
435.175	142.5
435.397	140.5
435.618	127.5
435.84	120.5
436.062	116.5
436.284	127.5
436.505	137.5
436.727	132.5
436.949	126.5
437.17	140.5
437.392	123.5
437.614	113.5
437.835	126.5
438.057	122.5
438.278	124.5
438.5	129.5
438.721	152.5
438.943	144.5
439.165	147.5
439.386	146.5
439.608	150.5
439.829	143.5
440.05	153.5
440.272	155.5
440.493	162.5
440.715	146.5
440.936	145.5
441.158	152.5
441.379	169.5
441.6	146.5
441.822	149.5
442.043	152.5
442.264	147.5
442.486	137.5
442.707	140.5
442.928	155.5
443.149	136.5
443.371	141.5
443.592	148.5
443.813	145.5
444.034	152.5
444.255	145.5
444.476	143.5
444.698	140.5
444.919	186.5
445.14	289.5
445.361	212.5
445.582	154.5
445.803	150.5
446.024	150.5
446.245	156.5
446.466	150.5
446.687	155.5
446.908	169.5
447.129	169.5
447.35	161.5
447.571	147.5
447.792	178.5
448.013	154.5
448.234	161.5
448.455	151.5
448.675	132.5
448.896	148.5
449.117	147.5
449.338	154.5
449.559	132.5
449.779	135.5
450	146.5
450.221	160.5
450.442	143.5
450.662	141.5
450.883	134.5
451.104	141.5
451.324	136.5
451.545	152.5
451.766	156.5
451.986	132.5
452.207	139.5
452.428	132.5
452.648	130.5
452.869	122.5
453.089	119.5
453.31	120.5
453.53	122.5
453.751	124.5
453.971	114.5
454.192	93.5
454.412	108.5
454.633	118.5
454.853	132.5
455.073	130.5
455.294	121.5
455.514	122.5
455.734	118.5
455.955	125.5
456.175	138.5
456.395	127.5
456.616	120.5
456.836	107.5
457.056	111.5
457.276	118.5
457.497	109.5
457.717	114.5
457.937	103.5
458.157	114.5
458.377	120.5
458.598	113.5
458.818	94.5
459.038	88.5
459.258	92.5
459.478	82.5
459.698	102.5
459.918	103.5
460.138	106.5
460.358	108.5
460.578	120.5
460.798	116.5
461.018	115.5
461.238	122.5
461.458	124.5
461.678	106.5
461.898	132.5
462.118	119.5
462.338	121.5
462.558	117.5
462.777	114.5
462.997	108.5
463.217	116.5
463.437	117.5
463.657	99.5
463.876	105.5
464.096	110.5
464.316	112.5
464.536	114.5
464.755	126.5
464.975	129.5
465.195	122.5
465.414	126.5
465.634	109.5
465.854	126.5
466.073	122.5
466.293	129.5
466.512	113.5
466.732	134.5
466.951	153.5
467.171	140.5
467.391	139.5
467.61	147.5
467.829	141.5
468.049	130.5
468.268	138.5
468.488	139.5
468.707	140.5
468.927	152.5
469.146	153.5
469.365	163.5
469.585	158.5
469.804	132.5
470.023	148.5
470.243	155.5
470.462	159.5
470.681	140.5
470.901	155.5
471.12	142.5
471.339	150.5
471.558	152.5
471.777	142.5
471.997	151.5
472.216	128.5
472.435	127.5
472.654	120.5
472.873	112.5
473.092	129.5
473.311	134.5
473.53	114.5
473.749	154.5
473.968	139.5
474.187	122.5
474.406	122.5
474.625	131.5
474.844	138.5
475.063	132.5
475.282	127.5
475.501	120.5
475.72	136.5
475.939	130.5
476.158	143.5
476.377	130.5
476.596	131.5
476.814	120.5
477.033	96.5
477.252	120.5
477.471	134.5
477.69	150.5
477.908	154.5
478.127	147.5
478.346	142.5
478.564	151.5
478.783	130.5
479.002	156.5
479.22	160.5
479.439	150.5
479.658	125.5
479.876	119.5
480.095	114.5
480.313	113.5
480.532	127.5
480.751	113.5
480.969	105.5
481.188	84.5
481.406	84.5
481.624	71.5
481.843	100.5
482.061	108.5
482.28	119.5
482.498	130.5
482.717	122.5
482.935	132.5
483.153	142.5
483.372	162.5
483.59	160.5
483.808	145.5
484.027	146.5
484.245	149.5
484.463	154.5
484.681	166.5
484.9	170.5
485.118	150.5
485.336	142.5
485.554	118.5
485.772	107.5
485.99	120.5
486.209	126.5
486.427	118.5
486.645	122.5
486.863	126.5
487.081	137.5
487.299	142.5
487.517	149.5
487.735	173.5
487.953	196.5
488.171	200.5
488.389	183.5
488.607	179.5
488.825	160.5
489.043	143.5
489.261	152.5
489.479	142.5
489.696	136.5
489.914	151.5
490.132	147.5
490.35	160.5
490.568	179.5
490.786	183.5
491.003	182.5
491.221	193.5
491.439	203.5
491.657	203.5
491.874	221.5
492.092	233.5
492.31	272.5
492.527	248.5
492.745	232.5
492.963	219.5
493.18	208.5
493.398	194.5
493.615	192.5
493.833	185.5
494.05	183.5
494.268	188.5
494.485	178.5
494.703	170.5
494.92	194.5
495.138	189.5
495.355	178.5
495.573	177.5
495.79	173.5
496.008	171.5
496.225	170.5
496.442	165.5
496.66	169.5
496.877	171.5
497.094	169.5
497.312	177.5
497.529	164.5
497.746	154.5
497.963	142.5
498.181	130.5
498.398	121.5
498.615	132.5
498.832	109.5
499.049	117.5
499.267	137.5
499.484	132.5
499.701	151.5
499.918	128.5
500.135	144.5
500.352	158.5
500.569	138.5
500.786	154.5
501.003	156.5
501.22	136.5
501.437	143.5
501.654	145.5
501.871	143.5
502.088	136.5
502.305	150.5
502.522	128.5
502.739	130.5
502.956	124.5
503.172	130.5
503.389	126.5
503.606	126.5
503.823	117.5
504.04	109.5
504.256	126.5
504.473	114.5
504.69	117.5
504.907	129.5
505.123	123.5
505.34	124.5
505.557	132.5
505.773	140.5
505.99	129.5
506.207	124.5
506.423	136.5
506.64	130.5
506.856	118.5
507.073	133.5
507.289	125.5
507.506	132.5
507.722	132.5
507.939	129.5
508.155	118.5
508.372	120.5
508.588	110.5
508.805	128.5
509.021	96.5
509.238	107.5
509.454	96.5
509.67	97.5
509.887	108.5
510.103	110.5
510.319	96.5
510.536	97.5
510.752	89.5
510.968	87.5
511.184	81.5
511.401	71.5
511.617	84.5
511.833	102.5
512.049	102.5
512.265	114.5
512.481	98.5
512.698	105.5
512.914	100.5
513.13	94.5
513.346	97.5
513.562	88.5
513.778	91.5
513.994	81.5
514.21	85.5
514.426	91.5
514.642	92.5
514.858	94.5
515.074	99.5
515.29	103.5
515.506	82.5
515.721	100.5
515.937	99.5
516.153	92.5
516.369	80.5
516.585	91.5
516.801	101.5
517.016	80.5
517.232	90.5
517.448	108.5
517.664	92.5
517.879	100.5
518.095	90.5
518.311	100.5
518.527	98.5
518.742	115.5
518.958	93.5
519.173	116.5
519.389	104.5
519.605	103.5
519.82	115.5
520.036	119.5
520.251	115.5
520.467	112.5
520.682	120.5
520.898	103.5
521.113	96.5
521.329	101.5
521.544	101.5
521.76	92.5
521.975	110.5
522.19	116.5
522.406	98.5
522.621	94.5
522.836	85.5
523.052	125.5
523.267	116.5
523.482	118.5
523.698	117.5
523.913	126.5
524.128	126.5
524.343	123.5
524.559	122.5
524.774	136.5
524.989	115.5
525.204	110.5
525.419	124.5
525.634	117.5
525.849	121.5
526.064	103.5
526.28	103.5
526.495	98.5
526.71	99.5
526.925	88.5
527.14	111.5
527.355	93.5
527.57	103.5
527.785	95.5
527.999	92.5
528.214	102.5
528.429	125.5
528.644	126.5
528.859	149.5
529.074	150.5
529.289	201.5
529.503	167.5
529.718	149.5
529.933	126.5
530.148	112.5
530.363	106.5
