Data from Location6.07152019.Energy5.Lamp.07192019.3%Agarose_HRD10591_16-11-27-394.txt Node
Date: Fri Jul 19 16:11:27 EDT 2019
User: cochatt
Spectrometer: HR+D1059
Trigger mode: 1
Integration Time (sec): 1.000000E-1
Scans to average: 1
Electric dark correction enabled: true
Nonlinearity correction enabled: false
Boxcar width: 0
XAxis mode: Wavelengths
Number of Pixels in Spectrum: 2048
>>>>>Begin Spectral Data<<<<<
223.165	-24.38
223.4	-24.38
223.635	-24.38
223.869	-21.38
224.104	-27.38
224.338	-14.38
224.573	-14.38
224.808	-14.38
225.042	-7.38
225.277	-0.38
225.511	-5.38
225.746	6.62
225.98	8.62
226.215	26.62
226.449	11.62
226.683	26.62
226.918	19.62
227.152	29.62
227.387	19.62
227.621	37.62
227.856	39.62
228.09	49.62
228.324	57.62
228.559	49.62
228.793	49.62
229.027	59.62
229.262	72.62
229.496	67.62
229.73	72.62
229.964	77.62
230.199	60.62
230.433	72.62
230.667	75.62
230.901	85.62
231.136	81.62
231.37	79.62
231.604	69.62
231.838	74.62
232.072	81.62
232.306	85.62
232.541	68.62
232.775	69.62
233.009	71.62
233.243	80.62
233.477	82.62
233.711	77.62
233.945	98.62
234.179	74.62
234.413	85.62
234.647	69.62
234.881	82.62
235.115	77.62
235.349	83.62
235.583	85.62
235.817	72.62
236.051	76.62
236.285	91.62
236.519	85.62
236.753	72.62
236.987	79.62
237.221	71.62
237.455	64.62
237.689	80.62
237.922	85.62
238.156	77.62
238.39	71.62
238.624	73.62
238.858	77.62
239.091	73.62
239.325	72.62
239.559	88.62
239.793	80.62
240.027	88.62
240.26	74.62
240.494	85.62
240.728	82.62
240.961	74.62
241.195	86.62
241.429	91.62
241.662	67.62
241.896	87.62
242.13	81.62
242.363	77.62
242.597	71.62
242.83	90.62
243.064	79.62
243.298	84.62
243.531	74.62
243.765	69.62
243.998	82.62
244.232	92.62
244.465	76.62
244.699	85.62
244.932	85.62
245.166	78.62
245.399	79.62
245.633	79.62
245.866	82.62
246.099	70.62
246.333	71.62
246.566	75.62
246.8	69.62
247.033	74.62
247.266	71.62
247.5	75.62
247.733	80.62
247.966	83.62
248.2	79.62
248.433	74.62
248.666	77.62
248.899	69.62
249.133	77.62
249.366	80.62
249.599	72.62
249.832	85.62
250.066	75.62
250.299	77.62
250.532	89.62
250.765	87.62
250.998	74.62
251.231	98.62
251.465	82.62
251.698	81.62
251.931	86.62
252.164	65.62
252.397	92.62
252.63	88.62
252.863	80.62
253.096	81.62
253.329	82.62
253.562	69.62
253.795	76.62
254.028	72.62
254.261	71.62
254.494	80.62
254.727	85.62
254.96	65.62
255.193	84.62
255.426	68.62
255.659	77.62
255.892	83.62
256.124	82.62
256.357	76.62
256.59	69.62
256.823	73.62
257.056	65.62
257.289	73.62
257.521	77.62
257.754	80.62
257.987	85.62
258.22	75.62
258.452	82.62
258.685	80.62
258.918	70.62
259.151	81.62
259.383	89.62
259.616	70.62
259.849	88.62
260.081	73.62
260.314	66.62
260.547	73.62
260.779	80.62
261.012	78.62
261.244	89.62
261.477	90.62
261.71	88.62
261.942	82.62
262.175	72.62
262.407	83.62
262.64	71.62
262.872	90.62
263.105	81.62
263.337	75.62
263.57	87.62
263.802	87.62
264.035	85.62
264.267	81.62
264.499	66.62
264.732	85.62
264.964	63.62
265.197	80.62
265.429	75.62
265.661	83.62
265.894	77.62
266.126	91.62
266.358	69.62
266.591	87.62
266.823	67.62
267.055	83.62
267.287	90.62
267.52	71.62
267.752	75.62
267.984	79.62
268.216	88.62
268.448	86.62
268.681	92.62
268.913	78.62
269.145	88.62
269.377	88.62
269.609	81.62
269.841	72.62
270.073	82.62
270.306	90.62
270.538	82.62
270.77	71.62
271.002	93.62
271.234	95.62
271.466	81.62
271.698	66.62
271.93	84.62
272.162	82.62
272.394	88.62
272.626	80.62
272.858	81.62
273.09	78.62
273.322	97.62
273.553	77.62
273.785	80.62
274.017	88.62
274.249	72.62
274.481	64.62
274.713	74.62
274.945	84.62
275.176	79.62
275.408	84.62
275.64	76.62
275.872	89.62
276.104	78.62
276.335	72.62
276.567	87.62
276.799	86.62
277.031	85.62
277.262	86.62
277.494	80.62
277.726	92.62
277.957	62.62
278.189	76.62
278.421	80.62
278.652	95.62
278.884	76.62
279.115	85.62
279.347	84.62
279.579	84.62
279.81	88.62
280.042	82.62
280.273	74.62
280.505	84.62
280.736	77.62
280.968	87.62
281.199	80.62
281.431	67.62
281.662	81.62
281.894	87.62
282.125	92.62
282.356	80.62
282.588	87.62
282.819	72.62
283.051	81.62
283.282	87.62
283.513	87.62
283.745	84.62
283.976	80.62
284.207	87.62
284.439	97.62
284.67	96.62
284.901	64.62
285.132	86.62
285.364	89.62
285.595	87.62
285.826	73.62
286.057	82.62
286.288	85.62
286.52	99.62
286.751	74.62
286.982	81.62
287.213	88.62
287.444	78.62
287.675	72.62
287.906	89.62
288.138	87.62
288.369	87.62
288.6	81.62
288.831	76.62
289.062	92.62
289.293	83.62
289.524	87.62
289.755	80.62
289.986	101.62
290.217	73.62
290.448	78.62
290.679	74.62
290.91	95.62
291.141	83.62
291.371	78.62
291.602	90.62
291.833	83.62
292.064	84.62
292.295	69.62
292.526	97.62
292.757	78.62
292.987	78.62
293.218	85.62
293.449	83.62
293.68	81.62
293.91	83.62
294.141	92.62
294.372	99.62
294.603	72.62
294.833	79.62
295.064	80.62
295.295	82.62
295.525	91.62
295.756	92.62
295.987	83.62
296.217	81.62
296.448	82.62
296.679	81.62
296.909	83.62
297.14	74.62
297.37	83.62
297.601	88.62
297.831	81.62
298.062	85.62
298.292	87.62
298.523	81.62
298.753	86.62
298.984	89.62
299.214	82.62
299.445	79.62
299.675	95.62
299.905	87.62
300.136	81.62
300.366	77.62
300.597	81.62
300.827	89.62
301.057	97.62
301.288	83.62
301.518	90.62
301.748	91.62
301.979	92.62
302.209	92.62
302.439	89.62
302.669	81.62
302.9	82.62
303.13	97.62
303.36	87.62
303.59	83.62
303.82	83.62
304.051	96.62
304.281	77.62
304.511	105.62
304.741	74.62
304.971	76.62
305.201	89.62
305.431	77.62
305.661	90.62
305.891	92.62
306.121	83.62
306.352	81.62
306.582	76.62
306.812	70.62
307.042	81.62
307.272	83.62
307.502	87.62
307.731	89.62
307.961	86.62
308.191	84.62
308.421	91.62
308.651	87.62
308.881	78.62
309.111	71.62
309.341	89.62
309.571	77.62
309.8	74.62
310.03	81.62
310.26	76.62
310.49	88.62
310.72	81.62
310.949	79.62
311.179	89.62
311.409	72.62
311.639	93.62
311.868	81.62
312.098	81.62
312.328	74.62
312.557	83.62
312.787	71.62
313.017	86.62
313.246	87.62
313.476	84.62
313.706	79.62
313.935	74.62
314.165	83.62
314.394	96.62
314.624	78.62
314.853	88.62
315.083	72.62
315.312	76.62
315.542	90.62
315.771	78.62
316.001	87.62
316.23	96.62
316.46	82.62
316.689	87.62
316.919	77.62
317.148	93.62
317.377	93.62
317.607	80.62
317.836	81.62
318.065	99.62
318.295	97.62
318.524	87.62
318.753	76.62
318.983	74.62
319.212	96.62
319.441	87.62
319.67	87.62
319.9	86.62
320.129	91.62
320.358	83.62
320.587	82.62
320.816	72.62
321.046	75.62
321.275	75.62
321.504	81.62
321.733	90.62
321.962	87.62
322.191	84.62
322.42	85.62
322.649	95.62
322.878	85.62
323.108	86.62
323.337	83.62
323.566	78.62
323.795	87.62
324.024	81.62
324.253	75.62
324.482	84.62
324.71	80.62
324.939	75.62
325.168	83.62
325.397	81.62
325.626	87.62
325.855	84.62
326.084	92.62
326.313	85.62
326.542	85.62
326.77	89.62
326.999	78.62
327.228	81.62
327.457	90.62
327.686	88.62
327.914	78.62
328.143	89.62
328.372	85.62
328.6	91.62
328.829	92.62
329.058	84.62
329.287	95.62
329.515	75.62
329.744	92.62
329.972	88.62
330.201	83.62
330.43	86.62
330.658	79.62
330.887	82.62
331.115	84.62
331.344	77.62
331.572	76.62
331.801	96.62
332.03	89.62
332.258	75.62
332.486	81.62
332.715	96.62
332.943	77.62
333.172	91.62
333.4	82.62
333.629	83.62
333.857	82.62
334.085	92.62
334.314	100.62
334.542	82.62
334.771	78.62
334.999	87.62
335.227	76.62
335.455	79.62
335.684	80.62
335.912	84.62
336.14	92.62
336.369	88.62
336.597	80.62
336.825	81.62
337.053	89.62
337.281	76.62
337.51	79.62
337.738	77.62
337.966	75.62
338.194	92.62
338.422	89.62
338.65	88.62
338.878	85.62
339.106	84.62
339.334	81.62
339.562	92.62
339.79	91.62
340.018	95.62
340.246	74.62
340.474	91.62
340.702	97.62
340.93	76.62
341.158	82.62
341.386	83.62
341.614	75.62
341.842	87.62
342.07	80.62
342.298	87.62
342.526	88.62
342.754	85.62
342.981	77.62
343.209	86.62
343.437	87.62
343.665	77.62
343.893	87.62
344.12	89.62
344.348	82.62
344.576	89.62
344.804	72.62
345.031	80.62
345.259	81.62
345.487	82.62
345.714	86.62
345.942	79.62
346.17	82.62
346.397	73.62
346.625	85.62
346.853	77.62
347.08	71.62
347.308	90.62
347.535	86.62
347.763	92.62
347.99	89.62
348.218	105.62
348.445	81.62
348.673	96.62
348.9	81.62
349.128	88.62
349.355	76.62
349.583	81.62
349.81	81.62
350.037	83.62
350.265	81.62
350.492	82.62
350.72	81.62
350.947	85.62
351.174	90.62
351.402	77.62
351.629	76.62
351.856	80.62
352.083	70.62
352.311	82.62
352.538	96.62
352.765	82.62
352.992	82.62
353.22	86.62
353.447	86.62
353.674	91.62
353.901	89.62
354.128	76.62
354.355	77.62
354.583	74.62
354.81	69.62
355.037	89.62
355.264	95.62
355.491	83.62
355.718	91.62
355.945	67.62
356.172	70.62
356.399	76.62
356.626	77.62
356.853	86.62
357.08	79.62
357.307	82.62
357.534	85.62
357.761	86.62
357.988	82.62
358.215	88.62
358.441	80.62
358.668	87.62
358.895	90.62
359.122	87.62
359.349	83.62
359.576	85.62
359.802	88.62
360.029	81.62
360.256	84.62
360.483	88.62
360.709	85.62
360.936	87.62
361.163	89.62
361.39	95.62
361.616	81.62
361.843	82.62
362.07	87.62
362.296	85.62
362.523	74.62
362.749	81.62
362.976	92.62
363.203	83.62
363.429	90.62
363.656	96.62
363.882	91.62
364.109	89.62
364.335	75.62
364.562	85.62
364.788	70.62
365.015	83.62
365.241	88.62
365.468	83.62
365.694	81.62
365.92	86.62
366.147	83.62
366.373	76.62
366.599	84.62
366.826	85.62
367.052	89.62
367.278	92.62
367.505	77.62
367.731	85.62
367.957	87.62
368.184	87.62
368.41	106.62
368.636	91.62
368.862	96.62
369.089	89.62
369.315	99.62
369.541	94.62
369.767	99.62
369.993	85.62
370.219	87.62
370.445	84.62
370.672	104.62
370.898	77.62
371.124	87.62
371.35	92.62
371.576	89.62
371.802	88.62
372.028	92.62
372.254	95.62
372.48	88.62
372.706	85.62
372.932	100.62
373.158	107.62
373.384	104.62
373.61	86.62
373.835	84.62
374.061	99.62
374.287	85.62
374.513	80.62
374.739	91.62
374.965	91.62
375.191	90.62
375.416	99.62
375.642	90.62
375.868	86.62
376.094	105.62
376.319	89.62
376.545	109.62
376.771	94.62
376.997	92.62
377.222	96.62
377.448	83.62
377.674	112.62
377.899	83.62
378.125	92.62
378.35	92.62
378.576	106.62
378.802	100.62
379.027	87.62
379.253	102.62
379.478	98.62
379.704	105.62
379.929	93.62
380.155	100.62
380.38	101.62
380.606	85.62
380.831	89.62
381.057	80.62
381.282	96.62
381.507	94.62
381.733	94.62
381.958	90.62
382.184	97.62
382.409	100.62
382.634	93.62
382.86	96.62
383.085	94.62
383.31	93.62
383.535	99.62
383.761	103.62
383.986	113.62
384.211	103.62
384.436	94.62
384.662	91.62
384.887	95.62
385.112	79.62
385.337	83.62
385.562	103.62
385.787	89.62
386.013	116.62
386.238	88.62
386.463	111.62
386.688	115.62
386.913	98.62
387.138	103.62
387.363	92.62
387.588	111.62
387.813	101.62
388.038	101.62
388.263	112.62
388.488	100.62
388.713	111.62
388.938	97.62
389.163	121.62
389.387	104.62
389.612	101.62
389.837	106.62
390.062	99.62
390.287	112.62
390.512	99.62
390.736	94.62
390.961	96.62
391.186	109.62
391.411	105.62
391.636	98.62
391.86	100.62
392.085	102.62
392.31	96.62
392.534	107.62
392.759	87.62
392.984	102.62
393.208	102.62
393.433	103.62
393.658	120.62
393.882	113.62
394.107	118.62
394.331	119.62
394.556	103.62
394.78	100.62
395.005	110.62
395.229	116.62
395.454	121.62
395.678	109.62
395.903	105.62
396.127	120.62
396.352	103.62
396.576	108.62
396.801	112.62
397.025	106.62
397.249	114.62
397.474	111.62
397.698	110.62
397.922	109.62
398.147	100.62
398.371	100.62
398.595	97.62
398.82	110.62
399.044	105.62
399.268	108.62
399.492	115.62
399.717	113.62
399.941	97.62
400.165	111.62
400.389	121.62
400.613	110.62
400.837	117.62
401.062	115.62
401.286	127.62
401.51	124.62
401.734	108.62
401.958	111.62
402.182	105.62
402.406	122.62
402.63	111.62
402.854	107.62
403.078	106.62
403.302	115.62
403.526	102.62
403.75	110.62
403.974	124.62
404.198	105.62
404.422	125.62
404.645	120.62
404.869	121.62
405.093	117.62
405.317	118.62
405.541	96.62
405.765	111.62
405.988	118.62
406.212	113.62
406.436	129.62
406.66	120.62
406.883	119.62
407.107	113.62
407.331	127.62
407.555	137.62
407.778	114.62
408.002	128.62
408.226	133.62
408.449	116.62
408.673	129.62
408.896	120.62
409.12	130.62
409.344	121.62
409.567	122.62
409.791	117.62
410.014	106.62
410.238	135.62
410.461	129.62
410.685	135.62
410.908	127.62
411.132	119.62
411.355	114.62
411.578	121.62
411.802	119.62
412.025	116.62
412.249	119.62
412.472	122.62
412.695	113.62
412.919	128.62
413.142	122.62
413.365	125.62
413.589	134.62
413.812	125.62
414.035	129.62
414.258	116.62
414.482	123.62
414.705	135.62
414.928	122.62
415.151	125.62
415.374	137.62
415.597	137.62
415.821	133.62
416.044	142.62
416.267	142.62
416.49	119.62
416.713	128.62
416.936	120.62
417.159	123.62
417.382	127.62
417.605	123.62
417.828	131.62
418.051	115.62
418.274	141.62
418.497	147.62
418.72	144.62
418.943	121.62
419.166	129.62
419.389	137.62
419.611	126.62
419.834	151.62
420.057	138.62
420.28	127.62
420.503	129.62
420.726	146.62
420.948	144.62
421.171	131.62
421.394	150.62
421.617	145.62
421.839	154.62
422.062	145.62
422.285	123.62
422.507	124.62
422.73	133.62
422.953	150.62
423.175	135.62
423.398	121.62
423.621	124.62
423.843	147.62
424.066	138.62
424.288	160.62
424.511	145.62
424.733	140.62
424.956	143.62
425.178	152.62
425.401	143.62
425.623	133.62
425.846	131.62
426.068	132.62
426.291	133.62
426.513	124.62
426.735	126.62
426.958	123.62
427.18	131.62
427.402	145.62
427.625	132.62
427.847	146.62
428.069	124.62
428.292	130.62
428.514	123.62
428.736	123.62
428.958	137.62
429.181	128.62
429.403	127.62
429.625	124.62
429.847	133.62
430.069	136.62
430.292	140.62
430.514	128.62
430.736	129.62
430.958	127.62
431.18	148.62
431.402	121.62
431.624	124.62
431.846	110.62
432.068	97.62
432.29	116.62
432.512	123.62
432.734	131.62
432.956	115.62
433.178	136.62
433.4	133.62
433.622	128.62
433.844	129.62
434.066	116.62
434.287	94.62
434.509	94.62
434.731	109.62
434.953	96.62
435.175	112.62
435.397	123.62
435.618	125.62
435.84	100.62
436.062	122.62
436.284	121.62
436.505	131.62
436.727	143.62
436.949	132.62
437.17	125.62
437.392	129.62
437.614	132.62
437.835	115.62
438.057	93.62
438.278	113.62
438.5	137.62
438.721	122.62
438.943	138.62
439.165	145.62
439.386	145.62
439.608	133.62
439.829	153.62
440.05	149.62
440.272	138.62
440.493	155.62
440.715	144.62
440.936	151.62
441.158	158.62
441.379	143.62
441.6	137.62
441.822	145.62
442.043	140.62
442.264	137.62
442.486	150.62
442.707	147.62
442.928	146.62
443.149	149.62
443.371	145.62
443.592	135.62
443.813	139.62
444.034	146.62
444.255	144.62
444.476	160.62
444.698	147.62
444.919	145.62
445.14	273.62
445.361	194.62
445.582	159.62
445.803	142.62
446.024	141.62
446.245	155.62
446.466	163.62
446.687	162.62
446.908	156.62
447.129	141.62
447.35	157.62
447.571	157.62
447.792	140.62
448.013	145.62
448.234	148.62
448.455	149.62
448.675	141.62
448.896	149.62
449.117	134.62
449.338	145.62
449.559	137.62
449.779	138.62
450	155.62
450.221	139.62
450.442	132.62
450.662	147.62
450.883	128.62
451.104	129.62
451.324	129.62
451.545	122.62
451.766	138.62
451.986	134.62
452.207	144.62
452.428	132.62
452.648	129.62
452.869	131.62
453.089	121.62
453.31	101.62
453.53	119.62
453.751	124.62
453.971	105.62
454.192	108.62
454.412	116.62
454.633	124.62
454.853	125.62
455.073	125.62
455.294	133.62
455.514	136.62
455.734	127.62
455.955	133.62
456.175	127.62
456.395	117.62
456.616	119.62
456.836	125.62
457.056	116.62
457.276	115.62
457.497	119.62
457.717	107.62
457.937	103.62
458.157	105.62
458.377	111.62
458.598	94.62
458.818	100.62
459.038	87.62
459.258	102.62
459.478	103.62
459.698	74.62
459.918	97.62
460.138	110.62
460.358	114.62
460.578	119.62
460.798	124.62
461.018	111.62
461.238	127.62
461.458	122.62
461.678	131.62
461.898	125.62
462.118	106.62
462.338	112.62
462.558	120.62
462.777	115.62
462.997	120.62
463.217	105.62
463.437	101.62
463.657	104.62
463.876	117.62
464.096	106.62
464.316	121.62
464.536	109.62
464.755	126.62
464.975	114.62
465.195	122.62
465.414	118.62
465.634	124.62
465.854	131.62
466.073	119.62
466.293	119.62
466.512	127.62
466.732	133.62
466.951	134.62
467.171	137.62
467.391	134.62
467.61	134.62
467.829	159.62
468.049	145.62
468.268	142.62
468.488	136.62
468.707	140.62
468.927	146.62
469.146	136.62
469.365	138.62
469.585	145.62
469.804	141.62
470.023	136.62
470.243	160.62
470.462	158.62
470.681	135.62
470.901	139.62
471.12	152.62
471.339	153.62
471.558	136.62
471.777	139.62
471.997	137.62
472.216	139.62
472.435	130.62
472.654	108.62
472.873	117.62
473.092	106.62
473.311	137.62
473.53	119.62
473.749	136.62
473.968	128.62
474.187	126.62
474.406	121.62
474.625	118.62
474.844	141.62
475.063	115.62
475.282	116.62
475.501	135.62
475.72	119.62
475.939	111.62
476.158	132.62
476.377	126.62
476.596	113.62
476.814	126.62
477.033	123.62
477.252	127.62
477.471	117.62
477.69	142.62
477.908	139.62
478.127	145.62
478.346	149.62
478.564	137.62
478.783	148.62
479.002	140.62
479.22	143.62
479.439	143.62
479.658	121.62
479.876	119.62
480.095	106.62
480.313	117.62
480.532	122.62
480.751	106.62
480.969	90.62
481.188	84.62
481.406	83.62
481.624	88.62
481.843	88.62
482.061	104.62
482.28	115.62
482.498	121.62
482.717	92.62
482.935	124.62
483.153	143.62
483.372	155.62
483.59	143.62
483.808	149.62
484.027	135.62
484.245	135.62
484.463	159.62
484.681	167.62
484.9	172.62
485.118	157.62
485.336	132.62
485.554	104.62
485.772	109.62
485.99	108.62
486.209	101.62
486.427	122.62
486.645	127.62
486.863	138.62
487.081	138.62
487.299	129.62
487.517	135.62
487.735	180.62
487.953	196.62
488.171	204.62
488.389	173.62
488.607	178.62
488.825	155.62
489.043	129.62
489.261	139.62
489.479	147.62
489.696	164.62
489.914	138.62
490.132	140.62
490.35	167.62
490.568	165.62
490.786	165.62
491.003	194.62
491.221	188.62
491.439	178.62
491.657	205.62
491.874	215.62
492.092	245.62
492.31	255.62
492.527	241.62
492.745	222.62
492.963	206.62
493.18	195.62
493.398	200.62
493.615	188.62
493.833	179.62
494.05	179.62
494.268	171.62
494.485	170.62
494.703	172.62
494.92	176.62
495.138	170.62
495.355	181.62
495.573	191.62
495.79	181.62
496.008	157.62
496.225	164.62
496.442	168.62
496.66	164.62
496.877	178.62
497.094	182.62
497.312	166.62
497.529	159.62
497.746	151.62
497.963	147.62
498.181	142.62
498.398	132.62
498.615	117.62
498.832	130.62
499.049	131.62
499.267	130.62
499.484	119.62
499.701	137.62
499.918	127.62
500.135	133.62
500.352	152.62
500.569	146.62
500.786	164.62
501.003	149.62
501.22	141.62
501.437	131.62
501.654	139.62
501.871	132.62
502.088	137.62
502.305	137.62
502.522	122.62
502.739	133.62
502.956	139.62
503.172	123.62
503.389	111.62
503.606	132.62
503.823	131.62
504.04	133.62
504.256	125.62
504.473	132.62
504.69	125.62
504.907	108.62
505.123	121.62
505.34	123.62
505.557	126.62
505.773	134.62
505.99	138.62
506.207	120.62
506.423	125.62
506.64	122.62
506.856	127.62
507.073	127.62
507.289	116.62
507.506	128.62
507.722	115.62
507.939	125.62
508.155	125.62
508.372	109.62
508.588	129.62
508.805	106.62
509.021	99.62
509.238	112.62
509.454	108.62
509.67	111.62
509.887	104.62
510.103	108.62
510.319	106.62
510.536	92.62
510.752	85.62
510.968	91.62
511.184	81.62
511.401	87.62
