Data from Location6.07152019.Energy5.Lamp.07192019.3%Agarose_HRD10591_16-13-41-395.txt Node
Date: Fri Jul 19 16:13:41 EDT 2019
User: cochatt
Spectrometer: HR+D1059
Trigger mode: 1
Integration Time (sec): 1.000000E-1
Scans to average: 1
Electric dark correction enabled: true
Nonlinearity correction enabled: false
Boxcar width: 0
XAxis mode: Wavelengths
Number of Pixels in Spectrum: 2048
>>>>>Begin Spectral Data<<<<<
223.165	-26.69
223.4	-26.69
223.635	-26.69
223.869	-8.69
224.104	-10.69
224.338	-15.69
224.573	-14.69
224.808	-19.69
225.042	-4.69
225.277	-10.69
225.511	-9.69
225.746	6.31
225.98	6.31
226.215	8.31
226.449	14.31
226.683	29.31
226.918	24.31
227.152	32.31
227.387	33.31
227.621	51.31
227.856	52.31
228.09	52.31
228.324	55.31
228.559	45.31
228.793	55.31
229.027	63.31
229.262	65.31
229.496	68.31
229.73	59.31
229.964	65.31
230.199	65.31
230.433	80.31
230.667	78.31
230.901	68.31
231.136	81.31
231.37	74.31
231.604	87.31
231.838	83.31
232.072	84.31
232.306	75.31
232.541	92.31
232.775	86.31
233.009	96.31
233.243	81.31
233.477	90.31
233.711	85.31
233.945	78.31
234.179	91.31
234.413	74.31
234.647	81.31
234.881	83.31
235.115	77.31
235.349	80.31
235.583	77.31
235.817	92.31
236.051	73.31
236.285	86.31
236.519	89.31
236.753	73.31
236.987	72.31
237.221	71.31
237.455	77.31
237.689	67.31
237.922	77.31
238.156	83.31
238.39	93.31
238.624	83.31
238.858	65.31
239.091	73.31
239.325	69.31
239.559	74.31
239.793	89.31
240.027	79.31
240.26	77.31
240.494	77.31
240.728	69.31
240.961	73.31
241.195	80.31
241.429	87.31
241.662	75.31
241.896	72.31
242.13	63.31
242.363	76.31
242.597	77.31
242.83	82.31
243.064	67.31
243.298	92.31
243.531	91.31
243.765	75.31
243.998	88.31
244.232	80.31
244.465	81.31
244.699	68.31
244.932	82.31
245.166	72.31
245.399	76.31
245.633	89.31
245.866	66.31
246.099	76.31
246.333	74.31
246.566	71.31
246.8	93.31
247.033	76.31
247.266	78.31
247.5	68.31
247.733	81.31
247.966	77.31
248.2	72.31
248.433	68.31
248.666	77.31
248.899	91.31
249.133	93.31
249.366	78.31
249.599	77.31
249.832	59.31
250.066	74.31
250.299	70.31
250.532	71.31
250.765	86.31
250.998	81.31
251.231	80.31
251.465	71.31
251.698	75.31
251.931	85.31
252.164	75.31
252.397	74.31
252.63	78.31
252.863	75.31
253.096	73.31
253.329	69.31
253.562	69.31
253.795	82.31
254.028	77.31
254.261	91.31
254.494	78.31
254.727	73.31
254.96	74.31
255.193	88.31
255.426	66.31
255.659	75.31
255.892	96.31
256.124	89.31
256.357	87.31
256.59	77.31
256.823	82.31
257.056	80.31
257.289	80.31
257.521	90.31
257.754	75.31
257.987	88.31
258.22	79.31
258.452	80.31
258.685	73.31
258.918	75.31
259.151	65.31
259.383	67.31
259.616	86.31
259.849	72.31
260.081	90.31
260.314	81.31
260.547	76.31
260.779	81.31
261.012	72.31
261.244	84.31
261.477	95.31
261.71	79.31
261.942	72.31
262.175	77.31
262.407	80.31
262.64	93.31
262.872	83.31
263.105	86.31
263.337	80.31
263.57	80.31
263.802	70.31
264.035	99.31
264.267	76.31
264.499	66.31
264.732	81.31
264.964	84.31
265.197	88.31
265.429	82.31
265.661	89.31
265.894	86.31
266.126	98.31
266.358	77.31
266.591	81.31
266.823	78.31
267.055	84.31
267.287	89.31
267.52	71.31
267.752	87.31
267.984	88.31
268.216	76.31
268.448	87.31
268.681	100.31
268.913	95.31
269.145	95.31
269.377	82.31
269.609	92.31
269.841	74.31
270.073	78.31
270.306	88.31
270.538	80.31
270.77	85.31
271.002	90.31
271.234	88.31
271.466	71.31
271.698	74.31
271.93	83.31
272.162	78.31
272.394	88.31
272.626	78.31
272.858	86.31
273.09	73.31
273.322	74.31
273.553	75.31
273.785	77.31
274.017	94.31
274.249	87.31
274.481	77.31
274.713	75.31
274.945	87.31
275.176	77.31
275.408	97.31
275.64	82.31
275.872	80.31
276.104	81.31
276.335	89.31
276.567	76.31
276.799	82.31
277.031	74.31
277.262	85.31
277.494	84.31
277.726	93.31
277.957	85.31
278.189	77.31
278.421	90.31
278.652	91.31
278.884	90.31
279.115	80.31
279.347	84.31
279.579	97.31
279.81	85.31
280.042	78.31
280.273	78.31
280.505	84.31
280.736	81.31
280.968	90.31
281.199	83.31
281.431	87.31
281.662	71.31
281.894	91.31
282.125	86.31
282.356	78.31
282.588	82.31
282.819	73.31
283.051	83.31
283.282	79.31
283.513	86.31
283.745	80.31
283.976	83.31
284.207	83.31
284.439	87.31
284.67	84.31
284.901	84.31
285.132	83.31
285.364	68.31
285.595	97.31
285.826	81.31
286.057	88.31
286.288	94.31
286.52	96.31
286.751	81.31
286.982	92.31
287.213	72.31
287.444	81.31
287.675	77.31
287.906	76.31
288.138	84.31
288.369	77.31
288.6	88.31
288.831	87.31
289.062	85.31
289.293	92.31
289.524	82.31
289.755	48.31
289.986	70.31
290.217	84.31
290.448	87.31
290.679	102.31
290.91	78.31
291.141	83.31
291.371	79.31
291.602	81.31
291.833	81.31
292.064	77.31
292.295	71.31
292.526	105.31
292.757	82.31
292.987	76.31
293.218	91.31
293.449	71.31
293.68	87.31
293.91	79.31
294.141	85.31
294.372	71.31
294.603	84.31
294.833	105.31
295.064	86.31
295.295	95.31
295.525	83.31
295.756	80.31
295.987	89.31
296.217	87.31
296.448	86.31
296.679	84.31
296.909	94.31
297.14	72.31
297.37	80.31
297.601	77.31
297.831	80.31
298.062	93.31
298.292	79.31
298.523	96.31
298.753	76.31
298.984	77.31
299.214	76.31
299.445	77.31
299.675	80.31
299.905	85.31
300.136	92.31
300.366	92.31
300.597	77.31
300.827	83.31
301.057	85.31
301.288	90.31
301.518	84.31
301.748	85.31
301.979	76.31
302.209	94.31
302.439	74.31
302.669	91.31
302.9	76.31
303.13	67.31
303.36	102.31
303.59	88.31
303.82	90.31
304.051	87.31
304.281	76.31
304.511	85.31
304.741	95.31
304.971	97.31
305.201	82.31
305.431	90.31
305.661	71.31
305.891	72.31
306.121	91.31
306.352	82.31
306.582	100.31
306.812	96.31
307.042	81.31
307.272	97.31
307.502	88.31
307.731	80.31
307.961	86.31
308.191	71.31
308.421	90.31
308.651	83.31
308.881	73.31
309.111	91.31
309.341	93.31
309.571	70.31
309.8	87.31
310.03	82.31
310.26	71.31
310.49	67.31
310.72	77.31
310.949	88.31
311.179	86.31
311.409	85.31
311.639	90.31
311.868	92.31
312.098	88.31
312.328	87.31
312.557	95.31
312.787	77.31
313.017	85.31
313.246	73.31
313.476	82.31
313.706	79.31
313.935	86.31
314.165	81.31
314.394	87.31
314.624	90.31
314.853	74.31
315.083	94.31
315.312	79.31
315.542	87.31
315.771	84.31
316.001	87.31
316.23	89.31
316.46	80.31
316.689	90.31
316.919	84.31
317.148	88.31
317.377	94.31
317.607	75.31
317.836	85.31
318.065	88.31
318.295	100.31
318.524	80.31
318.753	74.31
318.983	72.31
319.212	91.31
319.441	98.31
319.67	96.31
319.9	89.31
320.129	80.31
320.358	80.31
320.587	98.31
320.816	88.31
321.046	88.31
321.275	88.31
321.504	76.31
321.733	82.31
321.962	90.31
322.191	76.31
322.42	83.31
322.649	88.31
322.878	93.31
323.108	75.31
323.337	81.31
323.566	102.31
323.795	98.31
324.024	92.31
324.253	91.31
324.482	89.31
324.71	85.31
324.939	76.31
325.168	88.31
325.397	94.31
325.626	88.31
325.855	88.31
326.084	95.31
326.313	90.31
326.542	91.31
326.77	81.31
326.999	88.31
327.228	79.31
327.457	89.31
327.686	82.31
327.914	78.31
328.143	85.31
328.372	83.31
328.6	91.31
328.829	82.31
329.058	92.31
329.287	69.31
329.515	79.31
329.744	88.31
329.972	79.31
330.201	85.31
330.43	82.31
330.658	77.31
330.887	73.31
331.115	94.31
331.344	74.31
331.572	83.31
331.801	79.31
332.03	98.31
332.258	97.31
332.486	83.31
332.715	83.31
332.943	82.31
333.172	79.31
333.4	70.31
333.629	82.31
333.857	78.31
334.085	81.31
334.314	80.31
334.542	86.31
334.771	86.31
334.999	85.31
335.227	88.31
335.455	87.31
335.684	74.31
335.912	74.31
336.14	88.31
336.369	86.31
336.597	83.31
336.825	92.31
337.053	79.31
337.281	85.31
337.51	88.31
337.738	90.31
337.966	87.31
338.194	80.31
338.422	84.31
338.65	101.31
338.878	88.31
339.106	95.31
339.334	93.31
339.562	73.31
339.79	71.31
340.018	77.31
340.246	83.31
340.474	78.31
340.702	82.31
340.93	100.31
341.158	83.31
341.386	84.31
341.614	100.31
341.842	90.31
342.07	100.31
342.298	81.31
342.526	79.31
342.754	93.31
342.981	85.31
343.209	89.31
343.437	86.31
343.665	75.31
343.893	90.31
344.12	108.31
344.348	82.31
344.576	93.31
344.804	87.31
345.031	89.31
345.259	92.31
345.487	82.31
345.714	90.31
345.942	86.31
346.17	96.31
346.397	81.31
346.625	75.31
346.853	78.31
347.08	83.31
347.308	82.31
347.535	101.31
347.763	94.31
347.99	86.31
348.218	82.31
348.445	87.31
348.673	88.31
348.9	86.31
349.128	89.31
349.355	83.31
349.583	95.31
349.81	88.31
350.037	86.31
350.265	82.31
350.492	84.31
350.72	91.31
350.947	103.31
351.174	99.31
351.402	88.31
351.629	82.31
351.856	90.31
352.083	79.31
352.311	90.31
352.538	85.31
352.765	88.31
352.992	91.31
353.22	85.31
353.447	80.31
353.674	88.31
353.901	69.31
354.128	84.31
354.355	83.31
354.583	81.31
354.81	90.31
355.037	76.31
355.264	87.31
355.491	66.31
355.718	79.31
355.945	91.31
356.172	92.31
356.399	73.31
356.626	77.31
356.853	85.31
357.08	77.31
357.307	82.31
357.534	77.31
357.761	85.31
357.988	92.31
358.215	88.31
358.441	88.31
358.668	78.31
358.895	96.31
359.122	88.31
359.349	89.31
359.576	81.31
359.802	80.31
360.029	83.31
360.256	100.31
360.483	74.31
360.709	94.31
360.936	95.31
361.163	90.31
361.39	87.31
361.616	84.31
361.843	86.31
362.07	83.31
362.296	88.31
362.523	84.31
362.749	104.31
362.976	84.31
363.203	88.31
363.429	84.31
363.656	86.31
363.882	76.31
364.109	89.31
364.335	83.31
364.562	70.31
364.788	86.31
365.015	93.31
365.241	88.31
365.468	84.31
365.694	87.31
365.92	77.31
366.147	71.31
366.373	83.31
366.599	85.31
366.826	95.31
367.052	87.31
367.278	88.31
367.505	85.31
367.731	96.31
367.957	89.31
368.184	96.31
368.41	87.31
368.636	86.31
368.862	104.31
369.089	89.31
369.315	85.31
369.541	85.31
369.767	88.31
369.993	90.31
370.219	91.31
370.445	85.31
370.672	99.31
370.898	97.31
371.124	87.31
371.35	91.31
371.576	87.31
371.802	113.31
372.028	88.31
372.254	103.31
372.48	93.31
372.706	94.31
372.932	90.31
373.158	97.31
373.384	82.31
373.61	90.31
373.835	93.31
374.061	97.31
374.287	91.31
374.513	87.31
374.739	89.31
374.965	89.31
375.191	106.31
375.416	99.31
375.642	94.31
375.868	99.31
376.094	84.31
376.319	91.31
376.545	95.31
376.771	97.31
376.997	95.31
377.222	97.31
377.448	85.31
377.674	102.31
377.899	92.31
378.125	92.31
378.35	100.31
378.576	105.31
378.802	98.31
379.027	103.31
379.253	102.31
379.478	105.31
379.704	94.31
379.929	100.31
380.155	90.31
380.38	93.31
380.606	94.31
380.831	103.31
381.057	100.31
381.282	108.31
381.507	100.31
381.733	100.31
381.958	96.31
382.184	80.31
382.409	87.31
382.634	116.31
382.86	104.31
383.085	99.31
383.31	98.31
383.535	98.31
383.761	99.31
383.986	98.31
384.211	90.31
384.436	99.31
384.662	97.31
384.887	95.31
385.112	81.31
385.337	86.31
385.562	91.31
385.787	102.31
386.013	108.31
386.238	108.31
386.463	99.31
386.688	102.31
386.913	115.31
387.138	96.31
387.363	95.31
387.588	107.31
387.813	80.31
388.038	84.31
388.263	103.31
388.488	107.31
388.713	119.31
388.938	100.31
389.163	102.31
389.387	98.31
389.612	100.31
389.837	95.31
390.062	110.31
390.287	108.31
390.512	94.31
390.736	89.31
390.961	103.31
391.186	101.31
391.411	101.31
391.636	110.31
391.86	101.31
392.085	110.31
392.31	104.31
392.534	112.31
392.759	106.31
392.984	106.31
393.208	99.31
393.433	108.31
393.658	100.31
393.882	118.31
394.107	106.31
394.331	115.31
394.556	104.31
394.78	109.31
395.005	109.31
395.229	111.31
395.454	113.31
395.678	96.31
395.903	104.31
396.127	113.31
396.352	103.31
396.576	101.31
396.801	111.31
397.025	105.31
397.249	118.31
397.474	107.31
397.698	112.31
397.922	122.31
398.147	119.31
398.371	113.31
398.595	124.31
398.82	116.31
399.044	120.31
399.268	113.31
399.492	114.31
399.717	114.31
399.941	98.31
400.165	115.31
400.389	125.31
400.613	128.31
400.837	113.31
401.062	116.31
401.286	111.31
401.51	122.31
401.734	117.31
401.958	119.31
402.182	102.31
402.406	119.31
402.63	115.31
402.854	118.31
403.078	124.31
403.302	118.31
403.526	97.31
403.75	117.31
403.974	123.31
404.198	121.31
404.422	130.31
404.645	127.31
404.869	108.31
405.093	129.31
405.317	121.31
405.541	133.31
405.765	123.31
405.988	113.31
406.212	134.31
406.436	122.31
406.66	124.31
406.883	116.31
407.107	123.31
407.331	111.31
407.555	130.31
407.778	120.31
408.002	136.31
408.226	114.31
408.449	108.31
408.673	117.31
408.896	129.31
409.12	124.31
409.344	129.31
409.567	126.31
409.791	126.31
410.014	129.31
410.238	117.31
410.461	121.31
410.685	136.31
410.908	121.31
411.132	120.31
411.355	120.31
411.578	120.31
411.802	121.31
412.025	117.31
412.249	132.31
412.472	118.31
412.695	119.31
412.919	116.31
413.142	125.31
413.365	117.31
413.589	122.31
413.812	122.31
414.035	122.31
414.258	131.31
414.482	129.31
414.705	127.31
414.928	128.31
415.151	129.31
415.374	127.31
415.597	131.31
415.821	123.31
416.044	123.31
416.267	116.31
416.49	129.31
416.713	132.31
416.936	141.31
417.159	121.31
417.382	122.31
417.605	123.31
417.828	126.31
418.051	116.31
418.274	132.31
418.497	133.31
418.72	136.31
418.943	141.31
419.166	145.31
419.389	137.31
419.611	133.31
419.834	132.31
420.057	134.31
420.28	144.31
420.503	135.31
420.726	120.31
420.948	140.31
421.171	141.31
421.394	136.31
421.617	141.31
421.839	141.31
422.062	153.31
422.285	147.31
422.507	128.31
422.73	114.31
422.953	131.31
423.175	146.31
423.398	154.31
423.621	136.31
423.843	125.31
424.066	140.31
424.288	150.31
424.511	149.31
424.733	157.31
424.956	155.31
425.178	140.31
425.401	149.31
425.623	134.31
425.846	136.31
426.068	132.31
426.291	136.31
426.513	118.31
426.735	128.31
426.958	137.31
427.18	149.31
427.402	129.31
427.625	133.31
427.847	132.31
428.069	135.31
428.292	125.31
428.514	129.31
428.736	134.31
428.958	151.31
429.181	133.31
429.403	122.31
429.625	124.31
429.847	136.31
430.069	129.31
430.292	152.31
430.514	157.31
430.736	123.31
430.958	140.31
431.18	127.31
431.402	129.31
431.624	130.31
431.846	124.31
432.068	96.31
432.29	101.31
432.512	121.31
432.734	117.31
432.956	135.31
433.178	129.31
433.4	151.31
433.622	145.31
433.844	142.31
434.066	134.31
434.287	123.31
434.509	105.31
434.731	104.31
434.953	120.31
435.175	126.31
435.397	130.31
435.618	126.31
435.84	122.31
436.062	119.31
436.284	113.31
436.505	123.31
436.727	126.31
436.949	134.31
437.17	142.31
437.392	120.31
437.614	117.31
437.835	116.31
438.057	136.31
438.278	132.31
438.5	118.31
438.721	143.31
438.943	136.31
439.165	141.31
439.386	143.31
439.608	138.31
439.829	165.31
440.05	140.31
440.272	152.31
440.493	147.31
440.715	147.31
440.936	162.31
441.158	164.31
441.379	139.31
441.6	140.31
441.822	142.31
442.043	147.31
442.264	157.31
442.486	144.31
442.707	150.31
442.928	146.31
443.149	140.31
443.371	134.31
443.592	151.31
443.813	145.31
444.034	132.31
444.255	135.31
444.476	145.31
444.698	150.31
444.919	135.31
445.14	278.31
445.361	208.31
445.582	155.31
445.803	155.31
446.024	154.31
446.245	144.31
446.466	165.31
446.687	164.31
446.908	156.31
447.129	168.31
447.35	161.31
447.571	163.31
447.792	157.31
448.013	141.31
448.234	141.31
448.455	155.31
448.675	149.31
448.896	158.31
449.117	143.31
449.338	157.31
449.559	159.31
449.779	147.31
450	138.31
450.221	137.31
450.442	140.31
450.662	144.31
450.883	133.31
451.104	147.31
451.324	142.31
451.545	135.31
451.766	142.31
451.986	137.31
452.207	133.31
452.428	135.31
452.648	123.31
452.869	119.31
453.089	108.31
453.31	123.31
453.53	117.31
453.751	112.31
453.971	113.31
454.192	126.31
454.412	108.31
454.633	134.31
454.853	141.31
455.073	123.31
455.294	134.31
455.514	123.31
455.734	116.31
455.955	134.31
456.175	119.31
456.395	114.31
456.616	115.31
456.836	100.31
457.056	110.31
457.276	99.31
457.497	103.31
457.717	123.31
457.937	123.31
458.157	101.31
458.377	95.31
458.598	107.31
458.818	98.31
459.038	95.31
459.258	83.31
459.478	96.31
459.698	90.31
459.918	85.31
460.138	120.31
460.358	123.31
460.578	130.31
460.798	133.31
461.018	126.31
461.238	123.31
461.458	123.31
461.678	112.31
461.898	131.31
462.118	115.31
462.338	128.31
462.558	127.31
462.777	116.31
462.997	106.31
463.217	118.31
463.437	104.31
463.657	115.31
463.876	115.31
464.096	104.31
464.316	115.31
464.536	119.31
464.755	137.31
464.975	126.31
465.195	123.31
465.414	113.31
465.634	125.31
465.854	107.31
466.073	124.31
466.293	127.31
466.512	122.31
466.732	131.31
466.951	135.31
467.171	133.31
467.391	142.31
467.61	143.31
467.829	116.31
468.049	149.31
468.268	137.31
468.488	129.31
468.707	132.31
468.927	141.31
469.146	147.31
469.365	151.31
469.585	135.31
469.804	137.31
470.023	145.31
470.243	155.31
470.462	167.31
470.681	161.31
470.901	156.31
471.12	144.31
471.339	139.31
471.558	137.31
471.777	142.31
471.997	148.31
472.216	139.31
472.435	121.31
472.654	108.31
472.873	101.31
473.092	119.31
473.311	131.31
473.53	124.31
473.749	138.31
473.968	136.31
474.187	122.31
474.406	129.31
474.625	116.31
474.844	130.31
475.063	139.31
475.282	134.31
475.501	130.31
475.72	125.31
475.939	127.31
476.158	134.31
476.377	139.31
476.596	119.31
476.814	123.31
477.033	111.31
477.252	120.31
477.471	125.31
477.69	142.31
477.908	125.31
478.127	163.31
478.346	137.31
478.564	130.31
478.783	141.31
479.002	148.31
479.22	155.31
479.439	149.31
479.658	137.31
479.876	131.31
480.095	115.31
480.313	120.31
480.532	121.31
480.751	122.31
480.969	97.31
481.188	87.31
481.406	92.31
481.624	98.31
481.843	84.31
482.061	99.31
482.28	107.31
482.498	111.31
482.717	105.31
482.935	123.31
483.153	140.31
483.372	143.31
483.59	158.31
483.808	146.31
484.027	143.31
484.245	161.31
484.463	161.31
484.681	154.31
484.9	155.31
485.118	148.31
485.336	125.31
485.554	115.31
485.772	103.31
485.99	98.31
486.209	119.31
486.427	113.31
486.645	122.31
486.863	139.31
487.081	152.31
487.299	143.31
487.517	144.31
487.735	171.31
487.953	215.31
488.171	195.31
488.389	191.31
488.607	181.31
488.825	158.31
489.043	137.31
489.261	128.31
489.479	148.31
489.696	141.31
489.914	154.31
490.132	163.31
490.35	153.31
490.568	182.31
490.786	159.31
491.003	187.31
491.221	185.31
491.439	183.31
491.657	186.31
491.874	199.31
492.092	237.31
492.31	261.31
492.527	240.31
492.745	224.31
492.963	208.31
493.18	197.31
493.398	190.31
493.615	182.31
493.833	163.31
494.05	185.31
494.268	177.31
494.485	193.31
494.703	186.31
494.92	202.31
495.138	184.31
495.355	175.31
495.573	185.31
495.79	168.31
496.008	179.31
496.225	171.31
496.442	181.31
496.66	186.31
496.877	175.31
497.094	148.31
497.312	157.31
497.529	163.31
497.746	152.31
497.963	159.31
498.181	148.31
498.398	154.31
498.615	123.31
498.832	128.31
499.049	131.31
499.267	133.31
499.484	138.31
499.701	128.31
499.918	144.31
500.135	142.31
500.352	139.31
500.569	146.31
500.786	147.31
501.003	153.31
501.22	145.31
501.437	149.31
501.654	156.31
501.871	158.31
502.088	135.31
502.305	146.31
502.522	133.31
502.739	134.31
502.956	135.31
503.172	130.31
503.389	127.31
503.606	125.31
503.823	140.31
504.04	120.31
504.256	121.31
504.473	110.31
504.69	100.31
504.907	132.31
505.123	116.31
505.34	127.31
505.557	133.31
505.773	134.31
505.99	143.31
506.207	133.31
506.423	124.31
506.64	137.31
506.856	121.31
507.073	113.31
507.289	141.31
507.506	129.31
507.722	124.31
507.939	129.31
508.155	127.31
508.372	117.31
508.588	121.31
508.805	123.31
509.021	109.31
509.238	110.31
509.454	108.31
509.67	109.31
509.887	104.31
510.103	92.31
510.319	112.31
510.536	102.31
510.752	92.31
510.968	85.31
511.184	84.31
