Data from Location6.07152019.Energy5.Lamp.07192019.3%Agarose_HRD10591_16-13-10-395.txt Node
Date: Fri Jul 19 16:13:10 EDT 2019
User: cochatt
Spectrometer: HR+D1059
Trigger mode: 1
Integration Time (sec): 1.000000E-1
Scans to average: 1
Electric dark correction enabled: true
Nonlinearity correction enabled: false
Boxcar width: 0
XAxis mode: Wavelengths
Number of Pixels in Spectrum: 2048
>>>>>Begin Spectral Data<<<<<
223.165	-10.06
223.4	-10.06
223.635	-10.06
223.869	-16.06
224.104	-15.06
224.338	-30.06
224.573	-18.06
224.808	-14.06
225.042	-3.06
225.277	-13.06
225.511	5.94
225.746	5.94
225.98	11.94
226.215	5.94
226.449	26.94
226.683	18.94
226.918	20.94
227.152	22.94
227.387	22.94
227.621	33.94
227.856	43.94
228.09	34.94
228.324	30.94
228.559	54.94
228.793	61.94
229.027	67.94
229.262	67.94
229.496	68.94
229.73	75.94
229.964	81.94
230.199	66.94
230.433	73.94
230.667	61.94
230.901	79.94
231.136	77.94
231.37	89.94
231.604	90.94
231.838	80.94
232.072	79.94
232.306	78.94
232.541	82.94
232.775	92.94
233.009	99.94
233.243	75.94
233.477	79.94
233.711	86.94
233.945	75.94
234.179	81.94
234.413	82.94
234.647	79.94
234.881	74.94
235.115	74.94
235.349	79.94
235.583	86.94
235.817	72.94
236.051	66.94
236.285	81.94
236.519	64.94
236.753	65.94
236.987	72.94
237.221	78.94
237.455	75.94
237.689	69.94
237.922	78.94
238.156	70.94
238.39	73.94
238.624	83.94
238.858	76.94
239.091	80.94
239.325	84.94
239.559	79.94
239.793	70.94
240.027	58.94
240.26	83.94
240.494	73.94
240.728	73.94
240.961	81.94
241.195	80.94
241.429	92.94
241.662	90.94
241.896	70.94
242.13	75.94
242.363	65.94
242.597	76.94
242.83	71.94
243.064	71.94
243.298	77.94
243.531	71.94
243.765	74.94
243.998	72.94
244.232	82.94
244.465	77.94
244.699	85.94
244.932	71.94
245.166	81.94
245.399	74.94
245.633	82.94
245.866	79.94
246.099	76.94
246.333	74.94
246.566	82.94
246.8	74.94
247.033	79.94
247.266	81.94
247.5	79.94
247.733	80.94
247.966	72.94
248.2	82.94
248.433	78.94
248.666	90.94
248.899	86.94
249.133	84.94
249.366	85.94
249.599	63.94
249.832	86.94
250.066	83.94
250.299	82.94
250.532	81.94
250.765	80.94
250.998	66.94
251.231	79.94
251.465	75.94
251.698	70.94
251.931	68.94
252.164	76.94
252.397	77.94
252.63	66.94
252.863	66.94
253.096	83.94
253.329	87.94
253.562	85.94
253.795	80.94
254.028	83.94
254.261	82.94
254.494	74.94
254.727	79.94
254.96	76.94
255.193	77.94
255.426	80.94
255.659	85.94
255.892	81.94
256.124	71.94
256.357	85.94
256.59	93.94
256.823	78.94
257.056	79.94
257.289	81.94
257.521	79.94
257.754	70.94
257.987	76.94
258.22	82.94
258.452	75.94
258.685	79.94
258.918	85.94
259.151	66.94
259.383	77.94
259.616	83.94
259.849	82.94
260.081	94.94
260.314	81.94
260.547	82.94
260.779	83.94
261.012	80.94
261.244	79.94
261.477	85.94
261.71	76.94
261.942	71.94
262.175	92.94
262.407	90.94
262.64	91.94
262.872	78.94
263.105	70.94
263.337	82.94
263.57	88.94
263.802	78.94
264.035	82.94
264.267	79.94
264.499	81.94
264.732	82.94
264.964	85.94
265.197	81.94
265.429	67.94
265.661	77.94
265.894	79.94
266.126	87.94
266.358	86.94
266.591	88.94
266.823	89.94
267.055	70.94
267.287	74.94
267.52	94.94
267.752	95.94
267.984	88.94
268.216	69.94
268.448	72.94
268.681	74.94
268.913	82.94
269.145	83.94
269.377	78.94
269.609	88.94
269.841	83.94
270.073	86.94
270.306	81.94
270.538	72.94
270.77	83.94
271.002	72.94
271.234	88.94
271.466	103.94
271.698	83.94
271.93	72.94
272.162	92.94
272.394	72.94
272.626	80.94
272.858	90.94
273.09	85.94
273.322	82.94
273.553	67.94
273.785	85.94
274.017	75.94
274.249	78.94
274.481	80.94
274.713	88.94
274.945	78.94
275.176	63.94
275.408	69.94
275.64	84.94
275.872	74.94
276.104	85.94
276.335	91.94
276.567	78.94
276.799	88.94
277.031	85.94
277.262	90.94
277.494	92.94
277.726	73.94
277.957	73.94
278.189	85.94
278.421	83.94
278.652	92.94
278.884	79.94
279.115	75.94
279.347	94.94
279.579	92.94
279.81	99.94
280.042	75.94
280.273	86.94
280.505	98.94
280.736	87.94
280.968	96.94
281.199	84.94
281.431	81.94
281.662	93.94
281.894	85.94
282.125	99.94
282.356	88.94
282.588	99.94
282.819	87.94
283.051	94.94
283.282	82.94
283.513	79.94
283.745	74.94
283.976	75.94
284.207	94.94
284.439	76.94
284.67	94.94
284.901	91.94
285.132	102.94
285.364	86.94
285.595	87.94
285.826	78.94
286.057	89.94
286.288	91.94
286.52	85.94
286.751	76.94
286.982	100.94
287.213	80.94
287.444	89.94
287.675	88.94
287.906	85.94
288.138	66.94
288.369	92.94
288.6	92.94
288.831	81.94
289.062	96.94
289.293	85.94
289.524	81.94
289.755	68.94
289.986	94.94
290.217	87.94
290.448	95.94
290.679	69.94
290.91	74.94
291.141	72.94
291.371	78.94
291.602	81.94
291.833	83.94
292.064	94.94
292.295	102.94
292.526	88.94
292.757	89.94
292.987	83.94
293.218	85.94
293.449	80.94
293.68	80.94
293.91	80.94
294.141	88.94
294.372	97.94
294.603	79.94
294.833	81.94
295.064	71.94
295.295	93.94
295.525	87.94
295.756	99.94
295.987	88.94
296.217	82.94
296.448	98.94
296.679	102.94
296.909	81.94
297.14	92.94
297.37	83.94
297.601	89.94
297.831	83.94
298.062	82.94
298.292	89.94
298.523	81.94
298.753	78.94
298.984	98.94
299.214	78.94
299.445	88.94
299.675	77.94
299.905	76.94
300.136	83.94
300.366	63.94
300.597	86.94
300.827	89.94
301.057	83.94
301.288	74.94
301.518	81.94
301.748	99.94
301.979	72.94
302.209	81.94
302.439	85.94
302.669	80.94
302.9	79.94
303.13	87.94
303.36	83.94
303.59	86.94
303.82	81.94
304.051	74.94
304.281	101.94
304.511	93.94
304.741	90.94
304.971	89.94
305.201	85.94
305.431	71.94
305.661	75.94
305.891	88.94
306.121	87.94
306.352	71.94
306.582	88.94
306.812	76.94
307.042	83.94
307.272	79.94
307.502	83.94
307.731	83.94
307.961	74.94
308.191	83.94
308.421	84.94
308.651	85.94
308.881	91.94
309.111	81.94
309.341	87.94
309.571	65.94
309.8	72.94
310.03	96.94
310.26	86.94
310.49	89.94
310.72	82.94
310.949	81.94
311.179	81.94
311.409	78.94
311.639	93.94
311.868	99.94
312.098	85.94
312.328	80.94
312.557	90.94
312.787	98.94
313.017	87.94
313.246	81.94
313.476	80.94
313.706	80.94
313.935	86.94
314.165	98.94
314.394	85.94
314.624	82.94
314.853	86.94
315.083	90.94
315.312	70.94
315.542	85.94
315.771	82.94
316.001	87.94
316.23	89.94
316.46	93.94
316.689	82.94
316.919	82.94
317.148	85.94
317.377	88.94
317.607	86.94
317.836	79.94
318.065	78.94
318.295	82.94
318.524	79.94
318.753	88.94
318.983	79.94
319.212	81.94
319.441	80.94
319.67	76.94
319.9	84.94
320.129	89.94
320.358	91.94
320.587	83.94
320.816	86.94
321.046	80.94
321.275	91.94
321.504	72.94
321.733	79.94
321.962	69.94
322.191	78.94
322.42	89.94
322.649	91.94
322.878	82.94
323.108	83.94
323.337	84.94
323.566	89.94
323.795	86.94
324.024	85.94
324.253	85.94
324.482	78.94
324.71	78.94
324.939	87.94
325.168	87.94
325.397	79.94
325.626	88.94
325.855	86.94
326.084	87.94
326.313	80.94
326.542	85.94
326.77	85.94
326.999	77.94
327.228	85.94
327.457	74.94
327.686	74.94
327.914	84.94
328.143	90.94
328.372	88.94
328.6	79.94
328.829	68.94
329.058	76.94
329.287	90.94
329.515	81.94
329.744	75.94
329.972	77.94
330.201	80.94
330.43	86.94
330.658	74.94
330.887	82.94
331.115	86.94
331.344	88.94
331.572	87.94
331.801	85.94
332.03	86.94
332.258	79.94
332.486	83.94
332.715	90.94
332.943	84.94
333.172	75.94
333.4	85.94
333.629	86.94
333.857	97.94
334.085	84.94
334.314	79.94
334.542	78.94
334.771	78.94
334.999	86.94
335.227	74.94
335.455	78.94
335.684	82.94
335.912	79.94
336.14	87.94
336.369	77.94
336.597	80.94
336.825	90.94
337.053	78.94
337.281	73.94
337.51	89.94
337.738	85.94
337.966	91.94
338.194	93.94
338.422	81.94
338.65	85.94
338.878	93.94
339.106	86.94
339.334	81.94
339.562	78.94
339.79	104.94
340.018	83.94
340.246	93.94
340.474	73.94
340.702	86.94
340.93	70.94
341.158	78.94
341.386	82.94
341.614	86.94
341.842	86.94
342.07	87.94
342.298	89.94
342.526	79.94
342.754	79.94
342.981	97.94
343.209	95.94
343.437	96.94
343.665	78.94
343.893	101.94
344.12	103.94
344.348	93.94
344.576	87.94
344.804	70.94
345.031	77.94
345.259	82.94
345.487	82.94
345.714	99.94
345.942	70.94
346.17	79.94
346.397	96.94
346.625	75.94
346.853	74.94
347.08	80.94
347.308	81.94
347.535	73.94
347.763	82.94
347.99	87.94
348.218	104.94
348.445	89.94
348.673	84.94
348.9	89.94
349.128	78.94
349.355	85.94
349.583	79.94
349.81	79.94
350.037	82.94
350.265	80.94
350.492	88.94
350.72	89.94
350.947	83.94
351.174	81.94
351.402	81.94
351.629	86.94
351.856	77.94
352.083	91.94
352.311	89.94
352.538	78.94
352.765	87.94
352.992	80.94
353.22	91.94
353.447	78.94
353.674	76.94
353.901	88.94
354.128	84.94
354.355	88.94
354.583	97.94
354.81	82.94
355.037	68.94
355.264	83.94
355.491	82.94
355.718	83.94
355.945	80.94
356.172	78.94
356.399	79.94
356.626	79.94
356.853	70.94
357.08	82.94
357.307	87.94
357.534	81.94
357.761	78.94
357.988	64.94
358.215	85.94
358.441	81.94
358.668	86.94
358.895	86.94
359.122	85.94
359.349	94.94
359.576	89.94
359.802	64.94
360.029	80.94
360.256	91.94
360.483	84.94
360.709	67.94
360.936	87.94
361.163	81.94
361.39	83.94
361.616	80.94
361.843	73.94
362.07	84.94
362.296	78.94
362.523	79.94
362.749	75.94
362.976	73.94
363.203	82.94
363.429	84.94
363.656	83.94
363.882	98.94
364.109	78.94
364.335	82.94
364.562	87.94
364.788	96.94
365.015	83.94
365.241	97.94
365.468	83.94
365.694	76.94
365.92	77.94
366.147	92.94
366.373	83.94
366.599	79.94
366.826	89.94
367.052	67.94
367.278	82.94
367.505	81.94
367.731	92.94
367.957	89.94
368.184	82.94
368.41	76.94
368.636	81.94
368.862	93.94
369.089	94.94
369.315	89.94
369.541	90.94
369.767	88.94
369.993	81.94
370.219	90.94
370.445	89.94
370.672	89.94
370.898	81.94
371.124	90.94
371.35	92.94
371.576	92.94
371.802	95.94
372.028	89.94
372.254	85.94
372.48	91.94
372.706	97.94
372.932	95.94
373.158	86.94
373.384	88.94
373.61	95.94
373.835	87.94
374.061	89.94
374.287	92.94
374.513	101.94
374.739	98.94
374.965	90.94
375.191	102.94
375.416	99.94
375.642	97.94
375.868	105.94
376.094	90.94
376.319	86.94
376.545	80.94
376.771	98.94
376.997	98.94
377.222	90.94
377.448	96.94
377.674	98.94
377.899	101.94
378.125	83.94
378.35	105.94
378.576	97.94
378.802	90.94
379.027	92.94
379.253	95.94
379.478	87.94
379.704	98.94
379.929	103.94
380.155	82.94
380.38	85.94
380.606	80.94
380.831	80.94
381.057	103.94
381.282	95.94
381.507	85.94
381.733	95.94
381.958	85.94
382.184	105.94
382.409	101.94
382.634	97.94
382.86	99.94
383.085	97.94
383.31	97.94
383.535	105.94
383.761	98.94
383.986	90.94
384.211	101.94
384.436	100.94
384.662	88.94
384.887	80.94
385.112	86.94
385.337	72.94
385.562	99.94
385.787	102.94
386.013	104.94
386.238	101.94
386.463	102.94
386.688	93.94
386.913	83.94
387.138	97.94
387.363	94.94
387.588	93.94
387.813	93.94
388.038	99.94
388.263	99.94
388.488	109.94
388.713	117.94
388.938	99.94
389.163	104.94
389.387	89.94
389.612	104.94
389.837	103.94
390.062	101.94
390.287	94.94
390.512	100.94
390.736	99.94
390.961	104.94
391.186	113.94
391.411	103.94
391.636	102.94
391.86	87.94
392.085	106.94
392.31	105.94
392.534	105.94
392.759	98.94
392.984	104.94
393.208	101.94
393.433	112.94
393.658	119.94
393.882	98.94
394.107	101.94
394.331	111.94
394.556	110.94
394.78	100.94
395.005	109.94
395.229	103.94
395.454	95.94
395.678	111.94
395.903	106.94
396.127	102.94
396.352	104.94
396.576	98.94
396.801	101.94
397.025	109.94
397.249	111.94
397.474	112.94
397.698	111.94
397.922	101.94
398.147	102.94
398.371	113.94
398.595	120.94
398.82	116.94
399.044	125.94
399.268	113.94
399.492	119.94
399.717	100.94
399.941	96.94
400.165	129.94
400.389	101.94
400.613	89.94
400.837	109.94
401.062	105.94
401.286	99.94
401.51	106.94
401.734	124.94
401.958	94.94
402.182	103.94
402.406	116.94
402.63	111.94
402.854	123.94
403.078	122.94
403.302	110.94
403.526	110.94
403.75	117.94
403.974	110.94
404.198	116.94
404.422	114.94
404.645	102.94
404.869	103.94
405.093	118.94
405.317	118.94
405.541	121.94
405.765	118.94
405.988	120.94
406.212	116.94
406.436	120.94
406.66	111.94
406.883	113.94
407.107	123.94
407.331	130.94
407.555	121.94
407.778	115.94
408.002	118.94
408.226	99.94
408.449	143.94
408.673	120.94
408.896	120.94
409.12	127.94
409.344	125.94
409.567	122.94
409.791	122.94
410.014	116.94
410.238	123.94
410.461	117.94
410.685	123.94
410.908	130.94
411.132	120.94
411.355	122.94
411.578	122.94
411.802	122.94
412.025	129.94
412.249	123.94
412.472	125.94
412.695	139.94
412.919	117.94
413.142	111.94
413.365	118.94
413.589	133.94
413.812	129.94
414.035	121.94
414.258	116.94
414.482	119.94
414.705	112.94
414.928	121.94
415.151	125.94
415.374	115.94
415.597	135.94
415.821	134.94
416.044	117.94
416.267	120.94
416.49	136.94
416.713	125.94
416.936	138.94
417.159	118.94
417.382	133.94
417.605	120.94
417.828	128.94
418.051	137.94
418.274	136.94
418.497	134.94
418.72	127.94
418.943	126.94
419.166	128.94
419.389	140.94
419.611	140.94
419.834	114.94
420.057	118.94
420.28	133.94
420.503	130.94
420.726	150.94
420.948	133.94
421.171	123.94
421.394	133.94
421.617	139.94
421.839	141.94
422.062	143.94
422.285	130.94
422.507	121.94
422.73	130.94
422.953	118.94
423.175	133.94
423.398	130.94
423.621	130.94
423.843	139.94
424.066	141.94
424.288	147.94
424.511	139.94
424.733	154.94
424.956	137.94
425.178	147.94
425.401	139.94
425.623	137.94
425.846	141.94
426.068	139.94
426.291	131.94
426.513	126.94
426.735	132.94
426.958	137.94
427.18	139.94
427.402	138.94
427.625	125.94
427.847	130.94
428.069	127.94
428.292	133.94
428.514	133.94
428.736	127.94
428.958	129.94
429.181	128.94
429.403	134.94
429.625	124.94
429.847	125.94
430.069	118.94
430.292	131.94
430.514	127.94
430.736	150.94
430.958	140.94
431.18	129.94
431.402	129.94
431.624	124.94
431.846	104.94
432.068	76.94
432.29	93.94
432.512	114.94
432.734	123.94
432.956	128.94
433.178	133.94
433.4	140.94
433.622	151.94
433.844	134.94
434.066	132.94
434.287	114.94
434.509	98.94
434.731	94.94
434.953	126.94
435.175	125.94
435.397	128.94
435.618	125.94
435.84	104.94
436.062	113.94
436.284	127.94
436.505	137.94
436.727	123.94
436.949	125.94
437.17	120.94
437.392	141.94
437.614	111.94
437.835	110.94
438.057	120.94
438.278	114.94
438.5	138.94
438.721	136.94
438.943	144.94
439.165	131.94
439.386	140.94
439.608	136.94
439.829	142.94
440.05	159.94
440.272	145.94
440.493	150.94
440.715	151.94
440.936	125.94
441.158	145.94
441.379	136.94
441.6	149.94
441.822	158.94
442.043	138.94
442.264	146.94
442.486	144.94
442.707	127.94
442.928	141.94
443.149	140.94
443.371	151.94
443.592	140.94
443.813	133.94
444.034	136.94
444.255	142.94
444.476	137.94
444.698	151.94
444.919	132.94
445.14	273.94
445.361	191.94
445.582	153.94
445.803	175.94
446.024	139.94
446.245	166.94
446.466	154.94
446.687	178.94
446.908	168.94
447.129	164.94
447.35	154.94
447.571	154.94
447.792	151.94
448.013	154.94
448.234	147.94
448.455	151.94
448.675	134.94
448.896	125.94
449.117	129.94
449.338	145.94
449.559	130.94
449.779	145.94
450	148.94
450.221	137.94
450.442	156.94
450.662	132.94
450.883	145.94
451.104	136.94
451.324	139.94
451.545	128.94
451.766	130.94
451.986	137.94
452.207	121.94
452.428	126.94
452.648	140.94
452.869	130.94
453.089	105.94
453.31	116.94
453.53	110.94
453.751	105.94
453.971	116.94
454.192	104.94
454.412	113.94
454.633	114.94
454.853	125.94
455.073	123.94
455.294	122.94
455.514	122.94
455.734	115.94
455.955	115.94
456.175	130.94
456.395	109.94
456.616	106.94
456.836	93.94
457.056	110.94
457.276	99.94
457.497	97.94
457.717	111.94
457.937	111.94
458.157	109.94
458.377	102.94
458.598	109.94
458.818	91.94
459.038	90.94
459.258	81.94
459.478	88.94
459.698	91.94
459.918	99.94
460.138	103.94
460.358	121.94
460.578	119.94
460.798	111.94
461.018	109.94
461.238	116.94
461.458	115.94
461.678	114.94
461.898	115.94
462.118	117.94
462.338	121.94
462.558	127.94
462.777	110.94
462.997	107.94
463.217	117.94
463.437	105.94
463.657	121.94
463.876	128.94
464.096	113.94
464.316	105.94
464.536	111.94
464.755	114.94
464.975	105.94
465.195	114.94
465.414	113.94
465.634	102.94
465.854	121.94
466.073	130.94
466.293	124.94
466.512	125.94
466.732	147.94
466.951	127.94
467.171	135.94
467.391	129.94
467.61	136.94
467.829	138.94
468.049	132.94
468.268	149.94
468.488	143.94
468.707	134.94
468.927	133.94
469.146	136.94
469.365	123.94
469.585	139.94
469.804	134.94
470.023	160.94
470.243	149.94
470.462	155.94
470.681	157.94
470.901	144.94
471.12	147.94
471.339	135.94
471.558	140.94
471.777	136.94
471.997	158.94
472.216	127.94
472.435	128.94
472.654	104.94
472.873	109.94
473.092	115.94
473.311	140.94
473.53	123.94
473.749	134.94
473.968	133.94
474.187	126.94
474.406	121.94
474.625	136.94
474.844	138.94
475.063	119.94
475.282	127.94
475.501	127.94
475.72	127.94
475.939	124.94
476.158	131.94
476.377	147.94
476.596	115.94
476.814	125.94
477.033	109.94
477.252	116.94
477.471	118.94
477.69	127.94
477.908	151.94
478.127	152.94
478.346	150.94
478.564	154.94
478.783	145.94
479.002	136.94
479.22	140.94
479.439	136.94
479.658	125.94
479.876	119.94
480.095	130.94
480.313	119.94
480.532	133.94
480.751	119.94
480.969	92.94
481.188	83.94
481.406	79.94
481.624	86.94
481.843	80.94
482.061	112.94
482.28	115.94
482.498	120.94
482.717	106.94
482.935	129.94
483.153	156.94
483.372	155.94
483.59	166.94
483.808	132.94
484.027	152.94
484.245	146.94
484.463	147.94
484.681	197.94
484.9	150.94
485.118	149.94
485.336	119.94
485.554	116.94
485.772	121.94
485.99	105.94
486.209	118.94
486.427	117.94
486.645	136.94
486.863	146.94
487.081	149.94
487.299	137.94
487.517	157.94
487.735	182.94
487.953	205.94
488.171	190.94
488.389	171.94
488.607	173.94
488.825	173.94
489.043	124.94
489.261	143.94
489.479	149.94
489.696	138.94
489.914	161.94
490.132	147.94
490.35	152.94
490.568	185.94
490.786	181.94
491.003	190.94
491.221	179.94
491.439	193.94
491.657	186.94
491.874	220.94
492.092	256.94
492.31	265.94
492.527	251.94
492.745	221.94
492.963	210.94
493.18	187.94
493.398	193.94
493.615	189.94
493.833	186.94
494.05	177.94
494.268	184.94
494.485	169.94
494.703	185.94
494.92	178.94
495.138	173.94
495.355	171.94
495.573	165.94
495.79	179.94
496.008	168.94
496.225	173.94
496.442	162.94
496.66	174.94
496.877	159.94
497.094	169.94
497.312	175.94
497.529	158.94
497.746	149.94
497.963	137.94
498.181	130.94
498.398	114.94
498.615	133.94
498.832	115.94
499.049	109.94
499.267	118.94
499.484	119.94
499.701	130.94
499.918	127.94
500.135	148.94
500.352	139.94
500.569	151.94
500.786	151.94
501.003	139.94
501.22	125.94
501.437	147.94
501.654	135.94
501.871	129.94
502.088	145.94
502.305	150.94
502.522	129.94
502.739	137.94
502.956	121.94
503.172	121.94
503.389	137.94
503.606	126.94
503.823	123.94
504.04	129.94
504.256	128.94
504.473	117.94
504.69	121.94
504.907	137.94
505.123	129.94
505.34	123.94
505.557	112.94
505.773	136.94
505.99	136.94
506.207	113.94
506.423	119.94
506.64	109.94
506.856	120.94
507.073	122.94
507.289	121.94
507.506	121.94
507.722	126.94
507.939	119.94
508.155	103.94
508.372	126.94
508.588	121.94
508.805	110.94
509.021	113.94
509.238	111.94
509.454	102.94
509.67	93.94
509.887	94.94
510.103	96.94
510.319	89.94
510.536	93.94
510.752	93.94
510.968	93.94
511.184	82.94
511.401	81.94
511.617	95.94
