Data from Location6.07152019.Energy5.Lamp.07192019.3%Agarose_HRD10591_16-14-01-396.txt Node
Date: Fri Jul 19 16:14:01 EDT 2019
User: cochatt
Spectrometer: HR+D1059
Trigger mode: 1
Integration Time (sec): 1.000000E-1
Scans to average: 1
Electric dark correction enabled: true
Nonlinearity correction enabled: false
Boxcar width: 0
XAxis mode: Wavelengths
Number of Pixels in Spectrum: 2048
>>>>>Begin Spectral Data<<<<<
223.165	-10.81
223.4	-10.81
223.635	-10.81
223.869	-18.81
224.104	-16.81
224.338	-19.81
224.573	-14.81
224.808	-7.81
225.042	-0.81
225.277	-1.81
225.511	-2.81
225.746	13.19
225.98	1.19
226.215	0.19
226.449	8.19
226.683	25.19
226.918	26.19
227.152	20.19
227.387	36.19
227.621	41.19
227.856	33.19
228.09	40.19
228.324	36.19
228.559	55.19
228.793	59.19
229.027	53.19
229.262	65.19
229.496	61.19
229.73	68.19
229.964	65.19
230.199	89.19
230.433	60.19
230.667	71.19
230.901	59.19
231.136	83.19
231.37	91.19
231.604	78.19
231.838	72.19
232.072	85.19
232.306	83.19
232.541	86.19
232.775	71.19
233.009	77.19
233.243	81.19
233.477	83.19
233.711	89.19
233.945	90.19
234.179	71.19
234.413	60.19
234.647	77.19
234.881	77.19
235.115	74.19
235.349	83.19
235.583	67.19
235.817	78.19
236.051	90.19
236.285	83.19
236.519	76.19
236.753	82.19
236.987	74.19
237.221	82.19
237.455	69.19
237.689	81.19
237.922	71.19
238.156	67.19
238.39	90.19
238.624	57.19
238.858	79.19
239.091	73.19
239.325	81.19
239.559	76.19
239.793	76.19
240.027	83.19
240.26	85.19
240.494	78.19
240.728	80.19
240.961	70.19
241.195	85.19
241.429	84.19
241.662	84.19
241.896	74.19
242.13	71.19
242.363	78.19
242.597	84.19
242.83	78.19
243.064	84.19
243.298	82.19
243.531	83.19
243.765	80.19
243.998	61.19
244.232	77.19
244.465	80.19
244.699	67.19
244.932	80.19
245.166	77.19
245.399	82.19
245.633	79.19
245.866	69.19
246.099	92.19
246.333	77.19
246.566	91.19
246.8	75.19
247.033	76.19
247.266	61.19
247.5	73.19
247.733	69.19
247.966	90.19
248.2	68.19
248.433	82.19
248.666	86.19
248.899	85.19
249.133	73.19
249.366	69.19
249.599	89.19
249.832	69.19
250.066	71.19
250.299	64.19
250.532	66.19
250.765	70.19
250.998	68.19
251.231	74.19
251.465	86.19
251.698	92.19
251.931	86.19
252.164	74.19
252.397	91.19
252.63	87.19
252.863	97.19
253.096	81.19
253.329	75.19
253.562	87.19
253.795	79.19
254.028	87.19
254.261	80.19
254.494	88.19
254.727	88.19
254.96	74.19
255.193	88.19
255.426	77.19
255.659	78.19
255.892	75.19
256.124	76.19
256.357	83.19
256.59	75.19
256.823	77.19
257.056	80.19
257.289	79.19
257.521	91.19
257.754	87.19
257.987	81.19
258.22	78.19
258.452	86.19
258.685	94.19
258.918	69.19
259.151	90.19
259.383	71.19
259.616	88.19
259.849	70.19
260.081	82.19
260.314	91.19
260.547	72.19
260.779	74.19
261.012	81.19
261.244	86.19
261.477	91.19
261.71	85.19
261.942	83.19
262.175	75.19
262.407	68.19
262.64	78.19
262.872	79.19
263.105	82.19
263.337	88.19
263.57	82.19
263.802	80.19
264.035	87.19
264.267	86.19
264.499	84.19
264.732	79.19
264.964	77.19
265.197	88.19
265.429	78.19
265.661	85.19
265.894	80.19
266.126	93.19
266.358	77.19
266.591	82.19
266.823	88.19
267.055	80.19
267.287	81.19
267.52	83.19
267.752	68.19
267.984	81.19
268.216	84.19
268.448	72.19
268.681	71.19
268.913	81.19
269.145	80.19
269.377	61.19
269.609	73.19
269.841	71.19
270.073	91.19
270.306	79.19
270.538	77.19
270.77	71.19
271.002	76.19
271.234	84.19
271.466	84.19
271.698	87.19
271.93	86.19
272.162	77.19
272.394	80.19
272.626	83.19
272.858	91.19
273.09	81.19
273.322	98.19
273.553	73.19
273.785	78.19
274.017	78.19
274.249	73.19
274.481	70.19
274.713	83.19
274.945	82.19
275.176	90.19
275.408	87.19
275.64	78.19
275.872	74.19
276.104	78.19
276.335	69.19
276.567	107.19
276.799	68.19
277.031	82.19
277.262	87.19
277.494	102.19
277.726	74.19
277.957	80.19
278.189	85.19
278.421	81.19
278.652	76.19
278.884	87.19
279.115	83.19
279.347	73.19
279.579	90.19
279.81	81.19
280.042	77.19
280.273	101.19
280.505	74.19
280.736	93.19
280.968	89.19
281.199	97.19
281.431	83.19
281.662	84.19
281.894	82.19
282.125	89.19
282.356	76.19
282.588	89.19
282.819	77.19
283.051	90.19
283.282	88.19
283.513	89.19
283.745	83.19
283.976	94.19
284.207	78.19
284.439	83.19
284.67	93.19
284.901	87.19
285.132	85.19
285.364	80.19
285.595	74.19
285.826	77.19
286.057	81.19
286.288	100.19
286.52	79.19
286.751	72.19
286.982	87.19
287.213	87.19
287.444	87.19
287.675	77.19
287.906	94.19
288.138	81.19
288.369	93.19
288.6	88.19
288.831	84.19
289.062	88.19
289.293	87.19
289.524	89.19
289.755	89.19
289.986	77.19
290.217	91.19
290.448	84.19
290.679	85.19
290.91	85.19
291.141	87.19
291.371	76.19
291.602	89.19
291.833	77.19
292.064	74.19
292.295	85.19
292.526	84.19
292.757	78.19
292.987	80.19
293.218	88.19
293.449	76.19
293.68	89.19
293.91	78.19
294.141	82.19
294.372	79.19
294.603	83.19
294.833	80.19
295.064	77.19
295.295	81.19
295.525	83.19
295.756	81.19
295.987	90.19
296.217	90.19
296.448	90.19
296.679	81.19
296.909	75.19
297.14	72.19
297.37	79.19
297.601	89.19
297.831	91.19
298.062	80.19
298.292	70.19
298.523	84.19
298.753	83.19
298.984	86.19
299.214	83.19
299.445	77.19
299.675	96.19
299.905	77.19
300.136	84.19
300.366	87.19
300.597	85.19
300.827	74.19
301.057	83.19
301.288	69.19
301.518	76.19
301.748	80.19
301.979	89.19
302.209	85.19
302.439	62.19
302.669	85.19
302.9	85.19
303.13	84.19
303.36	84.19
303.59	82.19
303.82	80.19
304.051	89.19
304.281	90.19
304.511	91.19
304.741	94.19
304.971	80.19
305.201	88.19
305.431	83.19
305.661	79.19
305.891	84.19
306.121	73.19
306.352	83.19
306.582	96.19
306.812	84.19
307.042	83.19
307.272	81.19
307.502	83.19
307.731	91.19
307.961	84.19
308.191	88.19
308.421	92.19
308.651	84.19
308.881	79.19
309.111	72.19
309.341	64.19
309.571	81.19
309.8	95.19
310.03	93.19
310.26	87.19
310.49	80.19
310.72	91.19
310.949	87.19
311.179	93.19
311.409	82.19
311.639	82.19
311.868	88.19
312.098	80.19
312.328	97.19
312.557	90.19
312.787	83.19
313.017	91.19
313.246	77.19
313.476	108.19
313.706	79.19
313.935	79.19
314.165	79.19
314.394	90.19
314.624	89.19
314.853	85.19
315.083	71.19
315.312	79.19
315.542	71.19
315.771	70.19
316.001	91.19
316.23	84.19
316.46	81.19
316.689	86.19
316.919	99.19
317.148	73.19
317.377	78.19
317.607	73.19
317.836	89.19
318.065	80.19
318.295	74.19
318.524	69.19
318.753	92.19
318.983	81.19
319.212	88.19
319.441	87.19
319.67	90.19
319.9	83.19
320.129	82.19
320.358	85.19
320.587	80.19
320.816	88.19
321.046	92.19
321.275	106.19
321.504	88.19
321.733	80.19
321.962	78.19
322.191	96.19
322.42	79.19
322.649	94.19
322.878	80.19
323.108	98.19
323.337	85.19
323.566	88.19
323.795	84.19
324.024	106.19
324.253	82.19
324.482	82.19
324.71	73.19
324.939	85.19
325.168	68.19
325.397	75.19
325.626	87.19
325.855	87.19
326.084	93.19
326.313	83.19
326.542	81.19
326.77	75.19
326.999	75.19
327.228	94.19
327.457	77.19
327.686	87.19
327.914	83.19
328.143	105.19
328.372	90.19
328.6	88.19
328.829	88.19
329.058	77.19
329.287	89.19
329.515	78.19
329.744	86.19
329.972	86.19
330.201	92.19
330.43	93.19
330.658	74.19
330.887	77.19
331.115	89.19
331.344	87.19
331.572	93.19
331.801	101.19
332.03	76.19
332.258	90.19
332.486	87.19
332.715	92.19
332.943	65.19
333.172	79.19
333.4	78.19
333.629	73.19
333.857	80.19
334.085	72.19
334.314	91.19
334.542	78.19
334.771	73.19
334.999	77.19
335.227	76.19
335.455	75.19
335.684	90.19
335.912	85.19
336.14	87.19
336.369	72.19
336.597	71.19
336.825	80.19
337.053	68.19
337.281	99.19
337.51	88.19
337.738	89.19
337.966	88.19
338.194	78.19
338.422	73.19
338.65	82.19
338.878	81.19
339.106	90.19
339.334	99.19
339.562	90.19
339.79	83.19
340.018	87.19
340.246	89.19
340.474	76.19
340.702	78.19
340.93	82.19
341.158	92.19
341.386	83.19
341.614	97.19
341.842	82.19
342.07	79.19
342.298	84.19
342.526	83.19
342.754	84.19
342.981	87.19
343.209	88.19
343.437	83.19
343.665	73.19
343.893	90.19
344.12	86.19
344.348	81.19
344.576	99.19
344.804	89.19
345.031	101.19
345.259	93.19
345.487	82.19
345.714	98.19
345.942	84.19
346.17	88.19
346.397	83.19
346.625	92.19
346.853	76.19
347.08	76.19
347.308	91.19
347.535	87.19
347.763	64.19
347.99	91.19
348.218	72.19
348.445	72.19
348.673	84.19
348.9	84.19
349.128	82.19
349.355	85.19
349.583	88.19
349.81	86.19
350.037	82.19
350.265	59.19
350.492	84.19
350.72	68.19
350.947	80.19
351.174	79.19
351.402	75.19
351.629	78.19
351.856	90.19
352.083	69.19
352.311	83.19
352.538	77.19
352.765	90.19
352.992	85.19
353.22	93.19
353.447	79.19
353.674	76.19
353.901	85.19
354.128	86.19
354.355	95.19
354.583	67.19
354.81	76.19
355.037	84.19
355.264	94.19
355.491	74.19
355.718	93.19
355.945	91.19
356.172	72.19
356.399	79.19
356.626	78.19
356.853	90.19
357.08	90.19
357.307	76.19
357.534	65.19
357.761	81.19
357.988	88.19
358.215	78.19
358.441	87.19
358.668	83.19
358.895	76.19
359.122	82.19
359.349	85.19
359.576	79.19
359.802	82.19
360.029	84.19
360.256	98.19
360.483	80.19
360.709	81.19
360.936	85.19
361.163	85.19
361.39	95.19
361.616	86.19
361.843	81.19
362.07	79.19
362.296	85.19
362.523	77.19
362.749	82.19
362.976	85.19
363.203	98.19
363.429	74.19
363.656	85.19
363.882	81.19
364.109	90.19
364.335	74.19
364.562	69.19
364.788	80.19
365.015	85.19
365.241	76.19
365.468	77.19
365.694	78.19
365.92	95.19
366.147	78.19
366.373	87.19
366.599	96.19
366.826	88.19
367.052	100.19
367.278	91.19
367.505	83.19
367.731	98.19
367.957	92.19
368.184	86.19
368.41	77.19
368.636	95.19
368.862	82.19
369.089	79.19
369.315	98.19
369.541	90.19
369.767	77.19
369.993	100.19
370.219	88.19
370.445	91.19
370.672	68.19
370.898	74.19
371.124	86.19
371.35	98.19
371.576	93.19
371.802	92.19
372.028	76.19
372.254	83.19
372.48	92.19
372.706	79.19
372.932	85.19
373.158	92.19
373.384	89.19
373.61	98.19
373.835	88.19
374.061	98.19
374.287	88.19
374.513	101.19
374.739	99.19
374.965	97.19
375.191	97.19
375.416	91.19
375.642	85.19
375.868	109.19
376.094	77.19
376.319	84.19
376.545	100.19
376.771	100.19
376.997	89.19
377.222	103.19
377.448	94.19
377.674	93.19
377.899	87.19
378.125	99.19
378.35	87.19
378.576	98.19
378.802	85.19
379.027	92.19
379.253	100.19
379.478	98.19
379.704	101.19
379.929	95.19
380.155	97.19
380.38	87.19
380.606	103.19
380.831	93.19
381.057	99.19
381.282	98.19
381.507	93.19
381.733	108.19
381.958	89.19
382.184	98.19
382.409	95.19
382.634	106.19
382.86	77.19
383.085	104.19
383.31	93.19
383.535	93.19
383.761	106.19
383.986	101.19
384.211	99.19
384.436	97.19
384.662	84.19
384.887	102.19
385.112	84.19
385.337	107.19
385.562	97.19
385.787	108.19
386.013	102.19
386.238	102.19
386.463	103.19
386.688	99.19
386.913	102.19
387.138	90.19
387.363	93.19
387.588	108.19
387.813	105.19
388.038	84.19
388.263	108.19
388.488	108.19
388.713	104.19
388.938	86.19
389.163	95.19
389.387	95.19
389.612	91.19
389.837	116.19
390.062	104.19
390.287	116.19
390.512	104.19
390.736	101.19
390.961	93.19
391.186	98.19
391.411	104.19
391.636	109.19
391.86	115.19
392.085	127.19
392.31	108.19
392.534	103.19
392.759	119.19
392.984	102.19
393.208	103.19
393.433	92.19
393.658	100.19
393.882	104.19
394.107	114.19
394.331	108.19
394.556	112.19
394.78	119.19
395.005	104.19
395.229	105.19
395.454	103.19
395.678	98.19
395.903	104.19
396.127	106.19
396.352	120.19
396.576	112.19
396.801	120.19
397.025	103.19
397.249	113.19
397.474	114.19
397.698	120.19
397.922	95.19
398.147	101.19
398.371	105.19
398.595	104.19
398.82	101.19
399.044	120.19
399.268	130.19
399.492	130.19
399.717	114.19
399.941	115.19
400.165	109.19
400.389	112.19
400.613	110.19
400.837	116.19
401.062	110.19
401.286	119.19
401.51	106.19
401.734	125.19
401.958	105.19
402.182	117.19
402.406	120.19
402.63	97.19
402.854	115.19
403.078	127.19
403.302	105.19
403.526	123.19
403.75	114.19
403.974	124.19
404.198	142.19
404.422	120.19
404.645	122.19
404.869	126.19
405.093	119.19
405.317	120.19
405.541	109.19
405.765	116.19
405.988	123.19
406.212	115.19
406.436	118.19
406.66	125.19
406.883	127.19
407.107	112.19
407.331	119.19
407.555	124.19
407.778	123.19
408.002	116.19
408.226	123.19
408.449	115.19
408.673	121.19
408.896	128.19
409.12	108.19
409.344	120.19
409.567	121.19
409.791	128.19
410.014	130.19
410.238	138.19
410.461	125.19
410.685	111.19
410.908	128.19
411.132	131.19
411.355	112.19
411.578	119.19
411.802	121.19
412.025	121.19
412.249	105.19
412.472	123.19
412.695	127.19
412.919	114.19
413.142	122.19
413.365	108.19
413.589	132.19
413.812	131.19
414.035	123.19
414.258	123.19
414.482	125.19
414.705	124.19
414.928	128.19
415.151	138.19
415.374	125.19
415.597	123.19
415.821	145.19
416.044	142.19
416.267	116.19
416.49	135.19
416.713	125.19
416.936	133.19
417.159	130.19
417.382	115.19
417.605	131.19
417.828	118.19
418.051	131.19
418.274	129.19
418.497	123.19
418.72	125.19
418.943	140.19
419.166	138.19
419.389	135.19
419.611	141.19
419.834	110.19
420.057	138.19
420.28	128.19
420.503	138.19
420.726	147.19
420.948	133.19
421.171	147.19
421.394	138.19
421.617	141.19
421.839	151.19
422.062	159.19
422.285	146.19
422.507	140.19
422.73	120.19
422.953	134.19
423.175	124.19
423.398	125.19
423.621	129.19
423.843	145.19
424.066	156.19
424.288	149.19
424.511	141.19
424.733	143.19
424.956	128.19
425.178	148.19
425.401	144.19
425.623	139.19
425.846	133.19
426.068	142.19
426.291	126.19
426.513	123.19
426.735	120.19
426.958	129.19
427.18	128.19
427.402	131.19
427.625	129.19
427.847	124.19
428.069	119.19
428.292	134.19
428.514	139.19
428.736	130.19
428.958	146.19
429.181	136.19
429.403	120.19
429.625	123.19
429.847	116.19
430.069	129.19
430.292	139.19
430.514	134.19
430.736	139.19
430.958	134.19
431.18	146.19
431.402	125.19
431.624	128.19
431.846	100.19
432.068	101.19
432.29	104.19
432.512	113.19
432.734	130.19
432.956	129.19
433.178	137.19
433.4	140.19
433.622	133.19
433.844	137.19
434.066	121.19
434.287	125.19
434.509	118.19
434.731	112.19
434.953	114.19
435.175	132.19
435.397	115.19
435.618	117.19
435.84	120.19
436.062	119.19
436.284	132.19
436.505	136.19
436.727	126.19
436.949	123.19
437.17	143.19
437.392	138.19
437.614	121.19
437.835	124.19
438.057	123.19
438.278	121.19
438.5	120.19
438.721	142.19
438.943	124.19
439.165	138.19
439.386	141.19
439.608	149.19
439.829	151.19
440.05	138.19
440.272	153.19
440.493	152.19
440.715	138.19
440.936	159.19
441.158	139.19
441.379	153.19
441.6	153.19
441.822	147.19
442.043	152.19
442.264	141.19
442.486	153.19
442.707	138.19
442.928	143.19
443.149	136.19
443.371	145.19
443.592	159.19
443.813	136.19
444.034	135.19
444.255	149.19
444.476	149.19
444.698	140.19
444.919	158.19
445.14	269.19
445.361	193.19
445.582	159.19
445.803	146.19
446.024	155.19
446.245	147.19
446.466	155.19
446.687	146.19
446.908	182.19
447.129	163.19
447.35	183.19
447.571	152.19
447.792	143.19
448.013	154.19
448.234	145.19
448.455	152.19
448.675	150.19
448.896	147.19
449.117	143.19
449.338	137.19
449.559	146.19
449.779	147.19
450	149.19
450.221	138.19
450.442	148.19
450.662	151.19
450.883	138.19
451.104	125.19
451.324	142.19
451.545	132.19
451.766	135.19
451.986	144.19
452.207	135.19
452.428	138.19
452.648	147.19
452.869	114.19
453.089	122.19
453.31	115.19
453.53	115.19
453.751	109.19
453.971	113.19
454.192	104.19
454.412	111.19
454.633	131.19
454.853	117.19
455.073	117.19
455.294	112.19
455.514	125.19
455.734	126.19
455.955	98.19
456.175	118.19
456.395	117.19
456.616	117.19
456.836	116.19
457.056	107.19
457.276	106.19
457.497	105.19
457.717	121.19
457.937	105.19
458.157	109.19
458.377	105.19
458.598	91.19
458.818	97.19
459.038	92.19
459.258	72.19
459.478	75.19
459.698	90.19
459.918	111.19
460.138	105.19
460.358	121.19
460.578	108.19
460.798	134.19
461.018	123.19
461.238	123.19
461.458	125.19
461.678	118.19
461.898	121.19
462.118	121.19
462.338	118.19
462.558	119.19
462.777	119.19
462.997	112.19
463.217	112.19
463.437	116.19
463.657	104.19
463.876	109.19
464.096	116.19
464.316	105.19
464.536	117.19
464.755	123.19
464.975	113.19
465.195	127.19
465.414	116.19
465.634	112.19
465.854	114.19
466.073	142.19
466.293	130.19
466.512	134.19
466.732	126.19
466.951	147.19
467.171	129.19
467.391	123.19
467.61	139.19
467.829	137.19
468.049	125.19
468.268	140.19
468.488	129.19
468.707	135.19
468.927	122.19
469.146	138.19
469.365	132.19
469.585	145.19
469.804	141.19
470.023	161.19
470.243	154.19
470.462	148.19
470.681	133.19
470.901	133.19
471.12	127.19
471.339	139.19
471.558	147.19
471.777	157.19
471.997	139.19
472.216	116.19
472.435	122.19
472.654	125.19
472.873	113.19
473.092	127.19
473.311	129.19
473.53	135.19
473.749	124.19
473.968	127.19
474.187	116.19
474.406	114.19
474.625	122.19
474.844	126.19
475.063	136.19
475.282	130.19
475.501	115.19
475.72	132.19
475.939	119.19
476.158	135.19
476.377	136.19
476.596	123.19
476.814	107.19
477.033	109.19
477.252	118.19
477.471	135.19
477.69	123.19
477.908	137.19
478.127	135.19
478.346	149.19
478.564	153.19
478.783	136.19
479.002	136.19
479.22	121.19
479.439	136.19
479.658	118.19
479.876	122.19
480.095	112.19
480.313	122.19
480.532	126.19
480.751	114.19
480.969	95.19
481.188	75.19
481.406	87.19
481.624	87.19
481.843	91.19
482.061	103.19
482.28	121.19
482.498	117.19
482.717	94.19
482.935	135.19
483.153	149.19
483.372	165.19
483.59	149.19
483.808	140.19
484.027	140.19
484.245	153.19
484.463	147.19
484.681	163.19
484.9	149.19
485.118	121.19
485.336	125.19
485.554	130.19
485.772	99.19
485.99	102.19
486.209	121.19
486.427	112.19
486.645	140.19
486.863	140.19
487.081	133.19
487.299	141.19
487.517	130.19
487.735	167.19
487.953	188.19
488.171	186.19
488.389	192.19
488.607	167.19
488.825	143.19
489.043	132.19
489.261	128.19
489.479	144.19
489.696	145.19
489.914	157.19
490.132	157.19
490.35	148.19
490.568	178.19
490.786	179.19
491.003	196.19
491.221	189.19
491.439	205.19
491.657	186.19
491.874	200.19
492.092	224.19
492.31	236.19
492.527	249.19
492.745	209.19
492.963	208.19
493.18	183.19
493.398	203.19
493.615	195.19
493.833	155.19
494.05	183.19
494.268	192.19
494.485	168.19
494.703	187.19
494.92	190.19
495.138	198.19
495.355	172.19
495.573	165.19
495.79	148.19
496.008	179.19
496.225	176.19
496.442	169.19
496.66	175.19
496.877	151.19
497.094	169.19
497.312	162.19
497.529	168.19
497.746	162.19
497.963	148.19
498.181	129.19
498.398	119.19
498.615	109.19
498.832	116.19
499.049	127.19
499.267	119.19
499.484	127.19
499.701	130.19
499.918	140.19
500.135	141.19
500.352	141.19
500.569	139.19
500.786	148.19
501.003	147.19
501.22	145.19
501.437	135.19
501.654	121.19
501.871	139.19
502.088	125.19
502.305	140.19
502.522	137.19
502.739	144.19
502.956	133.19
503.172	134.19
503.389	145.19
503.606	131.19
503.823	117.19
504.04	132.19
504.256	131.19
504.473	109.19
504.69	120.19
504.907	135.19
505.123	127.19
505.34	127.19
505.557	122.19
505.773	133.19
505.99	125.19
506.207	133.19
506.423	114.19
506.64	127.19
506.856	119.19
507.073	118.19
507.289	123.19
507.506	116.19
507.722	109.19
507.939	129.19
508.155	130.19
508.372	136.19
508.588	123.19
508.805	120.19
509.021	126.19
509.238	97.19
509.454	91.19
509.67	99.19
509.887	97.19
510.103	89.19
510.319	106.19
510.536	89.19
510.752	100.19
510.968	80.19
511.184	88.19
511.401	95.19
