Data from Location6.07152019.Energy5.Lamp.07192019.3%Agarose_HRD10591_16-13-24-396.txt Node
Date: Fri Jul 19 16:13:24 EDT 2019
User: cochatt
Spectrometer: HR+D1059
Trigger mode: 1
Integration Time (sec): 1.000000E-1
Scans to average: 1
Electric dark correction enabled: true
Nonlinearity correction enabled: false
Boxcar width: 0
XAxis mode: Wavelengths
Number of Pixels in Spectrum: 2048
>>>>>Begin Spectral Data<<<<<
223.165	-20.88
223.4	-20.88
223.635	-20.88
223.869	-18.88
224.104	-18.88
224.338	-8.88
224.573	-15.88
224.808	-8.88
225.042	-2.88
225.277	-7.88
225.511	1.12
225.746	3.12
225.98	10.12
226.215	16.12
226.449	12.12
226.683	16.12
226.918	23.12
227.152	21.12
227.387	31.12
227.621	26.12
227.856	39.12
228.09	47.12
228.324	62.12
228.559	63.12
228.793	63.12
229.027	54.12
229.262	53.12
229.496	68.12
229.73	70.12
229.964	65.12
230.199	73.12
230.433	63.12
230.667	74.12
230.901	74.12
231.136	78.12
231.37	73.12
231.604	79.12
231.838	72.12
232.072	83.12
232.306	85.12
232.541	74.12
232.775	71.12
233.009	83.12
233.243	75.12
233.477	81.12
233.711	73.12
233.945	72.12
234.179	79.12
234.413	81.12
234.647	79.12
234.881	81.12
235.115	92.12
235.349	85.12
235.583	65.12
235.817	74.12
236.051	66.12
236.285	81.12
236.519	69.12
236.753	77.12
236.987	85.12
237.221	71.12
237.455	78.12
237.689	64.12
237.922	69.12
238.156	70.12
238.39	78.12
238.624	70.12
238.858	76.12
239.091	73.12
239.325	89.12
239.559	70.12
239.793	63.12
240.027	54.12
240.26	76.12
240.494	86.12
240.728	72.12
240.961	75.12
241.195	78.12
241.429	89.12
241.662	77.12
241.896	87.12
242.13	62.12
242.363	74.12
242.597	78.12
242.83	78.12
243.064	70.12
243.298	90.12
243.531	90.12
243.765	75.12
243.998	89.12
244.232	90.12
244.465	87.12
244.699	68.12
244.932	69.12
245.166	77.12
245.399	85.12
245.633	84.12
245.866	70.12
246.099	82.12
246.333	88.12
246.566	89.12
246.8	81.12
247.033	62.12
247.266	79.12
247.5	66.12
247.733	87.12
247.966	79.12
248.2	79.12
248.433	83.12
248.666	86.12
248.899	74.12
249.133	77.12
249.366	82.12
249.599	69.12
249.832	62.12
250.066	69.12
250.299	70.12
250.532	73.12
250.765	66.12
250.998	77.12
251.231	74.12
251.465	79.12
251.698	86.12
251.931	72.12
252.164	84.12
252.397	83.12
252.63	89.12
252.863	87.12
253.096	72.12
253.329	88.12
253.562	80.12
253.795	84.12
254.028	78.12
254.261	74.12
254.494	70.12
254.727	65.12
254.96	75.12
255.193	88.12
255.426	72.12
255.659	72.12
255.892	84.12
256.124	80.12
256.357	71.12
256.59	81.12
256.823	79.12
257.056	69.12
257.289	80.12
257.521	86.12
257.754	70.12
257.987	73.12
258.22	66.12
258.452	83.12
258.685	71.12
258.918	72.12
259.151	90.12
259.383	82.12
259.616	67.12
259.849	71.12
260.081	85.12
260.314	78.12
260.547	88.12
260.779	78.12
261.012	80.12
261.244	72.12
261.477	83.12
261.71	85.12
261.942	72.12
262.175	72.12
262.407	82.12
262.64	83.12
262.872	69.12
263.105	86.12
263.337	73.12
263.57	79.12
263.802	82.12
264.035	67.12
264.267	77.12
264.499	80.12
264.732	82.12
264.964	66.12
265.197	84.12
265.429	75.12
265.661	66.12
265.894	83.12
266.126	94.12
266.358	75.12
266.591	85.12
266.823	81.12
267.055	62.12
267.287	73.12
267.52	74.12
267.752	81.12
267.984	93.12
268.216	81.12
268.448	96.12
268.681	76.12
268.913	79.12
269.145	65.12
269.377	85.12
269.609	81.12
269.841	77.12
270.073	69.12
270.306	90.12
270.538	85.12
270.77	86.12
271.002	87.12
271.234	78.12
271.466	87.12
271.698	73.12
271.93	76.12
272.162	82.12
272.394	95.12
272.626	66.12
272.858	80.12
273.09	90.12
273.322	70.12
273.553	84.12
273.785	92.12
274.017	77.12
274.249	74.12
274.481	78.12
274.713	75.12
274.945	85.12
275.176	66.12
275.408	79.12
275.64	67.12
275.872	78.12
276.104	86.12
276.335	87.12
276.567	103.12
276.799	85.12
277.031	82.12
277.262	85.12
277.494	86.12
277.726	73.12
277.957	88.12
278.189	75.12
278.421	75.12
278.652	84.12
278.884	81.12
279.115	77.12
279.347	78.12
279.579	86.12
279.81	90.12
280.042	77.12
280.273	80.12
280.505	82.12
280.736	84.12
280.968	79.12
281.199	89.12
281.431	85.12
281.662	78.12
281.894	73.12
282.125	88.12
282.356	93.12
282.588	83.12
282.819	84.12
283.051	79.12
283.282	96.12
283.513	90.12
283.745	75.12
283.976	87.12
284.207	69.12
284.439	68.12
284.67	86.12
284.901	82.12
285.132	66.12
285.364	83.12
285.595	99.12
285.826	94.12
286.057	83.12
286.288	88.12
286.52	89.12
286.751	65.12
286.982	88.12
287.213	92.12
287.444	82.12
287.675	84.12
287.906	78.12
288.138	86.12
288.369	79.12
288.6	86.12
288.831	74.12
289.062	73.12
289.293	79.12
289.524	82.12
289.755	95.12
289.986	82.12
290.217	84.12
290.448	85.12
290.679	83.12
290.91	69.12
291.141	70.12
291.371	89.12
291.602	77.12
291.833	87.12
292.064	88.12
292.295	96.12
292.526	85.12
292.757	84.12
292.987	84.12
293.218	72.12
293.449	79.12
293.68	93.12
293.91	86.12
294.141	85.12
294.372	77.12
294.603	82.12
294.833	94.12
295.064	72.12
295.295	84.12
295.525	55.12
295.756	87.12
295.987	93.12
296.217	98.12
296.448	84.12
296.679	79.12
296.909	81.12
297.14	90.12
297.37	74.12
297.601	94.12
297.831	90.12
298.062	103.12
298.292	85.12
298.523	82.12
298.753	84.12
298.984	79.12
299.214	77.12
299.445	78.12
299.675	80.12
299.905	90.12
300.136	96.12
300.366	93.12
300.597	75.12
300.827	85.12
301.057	82.12
301.288	85.12
301.518	82.12
301.748	84.12
301.979	71.12
302.209	93.12
302.439	79.12
302.669	84.12
302.9	87.12
303.13	82.12
303.36	80.12
303.59	80.12
303.82	85.12
304.051	95.12
304.281	81.12
304.511	78.12
304.741	75.12
304.971	78.12
305.201	77.12
305.431	86.12
305.661	78.12
305.891	90.12
306.121	92.12
306.352	79.12
306.582	77.12
306.812	76.12
307.042	89.12
307.272	87.12
307.502	84.12
307.731	84.12
307.961	96.12
308.191	78.12
308.421	81.12
308.651	76.12
308.881	83.12
309.111	89.12
309.341	90.12
309.571	80.12
309.8	96.12
310.03	74.12
310.26	79.12
310.49	79.12
310.72	80.12
310.949	87.12
311.179	84.12
311.409	74.12
311.639	74.12
311.868	100.12
312.098	84.12
312.328	81.12
312.557	83.12
312.787	98.12
313.017	75.12
313.246	75.12
313.476	88.12
313.706	89.12
313.935	81.12
314.165	83.12
314.394	80.12
314.624	77.12
314.853	85.12
315.083	83.12
315.312	86.12
315.542	81.12
315.771	91.12
316.001	74.12
316.23	80.12
316.46	74.12
316.689	81.12
316.919	86.12
317.148	73.12
317.377	92.12
317.607	91.12
317.836	79.12
318.065	78.12
318.295	74.12
318.524	71.12
318.753	99.12
318.983	66.12
319.212	72.12
319.441	87.12
319.67	87.12
319.9	90.12
320.129	76.12
320.358	98.12
320.587	73.12
320.816	77.12
321.046	80.12
321.275	86.12
321.504	88.12
321.733	92.12
321.962	87.12
322.191	72.12
322.42	87.12
322.649	86.12
322.878	80.12
323.108	93.12
323.337	84.12
323.566	85.12
323.795	89.12
324.024	73.12
324.253	81.12
324.482	88.12
324.71	98.12
324.939	87.12
325.168	89.12
325.397	84.12
325.626	86.12
325.855	75.12
326.084	78.12
326.313	85.12
326.542	86.12
326.77	83.12
326.999	73.12
327.228	71.12
327.457	79.12
327.686	91.12
327.914	81.12
328.143	78.12
328.372	86.12
328.6	79.12
328.829	88.12
329.058	79.12
329.287	79.12
329.515	84.12
329.744	90.12
329.972	93.12
330.201	82.12
330.43	98.12
330.658	91.12
330.887	85.12
331.115	78.12
331.344	91.12
331.572	92.12
331.801	93.12
332.03	89.12
332.258	72.12
332.486	86.12
332.715	84.12
332.943	76.12
333.172	84.12
333.4	72.12
333.629	82.12
333.857	68.12
334.085	92.12
334.314	93.12
334.542	81.12
334.771	73.12
334.999	80.12
335.227	80.12
335.455	89.12
335.684	74.12
335.912	78.12
336.14	75.12
336.369	86.12
336.597	70.12
336.825	80.12
337.053	75.12
337.281	88.12
337.51	97.12
337.738	91.12
337.966	90.12
338.194	83.12
338.422	72.12
338.65	103.12
338.878	92.12
339.106	88.12
339.334	93.12
339.562	86.12
339.79	78.12
340.018	97.12
340.246	92.12
340.474	88.12
340.702	86.12
340.93	90.12
341.158	98.12
341.386	85.12
341.614	76.12
341.842	88.12
342.07	96.12
342.298	79.12
342.526	85.12
342.754	79.12
342.981	91.12
343.209	74.12
343.437	92.12
343.665	88.12
343.893	88.12
344.12	86.12
344.348	93.12
344.576	78.12
344.804	80.12
345.031	87.12
345.259	90.12
345.487	81.12
345.714	73.12
345.942	87.12
346.17	92.12
346.397	88.12
346.625	87.12
346.853	70.12
347.08	86.12
347.308	86.12
347.535	80.12
347.763	96.12
347.99	86.12
348.218	78.12
348.445	83.12
348.673	80.12
348.9	95.12
349.128	96.12
349.355	77.12
349.583	80.12
349.81	81.12
350.037	73.12
350.265	65.12
350.492	90.12
350.72	77.12
350.947	81.12
351.174	85.12
351.402	79.12
351.629	85.12
351.856	81.12
352.083	83.12
352.311	84.12
352.538	71.12
352.765	87.12
352.992	98.12
353.22	75.12
353.447	78.12
353.674	83.12
353.901	95.12
354.128	73.12
354.355	75.12
354.583	67.12
354.81	77.12
355.037	88.12
355.264	81.12
355.491	75.12
355.718	70.12
355.945	92.12
356.172	81.12
356.399	85.12
356.626	75.12
356.853	96.12
357.08	89.12
357.307	85.12
357.534	90.12
357.761	94.12
357.988	92.12
358.215	92.12
358.441	82.12
358.668	75.12
358.895	72.12
359.122	74.12
359.349	84.12
359.576	81.12
359.802	80.12
360.029	74.12
360.256	94.12
360.483	76.12
360.709	74.12
360.936	79.12
361.163	85.12
361.39	75.12
361.616	86.12
361.843	90.12
362.07	82.12
362.296	80.12
362.523	73.12
362.749	64.12
362.976	80.12
363.203	93.12
363.429	85.12
363.656	79.12
363.882	100.12
364.109	92.12
364.335	94.12
364.562	80.12
364.788	78.12
365.015	73.12
365.241	80.12
365.468	79.12
365.694	83.12
365.92	82.12
366.147	90.12
366.373	72.12
366.599	77.12
366.826	90.12
367.052	87.12
367.278	72.12
367.505	79.12
367.731	74.12
367.957	81.12
368.184	79.12
368.41	85.12
368.636	79.12
368.862	94.12
369.089	102.12
369.315	91.12
369.541	83.12
369.767	97.12
369.993	103.12
370.219	76.12
370.445	79.12
370.672	93.12
370.898	87.12
371.124	99.12
371.35	102.12
371.576	81.12
371.802	94.12
372.028	82.12
372.254	89.12
372.48	95.12
372.706	75.12
372.932	87.12
373.158	87.12
373.384	107.12
373.61	91.12
373.835	97.12
374.061	89.12
374.287	84.12
374.513	95.12
374.739	87.12
374.965	107.12
375.191	110.12
375.416	84.12
375.642	95.12
375.868	83.12
376.094	102.12
376.319	97.12
376.545	99.12
376.771	82.12
376.997	94.12
377.222	88.12
377.448	97.12
377.674	84.12
377.899	103.12
378.125	92.12
378.35	96.12
378.576	85.12
378.802	96.12
379.027	87.12
379.253	101.12
379.478	94.12
379.704	96.12
379.929	96.12
380.155	99.12
380.38	91.12
380.606	89.12
380.831	117.12
381.057	98.12
381.282	90.12
381.507	101.12
381.733	104.12
381.958	102.12
382.184	86.12
382.409	92.12
382.634	85.12
382.86	84.12
383.085	92.12
383.31	104.12
383.535	86.12
383.761	94.12
383.986	105.12
384.211	80.12
384.436	88.12
384.662	85.12
384.887	110.12
385.112	93.12
385.337	109.12
385.562	84.12
385.787	100.12
386.013	102.12
386.238	97.12
386.463	111.12
386.688	102.12
386.913	90.12
387.138	102.12
387.363	90.12
387.588	110.12
387.813	121.12
388.038	99.12
388.263	95.12
388.488	89.12
388.713	117.12
388.938	94.12
389.163	91.12
389.387	102.12
389.612	99.12
389.837	99.12
390.062	111.12
390.287	105.12
390.512	91.12
390.736	110.12
390.961	103.12
391.186	101.12
391.411	105.12
391.636	106.12
391.86	98.12
392.085	117.12
392.31	109.12
392.534	103.12
392.759	101.12
392.984	95.12
393.208	110.12
393.433	120.12
393.658	102.12
393.882	103.12
394.107	96.12
394.331	108.12
394.556	102.12
394.78	114.12
395.005	103.12
395.229	110.12
395.454	106.12
395.678	101.12
395.903	106.12
396.127	95.12
396.352	111.12
396.576	120.12
396.801	102.12
397.025	105.12
397.249	102.12
397.474	113.12
397.698	112.12
397.922	119.12
398.147	104.12
398.371	100.12
398.595	113.12
398.82	107.12
399.044	103.12
399.268	123.12
399.492	104.12
399.717	122.12
399.941	117.12
400.165	118.12
400.389	102.12
400.613	112.12
400.837	94.12
401.062	113.12
401.286	111.12
401.51	106.12
401.734	115.12
401.958	120.12
402.182	109.12
402.406	121.12
402.63	111.12
402.854	111.12
403.078	118.12
403.302	113.12
403.526	125.12
403.75	118.12
403.974	120.12
404.198	116.12
404.422	118.12
404.645	122.12
404.869	125.12
405.093	107.12
405.317	120.12
405.541	125.12
405.765	119.12
405.988	127.12
406.212	127.12
406.436	125.12
406.66	106.12
406.883	120.12
407.107	125.12
407.331	126.12
407.555	129.12
407.778	129.12
408.002	103.12
408.226	129.12
408.449	126.12
408.673	117.12
408.896	114.12
409.12	119.12
409.344	133.12
409.567	127.12
409.791	117.12
410.014	129.12
410.238	129.12
410.461	122.12
410.685	137.12
410.908	117.12
411.132	123.12
411.355	125.12
411.578	125.12
411.802	134.12
412.025	125.12
412.249	124.12
412.472	121.12
412.695	117.12
412.919	130.12
413.142	123.12
413.365	134.12
413.589	129.12
413.812	129.12
414.035	121.12
414.258	110.12
414.482	116.12
414.705	121.12
414.928	109.12
415.151	113.12
415.374	126.12
415.597	122.12
415.821	145.12
416.044	106.12
416.267	113.12
416.49	110.12
416.713	109.12
416.936	122.12
417.159	125.12
417.382	119.12
417.605	131.12
417.828	124.12
418.051	134.12
418.274	131.12
418.497	139.12
418.72	117.12
418.943	127.12
419.166	143.12
419.389	142.12
419.611	161.12
419.834	145.12
420.057	133.12
420.28	156.12
420.503	120.12
420.726	125.12
420.948	132.12
421.171	137.12
421.394	125.12
421.617	145.12
421.839	128.12
422.062	136.12
422.285	135.12
422.507	140.12
422.73	127.12
422.953	142.12
423.175	124.12
423.398	120.12
423.621	131.12
423.843	133.12
424.066	146.12
424.288	138.12
424.511	124.12
424.733	158.12
424.956	138.12
425.178	144.12
425.401	146.12
425.623	136.12
425.846	131.12
426.068	138.12
426.291	143.12
426.513	136.12
426.735	140.12
426.958	120.12
427.18	128.12
427.402	142.12
427.625	127.12
427.847	137.12
428.069	140.12
428.292	127.12
428.514	131.12
428.736	139.12
428.958	138.12
429.181	136.12
429.403	136.12
429.625	122.12
429.847	129.12
430.069	126.12
430.292	133.12
430.514	130.12
430.736	123.12
430.958	134.12
431.18	129.12
431.402	129.12
431.624	123.12
431.846	108.12
432.068	79.12
432.29	93.12
432.512	114.12
432.734	140.12
432.956	146.12
433.178	137.12
433.4	129.12
433.622	155.12
433.844	147.12
434.066	118.12
434.287	107.12
434.509	86.12
434.731	105.12
434.953	116.12
435.175	117.12
435.397	128.12
435.618	122.12
435.84	106.12
436.062	125.12
436.284	115.12
436.505	126.12
436.727	127.12
436.949	132.12
437.17	142.12
437.392	133.12
437.614	123.12
437.835	128.12
438.057	99.12
438.278	117.12
438.5	117.12
438.721	123.12
438.943	144.12
439.165	139.12
439.386	137.12
439.608	150.12
439.829	132.12
440.05	160.12
440.272	146.12
440.493	128.12
440.715	141.12
440.936	132.12
441.158	151.12
441.379	154.12
441.6	166.12
441.822	158.12
442.043	144.12
442.264	135.12
442.486	137.12
442.707	135.12
442.928	142.12
443.149	146.12
443.371	142.12
443.592	143.12
443.813	154.12
444.034	137.12
444.255	148.12
444.476	149.12
444.698	145.12
444.919	147.12
445.14	285.12
445.361	203.12
445.582	160.12
445.803	156.12
446.024	147.12
446.245	160.12
446.466	159.12
446.687	141.12
446.908	158.12
447.129	177.12
447.35	140.12
447.571	164.12
447.792	149.12
448.013	154.12
448.234	165.12
448.455	154.12
448.675	146.12
448.896	142.12
449.117	147.12
449.338	135.12
449.559	126.12
449.779	135.12
450	126.12
450.221	111.12
450.442	143.12
450.662	155.12
450.883	133.12
451.104	147.12
451.324	143.12
451.545	147.12
451.766	150.12
451.986	132.12
452.207	137.12
452.428	118.12
452.648	126.12
452.869	125.12
453.089	117.12
453.31	116.12
453.53	96.12
453.751	106.12
453.971	121.12
454.192	110.12
454.412	107.12
454.633	100.12
454.853	123.12
455.073	122.12
455.294	123.12
455.514	130.12
455.734	130.12
455.955	125.12
456.175	113.12
456.395	103.12
456.616	102.12
456.836	105.12
457.056	111.12
457.276	115.12
457.497	97.12
457.717	104.12
457.937	96.12
458.157	116.12
458.377	109.12
458.598	107.12
458.818	94.12
459.038	97.12
459.258	93.12
459.478	90.12
459.698	79.12
459.918	100.12
460.138	104.12
460.358	121.12
460.578	120.12
460.798	116.12
461.018	132.12
461.238	129.12
461.458	129.12
461.678	117.12
461.898	127.12
462.118	118.12
462.338	115.12
462.558	112.12
462.777	114.12
462.997	103.12
463.217	113.12
463.437	106.12
463.657	114.12
463.876	110.12
464.096	106.12
464.316	99.12
464.536	95.12
464.755	112.12
464.975	103.12
465.195	121.12
465.414	115.12
465.634	124.12
465.854	122.12
466.073	129.12
466.293	121.12
466.512	123.12
466.732	144.12
466.951	126.12
467.171	141.12
467.391	130.12
467.61	131.12
467.829	126.12
468.049	144.12
468.268	131.12
468.488	127.12
468.707	135.12
468.927	127.12
469.146	132.12
469.365	137.12
469.585	139.12
469.804	139.12
470.023	144.12
470.243	135.12
470.462	152.12
470.681	146.12
470.901	140.12
471.12	135.12
471.339	145.12
471.558	137.12
471.777	147.12
471.997	139.12
472.216	129.12
472.435	114.12
472.654	114.12
472.873	116.12
473.092	121.12
473.311	127.12
473.53	131.12
473.749	128.12
473.968	136.12
474.187	120.12
474.406	112.12
474.625	134.12
474.844	129.12
475.063	133.12
475.282	132.12
475.501	126.12
475.72	118.12
475.939	125.12
476.158	125.12
476.377	131.12
476.596	114.12
476.814	110.12
477.033	119.12
477.252	112.12
477.471	118.12
477.69	134.12
477.908	144.12
478.127	146.12
478.346	135.12
478.564	141.12
478.783	135.12
479.002	142.12
479.22	147.12
479.439	122.12
479.658	132.12
479.876	122.12
480.095	109.12
480.313	112.12
480.532	125.12
480.751	99.12
480.969	104.12
481.188	81.12
481.406	87.12
481.624	88.12
481.843	84.12
482.061	92.12
482.28	108.12
482.498	121.12
482.717	101.12
482.935	125.12
483.153	151.12
483.372	157.12
483.59	161.12
483.808	146.12
484.027	133.12
484.245	121.12
484.463	157.12
484.681	157.12
484.9	155.12
485.118	138.12
485.336	121.12
485.554	109.12
485.772	112.12
485.99	111.12
486.209	115.12
486.427	96.12
486.645	111.12
486.863	137.12
487.081	134.12
487.299	137.12
487.517	160.12
487.735	165.12
487.953	181.12
488.171	190.12
488.389	179.12
488.607	163.12
488.825	145.12
489.043	112.12
489.261	132.12
489.479	145.12
489.696	148.12
489.914	137.12
490.132	143.12
490.35	149.12
490.568	169.12
490.786	168.12
491.003	174.12
491.221	184.12
491.439	200.12
491.657	190.12
491.874	229.12
492.092	230.12
492.31	264.12
492.527	241.12
492.745	215.12
492.963	201.12
493.18	199.12
493.398	181.12
493.615	174.12
493.833	185.12
494.05	182.12
494.268	171.12
494.485	185.12
494.703	182.12
494.92	185.12
495.138	177.12
495.355	181.12
495.573	165.12
495.79	172.12
496.008	197.12
496.225	173.12
496.442	173.12
496.66	169.12
496.877	176.12
497.094	167.12
497.312	151.12
497.529	161.12
497.746	146.12
497.963	152.12
498.181	136.12
498.398	117.12
498.615	120.12
498.832	131.12
499.049	107.12
499.267	116.12
499.484	133.12
499.701	132.12
499.918	137.12
500.135	124.12
500.352	133.12
500.569	153.12
500.786	146.12
501.003	151.12
501.22	146.12
501.437	126.12
501.654	141.12
501.871	131.12
502.088	145.12
502.305	119.12
502.522	129.12
502.739	137.12
502.956	119.12
503.172	125.12
503.389	125.12
503.606	113.12
503.823	130.12
504.04	112.12
504.256	121.12
504.473	118.12
504.69	113.12
504.907	123.12
505.123	111.12
505.34	120.12
505.557	135.12
505.773	114.12
505.99	122.12
506.207	144.12
506.423	116.12
506.64	123.12
506.856	131.12
507.073	110.12
507.289	121.12
507.506	125.12
507.722	111.12
507.939	119.12
508.155	114.12
508.372	118.12
508.588	119.12
508.805	105.12
509.021	117.12
509.238	114.12
509.454	113.12
509.67	105.12
509.887	112.12
510.103	99.12
510.319	97.12
510.536	90.12
510.752	79.12
510.968	74.12
511.184	80.12
511.401	83.12
511.617	82.12
