Data from Location6.07152019.Energy5.Lamp.07192019.3%Agarose_HRD10591_16-12-52-395.txt Node
Date: Fri Jul 19 16:12:52 EDT 2019
User: cochatt
Spectrometer: HR+D1059
Trigger mode: 1
Integration Time (sec): 1.000000E-1
Scans to average: 1
Electric dark correction enabled: true
Nonlinearity correction enabled: false
Boxcar width: 0
XAxis mode: Wavelengths
Number of Pixels in Spectrum: 2048
>>>>>Begin Spectral Data<<<<<
223.165	-18.94
223.4	-18.94
223.635	-18.94
223.869	-17.94
224.104	-22.94
224.338	-21.94
224.573	-9.94
224.808	-15.94
225.042	-2.94
225.277	-2.94
225.511	1.06
225.746	-12.94
225.98	15.06
226.215	10.06
226.449	23.06
226.683	19.06
226.918	26.06
227.152	32.06
227.387	38.06
227.621	54.06
227.856	40.06
228.09	48.06
228.324	53.06
228.559	59.06
228.793	50.06
229.027	72.06
229.262	57.06
229.496	75.06
229.73	63.06
229.964	59.06
230.199	69.06
230.433	84.06
230.667	83.06
230.901	76.06
231.136	77.06
231.37	88.06
231.604	93.06
231.838	74.06
232.072	78.06
232.306	95.06
232.541	94.06
232.775	93.06
233.009	86.06
233.243	96.06
233.477	86.06
233.711	86.06
233.945	70.06
234.179	84.06
234.413	82.06
234.647	82.06
234.881	68.06
235.115	86.06
235.349	86.06
235.583	91.06
235.817	85.06
236.051	81.06
236.285	64.06
236.519	69.06
236.753	81.06
236.987	81.06
237.221	77.06
237.455	80.06
237.689	74.06
237.922	75.06
238.156	81.06
238.39	67.06
238.624	68.06
238.858	84.06
239.091	79.06
239.325	72.06
239.559	74.06
239.793	73.06
240.027	82.06
240.26	73.06
240.494	68.06
240.728	80.06
240.961	82.06
241.195	66.06
241.429	81.06
241.662	84.06
241.896	70.06
242.13	64.06
242.363	80.06
242.597	80.06
242.83	84.06
243.064	80.06
243.298	94.06
243.531	71.06
243.765	74.06
243.998	81.06
244.232	87.06
244.465	78.06
244.699	69.06
244.932	76.06
245.166	77.06
245.399	83.06
245.633	92.06
245.866	79.06
246.099	84.06
246.333	57.06
246.566	83.06
246.8	64.06
247.033	80.06
247.266	72.06
247.5	90.06
247.733	76.06
247.966	81.06
248.2	69.06
248.433	89.06
248.666	99.06
248.899	74.06
249.133	73.06
249.366	81.06
249.599	84.06
249.832	92.06
250.066	86.06
250.299	81.06
250.532	81.06
250.765	90.06
250.998	89.06
251.231	79.06
251.465	90.06
251.698	86.06
251.931	96.06
252.164	81.06
252.397	76.06
252.63	84.06
252.863	74.06
253.096	77.06
253.329	81.06
253.562	81.06
253.795	68.06
254.028	87.06
254.261	78.06
254.494	82.06
254.727	93.06
254.96	80.06
255.193	73.06
255.426	81.06
255.659	72.06
255.892	83.06
256.124	89.06
256.357	82.06
256.59	85.06
256.823	69.06
257.056	91.06
257.289	77.06
257.521	81.06
257.754	77.06
257.987	93.06
258.22	78.06
258.452	69.06
258.685	89.06
258.918	69.06
259.151	93.06
259.383	90.06
259.616	87.06
259.849	75.06
260.081	85.06
260.314	78.06
260.547	88.06
260.779	89.06
261.012	70.06
261.244	94.06
261.477	86.06
261.71	86.06
261.942	79.06
262.175	79.06
262.407	79.06
262.64	82.06
262.872	88.06
263.105	88.06
263.337	82.06
263.57	91.06
263.802	78.06
264.035	83.06
264.267	78.06
264.499	77.06
264.732	91.06
264.964	94.06
265.197	81.06
265.429	84.06
265.661	86.06
265.894	81.06
266.126	81.06
266.358	69.06
266.591	85.06
266.823	70.06
267.055	76.06
267.287	89.06
267.52	96.06
267.752	73.06
267.984	93.06
268.216	92.06
268.448	85.06
268.681	91.06
268.913	98.06
269.145	90.06
269.377	90.06
269.609	82.06
269.841	74.06
270.073	90.06
270.306	87.06
270.538	100.06
270.77	71.06
271.002	96.06
271.234	92.06
271.466	83.06
271.698	81.06
271.93	92.06
272.162	90.06
272.394	89.06
272.626	86.06
272.858	88.06
273.09	100.06
273.322	86.06
273.553	100.06
273.785	87.06
274.017	83.06
274.249	81.06
274.481	84.06
274.713	92.06
274.945	84.06
275.176	74.06
275.408	89.06
275.64	91.06
275.872	99.06
276.104	93.06
276.335	106.06
276.567	89.06
276.799	92.06
277.031	82.06
277.262	83.06
277.494	90.06
277.726	91.06
277.957	74.06
278.189	86.06
278.421	86.06
278.652	72.06
278.884	83.06
279.115	93.06
279.347	98.06
279.579	77.06
279.81	86.06
280.042	80.06
280.273	101.06
280.505	87.06
280.736	76.06
280.968	76.06
281.199	91.06
281.431	82.06
281.662	72.06
281.894	76.06
282.125	92.06
282.356	87.06
282.588	85.06
282.819	88.06
283.051	89.06
283.282	76.06
283.513	84.06
283.745	100.06
283.976	90.06
284.207	73.06
284.439	84.06
284.67	86.06
284.901	74.06
285.132	88.06
285.364	94.06
285.595	88.06
285.826	92.06
286.057	76.06
286.288	82.06
286.52	101.06
286.751	93.06
286.982	87.06
287.213	91.06
287.444	85.06
287.675	91.06
287.906	81.06
288.138	79.06
288.369	90.06
288.6	89.06
288.831	87.06
289.062	89.06
289.293	84.06
289.524	78.06
289.755	79.06
289.986	68.06
290.217	92.06
290.448	79.06
290.679	76.06
290.91	97.06
291.141	92.06
291.371	85.06
291.602	77.06
291.833	92.06
292.064	90.06
292.295	71.06
292.526	90.06
292.757	79.06
292.987	90.06
293.218	87.06
293.449	90.06
293.68	76.06
293.91	76.06
294.141	88.06
294.372	95.06
294.603	92.06
294.833	90.06
295.064	91.06
295.295	86.06
295.525	95.06
295.756	93.06
295.987	86.06
296.217	87.06
296.448	79.06
296.679	91.06
296.909	92.06
297.14	96.06
297.37	83.06
297.601	76.06
297.831	80.06
298.062	76.06
298.292	85.06
298.523	70.06
298.753	71.06
298.984	89.06
299.214	96.06
299.445	85.06
299.675	68.06
299.905	78.06
300.136	87.06
300.366	80.06
300.597	92.06
300.827	90.06
301.057	97.06
301.288	97.06
301.518	84.06
301.748	71.06
301.979	98.06
302.209	103.06
302.439	85.06
302.669	86.06
302.9	76.06
303.13	85.06
303.36	87.06
303.59	86.06
303.82	88.06
304.051	80.06
304.281	91.06
304.511	90.06
304.741	101.06
304.971	80.06
305.201	92.06
305.431	77.06
305.661	86.06
305.891	79.06
306.121	78.06
306.352	82.06
306.582	75.06
306.812	90.06
307.042	85.06
307.272	86.06
307.502	78.06
307.731	96.06
307.961	92.06
308.191	64.06
308.421	89.06
308.651	91.06
308.881	83.06
309.111	84.06
309.341	93.06
309.571	86.06
309.8	93.06
310.03	87.06
310.26	83.06
310.49	92.06
310.72	85.06
310.949	78.06
311.179	98.06
311.409	77.06
311.639	90.06
311.868	96.06
312.098	80.06
312.328	78.06
312.557	73.06
312.787	73.06
313.017	93.06
313.246	98.06
313.476	95.06
313.706	77.06
313.935	97.06
314.165	93.06
314.394	96.06
314.624	71.06
314.853	84.06
315.083	82.06
315.312	91.06
315.542	72.06
315.771	92.06
316.001	89.06
316.23	92.06
316.46	83.06
316.689	74.06
316.919	77.06
317.148	98.06
317.377	80.06
317.607	106.06
317.836	100.06
318.065	92.06
318.295	83.06
318.524	82.06
318.753	84.06
318.983	90.06
319.212	77.06
319.441	83.06
319.67	83.06
319.9	81.06
320.129	83.06
320.358	92.06
320.587	90.06
320.816	77.06
321.046	81.06
321.275	72.06
321.504	68.06
321.733	103.06
321.962	81.06
322.191	96.06
322.42	82.06
322.649	84.06
322.878	82.06
323.108	98.06
323.337	77.06
323.566	79.06
323.795	98.06
324.024	89.06
324.253	75.06
324.482	72.06
324.71	77.06
324.939	90.06
325.168	78.06
325.397	93.06
325.626	89.06
325.855	78.06
326.084	83.06
326.313	82.06
326.542	87.06
326.77	88.06
326.999	93.06
327.228	98.06
327.457	76.06
327.686	93.06
327.914	85.06
328.143	89.06
328.372	92.06
328.6	83.06
328.829	83.06
329.058	103.06
329.287	82.06
329.515	75.06
329.744	81.06
329.972	78.06
330.201	73.06
330.43	81.06
330.658	86.06
330.887	86.06
331.115	66.06
331.344	86.06
331.572	88.06
331.801	91.06
332.03	81.06
332.258	89.06
332.486	85.06
332.715	86.06
332.943	76.06
333.172	78.06
333.4	99.06
333.629	82.06
333.857	96.06
334.085	76.06
334.314	69.06
334.542	84.06
334.771	81.06
334.999	84.06
335.227	90.06
335.455	83.06
335.684	88.06
335.912	83.06
336.14	79.06
336.369	92.06
336.597	90.06
336.825	89.06
337.053	78.06
337.281	76.06
337.51	78.06
337.738	78.06
337.966	96.06
338.194	80.06
338.422	81.06
338.65	94.06
338.878	94.06
339.106	97.06
339.334	90.06
339.562	89.06
339.79	98.06
340.018	83.06
340.246	85.06
340.474	82.06
340.702	80.06
340.93	77.06
341.158	89.06
341.386	98.06
341.614	98.06
341.842	84.06
342.07	85.06
342.298	84.06
342.526	81.06
342.754	72.06
342.981	88.06
343.209	82.06
343.437	90.06
343.665	90.06
343.893	89.06
344.12	91.06
344.348	90.06
344.576	96.06
344.804	91.06
345.031	90.06
345.259	86.06
345.487	94.06
345.714	83.06
345.942	83.06
346.17	94.06
346.397	96.06
346.625	92.06
346.853	83.06
347.08	86.06
347.308	89.06
347.535	97.06
347.763	84.06
347.99	93.06
348.218	91.06
348.445	73.06
348.673	80.06
348.9	92.06
349.128	94.06
349.355	84.06
349.583	73.06
349.81	89.06
350.037	93.06
350.265	84.06
350.492	77.06
350.72	83.06
350.947	91.06
351.174	91.06
351.402	81.06
351.629	78.06
351.856	80.06
352.083	90.06
352.311	82.06
352.538	81.06
352.765	108.06
352.992	86.06
353.22	81.06
353.447	85.06
353.674	90.06
353.901	94.06
354.128	90.06
354.355	92.06
354.583	81.06
354.81	87.06
355.037	83.06
355.264	89.06
355.491	80.06
355.718	75.06
355.945	76.06
356.172	78.06
356.399	82.06
356.626	81.06
356.853	78.06
357.08	85.06
357.307	91.06
357.534	85.06
357.761	89.06
357.988	78.06
358.215	81.06
358.441	71.06
358.668	73.06
358.895	100.06
359.122	90.06
359.349	83.06
359.576	87.06
359.802	72.06
360.029	84.06
360.256	84.06
360.483	89.06
360.709	98.06
360.936	100.06
361.163	90.06
361.39	85.06
361.616	88.06
361.843	67.06
362.07	90.06
362.296	89.06
362.523	75.06
362.749	82.06
362.976	85.06
363.203	86.06
363.429	81.06
363.656	89.06
363.882	87.06
364.109	85.06
364.335	92.06
364.562	75.06
364.788	79.06
365.015	94.06
365.241	83.06
365.468	85.06
365.694	81.06
365.92	76.06
366.147	90.06
366.373	86.06
366.599	78.06
366.826	89.06
367.052	75.06
367.278	86.06
367.505	79.06
367.731	85.06
367.957	93.06
368.184	100.06
368.41	94.06
368.636	89.06
368.862	84.06
369.089	88.06
369.315	87.06
369.541	80.06
369.767	97.06
369.993	94.06
370.219	90.06
370.445	95.06
370.672	108.06
370.898	90.06
371.124	93.06
371.35	101.06
371.576	96.06
371.802	101.06
372.028	85.06
372.254	97.06
372.48	102.06
372.706	93.06
372.932	100.06
373.158	97.06
373.384	88.06
373.61	91.06
373.835	96.06
374.061	91.06
374.287	86.06
374.513	101.06
374.739	105.06
374.965	78.06
375.191	86.06
375.416	85.06
375.642	90.06
375.868	94.06
376.094	99.06
376.319	96.06
376.545	90.06
376.771	94.06
376.997	109.06
377.222	81.06
377.448	93.06
377.674	101.06
377.899	89.06
378.125	85.06
378.35	114.06
378.576	102.06
378.802	85.06
379.027	98.06
379.253	105.06
379.478	104.06
379.704	104.06
379.929	92.06
380.155	100.06
380.38	100.06
380.606	98.06
380.831	81.06
381.057	99.06
381.282	91.06
381.507	107.06
381.733	101.06
381.958	93.06
382.184	101.06
382.409	89.06
382.634	96.06
382.86	91.06
383.085	88.06
383.31	93.06
383.535	109.06
383.761	89.06
383.986	88.06
384.211	90.06
384.436	96.06
384.662	100.06
384.887	101.06
385.112	89.06
385.337	107.06
385.562	81.06
385.787	91.06
386.013	112.06
386.238	101.06
386.463	101.06
386.688	101.06
386.913	93.06
387.138	87.06
387.363	117.06
387.588	92.06
387.813	87.06
388.038	99.06
388.263	109.06
388.488	98.06
388.713	106.06
388.938	94.06
389.163	94.06
389.387	110.06
389.612	109.06
389.837	103.06
390.062	84.06
390.287	99.06
390.512	102.06
390.736	119.06
390.961	104.06
391.186	110.06
391.411	97.06
391.636	83.06
391.86	99.06
392.085	115.06
392.31	102.06
392.534	105.06
392.759	115.06
392.984	102.06
393.208	102.06
393.433	109.06
393.658	117.06
393.882	103.06
394.107	106.06
394.331	119.06
394.556	92.06
394.78	109.06
395.005	113.06
395.229	103.06
395.454	108.06
395.678	107.06
395.903	112.06
396.127	112.06
396.352	107.06
396.576	106.06
396.801	121.06
397.025	117.06
397.249	106.06
397.474	115.06
397.698	104.06
397.922	105.06
398.147	106.06
398.371	107.06
398.595	106.06
398.82	121.06
399.044	105.06
399.268	118.06
399.492	119.06
399.717	116.06
399.941	113.06
400.165	114.06
400.389	98.06
400.613	107.06
400.837	105.06
401.062	116.06
401.286	109.06
401.51	115.06
401.734	114.06
401.958	124.06
402.182	124.06
402.406	107.06
402.63	122.06
402.854	115.06
403.078	128.06
403.302	104.06
403.526	134.06
403.75	125.06
403.974	125.06
404.198	123.06
404.422	116.06
404.645	134.06
404.869	138.06
405.093	128.06
405.317	119.06
405.541	126.06
405.765	120.06
405.988	106.06
406.212	133.06
406.436	124.06
406.66	121.06
406.883	132.06
407.107	109.06
407.331	112.06
407.555	102.06
407.778	124.06
408.002	124.06
408.226	134.06
408.449	124.06
408.673	114.06
408.896	122.06
409.12	122.06
409.344	134.06
409.567	121.06
409.791	119.06
410.014	124.06
410.238	124.06
410.461	128.06
410.685	129.06
410.908	122.06
411.132	140.06
411.355	124.06
411.578	118.06
411.802	129.06
412.025	131.06
412.249	125.06
412.472	124.06
412.695	142.06
412.919	116.06
413.142	128.06
413.365	127.06
413.589	128.06
413.812	125.06
414.035	134.06
414.258	126.06
414.482	122.06
414.705	140.06
414.928	130.06
415.151	118.06
415.374	138.06
415.597	126.06
415.821	125.06
416.044	125.06
416.267	116.06
416.49	128.06
416.713	132.06
416.936	123.06
417.159	124.06
417.382	134.06
417.605	132.06
417.828	134.06
418.051	126.06
418.274	146.06
418.497	127.06
418.72	138.06
418.943	129.06
419.166	135.06
419.389	131.06
419.611	148.06
419.834	133.06
420.057	141.06
420.28	125.06
420.503	130.06
420.726	130.06
420.948	139.06
421.171	128.06
421.394	136.06
421.617	147.06
421.839	157.06
422.062	150.06
422.285	132.06
422.507	141.06
422.73	139.06
422.953	136.06
423.175	134.06
423.398	126.06
423.621	122.06
423.843	140.06
424.066	143.06
424.288	150.06
424.511	148.06
424.733	147.06
424.956	120.06
425.178	139.06
425.401	140.06
425.623	143.06
425.846	141.06
426.068	138.06
426.291	136.06
426.513	137.06
426.735	144.06
426.958	121.06
427.18	148.06
427.402	126.06
427.625	140.06
427.847	129.06
428.069	134.06
428.292	124.06
428.514	140.06
428.736	132.06
428.958	131.06
429.181	139.06
429.403	138.06
429.625	134.06
429.847	119.06
430.069	142.06
430.292	132.06
430.514	150.06
430.736	135.06
430.958	122.06
431.18	134.06
431.402	119.06
431.624	119.06
431.846	118.06
432.068	102.06
432.29	114.06
432.512	103.06
432.734	122.06
432.956	138.06
433.178	147.06
433.4	141.06
433.622	149.06
433.844	137.06
434.066	124.06
434.287	117.06
434.509	105.06
434.731	108.06
434.953	113.06
435.175	136.06
435.397	145.06
435.618	125.06
435.84	90.06
436.062	120.06
436.284	117.06
436.505	124.06
436.727	138.06
436.949	141.06
437.17	140.06
437.392	116.06
437.614	119.06
437.835	118.06
438.057	101.06
438.278	112.06
438.5	128.06
438.721	150.06
438.943	133.06
439.165	131.06
439.386	145.06
439.608	154.06
439.829	148.06
440.05	156.06
440.272	150.06
440.493	145.06
440.715	136.06
440.936	152.06
441.158	144.06
441.379	150.06
441.6	168.06
441.822	138.06
442.043	154.06
442.264	150.06
442.486	146.06
442.707	134.06
442.928	133.06
443.149	141.06
443.371	152.06
443.592	161.06
443.813	158.06
444.034	153.06
444.255	148.06
444.476	152.06
444.698	154.06
444.919	147.06
445.14	284.06
445.361	202.06
445.582	155.06
445.803	144.06
446.024	155.06
446.245	148.06
446.466	171.06
446.687	151.06
446.908	164.06
447.129	166.06
447.35	157.06
447.571	151.06
447.792	156.06
448.013	160.06
448.234	141.06
448.455	150.06
448.675	148.06
448.896	142.06
449.117	140.06
449.338	133.06
449.559	126.06
449.779	126.06
450	148.06
450.221	142.06
450.442	140.06
450.662	152.06
450.883	134.06
451.104	138.06
451.324	130.06
451.545	126.06
451.766	140.06
451.986	130.06
452.207	126.06
452.428	142.06
452.648	130.06
452.869	118.06
453.089	117.06
453.31	108.06
453.53	121.06
453.751	129.06
453.971	113.06
454.192	109.06
454.412	112.06
454.633	119.06
454.853	123.06
455.073	131.06
455.294	140.06
455.514	135.06
455.734	125.06
455.955	111.06
456.175	110.06
456.395	110.06
456.616	105.06
456.836	107.06
457.056	113.06
457.276	107.06
457.497	100.06
457.717	113.06
457.937	112.06
458.157	122.06
458.377	125.06
458.598	114.06
458.818	102.06
459.038	96.06
459.258	78.06
459.478	98.06
459.698	90.06
459.918	78.06
460.138	100.06
460.358	118.06
460.578	139.06
460.798	121.06
461.018	117.06
461.238	131.06
461.458	118.06
461.678	114.06
461.898	128.06
462.118	129.06
462.338	107.06
462.558	109.06
462.777	120.06
462.997	114.06
463.217	121.06
463.437	132.06
463.657	115.06
463.876	117.06
464.096	117.06
464.316	118.06
464.536	117.06
464.755	108.06
464.975	109.06
465.195	117.06
465.414	114.06
465.634	115.06
465.854	115.06
466.073	123.06
466.293	134.06
466.512	131.06
466.732	120.06
466.951	143.06
467.171	140.06
467.391	124.06
467.61	133.06
467.829	154.06
468.049	147.06
468.268	152.06
468.488	140.06
468.707	129.06
468.927	148.06
469.146	157.06
469.365	153.06
469.585	152.06
469.804	163.06
470.023	152.06
470.243	171.06
470.462	142.06
470.681	157.06
470.901	150.06
471.12	139.06
471.339	152.06
471.558	138.06
471.777	143.06
471.997	138.06
472.216	125.06
472.435	120.06
472.654	112.06
472.873	112.06
473.092	115.06
473.311	142.06
473.53	129.06
473.749	145.06
473.968	122.06
474.187	131.06
474.406	122.06
474.625	134.06
474.844	119.06
475.063	132.06
475.282	133.06
475.501	108.06
475.72	121.06
475.939	124.06
476.158	133.06
476.377	114.06
476.596	120.06
476.814	122.06
477.033	116.06
477.252	113.06
477.471	119.06
477.69	138.06
477.908	134.06
478.127	156.06
478.346	150.06
478.564	135.06
478.783	143.06
479.002	159.06
479.22	153.06
479.439	148.06
479.658	141.06
479.876	107.06
480.095	89.06
480.313	116.06
480.532	119.06
480.751	124.06
480.969	96.06
481.188	93.06
481.406	91.06
481.624	97.06
481.843	97.06
482.061	101.06
482.28	122.06
482.498	112.06
482.717	119.06
482.935	120.06
483.153	145.06
483.372	161.06
483.59	155.06
483.808	147.06
484.027	146.06
484.245	120.06
484.463	142.06
484.681	173.06
484.9	171.06
485.118	159.06
485.336	136.06
485.554	123.06
485.772	98.06
485.99	101.06
486.209	108.06
486.427	126.06
486.645	136.06
486.863	154.06
487.081	142.06
487.299	155.06
487.517	148.06
487.735	178.06
487.953	193.06
488.171	192.06
488.389	171.06
488.607	154.06
488.825	149.06
489.043	141.06
489.261	132.06
489.479	142.06
489.696	148.06
489.914	156.06
490.132	140.06
490.35	159.06
490.568	159.06
490.786	183.06
491.003	177.06
491.221	185.06
491.439	188.06
491.657	205.06
491.874	210.06
492.092	229.06
492.31	260.06
492.527	226.06
492.745	215.06
492.963	220.06
493.18	198.06
493.398	204.06
493.615	194.06
493.833	183.06
494.05	181.06
494.268	183.06
494.485	175.06
494.703	192.06
494.92	184.06
495.138	171.06
495.355	173.06
495.573	190.06
495.79	166.06
496.008	188.06
496.225	165.06
496.442	174.06
496.66	160.06
496.877	156.06
497.094	172.06
497.312	171.06
497.529	173.06
497.746	140.06
497.963	145.06
498.181	140.06
498.398	128.06
498.615	129.06
498.832	116.06
499.049	124.06
499.267	122.06
499.484	128.06
499.701	152.06
499.918	150.06
500.135	139.06
500.352	138.06
500.569	136.06
500.786	133.06
501.003	141.06
501.22	152.06
501.437	140.06
501.654	143.06
501.871	132.06
502.088	144.06
502.305	142.06
502.522	146.06
502.739	130.06
502.956	138.06
503.172	137.06
503.389	128.06
503.606	136.06
503.823	115.06
504.04	128.06
504.256	126.06
504.473	133.06
504.69	124.06
504.907	124.06
505.123	121.06
505.34	125.06
505.557	138.06
505.773	124.06
505.99	134.06
506.207	108.06
506.423	122.06
506.64	115.06
506.856	112.06
507.073	127.06
507.289	134.06
507.506	124.06
507.722	132.06
507.939	125.06
508.155	116.06
508.372	116.06
508.588	120.06
508.805	114.06
509.021	99.06
509.238	108.06
509.454	100.06
509.67	93.06
509.887	89.06
510.103	106.06
510.319	100.06
510.536	88.06
510.752	91.06
510.968	99.06
511.184	84.06
