Data from Location6.07152019.Energy5.Lamp.07192019.3%Agarose_HRD10591_16-12-28-395.txt Node
Date: Fri Jul 19 16:12:28 EDT 2019
User: cochatt
Spectrometer: HR+D1059
Trigger mode: 1
Integration Time (sec): 1.000000E-1
Scans to average: 1
Electric dark correction enabled: true
Nonlinearity correction enabled: false
Boxcar width: 0
XAxis mode: Wavelengths
Number of Pixels in Spectrum: 2048
>>>>>Begin Spectral Data<<<<<
223.165	-1.31
223.4	-1.31
223.635	-1.31
223.869	-24.31
224.104	-23.31
224.338	-9.31
224.573	-15.31
224.808	-25.31
225.042	-5.31
225.277	-9.31
225.511	-2.31
225.746	-0.31
225.98	4.69
226.215	18.69
226.449	21.69
226.683	15.69
226.918	29.69
227.152	25.69
227.387	36.69
227.621	44.69
227.856	40.69
228.09	44.69
228.324	42.69
228.559	47.69
228.793	66.69
229.027	71.69
229.262	54.69
229.496	63.69
229.73	65.69
229.964	73.69
230.199	79.69
230.433	67.69
230.667	73.69
230.901	77.69
231.136	87.69
231.37	80.69
231.604	81.69
231.838	80.69
232.072	82.69
232.306	79.69
232.541	67.69
232.775	85.69
233.009	76.69
233.243	87.69
233.477	85.69
233.711	79.69
233.945	77.69
234.179	81.69
234.413	84.69
234.647	75.69
234.881	85.69
235.115	77.69
235.349	78.69
235.583	81.69
235.817	75.69
236.051	80.69
236.285	90.69
236.519	84.69
236.753	66.69
236.987	86.69
237.221	68.69
237.455	65.69
237.689	89.69
237.922	78.69
238.156	75.69
238.39	85.69
238.624	68.69
238.858	88.69
239.091	75.69
239.325	91.69
239.559	90.69
239.793	78.69
240.027	81.69
240.26	65.69
240.494	72.69
240.728	72.69
240.961	78.69
241.195	75.69
241.429	73.69
241.662	77.69
241.896	73.69
242.13	78.69
242.363	83.69
242.597	74.69
242.83	82.69
243.064	75.69
243.298	74.69
243.531	78.69
243.765	85.69
243.998	80.69
244.232	95.69
244.465	76.69
244.699	69.69
244.932	73.69
245.166	70.69
245.399	84.69
245.633	67.69
245.866	79.69
246.099	77.69
246.333	77.69
246.566	75.69
246.8	90.69
247.033	71.69
247.266	66.69
247.5	65.69
247.733	84.69
247.966	86.69
248.2	88.69
248.433	95.69
248.666	72.69
248.899	77.69
249.133	79.69
249.366	82.69
249.599	86.69
249.832	67.69
250.066	73.69
250.299	75.69
250.532	86.69
250.765	82.69
250.998	68.69
251.231	72.69
251.465	75.69
251.698	81.69
251.931	71.69
252.164	82.69
252.397	72.69
252.63	82.69
252.863	73.69
253.096	84.69
253.329	93.69
253.562	81.69
253.795	74.69
254.028	71.69
254.261	77.69
254.494	73.69
254.727	79.69
254.96	91.69
255.193	73.69
255.426	76.69
255.659	82.69
255.892	73.69
256.124	79.69
256.357	88.69
256.59	75.69
256.823	85.69
257.056	77.69
257.289	73.69
257.521	84.69
257.754	89.69
257.987	69.69
258.22	87.69
258.452	87.69
258.685	73.69
258.918	72.69
259.151	66.69
259.383	87.69
259.616	78.69
259.849	74.69
260.081	71.69
260.314	83.69
260.547	76.69
260.779	85.69
261.012	73.69
261.244	96.69
261.477	81.69
261.71	86.69
261.942	79.69
262.175	84.69
262.407	82.69
262.64	82.69
262.872	64.69
263.105	79.69
263.337	84.69
263.57	85.69
263.802	66.69
264.035	75.69
264.267	74.69
264.499	87.69
264.732	76.69
264.964	86.69
265.197	85.69
265.429	79.69
265.661	82.69
265.894	79.69
266.126	75.69
266.358	84.69
266.591	89.69
266.823	85.69
267.055	77.69
267.287	90.69
267.52	88.69
267.752	86.69
267.984	87.69
268.216	80.69
268.448	88.69
268.681	87.69
268.913	84.69
269.145	82.69
269.377	80.69
269.609	79.69
269.841	89.69
270.073	83.69
270.306	71.69
270.538	93.69
270.77	79.69
271.002	76.69
271.234	80.69
271.466	80.69
271.698	83.69
271.93	87.69
272.162	80.69
272.394	82.69
272.626	80.69
272.858	83.69
273.09	84.69
273.322	77.69
273.553	84.69
273.785	92.69
274.017	75.69
274.249	66.69
274.481	97.69
274.713	77.69
274.945	81.69
275.176	88.69
275.408	80.69
275.64	84.69
275.872	84.69
276.104	80.69
276.335	88.69
276.567	67.69
276.799	72.69
277.031	76.69
277.262	92.69
277.494	84.69
277.726	85.69
277.957	74.69
278.189	92.69
278.421	86.69
278.652	89.69
278.884	88.69
279.115	85.69
279.347	71.69
279.579	78.69
279.81	81.69
280.042	85.69
280.273	97.69
280.505	90.69
280.736	94.69
280.968	76.69
281.199	99.69
281.431	79.69
281.662	88.69
281.894	81.69
282.125	73.69
282.356	86.69
282.588	86.69
282.819	79.69
283.051	85.69
283.282	92.69
283.513	84.69
283.745	90.69
283.976	80.69
284.207	82.69
284.439	81.69
284.67	82.69
284.901	82.69
285.132	85.69
285.364	75.69
285.595	85.69
285.826	94.69
286.057	75.69
286.288	75.69
286.52	74.69
286.751	78.69
286.982	89.69
287.213	83.69
287.444	88.69
287.675	71.69
287.906	88.69
288.138	86.69
288.369	97.69
288.6	96.69
288.831	73.69
289.062	77.69
289.293	103.69
289.524	98.69
289.755	82.69
289.986	78.69
290.217	75.69
290.448	81.69
290.679	94.69
290.91	77.69
291.141	94.69
291.371	82.69
291.602	88.69
291.833	74.69
292.064	92.69
292.295	97.69
292.526	82.69
292.757	85.69
292.987	77.69
293.218	89.69
293.449	83.69
293.68	79.69
293.91	91.69
294.141	83.69
294.372	89.69
294.603	82.69
294.833	71.69
295.064	79.69
295.295	90.69
295.525	88.69
295.756	88.69
295.987	71.69
296.217	87.69
296.448	74.69
296.679	74.69
296.909	89.69
297.14	90.69
297.37	75.69
297.601	91.69
297.831	85.69
298.062	77.69
298.292	81.69
298.523	73.69
298.753	80.69
298.984	79.69
299.214	72.69
299.445	74.69
299.675	86.69
299.905	76.69
300.136	85.69
300.366	84.69
300.597	89.69
300.827	86.69
301.057	97.69
301.288	85.69
301.518	83.69
301.748	81.69
301.979	77.69
302.209	95.69
302.439	73.69
302.669	88.69
302.9	68.69
303.13	80.69
303.36	86.69
303.59	86.69
303.82	72.69
304.051	64.69
304.281	78.69
304.511	74.69
304.741	85.69
304.971	77.69
305.201	80.69
305.431	77.69
305.661	82.69
305.891	86.69
306.121	76.69
306.352	78.69
306.582	73.69
306.812	91.69
307.042	89.69
307.272	90.69
307.502	104.69
307.731	80.69
307.961	87.69
308.191	84.69
308.421	79.69
308.651	83.69
308.881	76.69
309.111	80.69
309.341	65.69
309.571	66.69
309.8	94.69
310.03	85.69
310.26	83.69
310.49	100.69
310.72	93.69
310.949	79.69
311.179	88.69
311.409	89.69
311.639	89.69
311.868	89.69
312.098	102.69
312.328	92.69
312.557	80.69
312.787	82.69
313.017	92.69
313.246	80.69
313.476	86.69
313.706	92.69
313.935	78.69
314.165	88.69
314.394	87.69
314.624	80.69
314.853	80.69
315.083	76.69
315.312	86.69
315.542	94.69
315.771	79.69
316.001	93.69
316.23	86.69
316.46	89.69
316.689	96.69
316.919	79.69
317.148	82.69
317.377	88.69
317.607	90.69
317.836	87.69
318.065	83.69
318.295	74.69
318.524	94.69
318.753	87.69
318.983	75.69
319.212	89.69
319.441	90.69
319.67	88.69
319.9	83.69
320.129	89.69
320.358	67.69
320.587	85.69
320.816	89.69
321.046	88.69
321.275	83.69
321.504	66.69
321.733	78.69
321.962	83.69
322.191	74.69
322.42	70.69
322.649	90.69
322.878	83.69
323.108	85.69
323.337	66.69
323.566	78.69
323.795	99.69
324.024	70.69
324.253	90.69
324.482	73.69
324.71	72.69
324.939	85.69
325.168	85.69
325.397	82.69
325.626	79.69
325.855	84.69
326.084	96.69
326.313	79.69
326.542	79.69
326.77	92.69
326.999	82.69
327.228	83.69
327.457	86.69
327.686	88.69
327.914	81.69
328.143	78.69
328.372	73.69
328.6	72.69
328.829	73.69
329.058	87.69
329.287	83.69
329.515	79.69
329.744	82.69
329.972	85.69
330.201	85.69
330.43	88.69
330.658	94.69
330.887	89.69
331.115	88.69
331.344	96.69
331.572	86.69
331.801	75.69
332.03	74.69
332.258	82.69
332.486	92.69
332.715	82.69
332.943	73.69
333.172	70.69
333.4	73.69
333.629	72.69
333.857	95.69
334.085	77.69
334.314	81.69
334.542	78.69
334.771	70.69
334.999	82.69
335.227	86.69
335.455	77.69
335.684	80.69
335.912	80.69
336.14	89.69
336.369	79.69
336.597	86.69
336.825	94.69
337.053	74.69
337.281	79.69
337.51	81.69
337.738	80.69
337.966	69.69
338.194	71.69
338.422	81.69
338.65	76.69
338.878	85.69
339.106	83.69
339.334	83.69
339.562	84.69
339.79	86.69
340.018	88.69
340.246	81.69
340.474	78.69
340.702	95.69
340.93	81.69
341.158	93.69
341.386	75.69
341.614	73.69
341.842	88.69
342.07	86.69
342.298	71.69
342.526	76.69
342.754	95.69
342.981	74.69
343.209	68.69
343.437	78.69
343.665	87.69
343.893	80.69
344.12	81.69
344.348	80.69
344.576	75.69
344.804	74.69
345.031	86.69
345.259	72.69
345.487	89.69
345.714	76.69
345.942	77.69
346.17	82.69
346.397	89.69
346.625	74.69
346.853	76.69
347.08	85.69
347.308	75.69
347.535	79.69
347.763	93.69
347.99	89.69
348.218	68.69
348.445	89.69
348.673	80.69
348.9	87.69
349.128	100.69
349.355	72.69
349.583	79.69
349.81	75.69
350.037	73.69
350.265	94.69
350.492	89.69
350.72	73.69
350.947	89.69
351.174	81.69
351.402	81.69
351.629	82.69
351.856	70.69
352.083	82.69
352.311	69.69
352.538	77.69
352.765	93.69
352.992	92.69
353.22	81.69
353.447	78.69
353.674	81.69
353.901	79.69
354.128	79.69
354.355	81.69
354.583	82.69
354.81	89.69
355.037	70.69
355.264	85.69
355.491	84.69
355.718	86.69
355.945	80.69
356.172	84.69
356.399	84.69
356.626	101.69
356.853	82.69
357.08	86.69
357.307	85.69
357.534	73.69
357.761	102.69
357.988	82.69
358.215	83.69
358.441	71.69
358.668	92.69
358.895	78.69
359.122	97.69
359.349	75.69
359.576	75.69
359.802	75.69
360.029	88.69
360.256	84.69
360.483	74.69
360.709	76.69
360.936	75.69
361.163	77.69
361.39	75.69
361.616	90.69
361.843	87.69
362.07	84.69
362.296	88.69
362.523	78.69
362.749	81.69
362.976	74.69
363.203	98.69
363.429	85.69
363.656	74.69
363.882	78.69
364.109	84.69
364.335	89.69
364.562	85.69
364.788	89.69
365.015	86.69
365.241	81.69
365.468	82.69
365.694	94.69
365.92	96.69
366.147	82.69
366.373	80.69
366.599	95.69
366.826	92.69
367.052	93.69
367.278	90.69
367.505	94.69
367.731	80.69
367.957	83.69
368.184	93.69
368.41	92.69
368.636	89.69
368.862	88.69
369.089	110.69
369.315	98.69
369.541	112.69
369.767	77.69
369.993	82.69
370.219	94.69
370.445	81.69
370.672	93.69
370.898	87.69
371.124	77.69
371.35	77.69
371.576	96.69
371.802	97.69
372.028	92.69
372.254	73.69
372.48	103.69
372.706	99.69
372.932	92.69
373.158	85.69
373.384	84.69
373.61	97.69
373.835	102.69
374.061	95.69
374.287	96.69
374.513	85.69
374.739	95.69
374.965	97.69
375.191	84.69
375.416	85.69
375.642	93.69
375.868	94.69
376.094	89.69
376.319	91.69
376.545	81.69
376.771	94.69
376.997	98.69
377.222	96.69
377.448	93.69
377.674	89.69
377.899	105.69
378.125	86.69
378.35	93.69
378.576	102.69
378.802	110.69
379.027	94.69
379.253	97.69
379.478	93.69
379.704	100.69
379.929	94.69
380.155	104.69
380.38	102.69
380.606	93.69
380.831	90.69
381.057	92.69
381.282	88.69
381.507	88.69
381.733	92.69
381.958	99.69
382.184	79.69
382.409	107.69
382.634	102.69
382.86	94.69
383.085	81.69
383.31	94.69
383.535	82.69
383.761	94.69
383.986	100.69
384.211	98.69
384.436	90.69
384.662	106.69
384.887	108.69
385.112	105.69
385.337	100.69
385.562	91.69
385.787	89.69
386.013	118.69
386.238	98.69
386.463	102.69
386.688	109.69
386.913	86.69
387.138	96.69
387.363	105.69
387.588	100.69
387.813	91.69
388.038	95.69
388.263	93.69
388.488	99.69
388.713	101.69
388.938	115.69
389.163	110.69
389.387	101.69
389.612	101.69
389.837	97.69
390.062	113.69
390.287	108.69
390.512	99.69
390.736	103.69
390.961	95.69
391.186	104.69
391.411	111.69
391.636	105.69
391.86	100.69
392.085	108.69
392.31	104.69
392.534	108.69
392.759	102.69
392.984	94.69
393.208	95.69
393.433	103.69
393.658	102.69
393.882	93.69
394.107	94.69
394.331	127.69
394.556	102.69
394.78	97.69
395.005	108.69
395.229	116.69
395.454	112.69
395.678	108.69
395.903	100.69
396.127	106.69
396.352	97.69
396.576	103.69
396.801	108.69
397.025	110.69
397.249	109.69
397.474	105.69
397.698	96.69
397.922	103.69
398.147	120.69
398.371	105.69
398.595	103.69
398.82	109.69
399.044	102.69
399.268	112.69
399.492	106.69
399.717	114.69
399.941	123.69
400.165	98.69
400.389	114.69
400.613	110.69
400.837	103.69
401.062	112.69
401.286	107.69
401.51	97.69
401.734	99.69
401.958	117.69
402.182	110.69
402.406	106.69
402.63	117.69
402.854	99.69
403.078	107.69
403.302	107.69
403.526	125.69
403.75	132.69
403.974	124.69
404.198	118.69
404.422	116.69
404.645	117.69
404.869	117.69
405.093	129.69
405.317	100.69
405.541	110.69
405.765	110.69
405.988	121.69
406.212	116.69
406.436	105.69
406.66	113.69
406.883	118.69
407.107	112.69
407.331	112.69
407.555	110.69
407.778	127.69
408.002	126.69
408.226	120.69
408.449	119.69
408.673	122.69
408.896	124.69
409.12	129.69
409.344	124.69
409.567	127.69
409.791	122.69
410.014	124.69
410.238	119.69
410.461	119.69
410.685	131.69
410.908	122.69
411.132	130.69
411.355	125.69
411.578	113.69
411.802	124.69
412.025	113.69
412.249	125.69
412.472	130.69
412.695	119.69
412.919	125.69
413.142	119.69
413.365	116.69
413.589	133.69
413.812	121.69
414.035	124.69
414.258	111.69
414.482	124.69
414.705	122.69
414.928	111.69
415.151	118.69
415.374	122.69
415.597	122.69
415.821	132.69
416.044	125.69
416.267	132.69
416.49	149.69
416.713	126.69
416.936	110.69
417.159	137.69
417.382	112.69
417.605	136.69
417.828	128.69
418.051	133.69
418.274	112.69
418.497	136.69
418.72	142.69
418.943	126.69
419.166	135.69
419.389	118.69
419.611	118.69
419.834	123.69
420.057	136.69
420.28	137.69
420.503	127.69
420.726	149.69
420.948	130.69
421.171	135.69
421.394	133.69
421.617	159.69
421.839	154.69
422.062	148.69
422.285	136.69
422.507	121.69
422.73	129.69
422.953	134.69
423.175	121.69
423.398	144.69
423.621	133.69
423.843	126.69
424.066	147.69
424.288	146.69
424.511	136.69
424.733	142.69
424.956	149.69
425.178	147.69
425.401	153.69
425.623	138.69
425.846	146.69
426.068	142.69
426.291	126.69
426.513	133.69
426.735	137.69
426.958	149.69
427.18	133.69
427.402	144.69
427.625	129.69
427.847	128.69
428.069	135.69
428.292	122.69
428.514	128.69
428.736	132.69
428.958	138.69
429.181	137.69
429.403	126.69
429.625	138.69
429.847	127.69
430.069	137.69
430.292	139.69
430.514	124.69
430.736	123.69
430.958	127.69
431.18	138.69
431.402	121.69
431.624	127.69
431.846	103.69
432.068	100.69
432.29	90.69
432.512	126.69
432.734	135.69
432.956	130.69
433.178	134.69
433.4	152.69
433.622	142.69
433.844	147.69
434.066	125.69
434.287	104.69
434.509	98.69
434.731	105.69
434.953	97.69
435.175	131.69
435.397	128.69
435.618	127.69
435.84	112.69
436.062	121.69
436.284	128.69
436.505	121.69
436.727	136.69
436.949	120.69
437.17	139.69
437.392	128.69
437.614	126.69
437.835	106.69
438.057	113.69
438.278	88.69
438.5	134.69
438.721	129.69
438.943	132.69
439.165	138.69
439.386	138.69
439.608	147.69
439.829	147.69
440.05	148.69
440.272	139.69
440.493	152.69
440.715	140.69
440.936	151.69
441.158	134.69
441.379	161.69
441.6	153.69
441.822	153.69
442.043	151.69
442.264	138.69
442.486	163.69
442.707	138.69
442.928	134.69
443.149	159.69
443.371	128.69
443.592	129.69
443.813	154.69
444.034	141.69
444.255	139.69
444.476	138.69
444.698	133.69
444.919	143.69
445.14	258.69
445.361	199.69
445.582	161.69
445.803	159.69
446.024	166.69
446.245	159.69
446.466	141.69
446.687	164.69
446.908	149.69
447.129	160.69
447.35	160.69
447.571	160.69
447.792	150.69
448.013	137.69
448.234	142.69
448.455	136.69
448.675	136.69
448.896	139.69
449.117	120.69
449.338	127.69
449.559	129.69
449.779	132.69
450	144.69
450.221	144.69
450.442	136.69
450.662	134.69
450.883	138.69
451.104	141.69
451.324	138.69
451.545	142.69
451.766	139.69
451.986	135.69
452.207	140.69
452.428	119.69
452.648	124.69
452.869	117.69
453.089	124.69
453.31	117.69
453.53	114.69
453.751	101.69
453.971	108.69
454.192	104.69
454.412	115.69
454.633	116.69
454.853	115.69
455.073	129.69
455.294	119.69
455.514	138.69
455.734	115.69
455.955	129.69
456.175	119.69
456.395	118.69
456.616	114.69
456.836	109.69
457.056	112.69
457.276	114.69
457.497	114.69
457.717	103.69
457.937	116.69
458.157	98.69
458.377	103.69
458.598	112.69
458.818	97.69
459.038	84.69
459.258	94.69
459.478	91.69
459.698	79.69
459.918	98.69
460.138	108.69
460.358	106.69
460.578	116.69
460.798	124.69
461.018	122.69
461.238	130.69
461.458	138.69
461.678	112.69
461.898	116.69
462.118	99.69
462.338	110.69
462.558	117.69
462.777	104.69
462.997	112.69
463.217	103.69
463.437	118.69
463.657	101.69
463.876	100.69
464.096	118.69
464.316	102.69
464.536	115.69
464.755	123.69
464.975	115.69
465.195	122.69
465.414	136.69
465.634	120.69
465.854	123.69
466.073	112.69
466.293	128.69
466.512	108.69
466.732	133.69
466.951	139.69
467.171	127.69
467.391	131.69
467.61	132.69
467.829	150.69
468.049	145.69
468.268	138.69
468.488	134.69
468.707	139.69
468.927	144.69
469.146	121.69
469.365	133.69
469.585	136.69
469.804	149.69
470.023	136.69
470.243	146.69
470.462	144.69
470.681	150.69
470.901	143.69
471.12	147.69
471.339	140.69
471.558	120.69
471.777	123.69
471.997	124.69
472.216	133.69
472.435	126.69
472.654	112.69
472.873	114.69
473.092	97.69
473.311	121.69
473.53	123.69
473.749	130.69
473.968	127.69
474.187	134.69
474.406	113.69
474.625	128.69
474.844	142.69
475.063	124.69
475.282	122.69
475.501	120.69
475.72	131.69
475.939	121.69
476.158	114.69
476.377	120.69
476.596	118.69
476.814	119.69
477.033	126.69
477.252	123.69
477.471	124.69
477.69	143.69
477.908	156.69
478.127	151.69
478.346	134.69
478.564	134.69
478.783	114.69
479.002	144.69
479.22	138.69
479.439	130.69
479.658	111.69
479.876	123.69
480.095	120.69
480.313	118.69
480.532	116.69
480.751	123.69
480.969	101.69
481.188	91.69
481.406	103.69
481.624	99.69
481.843	90.69
482.061	93.69
482.28	108.69
482.498	112.69
482.717	103.69
482.935	124.69
483.153	159.69
483.372	150.69
483.59	166.69
483.808	143.69
484.027	128.69
484.245	145.69
484.463	154.69
484.681	170.69
484.9	157.69
485.118	138.69
485.336	137.69
485.554	109.69
485.772	102.69
485.99	99.69
486.209	122.69
486.427	128.69
486.645	125.69
486.863	149.69
487.081	137.69
487.299	150.69
487.517	144.69
487.735	166.69
487.953	196.69
488.171	184.69
488.389	169.69
488.607	152.69
488.825	153.69
489.043	142.69
489.261	114.69
489.479	153.69
489.696	160.69
489.914	137.69
490.132	152.69
490.35	165.69
490.568	166.69
490.786	189.69
491.003	186.69
491.221	185.69
491.439	192.69
491.657	206.69
491.874	212.69
492.092	232.69
492.31	238.69
492.527	247.69
492.745	203.69
492.963	189.69
493.18	206.69
493.398	201.69
493.615	179.69
493.833	178.69
494.05	172.69
494.268	188.69
494.485	177.69
494.703	183.69
494.92	172.69
495.138	185.69
495.355	172.69
495.573	180.69
495.79	186.69
496.008	156.69
496.225	173.69
496.442	178.69
496.66	168.69
496.877	172.69
497.094	159.69
497.312	156.69
497.529	168.69
497.746	161.69
497.963	154.69
498.181	118.69
498.398	126.69
498.615	122.69
498.832	127.69
499.049	122.69
499.267	125.69
499.484	126.69
499.701	123.69
499.918	137.69
500.135	162.69
500.352	142.69
500.569	136.69
500.786	167.69
501.003	139.69
501.22	153.69
501.437	143.69
501.654	136.69
501.871	129.69
502.088	142.69
502.305	128.69
502.522	129.69
502.739	136.69
502.956	123.69
503.172	126.69
503.389	114.69
503.606	119.69
503.823	115.69
504.04	120.69
504.256	137.69
504.473	126.69
504.69	126.69
504.907	119.69
505.123	118.69
505.34	121.69
505.557	133.69
505.773	130.69
505.99	114.69
506.207	117.69
506.423	127.69
506.64	126.69
506.856	129.69
507.073	113.69
507.289	124.69
507.506	130.69
507.722	125.69
507.939	124.69
508.155	132.69
508.372	112.69
508.588	114.69
508.805	112.69
509.021	103.69
509.238	109.69
509.454	112.69
509.67	100.69
509.887	98.69
510.103	96.69
510.319	97.69
510.536	105.69
510.752	84.69
510.968	86.69
511.184	85.69
511.401	88.69
511.617	93.69
