Data from Location6.07152019.Energy5.Lamp.07192019.3%Agarose_HRD10591_16-12-06-394.txt Node
Date: Fri Jul 19 16:12:06 EDT 2019
User: cochatt
Spectrometer: HR+D1059
Trigger mode: 1
Integration Time (sec): 1.000000E-1
Scans to average: 1
Electric dark correction enabled: true
Nonlinearity correction enabled: false
Boxcar width: 0
XAxis mode: Wavelengths
Number of Pixels in Spectrum: 2048
>>>>>Begin Spectral Data<<<<<
223.165	-6.56
223.4	-6.56
223.635	-6.56
223.869	-32.56
224.104	-19.56
224.338	-21.56
224.573	-18.56
224.808	-3.56
225.042	-12.56
225.277	-6.56
225.511	-0.56
225.746	2.44
225.98	12.44
226.215	16.44
226.449	11.44
226.683	22.44
226.918	25.44
227.152	31.44
227.387	36.44
227.621	35.44
227.856	42.44
228.09	33.44
228.324	46.44
228.559	46.44
228.793	49.44
229.027	68.44
229.262	59.44
229.496	62.44
229.73	64.44
229.964	74.44
230.199	87.44
230.433	77.44
230.667	68.44
230.901	71.44
231.136	78.44
231.37	66.44
231.604	73.44
231.838	78.44
232.072	72.44
232.306	91.44
232.541	75.44
232.775	91.44
233.009	83.44
233.243	60.44
233.477	76.44
233.711	71.44
233.945	85.44
234.179	91.44
234.413	79.44
234.647	87.44
234.881	86.44
235.115	84.44
235.349	84.44
235.583	88.44
235.817	81.44
236.051	79.44
236.285	79.44
236.519	74.44
236.753	80.44
236.987	81.44
237.221	74.44
237.455	65.44
237.689	77.44
237.922	75.44
238.156	71.44
238.39	69.44
238.624	73.44
238.858	81.44
239.091	82.44
239.325	87.44
239.559	75.44
239.793	83.44
240.027	71.44
240.26	78.44
240.494	71.44
240.728	73.44
240.961	80.44
241.195	81.44
241.429	65.44
241.662	73.44
241.896	73.44
242.13	79.44
242.363	77.44
242.597	70.44
242.83	64.44
243.064	58.44
243.298	73.44
243.531	75.44
243.765	78.44
243.998	69.44
244.232	61.44
244.465	72.44
244.699	75.44
244.932	71.44
245.166	78.44
245.399	79.44
245.633	88.44
245.866	77.44
246.099	77.44
246.333	84.44
246.566	71.44
246.8	76.44
247.033	84.44
247.266	68.44
247.5	75.44
247.733	72.44
247.966	84.44
248.2	91.44
248.433	87.44
248.666	58.44
248.899	68.44
249.133	84.44
249.366	76.44
249.599	84.44
249.832	82.44
250.066	81.44
250.299	74.44
250.532	80.44
250.765	92.44
250.998	87.44
251.231	64.44
251.465	75.44
251.698	80.44
251.931	81.44
252.164	80.44
252.397	75.44
252.63	72.44
252.863	78.44
253.096	74.44
253.329	66.44
253.562	81.44
253.795	72.44
254.028	82.44
254.261	90.44
254.494	64.44
254.727	80.44
254.96	86.44
255.193	72.44
255.426	80.44
255.659	92.44
255.892	82.44
256.124	83.44
256.357	82.44
256.59	83.44
256.823	74.44
257.056	92.44
257.289	83.44
257.521	89.44
257.754	75.44
257.987	76.44
258.22	82.44
258.452	73.44
258.685	74.44
258.918	83.44
259.151	74.44
259.383	94.44
259.616	80.44
259.849	73.44
260.081	78.44
260.314	84.44
260.547	83.44
260.779	79.44
261.012	85.44
261.244	72.44
261.477	95.44
261.71	67.44
261.942	79.44
262.175	78.44
262.407	72.44
262.64	69.44
262.872	80.44
263.105	71.44
263.337	72.44
263.57	77.44
263.802	72.44
264.035	85.44
264.267	91.44
264.499	74.44
264.732	81.44
264.964	86.44
265.197	77.44
265.429	76.44
265.661	85.44
265.894	99.44
266.126	83.44
266.358	72.44
266.591	87.44
266.823	90.44
267.055	65.44
267.287	66.44
267.52	84.44
267.752	84.44
267.984	71.44
268.216	84.44
268.448	93.44
268.681	88.44
268.913	69.44
269.145	79.44
269.377	86.44
269.609	83.44
269.841	94.44
270.073	64.44
270.306	75.44
270.538	80.44
270.77	72.44
271.002	81.44
271.234	74.44
271.466	93.44
271.698	94.44
271.93	99.44
272.162	87.44
272.394	92.44
272.626	89.44
272.858	76.44
273.09	75.44
273.322	72.44
273.553	96.44
273.785	78.44
274.017	82.44
274.249	71.44
274.481	82.44
274.713	78.44
274.945	79.44
275.176	72.44
275.408	79.44
275.64	88.44
275.872	81.44
276.104	83.44
276.335	82.44
276.567	82.44
276.799	80.44
277.031	75.44
277.262	88.44
277.494	76.44
277.726	58.44
277.957	89.44
278.189	82.44
278.421	94.44
278.652	74.44
278.884	79.44
279.115	86.44
279.347	78.44
279.579	84.44
279.81	82.44
280.042	80.44
280.273	75.44
280.505	83.44
280.736	83.44
280.968	86.44
281.199	94.44
281.431	79.44
281.662	84.44
281.894	85.44
282.125	77.44
282.356	87.44
282.588	81.44
282.819	78.44
283.051	90.44
283.282	88.44
283.513	75.44
283.745	101.44
283.976	86.44
284.207	81.44
284.439	67.44
284.67	86.44
284.901	91.44
285.132	81.44
285.364	90.44
285.595	86.44
285.826	92.44
286.057	66.44
286.288	92.44
286.52	89.44
286.751	93.44
286.982	76.44
287.213	71.44
287.444	90.44
287.675	88.44
287.906	86.44
288.138	99.44
288.369	94.44
288.6	81.44
288.831	94.44
289.062	88.44
289.293	74.44
289.524	71.44
289.755	84.44
289.986	80.44
290.217	85.44
290.448	81.44
290.679	84.44
290.91	86.44
291.141	95.44
291.371	89.44
291.602	68.44
291.833	99.44
292.064	86.44
292.295	73.44
292.526	84.44
292.757	76.44
292.987	88.44
293.218	99.44
293.449	88.44
293.68	77.44
293.91	86.44
294.141	86.44
294.372	90.44
294.603	82.44
294.833	72.44
295.064	94.44
295.295	80.44
295.525	75.44
295.756	94.44
295.987	82.44
296.217	79.44
296.448	85.44
296.679	73.44
296.909	96.44
297.14	84.44
297.37	85.44
297.601	82.44
297.831	92.44
298.062	86.44
298.292	79.44
298.523	82.44
298.753	85.44
298.984	83.44
299.214	76.44
299.445	82.44
299.675	71.44
299.905	72.44
300.136	95.44
300.366	95.44
300.597	79.44
300.827	81.44
301.057	88.44
301.288	70.44
301.518	90.44
301.748	91.44
301.979	75.44
302.209	90.44
302.439	87.44
302.669	76.44
302.9	93.44
303.13	75.44
303.36	77.44
303.59	87.44
303.82	82.44
304.051	70.44
304.281	86.44
304.511	83.44
304.741	78.44
304.971	86.44
305.201	75.44
305.431	79.44
305.661	70.44
305.891	80.44
306.121	81.44
306.352	85.44
306.582	71.44
306.812	64.44
307.042	82.44
307.272	68.44
307.502	85.44
307.731	86.44
307.961	97.44
308.191	81.44
308.421	96.44
308.651	73.44
308.881	76.44
309.111	65.44
309.341	88.44
309.571	90.44
309.8	80.44
310.03	87.44
310.26	82.44
310.49	79.44
310.72	90.44
310.949	72.44
311.179	91.44
311.409	86.44
311.639	86.44
311.868	85.44
312.098	81.44
312.328	103.44
312.557	84.44
312.787	91.44
313.017	89.44
313.246	87.44
313.476	84.44
313.706	71.44
313.935	86.44
314.165	98.44
314.394	86.44
314.624	89.44
314.853	84.44
315.083	91.44
315.312	88.44
315.542	90.44
315.771	82.44
316.001	86.44
316.23	82.44
316.46	85.44
316.689	94.44
316.919	79.44
317.148	74.44
317.377	85.44
317.607	83.44
317.836	73.44
318.065	86.44
318.295	68.44
318.524	76.44
318.753	89.44
318.983	84.44
319.212	90.44
319.441	91.44
319.67	89.44
319.9	84.44
320.129	77.44
320.358	85.44
320.587	93.44
320.816	93.44
321.046	83.44
321.275	93.44
321.504	108.44
321.733	84.44
321.962	67.44
322.191	80.44
322.42	72.44
322.649	86.44
322.878	79.44
323.108	96.44
323.337	97.44
323.566	96.44
323.795	82.44
324.024	98.44
324.253	76.44
324.482	88.44
324.71	83.44
324.939	79.44
325.168	82.44
325.397	79.44
325.626	84.44
325.855	87.44
326.084	80.44
326.313	95.44
326.542	79.44
326.77	78.44
326.999	62.44
327.228	75.44
327.457	68.44
327.686	87.44
327.914	80.44
328.143	96.44
328.372	77.44
328.6	79.44
328.829	76.44
329.058	89.44
329.287	87.44
329.515	81.44
329.744	92.44
329.972	82.44
330.201	85.44
330.43	85.44
330.658	84.44
330.887	81.44
331.115	70.44
331.344	82.44
331.572	88.44
331.801	90.44
332.03	82.44
332.258	79.44
332.486	84.44
332.715	96.44
332.943	85.44
333.172	87.44
333.4	79.44
333.629	72.44
333.857	78.44
334.085	80.44
334.314	83.44
334.542	91.44
334.771	88.44
334.999	70.44
335.227	79.44
335.455	85.44
335.684	91.44
335.912	88.44
336.14	73.44
336.369	83.44
336.597	90.44
336.825	81.44
337.053	82.44
337.281	68.44
337.51	84.44
337.738	88.44
337.966	79.44
338.194	72.44
338.422	86.44
338.65	97.44
338.878	89.44
339.106	97.44
339.334	96.44
339.562	82.44
339.79	85.44
340.018	78.44
340.246	89.44
340.474	87.44
340.702	83.44
340.93	86.44
341.158	75.44
341.386	77.44
341.614	81.44
341.842	80.44
342.07	78.44
342.298	95.44
342.526	91.44
342.754	80.44
342.981	85.44
343.209	78.44
343.437	105.44
343.665	86.44
343.893	80.44
344.12	94.44
344.348	83.44
344.576	81.44
344.804	82.44
345.031	84.44
345.259	103.44
345.487	82.44
345.714	84.44
345.942	81.44
346.17	80.44
346.397	77.44
346.625	83.44
346.853	94.44
347.08	88.44
347.308	79.44
347.535	90.44
347.763	87.44
347.99	96.44
348.218	83.44
348.445	91.44
348.673	102.44
348.9	102.44
349.128	83.44
349.355	70.44
349.583	95.44
349.81	83.44
350.037	79.44
350.265	103.44
350.492	78.44
350.72	87.44
350.947	88.44
351.174	82.44
351.402	85.44
351.629	95.44
351.856	76.44
352.083	86.44
352.311	91.44
352.538	78.44
352.765	87.44
352.992	83.44
353.22	73.44
353.447	104.44
353.674	91.44
353.901	76.44
354.128	83.44
354.355	72.44
354.583	89.44
354.81	81.44
355.037	82.44
355.264	72.44
355.491	88.44
355.718	74.44
355.945	87.44
356.172	78.44
356.399	90.44
356.626	91.44
356.853	79.44
357.08	76.44
357.307	87.44
357.534	91.44
357.761	97.44
357.988	81.44
358.215	86.44
358.441	75.44
358.668	91.44
358.895	75.44
359.122	91.44
359.349	78.44
359.576	74.44
359.802	82.44
360.029	85.44
360.256	85.44
360.483	84.44
360.709	92.44
360.936	82.44
361.163	75.44
361.39	79.44
361.616	104.44
361.843	72.44
362.07	77.44
362.296	82.44
362.523	97.44
362.749	85.44
362.976	76.44
363.203	99.44
363.429	83.44
363.656	90.44
363.882	89.44
364.109	85.44
364.335	91.44
364.562	67.44
364.788	71.44
365.015	88.44
365.241	85.44
365.468	102.44
365.694	91.44
365.92	88.44
366.147	79.44
366.373	80.44
366.599	91.44
366.826	82.44
367.052	95.44
367.278	84.44
367.505	90.44
367.731	102.44
367.957	101.44
368.184	87.44
368.41	81.44
368.636	80.44
368.862	84.44
369.089	89.44
369.315	101.44
369.541	89.44
369.767	97.44
369.993	68.44
370.219	88.44
370.445	76.44
370.672	89.44
370.898	84.44
371.124	83.44
371.35	80.44
371.576	83.44
371.802	86.44
372.028	88.44
372.254	93.44
372.48	89.44
372.706	90.44
372.932	93.44
373.158	74.44
373.384	94.44
373.61	103.44
373.835	97.44
374.061	81.44
374.287	93.44
374.513	90.44
374.739	95.44
374.965	92.44
375.191	87.44
375.416	95.44
375.642	84.44
375.868	88.44
376.094	95.44
376.319	88.44
376.545	106.44
376.771	89.44
376.997	95.44
377.222	85.44
377.448	89.44
377.674	96.44
377.899	92.44
378.125	103.44
378.35	93.44
378.576	100.44
378.802	103.44
379.027	95.44
379.253	99.44
379.478	100.44
379.704	99.44
379.929	109.44
380.155	96.44
380.38	103.44
380.606	104.44
380.831	102.44
381.057	103.44
381.282	90.44
381.507	103.44
381.733	94.44
381.958	91.44
382.184	90.44
382.409	100.44
382.634	102.44
382.86	85.44
383.085	103.44
383.31	97.44
383.535	91.44
383.761	107.44
383.986	97.44
384.211	87.44
384.436	91.44
384.662	97.44
384.887	110.44
385.112	86.44
385.337	87.44
385.562	80.44
385.787	115.44
386.013	105.44
386.238	95.44
386.463	91.44
386.688	98.44
386.913	106.44
387.138	105.44
387.363	106.44
387.588	104.44
387.813	99.44
388.038	102.44
388.263	107.44
388.488	93.44
388.713	99.44
388.938	94.44
389.163	98.44
389.387	99.44
389.612	99.44
389.837	106.44
390.062	97.44
390.287	105.44
390.512	95.44
390.736	97.44
390.961	80.44
391.186	100.44
391.411	104.44
391.636	94.44
391.86	105.44
392.085	95.44
392.31	96.44
392.534	108.44
392.759	113.44
392.984	114.44
393.208	104.44
393.433	100.44
393.658	105.44
393.882	106.44
394.107	109.44
394.331	104.44
394.556	105.44
394.78	123.44
395.005	106.44
395.229	114.44
395.454	110.44
395.678	112.44
395.903	117.44
396.127	98.44
396.352	94.44
396.576	106.44
396.801	105.44
397.025	105.44
397.249	94.44
397.474	98.44
397.698	126.44
397.922	96.44
398.147	104.44
398.371	124.44
398.595	126.44
398.82	91.44
399.044	110.44
399.268	104.44
399.492	116.44
399.717	112.44
399.941	115.44
400.165	111.44
400.389	120.44
400.613	130.44
400.837	112.44
401.062	115.44
401.286	113.44
401.51	108.44
401.734	112.44
401.958	129.44
402.182	121.44
402.406	107.44
402.63	121.44
402.854	120.44
403.078	112.44
403.302	110.44
403.526	119.44
403.75	114.44
403.974	128.44
404.198	122.44
404.422	125.44
404.645	128.44
404.869	118.44
405.093	112.44
405.317	117.44
405.541	122.44
405.765	126.44
405.988	112.44
406.212	121.44
406.436	100.44
406.66	117.44
406.883	103.44
407.107	116.44
407.331	126.44
407.555	122.44
407.778	110.44
408.002	132.44
408.226	126.44
408.449	122.44
408.673	127.44
408.896	116.44
409.12	107.44
409.344	102.44
409.567	120.44
409.791	121.44
410.014	125.44
410.238	125.44
410.461	129.44
410.685	131.44
410.908	130.44
411.132	117.44
411.355	122.44
411.578	116.44
411.802	120.44
412.025	122.44
412.249	131.44
412.472	121.44
412.695	114.44
412.919	122.44
413.142	127.44
413.365	136.44
413.589	129.44
413.812	132.44
414.035	112.44
414.258	124.44
414.482	112.44
414.705	126.44
414.928	128.44
415.151	125.44
415.374	115.44
415.597	130.44
415.821	141.44
416.044	122.44
416.267	119.44
416.49	107.44
416.713	121.44
416.936	127.44
417.159	121.44
417.382	132.44
417.605	132.44
417.828	129.44
418.051	140.44
418.274	132.44
418.497	150.44
418.72	130.44
418.943	140.44
419.166	132.44
419.389	144.44
419.611	132.44
419.834	137.44
420.057	138.44
420.28	135.44
420.503	128.44
420.726	146.44
420.948	136.44
421.171	126.44
421.394	138.44
421.617	135.44
421.839	155.44
422.062	138.44
422.285	146.44
422.507	146.44
422.73	118.44
422.953	122.44
423.175	124.44
423.398	134.44
423.621	123.44
423.843	140.44
424.066	150.44
424.288	142.44
424.511	151.44
424.733	154.44
424.956	150.44
425.178	152.44
425.401	145.44
425.623	144.44
425.846	137.44
426.068	140.44
426.291	128.44
426.513	144.44
426.735	126.44
426.958	136.44
427.18	139.44
427.402	126.44
427.625	140.44
427.847	140.44
428.069	135.44
428.292	120.44
428.514	127.44
428.736	125.44
428.958	134.44
429.181	130.44
429.403	120.44
429.625	139.44
429.847	130.44
430.069	139.44
430.292	126.44
430.514	134.44
430.736	129.44
430.958	130.44
431.18	131.44
431.402	135.44
431.624	132.44
431.846	100.44
432.068	110.44
432.29	105.44
432.512	117.44
432.734	114.44
432.956	126.44
433.178	150.44
433.4	145.44
433.622	134.44
433.844	146.44
434.066	130.44
434.287	110.44
434.509	94.44
434.731	102.44
434.953	118.44
435.175	110.44
435.397	118.44
435.618	105.44
435.84	113.44
436.062	113.44
436.284	130.44
436.505	128.44
436.727	145.44
436.949	143.44
437.17	131.44
437.392	141.44
437.614	118.44
437.835	117.44
438.057	108.44
438.278	112.44
438.5	107.44
438.721	114.44
438.943	142.44
439.165	128.44
439.386	123.44
439.608	132.44
439.829	153.44
440.05	145.44
440.272	156.44
440.493	129.44
440.715	143.44
440.936	136.44
441.158	144.44
441.379	145.44
441.6	164.44
441.822	160.44
442.043	163.44
442.264	139.44
442.486	140.44
442.707	136.44
442.928	143.44
443.149	133.44
443.371	153.44
443.592	141.44
443.813	135.44
444.034	136.44
444.255	131.44
444.476	145.44
444.698	153.44
444.919	150.44
445.14	267.44
445.361	212.44
445.582	160.44
445.803	156.44
446.024	147.44
446.245	155.44
446.466	165.44
446.687	162.44
446.908	152.44
447.129	146.44
447.35	170.44
447.571	155.44
447.792	139.44
448.013	148.44
448.234	139.44
448.455	136.44
448.675	156.44
448.896	154.44
449.117	153.44
449.338	136.44
449.559	164.44
449.779	142.44
450	141.44
450.221	140.44
450.442	134.44
450.662	145.44
450.883	130.44
451.104	143.44
451.324	138.44
451.545	126.44
451.766	126.44
451.986	127.44
452.207	125.44
452.428	122.44
452.648	128.44
452.869	128.44
453.089	136.44
453.31	117.44
453.53	110.44
453.751	95.44
453.971	102.44
454.192	101.44
454.412	105.44
454.633	122.44
454.853	121.44
455.073	136.44
455.294	117.44
455.514	123.44
455.734	126.44
455.955	110.44
456.175	108.44
456.395	107.44
456.616	119.44
456.836	114.44
457.056	112.44
457.276	120.44
457.497	97.44
457.717	107.44
457.937	119.44
458.157	117.44
458.377	113.44
458.598	110.44
458.818	97.44
459.038	99.44
459.258	86.44
459.478	80.44
459.698	84.44
459.918	100.44
460.138	103.44
460.358	109.44
460.578	138.44
460.798	115.44
461.018	107.44
461.238	119.44
461.458	130.44
461.678	106.44
461.898	113.44
462.118	114.44
462.338	109.44
462.558	110.44
462.777	104.44
462.997	114.44
463.217	113.44
463.437	115.44
463.657	97.44
463.876	97.44
464.096	115.44
464.316	109.44
464.536	102.44
464.755	124.44
464.975	119.44
465.195	103.44
465.414	112.44
465.634	109.44
465.854	138.44
466.073	129.44
466.293	135.44
466.512	130.44
466.732	122.44
466.951	143.44
467.171	128.44
467.391	128.44
467.61	136.44
467.829	146.44
468.049	128.44
468.268	153.44
468.488	145.44
468.707	129.44
468.927	131.44
469.146	148.44
469.365	155.44
469.585	151.44
469.804	150.44
470.023	139.44
470.243	142.44
470.462	154.44
470.681	133.44
470.901	162.44
471.12	156.44
471.339	146.44
471.558	162.44
471.777	139.44
471.997	138.44
472.216	138.44
472.435	123.44
472.654	122.44
472.873	117.44
473.092	103.44
473.311	116.44
473.53	132.44
473.749	135.44
473.968	144.44
474.187	136.44
474.406	107.44
474.625	131.44
474.844	124.44
475.063	122.44
475.282	123.44
475.501	128.44
475.72	127.44
475.939	147.44
476.158	136.44
476.377	131.44
476.596	137.44
476.814	130.44
477.033	116.44
477.252	112.44
477.471	104.44
477.69	130.44
477.908	149.44
478.127	152.44
478.346	147.44
478.564	145.44
478.783	130.44
479.002	152.44
479.22	142.44
479.439	135.44
479.658	132.44
479.876	123.44
480.095	111.44
480.313	122.44
480.532	116.44
480.751	119.44
480.969	108.44
481.188	88.44
481.406	86.44
481.624	94.44
481.843	79.44
482.061	114.44
482.28	118.44
482.498	114.44
482.717	110.44
482.935	132.44
483.153	147.44
483.372	153.44
483.59	154.44
483.808	138.44
484.027	131.44
484.245	152.44
484.463	150.44
484.681	167.44
484.9	142.44
485.118	137.44
485.336	135.44
485.554	118.44
485.772	114.44
485.99	95.44
486.209	99.44
486.427	117.44
486.645	114.44
486.863	142.44
487.081	151.44
487.299	140.44
487.517	154.44
487.735	178.44
487.953	190.44
488.171	181.44
488.389	170.44
488.607	174.44
488.825	152.44
489.043	139.44
489.261	133.44
489.479	149.44
489.696	155.44
489.914	151.44
490.132	138.44
490.35	153.44
490.568	165.44
490.786	192.44
491.003	186.44
491.221	199.44
491.439	196.44
491.657	209.44
491.874	224.44
492.092	239.44
492.31	243.44
492.527	217.44
492.745	231.44
492.963	194.44
493.18	202.44
493.398	187.44
493.615	175.44
493.833	178.44
494.05	182.44
494.268	188.44
494.485	192.44
494.703	184.44
494.92	194.44
495.138	169.44
495.355	187.44
495.573	170.44
495.79	174.44
496.008	167.44
496.225	162.44
496.442	164.44
496.66	172.44
496.877	159.44
497.094	175.44
497.312	172.44
497.529	180.44
497.746	158.44
497.963	169.44
498.181	130.44
498.398	128.44
498.615	126.44
498.832	107.44
499.049	125.44
499.267	134.44
499.484	137.44
499.701	134.44
499.918	127.44
500.135	135.44
500.352	147.44
500.569	154.44
500.786	140.44
501.003	152.44
501.22	144.44
501.437	141.44
501.654	137.44
501.871	140.44
502.088	147.44
502.305	128.44
502.522	139.44
502.739	131.44
502.956	115.44
503.172	131.44
503.389	128.44
503.606	109.44
503.823	125.44
504.04	133.44
504.256	128.44
504.473	133.44
504.69	120.44
504.907	121.44
505.123	131.44
505.34	124.44
505.557	111.44
505.773	123.44
505.99	117.44
506.207	127.44
506.423	128.44
506.64	120.44
506.856	119.44
507.073	113.44
507.289	110.44
507.506	104.44
507.722	116.44
507.939	118.44
508.155	115.44
508.372	112.44
508.588	126.44
508.805	122.44
509.021	104.44
509.238	114.44
509.454	105.44
509.67	97.44
509.887	98.44
510.103	107.44
510.319	103.44
510.536	92.44
510.752	99.44
510.968	87.44
511.184	84.44
511.401	98.44
511.617	91.44
