Data from Location6.07152019.Energy5.Lamp.07192019.3%Agarose_HRD10591_16-11-50-395.txt Node
Date: Fri Jul 19 16:11:50 EDT 2019
User: cochatt
Spectrometer: HR+D1059
Trigger mode: 1
Integration Time (sec): 1.000000E-1
Scans to average: 1
Electric dark correction enabled: true
Nonlinearity correction enabled: false
Boxcar width: 0
XAxis mode: Wavelengths
Number of Pixels in Spectrum: 2048
>>>>>Begin Spectral Data<<<<<
223.165	-12.25
223.4	-12.25
223.635	-12.25
223.869	-20.25
224.104	-6.25
224.338	-25.25
224.573	-3.25
224.808	-18.25
225.042	-13.25
225.277	1.75
225.511	3.75
225.746	-4.25
225.98	15.75
226.215	6.75
226.449	9.75
226.683	21.75
226.918	22.75
227.152	20.75
227.387	29.75
227.621	43.75
227.856	44.75
228.09	62.75
228.324	49.75
228.559	58.75
228.793	56.75
229.027	67.75
229.262	53.75
229.496	75.75
229.73	56.75
229.964	68.75
230.199	73.75
230.433	66.75
230.667	85.75
230.901	83.75
231.136	88.75
231.37	74.75
231.604	83.75
231.838	91.75
232.072	94.75
232.306	101.75
232.541	76.75
232.775	73.75
233.009	68.75
233.243	85.75
233.477	86.75
233.711	90.75
233.945	74.75
234.179	76.75
234.413	61.75
234.647	83.75
234.881	79.75
235.115	81.75
235.349	81.75
235.583	79.75
235.817	65.75
236.051	77.75
236.285	70.75
236.519	78.75
236.753	84.75
236.987	87.75
237.221	87.75
237.455	82.75
237.689	79.75
237.922	75.75
238.156	81.75
238.39	75.75
238.624	81.75
238.858	76.75
239.091	76.75
239.325	80.75
239.559	76.75
239.793	77.75
240.027	77.75
240.26	83.75
240.494	86.75
240.728	84.75
240.961	66.75
241.195	76.75
241.429	76.75
241.662	72.75
241.896	71.75
242.13	73.75
242.363	90.75
242.597	83.75
242.83	82.75
243.064	81.75
243.298	62.75
243.531	80.75
243.765	79.75
243.998	84.75
244.232	85.75
244.465	88.75
244.699	83.75
244.932	80.75
245.166	90.75
245.399	78.75
245.633	86.75
245.866	78.75
246.099	75.75
246.333	88.75
246.566	80.75
246.8	87.75
247.033	90.75
247.266	79.75
247.5	69.75
247.733	85.75
247.966	89.75
248.2	90.75
248.433	86.75
248.666	72.75
248.899	76.75
249.133	87.75
249.366	78.75
249.599	73.75
249.832	80.75
250.066	73.75
250.299	81.75
250.532	74.75
250.765	69.75
250.998	78.75
251.231	71.75
251.465	75.75
251.698	79.75
251.931	69.75
252.164	72.75
252.397	94.75
252.63	94.75
252.863	87.75
253.096	77.75
253.329	85.75
253.562	74.75
253.795	73.75
254.028	80.75
254.261	91.75
254.494	83.75
254.727	81.75
254.96	80.75
255.193	76.75
255.426	74.75
255.659	86.75
255.892	67.75
256.124	96.75
256.357	84.75
256.59	77.75
256.823	87.75
257.056	73.75
257.289	82.75
257.521	69.75
257.754	75.75
257.987	85.75
258.22	86.75
258.452	93.75
258.685	93.75
258.918	80.75
259.151	76.75
259.383	76.75
259.616	86.75
259.849	88.75
260.081	92.75
260.314	77.75
260.547	94.75
260.779	83.75
261.012	90.75
261.244	87.75
261.477	87.75
261.71	75.75
261.942	87.75
262.175	90.75
262.407	83.75
262.64	94.75
262.872	89.75
263.105	86.75
263.337	100.75
263.57	78.75
263.802	90.75
264.035	85.75
264.267	78.75
264.499	87.75
264.732	86.75
264.964	85.75
265.197	74.75
265.429	82.75
265.661	70.75
265.894	71.75
266.126	103.75
266.358	85.75
266.591	75.75
266.823	83.75
267.055	70.75
267.287	83.75
267.52	87.75
267.752	88.75
267.984	98.75
268.216	93.75
268.448	74.75
268.681	73.75
268.913	94.75
269.145	78.75
269.377	93.75
269.609	90.75
269.841	83.75
270.073	80.75
270.306	85.75
270.538	76.75
270.77	88.75
271.002	84.75
271.234	82.75
271.466	102.75
271.698	79.75
271.93	91.75
272.162	70.75
272.394	90.75
272.626	81.75
272.858	84.75
273.09	75.75
273.322	89.75
273.553	85.75
273.785	88.75
274.017	73.75
274.249	89.75
274.481	84.75
274.713	102.75
274.945	99.75
275.176	80.75
275.408	83.75
275.64	100.75
275.872	76.75
276.104	82.75
276.335	85.75
276.567	75.75
276.799	74.75
277.031	82.75
277.262	91.75
277.494	98.75
277.726	77.75
277.957	82.75
278.189	82.75
278.421	84.75
278.652	93.75
278.884	78.75
279.115	80.75
279.347	77.75
279.579	96.75
279.81	64.75
280.042	77.75
280.273	99.75
280.505	87.75
280.736	91.75
280.968	95.75
281.199	92.75
281.431	81.75
281.662	78.75
281.894	91.75
282.125	90.75
282.356	86.75
282.588	87.75
282.819	89.75
283.051	84.75
283.282	87.75
283.513	92.75
283.745	76.75
283.976	82.75
284.207	85.75
284.439	81.75
284.67	73.75
284.901	82.75
285.132	87.75
285.364	89.75
285.595	79.75
285.826	74.75
286.057	84.75
286.288	85.75
286.52	78.75
286.751	79.75
286.982	89.75
287.213	85.75
287.444	76.75
287.675	87.75
287.906	85.75
288.138	77.75
288.369	96.75
288.6	101.75
288.831	81.75
289.062	91.75
289.293	88.75
289.524	78.75
289.755	81.75
289.986	96.75
290.217	90.75
290.448	99.75
290.679	102.75
290.91	89.75
291.141	93.75
291.371	84.75
291.602	75.75
291.833	92.75
292.064	87.75
292.295	100.75
292.526	85.75
292.757	74.75
292.987	79.75
293.218	88.75
293.449	79.75
293.68	93.75
293.91	98.75
294.141	99.75
294.372	76.75
294.603	85.75
294.833	84.75
295.064	81.75
295.295	88.75
295.525	92.75
295.756	91.75
295.987	86.75
296.217	86.75
296.448	98.75
296.679	87.75
296.909	98.75
297.14	87.75
297.37	78.75
297.601	86.75
297.831	67.75
298.062	81.75
298.292	87.75
298.523	91.75
298.753	82.75
298.984	89.75
299.214	82.75
299.445	91.75
299.675	93.75
299.905	91.75
300.136	84.75
300.366	102.75
300.597	80.75
300.827	69.75
301.057	85.75
301.288	98.75
301.518	92.75
301.748	86.75
301.979	85.75
302.209	76.75
302.439	93.75
302.669	88.75
302.9	87.75
303.13	85.75
303.36	75.75
303.59	87.75
303.82	89.75
304.051	85.75
304.281	91.75
304.511	95.75
304.741	89.75
304.971	74.75
305.201	84.75
305.431	78.75
305.661	95.75
305.891	82.75
306.121	79.75
306.352	84.75
306.582	89.75
306.812	99.75
307.042	95.75
307.272	87.75
307.502	90.75
307.731	90.75
307.961	87.75
308.191	70.75
308.421	81.75
308.651	86.75
308.881	99.75
309.111	96.75
309.341	84.75
309.571	86.75
309.8	78.75
310.03	80.75
310.26	84.75
310.49	78.75
310.72	84.75
310.949	91.75
311.179	82.75
311.409	80.75
311.639	70.75
311.868	101.75
312.098	99.75
312.328	104.75
312.557	94.75
312.787	91.75
313.017	80.75
313.246	88.75
313.476	77.75
313.706	79.75
313.935	91.75
314.165	93.75
314.394	72.75
314.624	95.75
314.853	100.75
315.083	93.75
315.312	87.75
315.542	91.75
315.771	101.75
316.001	95.75
316.23	85.75
316.46	90.75
316.689	74.75
316.919	90.75
317.148	101.75
317.377	90.75
317.607	91.75
317.836	100.75
318.065	81.75
318.295	81.75
318.524	91.75
318.753	85.75
318.983	88.75
319.212	84.75
319.441	75.75
319.67	84.75
319.9	91.75
320.129	70.75
320.358	75.75
320.587	77.75
320.816	78.75
321.046	79.75
321.275	90.75
321.504	79.75
321.733	86.75
321.962	96.75
322.191	102.75
322.42	83.75
322.649	92.75
322.878	83.75
323.108	87.75
323.337	95.75
323.566	77.75
323.795	92.75
324.024	98.75
324.253	75.75
324.482	94.75
324.71	98.75
324.939	90.75
325.168	78.75
325.397	99.75
325.626	93.75
325.855	85.75
326.084	84.75
326.313	77.75
326.542	92.75
326.77	78.75
326.999	86.75
327.228	85.75
327.457	91.75
327.686	85.75
327.914	99.75
328.143	81.75
328.372	86.75
328.6	83.75
328.829	98.75
329.058	86.75
329.287	95.75
329.515	89.75
329.744	77.75
329.972	102.75
330.201	89.75
330.43	86.75
330.658	94.75
330.887	93.75
331.115	89.75
331.344	77.75
331.572	101.75
331.801	84.75
332.03	90.75
332.258	79.75
332.486	84.75
332.715	89.75
332.943	86.75
333.172	97.75
333.4	94.75
333.629	89.75
333.857	95.75
334.085	89.75
334.314	73.75
334.542	86.75
334.771	88.75
334.999	76.75
335.227	72.75
335.455	83.75
335.684	83.75
335.912	87.75
336.14	75.75
336.369	87.75
336.597	91.75
336.825	84.75
337.053	84.75
337.281	81.75
337.51	88.75
337.738	87.75
337.966	81.75
338.194	83.75
338.422	79.75
338.65	77.75
338.878	74.75
339.106	96.75
339.334	95.75
339.562	91.75
339.79	86.75
340.018	78.75
340.246	84.75
340.474	92.75
340.702	79.75
340.93	99.75
341.158	82.75
341.386	88.75
341.614	98.75
341.842	87.75
342.07	98.75
342.298	94.75
342.526	97.75
342.754	86.75
342.981	84.75
343.209	82.75
343.437	106.75
343.665	96.75
343.893	78.75
344.12	102.75
344.348	85.75
344.576	101.75
344.804	89.75
345.031	87.75
345.259	89.75
345.487	89.75
345.714	102.75
345.942	92.75
346.17	88.75
346.397	92.75
346.625	74.75
346.853	73.75
347.08	93.75
347.308	71.75
347.535	92.75
347.763	83.75
347.99	87.75
348.218	100.75
348.445	88.75
348.673	67.75
348.9	83.75
349.128	84.75
349.355	77.75
349.583	87.75
349.81	87.75
350.037	96.75
350.265	89.75
350.492	72.75
350.72	97.75
350.947	84.75
351.174	83.75
351.402	93.75
351.629	78.75
351.856	82.75
352.083	83.75
352.311	92.75
352.538	79.75
352.765	65.75
352.992	72.75
353.22	73.75
353.447	78.75
353.674	91.75
353.901	85.75
354.128	85.75
354.355	87.75
354.583	87.75
354.81	74.75
355.037	84.75
355.264	78.75
355.491	74.75
355.718	79.75
355.945	93.75
356.172	87.75
356.399	88.75
356.626	87.75
356.853	80.75
357.08	80.75
357.307	88.75
357.534	77.75
357.761	76.75
357.988	99.75
358.215	88.75
358.441	78.75
358.668	89.75
358.895	86.75
359.122	73.75
359.349	85.75
359.576	93.75
359.802	76.75
360.029	81.75
360.256	73.75
360.483	83.75
360.709	82.75
360.936	78.75
361.163	91.75
361.39	77.75
361.616	89.75
361.843	84.75
362.07	78.75
362.296	85.75
362.523	82.75
362.749	95.75
362.976	94.75
363.203	96.75
363.429	85.75
363.656	89.75
363.882	88.75
364.109	98.75
364.335	86.75
364.562	76.75
364.788	84.75
365.015	84.75
365.241	101.75
365.468	85.75
365.694	88.75
365.92	90.75
366.147	81.75
366.373	82.75
366.599	81.75
366.826	94.75
367.052	83.75
367.278	86.75
367.505	99.75
367.731	94.75
367.957	80.75
368.184	93.75
368.41	80.75
368.636	85.75
368.862	84.75
369.089	77.75
369.315	94.75
369.541	88.75
369.767	100.75
369.993	88.75
370.219	80.75
370.445	104.75
370.672	102.75
370.898	97.75
371.124	88.75
371.35	111.75
371.576	109.75
371.802	96.75
372.028	100.75
372.254	89.75
372.48	93.75
372.706	93.75
372.932	83.75
373.158	77.75
373.384	97.75
373.61	101.75
373.835	98.75
374.061	77.75
374.287	95.75
374.513	98.75
374.739	86.75
374.965	79.75
375.191	105.75
375.416	90.75
375.642	71.75
375.868	91.75
376.094	100.75
376.319	103.75
376.545	96.75
376.771	91.75
376.997	96.75
377.222	81.75
377.448	79.75
377.674	106.75
377.899	106.75
378.125	110.75
378.35	106.75
378.576	95.75
378.802	97.75
379.027	95.75
379.253	89.75
379.478	91.75
379.704	90.75
379.929	101.75
380.155	100.75
380.38	101.75
380.606	89.75
380.831	97.75
381.057	97.75
381.282	81.75
381.507	95.75
381.733	89.75
381.958	91.75
382.184	97.75
382.409	103.75
382.634	101.75
382.86	102.75
383.085	96.75
383.31	89.75
383.535	90.75
383.761	92.75
383.986	101.75
384.211	88.75
384.436	96.75
384.662	93.75
384.887	99.75
385.112	123.75
385.337	121.75
385.562	95.75
385.787	98.75
386.013	114.75
386.238	108.75
386.463	85.75
386.688	100.75
386.913	100.75
387.138	104.75
387.363	107.75
387.588	99.75
387.813	107.75
388.038	114.75
388.263	91.75
388.488	93.75
388.713	111.75
388.938	104.75
389.163	108.75
389.387	88.75
389.612	109.75
389.837	109.75
390.062	115.75
390.287	98.75
390.512	108.75
390.736	102.75
390.961	103.75
391.186	99.75
391.411	95.75
391.636	108.75
391.86	118.75
392.085	97.75
392.31	104.75
392.534	105.75
392.759	116.75
392.984	119.75
393.208	113.75
393.433	110.75
393.658	123.75
393.882	118.75
394.107	107.75
394.331	102.75
394.556	120.75
394.78	103.75
395.005	105.75
395.229	109.75
395.454	106.75
395.678	114.75
395.903	111.75
396.127	121.75
396.352	104.75
396.576	106.75
396.801	100.75
397.025	98.75
397.249	77.75
397.474	103.75
397.698	112.75
397.922	119.75
398.147	129.75
398.371	121.75
398.595	105.75
398.82	105.75
399.044	100.75
399.268	111.75
399.492	101.75
399.717	127.75
399.941	129.75
400.165	106.75
400.389	105.75
400.613	115.75
400.837	118.75
401.062	118.75
401.286	121.75
401.51	125.75
401.734	122.75
401.958	113.75
402.182	117.75
402.406	115.75
402.63	121.75
402.854	110.75
403.078	120.75
403.302	120.75
403.526	111.75
403.75	99.75
403.974	126.75
404.198	137.75
404.422	131.75
404.645	125.75
404.869	117.75
405.093	120.75
405.317	117.75
405.541	125.75
405.765	123.75
405.988	121.75
406.212	123.75
406.436	122.75
406.66	128.75
406.883	117.75
407.107	122.75
407.331	122.75
407.555	133.75
407.778	125.75
408.002	123.75
408.226	127.75
408.449	116.75
408.673	123.75
408.896	114.75
409.12	129.75
409.344	130.75
409.567	115.75
409.791	138.75
410.014	118.75
410.238	127.75
410.461	120.75
410.685	118.75
410.908	124.75
411.132	117.75
411.355	120.75
411.578	122.75
411.802	126.75
412.025	128.75
412.249	131.75
412.472	130.75
412.695	114.75
412.919	140.75
413.142	139.75
413.365	132.75
413.589	134.75
413.812	119.75
414.035	120.75
414.258	123.75
414.482	128.75
414.705	131.75
414.928	125.75
415.151	126.75
415.374	111.75
415.597	129.75
415.821	126.75
416.044	146.75
416.267	126.75
416.49	138.75
416.713	123.75
416.936	131.75
417.159	125.75
417.382	143.75
417.605	123.75
417.828	138.75
418.051	142.75
418.274	141.75
418.497	153.75
418.72	142.75
418.943	133.75
419.166	126.75
419.389	147.75
419.611	137.75
419.834	122.75
420.057	147.75
420.28	127.75
420.503	138.75
420.726	137.75
420.948	142.75
421.171	130.75
421.394	148.75
421.617	144.75
421.839	143.75
422.062	138.75
422.285	136.75
422.507	124.75
422.73	134.75
422.953	125.75
423.175	139.75
423.398	122.75
423.621	144.75
423.843	156.75
424.066	148.75
424.288	155.75
424.511	143.75
424.733	169.75
424.956	144.75
425.178	151.75
425.401	150.75
425.623	132.75
425.846	129.75
426.068	129.75
426.291	130.75
426.513	127.75
426.735	145.75
426.958	142.75
427.18	141.75
427.402	142.75
427.625	134.75
427.847	139.75
428.069	129.75
428.292	134.75
428.514	133.75
428.736	128.75
428.958	138.75
429.181	126.75
429.403	129.75
429.625	139.75
429.847	141.75
430.069	139.75
430.292	128.75
430.514	150.75
430.736	126.75
430.958	124.75
431.18	133.75
431.402	133.75
431.624	121.75
431.846	106.75
432.068	105.75
432.29	90.75
432.512	119.75
432.734	127.75
432.956	140.75
433.178	133.75
433.4	151.75
433.622	146.75
433.844	132.75
434.066	133.75
434.287	102.75
434.509	92.75
434.731	106.75
434.953	117.75
435.175	129.75
435.397	136.75
435.618	126.75
435.84	107.75
436.062	108.75
436.284	129.75
436.505	131.75
436.727	134.75
436.949	127.75
437.17	130.75
437.392	140.75
437.614	148.75
437.835	124.75
438.057	125.75
438.278	116.75
438.5	134.75
438.721	154.75
438.943	135.75
439.165	142.75
439.386	143.75
439.608	148.75
439.829	157.75
440.05	154.75
440.272	161.75
440.493	151.75
440.715	127.75
440.936	158.75
441.158	147.75
441.379	164.75
441.6	149.75
441.822	150.75
442.043	145.75
442.264	149.75
442.486	137.75
442.707	147.75
442.928	149.75
443.149	143.75
443.371	138.75
443.592	161.75
443.813	142.75
444.034	157.75
444.255	152.75
444.476	153.75
444.698	155.75
444.919	152.75
445.14	275.75
445.361	198.75
445.582	157.75
445.803	158.75
446.024	157.75
446.245	175.75
446.466	160.75
446.687	167.75
446.908	158.75
447.129	167.75
447.35	158.75
447.571	157.75
447.792	161.75
448.013	147.75
448.234	156.75
448.455	150.75
448.675	146.75
448.896	145.75
449.117	135.75
449.338	147.75
449.559	154.75
449.779	131.75
450	151.75
450.221	142.75
450.442	159.75
450.662	147.75
450.883	127.75
451.104	149.75
451.324	133.75
451.545	139.75
451.766	146.75
451.986	143.75
452.207	134.75
452.428	144.75
452.648	124.75
452.869	126.75
453.089	123.75
453.31	121.75
453.53	104.75
453.751	105.75
453.971	105.75
454.192	107.75
454.412	117.75
454.633	117.75
454.853	124.75
455.073	121.75
455.294	132.75
455.514	129.75
455.734	129.75
455.955	101.75
456.175	120.75
456.395	100.75
456.616	117.75
456.836	116.75
457.056	106.75
457.276	110.75
457.497	110.75
457.717	98.75
457.937	117.75
458.157	126.75
458.377	112.75
458.598	103.75
458.818	115.75
459.038	83.75
459.258	81.75
459.478	91.75
459.698	95.75
459.918	98.75
460.138	126.75
460.358	118.75
460.578	117.75
460.798	126.75
461.018	117.75
461.238	122.75
461.458	127.75
461.678	138.75
461.898	128.75
462.118	123.75
462.338	121.75
462.558	135.75
462.777	120.75
462.997	117.75
463.217	106.75
463.437	124.75
463.657	116.75
463.876	129.75
464.096	118.75
464.316	118.75
464.536	108.75
464.755	117.75
464.975	118.75
465.195	118.75
465.414	134.75
465.634	125.75
465.854	109.75
466.073	130.75
466.293	116.75
466.512	143.75
466.732	153.75
466.951	143.75
467.171	139.75
467.391	131.75
467.61	133.75
467.829	148.75
468.049	149.75
468.268	141.75
468.488	136.75
468.707	139.75
468.927	155.75
469.146	152.75
469.365	140.75
469.585	153.75
469.804	151.75
470.023	151.75
470.243	151.75
470.462	158.75
470.681	170.75
470.901	165.75
471.12	142.75
471.339	151.75
471.558	151.75
471.777	144.75
471.997	142.75
472.216	139.75
472.435	114.75
472.654	131.75
472.873	126.75
473.092	131.75
473.311	136.75
473.53	129.75
473.749	142.75
473.968	125.75
474.187	124.75
474.406	117.75
474.625	125.75
474.844	160.75
475.063	135.75
475.282	131.75
475.501	125.75
475.72	115.75
475.939	137.75
476.158	121.75
476.377	131.75
476.596	127.75
476.814	121.75
477.033	125.75
477.252	121.75
477.471	130.75
477.69	153.75
477.908	139.75
478.127	166.75
478.346	149.75
478.564	131.75
478.783	153.75
479.002	153.75
479.22	142.75
479.439	149.75
479.658	135.75
479.876	113.75
480.095	119.75
480.313	124.75
480.532	120.75
480.751	123.75
480.969	116.75
481.188	97.75
481.406	94.75
481.624	89.75
481.843	105.75
482.061	101.75
482.28	110.75
482.498	117.75
482.717	109.75
482.935	123.75
483.153	135.75
483.372	170.75
483.59	142.75
483.808	139.75
484.027	152.75
484.245	147.75
484.463	168.75
484.681	190.75
484.9	164.75
485.118	150.75
485.336	151.75
485.554	122.75
485.772	105.75
485.99	108.75
486.209	98.75
486.427	114.75
486.645	135.75
486.863	150.75
487.081	168.75
487.299	152.75
487.517	154.75
487.735	180.75
487.953	211.75
488.171	199.75
488.389	180.75
488.607	163.75
488.825	167.75
489.043	138.75
489.261	137.75
489.479	154.75
489.696	138.75
489.914	158.75
490.132	170.75
490.35	161.75
490.568	174.75
490.786	173.75
491.003	206.75
491.221	185.75
491.439	208.75
491.657	186.75
491.874	230.75
492.092	235.75
492.31	264.75
492.527	253.75
492.745	235.75
492.963	213.75
493.18	188.75
493.398	211.75
493.615	189.75
493.833	183.75
494.05	187.75
494.268	197.75
494.485	175.75
494.703	186.75
494.92	167.75
495.138	167.75
495.355	187.75
495.573	177.75
495.79	163.75
496.008	198.75
496.225	165.75
496.442	183.75
496.66	177.75
496.877	165.75
497.094	173.75
497.312	172.75
497.529	173.75
497.746	166.75
497.963	140.75
498.181	143.75
498.398	124.75
498.615	124.75
498.832	117.75
499.049	122.75
499.267	131.75
499.484	131.75
499.701	130.75
499.918	137.75
500.135	137.75
500.352	150.75
500.569	151.75
500.786	153.75
501.003	142.75
501.22	135.75
501.437	155.75
501.654	149.75
501.871	153.75
502.088	151.75
502.305	135.75
502.522	134.75
502.739	162.75
502.956	143.75
503.172	134.75
503.389	129.75
503.606	125.75
503.823	127.75
504.04	122.75
504.256	104.75
504.473	132.75
504.69	120.75
504.907	131.75
505.123	122.75
505.34	130.75
505.557	138.75
505.773	137.75
505.99	131.75
506.207	121.75
506.423	125.75
506.64	152.75
506.856	116.75
507.073	118.75
507.289	122.75
507.506	122.75
507.722	128.75
507.939	111.75
508.155	121.75
508.372	118.75
508.588	104.75
508.805	127.75
509.021	108.75
509.238	110.75
509.454	98.75
509.67	103.75
509.887	114.75
510.103	107.75
510.319	86.75
510.536	101.75
510.752	92.75
510.968	78.75
511.184	90.75
