Data from Location6.07152019.Energy5.Lamp.07192019.3%Agarose_HRD10591_16-11-05-394.txt Node
Date: Fri Jul 19 16:11:05 EDT 2019
User: cochatt
Spectrometer: HR+D1059
Trigger mode: 1
Integration Time (sec): 1.000000E-1
Scans to average: 1
Electric dark correction enabled: true
Nonlinearity correction enabled: false
Boxcar width: 0
XAxis mode: Wavelengths
Number of Pixels in Spectrum: 2048
>>>>>Begin Spectral Data<<<<<
223.165	-22.69
223.4	-22.69
223.635	-22.69
223.869	-15.69
224.104	-16.69
224.338	-14.69
224.573	-13.69
224.808	-4.69
225.042	2.31
225.277	-13.69
225.511	-6.69
225.746	-4.69
225.98	5.31
226.215	5.31
226.449	12.31
226.683	28.31
226.918	35.31
227.152	24.31
227.387	47.31
227.621	29.31
227.856	34.31
228.09	55.31
228.324	54.31
228.559	60.31
228.793	65.31
229.027	57.31
229.262	67.31
229.496	66.31
229.73	66.31
229.964	77.31
230.199	69.31
230.433	92.31
230.667	75.31
230.901	73.31
231.136	87.31
231.37	91.31
231.604	89.31
231.838	78.31
232.072	75.31
232.306	86.31
232.541	68.31
232.775	71.31
233.009	89.31
233.243	79.31
233.477	80.31
233.711	72.31
233.945	85.31
234.179	93.31
234.413	91.31
234.647	82.31
234.881	90.31
235.115	74.31
235.349	80.31
235.583	67.31
235.817	75.31
236.051	82.31
236.285	71.31
236.519	75.31
236.753	90.31
236.987	89.31
237.221	68.31
237.455	65.31
237.689	75.31
237.922	58.31
238.156	84.31
238.39	84.31
238.624	73.31
238.858	70.31
239.091	85.31
239.325	79.31
239.559	80.31
239.793	81.31
240.027	84.31
240.26	70.31
240.494	74.31
240.728	80.31
240.961	78.31
241.195	93.31
241.429	76.31
241.662	90.31
241.896	75.31
242.13	68.31
242.363	89.31
242.597	78.31
242.83	66.31
243.064	81.31
243.298	77.31
243.531	64.31
243.765	73.31
243.998	76.31
244.232	90.31
244.465	61.31
244.699	68.31
244.932	70.31
245.166	83.31
245.399	87.31
245.633	91.31
245.866	69.31
246.099	82.31
246.333	73.31
246.566	73.31
246.8	62.31
247.033	72.31
247.266	66.31
247.5	91.31
247.733	75.31
247.966	81.31
248.2	83.31
248.433	81.31
248.666	78.31
248.899	88.31
249.133	77.31
249.366	85.31
249.599	75.31
249.832	71.31
250.066	61.31
250.299	84.31
250.532	81.31
250.765	80.31
250.998	83.31
251.231	87.31
251.465	80.31
251.698	78.31
251.931	79.31
252.164	79.31
252.397	70.31
252.63	71.31
252.863	90.31
253.096	89.31
253.329	83.31
253.562	90.31
253.795	94.31
254.028	67.31
254.261	57.31
254.494	82.31
254.727	86.31
254.96	70.31
255.193	77.31
255.426	80.31
255.659	86.31
255.892	80.31
256.124	79.31
256.357	84.31
256.59	78.31
256.823	64.31
257.056	84.31
257.289	86.31
257.521	85.31
257.754	69.31
257.987	76.31
258.22	76.31
258.452	80.31
258.685	74.31
258.918	68.31
259.151	88.31
259.383	81.31
259.616	87.31
259.849	96.31
260.081	85.31
260.314	80.31
260.547	81.31
260.779	83.31
261.012	79.31
261.244	80.31
261.477	81.31
261.71	71.31
261.942	76.31
262.175	86.31
262.407	76.31
262.64	92.31
262.872	77.31
263.105	81.31
263.337	82.31
263.57	83.31
263.802	88.31
264.035	77.31
264.267	99.31
264.499	79.31
264.732	85.31
264.964	81.31
265.197	88.31
265.429	95.31
265.661	80.31
265.894	81.31
266.126	85.31
266.358	85.31
266.591	81.31
266.823	79.31
267.055	86.31
267.287	82.31
267.52	75.31
267.752	79.31
267.984	69.31
268.216	80.31
268.448	98.31
268.681	71.31
268.913	93.31
269.145	83.31
269.377	85.31
269.609	87.31
269.841	98.31
270.073	87.31
270.306	72.31
270.538	79.31
270.77	93.31
271.002	76.31
271.234	67.31
271.466	77.31
271.698	85.31
271.93	84.31
272.162	87.31
272.394	94.31
272.626	75.31
272.858	85.31
273.09	75.31
273.322	86.31
273.553	91.31
273.785	89.31
274.017	77.31
274.249	81.31
274.481	73.31
274.713	66.31
274.945	83.31
275.176	89.31
275.408	99.31
275.64	80.31
275.872	82.31
276.104	73.31
276.335	89.31
276.567	77.31
276.799	77.31
277.031	87.31
277.262	70.31
277.494	76.31
277.726	81.31
277.957	85.31
278.189	102.31
278.421	89.31
278.652	81.31
278.884	89.31
279.115	87.31
279.347	74.31
279.579	75.31
279.81	91.31
280.042	83.31
280.273	95.31
280.505	102.31
280.736	83.31
280.968	84.31
281.199	73.31
281.431	74.31
281.662	67.31
281.894	74.31
282.125	81.31
282.356	98.31
282.588	92.31
282.819	80.31
283.051	77.31
283.282	84.31
283.513	78.31
283.745	82.31
283.976	80.31
284.207	74.31
284.439	82.31
284.67	81.31
284.901	76.31
285.132	79.31
285.364	91.31
285.595	88.31
285.826	85.31
286.057	94.31
286.288	71.31
286.52	77.31
286.751	89.31
286.982	74.31
287.213	77.31
287.444	80.31
287.675	90.31
287.906	77.31
288.138	75.31
288.369	76.31
288.6	85.31
288.831	87.31
289.062	85.31
289.293	93.31
289.524	95.31
289.755	84.31
289.986	83.31
290.217	88.31
290.448	78.31
290.679	95.31
290.91	83.31
291.141	68.31
291.371	79.31
291.602	80.31
291.833	78.31
292.064	73.31
292.295	93.31
292.526	77.31
292.757	89.31
292.987	79.31
293.218	78.31
293.449	74.31
293.68	92.31
293.91	80.31
294.141	84.31
294.372	79.31
294.603	84.31
294.833	77.31
295.064	79.31
295.295	82.31
295.525	98.31
295.756	94.31
295.987	88.31
296.217	82.31
296.448	79.31
296.679	86.31
296.909	84.31
297.14	82.31
297.37	83.31
297.601	84.31
297.831	80.31
298.062	74.31
298.292	74.31
298.523	90.31
298.753	84.31
298.984	81.31
299.214	69.31
299.445	76.31
299.675	75.31
299.905	84.31
300.136	88.31
300.366	93.31
300.597	93.31
300.827	85.31
301.057	80.31
301.288	74.31
301.518	93.31
301.748	79.31
301.979	78.31
302.209	91.31
302.439	66.31
302.669	94.31
302.9	81.31
303.13	90.31
303.36	86.31
303.59	89.31
303.82	82.31
304.051	76.31
304.281	82.31
304.511	70.31
304.741	88.31
304.971	85.31
305.201	89.31
305.431	76.31
305.661	82.31
305.891	85.31
306.121	83.31
306.352	85.31
306.582	86.31
306.812	76.31
307.042	89.31
307.272	81.31
307.502	84.31
307.731	90.31
307.961	101.31
308.191	74.31
308.421	76.31
308.651	75.31
308.881	74.31
309.111	86.31
309.341	74.31
309.571	84.31
309.8	74.31
310.03	84.31
310.26	86.31
310.49	76.31
310.72	79.31
310.949	89.31
311.179	81.31
311.409	77.31
311.639	93.31
311.868	84.31
312.098	100.31
312.328	83.31
312.557	67.31
312.787	84.31
313.017	91.31
313.246	94.31
313.476	78.31
313.706	86.31
313.935	78.31
314.165	88.31
314.394	89.31
314.624	81.31
314.853	82.31
315.083	76.31
315.312	84.31
315.542	81.31
315.771	93.31
316.001	83.31
316.23	77.31
316.46	96.31
316.689	87.31
316.919	81.31
317.148	76.31
317.377	75.31
317.607	73.31
317.836	84.31
318.065	95.31
318.295	81.31
318.524	83.31
318.753	70.31
318.983	80.31
319.212	76.31
319.441	90.31
319.67	80.31
319.9	83.31
320.129	83.31
320.358	90.31
320.587	83.31
320.816	83.31
321.046	73.31
321.275	84.31
321.504	69.31
321.733	88.31
321.962	88.31
322.191	103.31
322.42	84.31
322.649	88.31
322.878	96.31
323.108	87.31
323.337	73.31
323.566	88.31
323.795	85.31
324.024	85.31
324.253	96.31
324.482	78.31
324.71	74.31
324.939	91.31
325.168	79.31
325.397	81.31
325.626	83.31
325.855	82.31
326.084	86.31
326.313	91.31
326.542	84.31
326.77	94.31
326.999	93.31
327.228	92.31
327.457	79.31
327.686	71.31
327.914	87.31
328.143	75.31
328.372	75.31
328.6	80.31
328.829	97.31
329.058	91.31
329.287	85.31
329.515	65.31
329.744	80.31
329.972	79.31
330.201	70.31
330.43	91.31
330.658	78.31
330.887	93.31
331.115	82.31
331.344	87.31
331.572	87.31
331.801	87.31
332.03	76.31
332.258	88.31
332.486	81.31
332.715	82.31
332.943	86.31
333.172	84.31
333.4	83.31
333.629	73.31
333.857	76.31
334.085	83.31
334.314	74.31
334.542	75.31
334.771	86.31
334.999	87.31
335.227	86.31
335.455	85.31
335.684	78.31
335.912	89.31
336.14	85.31
336.369	84.31
336.597	79.31
336.825	82.31
337.053	93.31
337.281	65.31
337.51	80.31
337.738	99.31
337.966	90.31
338.194	75.31
338.422	83.31
338.65	88.31
338.878	80.31
339.106	84.31
339.334	74.31
339.562	95.31
339.79	82.31
340.018	79.31
340.246	88.31
340.474	97.31
340.702	83.31
340.93	84.31
341.158	82.31
341.386	84.31
341.614	92.31
341.842	93.31
342.07	74.31
342.298	81.31
342.526	81.31
342.754	80.31
342.981	93.31
343.209	75.31
343.437	87.31
343.665	74.31
343.893	80.31
344.12	73.31
344.348	80.31
344.576	91.31
344.804	87.31
345.031	69.31
345.259	55.31
345.487	75.31
345.714	74.31
345.942	72.31
346.17	82.31
346.397	78.31
346.625	71.31
346.853	90.31
347.08	69.31
347.308	101.31
347.535	81.31
347.763	77.31
347.99	75.31
348.218	79.31
348.445	85.31
348.673	90.31
348.9	81.31
349.128	79.31
349.355	84.31
349.583	84.31
349.81	96.31
350.037	80.31
350.265	79.31
350.492	85.31
350.72	73.31
350.947	91.31
351.174	77.31
351.402	95.31
351.629	80.31
351.856	63.31
352.083	65.31
352.311	91.31
352.538	75.31
352.765	84.31
352.992	94.31
353.22	85.31
353.447	83.31
353.674	82.31
353.901	87.31
354.128	90.31
354.355	82.31
354.583	91.31
354.81	87.31
355.037	80.31
355.264	74.31
355.491	83.31
355.718	77.31
355.945	76.31
356.172	80.31
356.399	85.31
356.626	68.31
356.853	76.31
357.08	75.31
357.307	94.31
357.534	73.31
357.761	76.31
357.988	87.31
358.215	82.31
358.441	72.31
358.668	85.31
358.895	77.31
359.122	98.31
359.349	79.31
359.576	87.31
359.802	82.31
360.029	75.31
360.256	92.31
360.483	82.31
360.709	80.31
360.936	70.31
361.163	77.31
361.39	68.31
361.616	81.31
361.843	82.31
362.07	91.31
362.296	81.31
362.523	85.31
362.749	88.31
362.976	91.31
363.203	81.31
363.429	82.31
363.656	94.31
363.882	75.31
364.109	89.31
364.335	75.31
364.562	94.31
364.788	67.31
365.015	88.31
365.241	70.31
365.468	84.31
365.694	85.31
365.92	87.31
366.147	92.31
366.373	79.31
366.599	88.31
366.826	88.31
367.052	100.31
367.278	91.31
367.505	84.31
367.731	90.31
367.957	90.31
368.184	91.31
368.41	102.31
368.636	89.31
368.862	89.31
369.089	98.31
369.315	84.31
369.541	83.31
369.767	83.31
369.993	78.31
370.219	93.31
370.445	98.31
370.672	100.31
370.898	94.31
371.124	87.31
371.35	93.31
371.576	67.31
371.802	76.31
372.028	93.31
372.254	77.31
372.48	74.31
372.706	86.31
372.932	89.31
373.158	76.31
373.384	84.31
373.61	86.31
373.835	91.31
374.061	88.31
374.287	90.31
374.513	93.31
374.739	88.31
374.965	93.31
375.191	93.31
375.416	78.31
375.642	96.31
375.868	97.31
376.094	91.31
376.319	88.31
376.545	87.31
376.771	87.31
376.997	92.31
377.222	101.31
377.448	86.31
377.674	99.31
377.899	101.31
378.125	109.31
378.35	80.31
378.576	86.31
378.802	94.31
379.027	72.31
379.253	98.31
379.478	101.31
379.704	95.31
379.929	95.31
380.155	85.31
380.38	86.31
380.606	98.31
380.831	98.31
381.057	93.31
381.282	110.31
381.507	107.31
381.733	108.31
381.958	89.31
382.184	89.31
382.409	84.31
382.634	103.31
382.86	93.31
383.085	94.31
383.31	89.31
383.535	94.31
383.761	92.31
383.986	114.31
384.211	90.31
384.436	100.31
384.662	100.31
384.887	97.31
385.112	98.31
385.337	107.31
385.562	85.31
385.787	96.31
386.013	95.31
386.238	100.31
386.463	95.31
386.688	98.31
386.913	87.31
387.138	85.31
387.363	102.31
387.588	110.31
387.813	95.31
388.038	93.31
388.263	87.31
388.488	98.31
388.713	103.31
388.938	103.31
389.163	114.31
389.387	95.31
389.612	96.31
389.837	86.31
390.062	92.31
390.287	116.31
390.512	103.31
390.736	100.31
390.961	107.31
391.186	99.31
391.411	109.31
391.636	111.31
391.86	88.31
392.085	109.31
392.31	97.31
392.534	90.31
392.759	106.31
392.984	105.31
393.208	103.31
393.433	90.31
393.658	105.31
393.882	99.31
394.107	113.31
394.331	102.31
394.556	102.31
394.78	94.31
395.005	105.31
395.229	106.31
395.454	106.31
395.678	98.31
395.903	107.31
396.127	123.31
396.352	116.31
396.576	102.31
396.801	103.31
397.025	108.31
397.249	117.31
397.474	110.31
397.698	99.31
397.922	114.31
398.147	119.31
398.371	115.31
398.595	100.31
398.82	117.31
399.044	113.31
399.268	105.31
399.492	110.31
399.717	127.31
399.941	86.31
400.165	124.31
400.389	100.31
400.613	101.31
400.837	117.31
401.062	105.31
401.286	114.31
401.51	103.31
401.734	111.31
401.958	113.31
402.182	119.31
402.406	119.31
402.63	117.31
402.854	110.31
403.078	111.31
403.302	114.31
403.526	101.31
403.75	109.31
403.974	115.31
404.198	122.31
404.422	131.31
404.645	113.31
404.869	113.31
405.093	122.31
405.317	111.31
405.541	125.31
405.765	132.31
405.988	130.31
406.212	125.31
406.436	145.31
406.66	125.31
406.883	113.31
407.107	120.31
407.331	113.31
407.555	122.31
407.778	119.31
408.002	125.31
408.226	129.31
408.449	124.31
408.673	122.31
408.896	127.31
409.12	122.31
409.344	107.31
409.567	112.31
409.791	115.31
410.014	130.31
410.238	121.31
410.461	125.31
410.685	121.31
410.908	106.31
411.132	124.31
411.355	120.31
411.578	122.31
411.802	130.31
412.025	122.31
412.249	124.31
412.472	118.31
412.695	126.31
412.919	140.31
413.142	139.31
413.365	131.31
413.589	132.31
413.812	117.31
414.035	128.31
414.258	121.31
414.482	119.31
414.705	121.31
414.928	135.31
415.151	139.31
415.374	116.31
415.597	133.31
415.821	129.31
416.044	123.31
416.267	119.31
416.49	120.31
416.713	126.31
416.936	131.31
417.159	126.31
417.382	129.31
417.605	110.31
417.828	127.31
418.051	136.31
418.274	139.31
418.497	125.31
418.72	138.31
418.943	135.31
419.166	120.31
419.389	142.31
419.611	149.31
419.834	135.31
420.057	133.31
420.28	137.31
420.503	137.31
420.726	130.31
420.948	127.31
421.171	131.31
421.394	134.31
421.617	130.31
421.839	142.31
422.062	145.31
422.285	144.31
422.507	136.31
422.73	137.31
422.953	127.31
423.175	130.31
423.398	133.31
423.621	128.31
423.843	145.31
424.066	130.31
424.288	127.31
424.511	153.31
424.733	144.31
424.956	156.31
425.178	134.31
425.401	130.31
425.623	146.31
425.846	147.31
426.068	133.31
426.291	131.31
426.513	129.31
426.735	126.31
426.958	137.31
427.18	113.31
427.402	136.31
427.625	131.31
427.847	134.31
428.069	135.31
428.292	116.31
428.514	143.31
428.736	131.31
428.958	138.31
429.181	139.31
429.403	117.31
429.625	134.31
429.847	131.31
430.069	129.31
430.292	134.31
430.514	137.31
430.736	148.31
430.958	143.31
431.18	127.31
431.402	125.31
431.624	121.31
431.846	102.31
432.068	98.31
432.29	102.31
432.512	118.31
432.734	119.31
432.956	130.31
433.178	123.31
433.4	141.31
433.622	143.31
433.844	137.31
434.066	134.31
434.287	88.31
434.509	99.31
434.731	104.31
434.953	122.31
435.175	135.31
435.397	126.31
435.618	113.31
435.84	118.31
436.062	121.31
436.284	122.31
436.505	133.31
436.727	153.31
436.949	130.31
437.17	131.31
437.392	141.31
437.614	117.31
437.835	107.31
438.057	109.31
438.278	123.31
438.5	142.31
438.721	133.31
438.943	145.31
439.165	173.31
439.386	147.31
439.608	133.31
439.829	137.31
440.05	157.31
440.272	151.31
440.493	150.31
440.715	147.31
440.936	146.31
441.158	145.31
441.379	165.31
441.6	157.31
441.822	154.31
442.043	159.31
442.264	152.31
442.486	138.31
442.707	153.31
442.928	128.31
443.149	146.31
443.371	145.31
443.592	145.31
443.813	156.31
444.034	136.31
444.255	159.31
444.476	154.31
444.698	152.31
444.919	151.31
445.14	263.31
445.361	215.31
445.582	151.31
445.803	153.31
446.024	166.31
446.245	158.31
446.466	160.31
446.687	161.31
446.908	167.31
447.129	157.31
447.35	159.31
447.571	149.31
447.792	145.31
448.013	132.31
448.234	136.31
448.455	139.31
448.675	153.31
448.896	136.31
449.117	136.31
449.338	142.31
449.559	152.31
449.779	145.31
450	149.31
450.221	142.31
450.442	133.31
450.662	140.31
450.883	139.31
451.104	147.31
451.324	141.31
451.545	126.31
451.766	121.31
451.986	127.31
452.207	125.31
452.428	126.31
452.648	133.31
452.869	117.31
453.089	106.31
453.31	108.31
453.53	103.31
453.751	115.31
453.971	107.31
454.192	122.31
454.412	113.31
454.633	116.31
454.853	121.31
455.073	129.31
455.294	131.31
455.514	119.31
455.734	118.31
455.955	123.31
456.175	116.31
456.395	103.31
456.616	123.31
456.836	112.31
457.056	110.31
457.276	96.31
457.497	117.31
457.717	111.31
457.937	114.31
458.157	104.31
458.377	93.31
458.598	94.31
458.818	96.31
459.038	85.31
459.258	89.31
459.478	87.31
459.698	89.31
459.918	103.31
460.138	93.31
460.358	119.31
460.578	120.31
460.798	126.31
461.018	115.31
461.238	128.31
461.458	125.31
461.678	116.31
461.898	114.31
462.118	101.31
462.338	121.31
462.558	111.31
462.777	121.31
462.997	123.31
463.217	108.31
463.437	99.31
463.657	104.31
463.876	101.31
464.096	121.31
464.316	114.31
464.536	116.31
464.755	131.31
464.975	120.31
465.195	130.31
465.414	119.31
465.634	112.31
465.854	122.31
466.073	113.31
466.293	109.31
466.512	126.31
466.732	133.31
466.951	125.31
467.171	131.31
467.391	140.31
467.61	145.31
467.829	144.31
468.049	129.31
468.268	125.31
468.488	129.31
468.707	151.31
468.927	159.31
469.146	125.31
469.365	153.31
469.585	139.31
469.804	155.31
470.023	153.31
470.243	150.31
470.462	143.31
470.681	145.31
470.901	137.31
471.12	169.31
471.339	145.31
471.558	137.31
471.777	142.31
471.997	135.31
472.216	128.31
472.435	134.31
472.654	117.31
472.873	109.31
473.092	119.31
473.311	129.31
473.53	115.31
473.749	134.31
473.968	118.31
474.187	111.31
474.406	125.31
474.625	125.31
474.844	124.31
475.063	132.31
475.282	125.31
475.501	116.31
475.72	128.31
475.939	119.31
476.158	125.31
476.377	121.31
476.596	117.31
476.814	113.31
477.033	119.31
477.252	119.31
477.471	132.31
477.69	146.31
477.908	137.31
478.127	138.31
478.346	136.31
478.564	133.31
478.783	149.31
479.002	135.31
479.22	149.31
479.439	151.31
479.658	122.31
479.876	129.31
480.095	116.31
480.313	125.31
480.532	117.31
480.751	103.31
480.969	83.31
481.188	88.31
481.406	97.31
481.624	85.31
481.843	95.31
482.061	109.31
482.28	109.31
482.498	102.31
482.717	112.31
482.935	125.31
483.153	139.31
483.372	153.31
483.59	157.31
483.808	146.31
484.027	140.31
484.245	139.31
484.463	166.31
484.681	179.31
484.9	154.31
485.118	142.31
485.336	129.31
485.554	123.31
485.772	119.31
485.99	117.31
486.209	105.31
486.427	109.31
486.645	103.31
486.863	138.31
487.081	139.31
487.299	130.31
487.517	137.31
487.735	164.31
487.953	182.31
488.171	180.31
488.389	189.31
488.607	147.31
488.825	147.31
489.043	138.31
489.261	127.31
489.479	150.31
489.696	145.31
489.914	140.31
490.132	159.31
490.35	158.31
490.568	161.31
490.786	179.31
491.003	186.31
491.221	197.31
491.439	194.31
491.657	206.31
491.874	215.31
492.092	241.31
492.31	249.31
492.527	232.31
492.745	199.31
492.963	196.31
493.18	208.31
493.398	186.31
493.615	193.31
493.833	176.31
494.05	169.31
494.268	175.31
494.485	179.31
494.703	183.31
494.92	179.31
495.138	188.31
495.355	170.31
495.573	169.31
495.79	189.31
496.008	163.31
496.225	167.31
496.442	172.31
496.66	183.31
496.877	157.31
497.094	171.31
497.312	160.31
497.529	178.31
497.746	170.31
497.963	163.31
498.181	149.31
498.398	120.31
498.615	138.31
498.832	119.31
499.049	121.31
499.267	125.31
499.484	134.31
499.701	134.31
499.918	143.31
500.135	130.31
500.352	135.31
500.569	147.31
500.786	150.31
501.003	137.31
501.22	143.31
501.437	149.31
501.654	129.31
501.871	130.31
502.088	135.31
502.305	142.31
502.522	156.31
502.739	129.31
502.956	116.31
503.172	126.31
503.389	137.31
503.606	115.31
503.823	123.31
504.04	120.31
504.256	124.31
504.473	127.31
504.69	131.31
504.907	118.31
505.123	134.31
505.34	135.31
505.557	121.31
505.773	117.31
505.99	123.31
506.207	129.31
506.423	112.31
506.64	101.31
506.856	127.31
507.073	121.31
507.289	131.31
507.506	135.31
507.722	118.31
507.939	114.31
508.155	120.31
508.372	112.31
508.588	126.31
508.805	125.31
509.021	112.31
509.238	114.31
509.454	99.31
509.67	110.31
509.887	105.31
510.103	77.31
510.319	85.31
510.536	96.31
510.752	71.31
510.968	87.31
511.184	74.31
511.401	92.31
511.617	88.31
