Data from Location6.07152019.Energy5.Lamp.07192019.3%Agarose_HRD10591_16-12-50-395.txt Node
Date: Fri Jul 19 16:12:50 EDT 2019
User: cochatt
Spectrometer: HR+D1059
Trigger mode: 1
Integration Time (sec): 1.000000E-1
Scans to average: 1
Electric dark correction enabled: true
Nonlinearity correction enabled: false
Boxcar width: 0
XAxis mode: Wavelengths
Number of Pixels in Spectrum: 2048
>>>>>Begin Spectral Data<<<<<
223.165	-16.88
223.4	-16.88
223.635	-16.88
223.869	-31.88
224.104	-14.88
224.338	-9.88
224.573	-15.88
224.808	3.12
225.042	2.12
225.277	-5.88
225.511	8.12
225.746	-4.88
225.98	6.12
226.215	4.12
226.449	21.12
226.683	10.12
226.918	17.12
227.152	28.12
227.387	36.12
227.621	41.12
227.856	49.12
228.09	47.12
228.324	47.12
228.559	55.12
228.793	55.12
229.027	50.12
229.262	65.12
229.496	68.12
229.73	68.12
229.964	75.12
230.199	74.12
230.433	87.12
230.667	89.12
230.901	70.12
231.136	88.12
231.37	90.12
231.604	72.12
231.838	89.12
232.072	88.12
232.306	71.12
232.541	77.12
232.775	76.12
233.009	106.12
233.243	87.12
233.477	81.12
233.711	83.12
233.945	77.12
234.179	76.12
234.413	84.12
234.647	72.12
234.881	86.12
235.115	99.12
235.349	86.12
235.583	94.12
235.817	77.12
236.051	73.12
236.285	89.12
236.519	76.12
236.753	68.12
236.987	82.12
237.221	84.12
237.455	90.12
237.689	79.12
237.922	82.12
238.156	79.12
238.39	86.12
238.624	77.12
238.858	77.12
239.091	67.12
239.325	55.12
239.559	71.12
239.793	86.12
240.027	72.12
240.26	68.12
240.494	80.12
240.728	76.12
240.961	81.12
241.195	80.12
241.429	67.12
241.662	70.12
241.896	81.12
242.13	72.12
242.363	67.12
242.597	67.12
242.83	74.12
243.064	75.12
243.298	82.12
243.531	82.12
243.765	75.12
243.998	78.12
244.232	70.12
244.465	84.12
244.699	83.12
244.932	79.12
245.166	80.12
245.399	74.12
245.633	74.12
245.866	72.12
246.099	69.12
246.333	88.12
246.566	73.12
246.8	64.12
247.033	70.12
247.266	86.12
247.5	72.12
247.733	89.12
247.966	84.12
248.2	76.12
248.433	77.12
248.666	76.12
248.899	78.12
249.133	84.12
249.366	94.12
249.599	74.12
249.832	71.12
250.066	82.12
250.299	82.12
250.532	90.12
250.765	71.12
250.998	68.12
251.231	84.12
251.465	79.12
251.698	74.12
251.931	82.12
252.164	82.12
252.397	86.12
252.63	75.12
252.863	86.12
253.096	71.12
253.329	78.12
253.562	82.12
253.795	68.12
254.028	79.12
254.261	83.12
254.494	71.12
254.727	74.12
254.96	80.12
255.193	76.12
255.426	67.12
255.659	79.12
255.892	87.12
256.124	91.12
256.357	75.12
256.59	80.12
256.823	80.12
257.056	70.12
257.289	72.12
257.521	76.12
257.754	90.12
257.987	82.12
258.22	90.12
258.452	90.12
258.685	82.12
258.918	95.12
259.151	90.12
259.383	82.12
259.616	83.12
259.849	59.12
260.081	85.12
260.314	91.12
260.547	70.12
260.779	101.12
261.012	87.12
261.244	95.12
261.477	90.12
261.71	86.12
261.942	82.12
262.175	85.12
262.407	72.12
262.64	86.12
262.872	80.12
263.105	96.12
263.337	73.12
263.57	91.12
263.802	76.12
264.035	87.12
264.267	80.12
264.499	87.12
264.732	75.12
264.964	83.12
265.197	63.12
265.429	94.12
265.661	87.12
265.894	87.12
266.126	79.12
266.358	81.12
266.591	85.12
266.823	74.12
267.055	71.12
267.287	88.12
267.52	90.12
267.752	80.12
267.984	88.12
268.216	95.12
268.448	112.12
268.681	85.12
268.913	81.12
269.145	79.12
269.377	91.12
269.609	88.12
269.841	93.12
270.073	76.12
270.306	101.12
270.538	83.12
270.77	81.12
271.002	77.12
271.234	68.12
271.466	79.12
271.698	84.12
271.93	90.12
272.162	84.12
272.394	78.12
272.626	73.12
272.858	73.12
273.09	69.12
273.322	82.12
273.553	80.12
273.785	101.12
274.017	85.12
274.249	100.12
274.481	75.12
274.713	88.12
274.945	74.12
275.176	88.12
275.408	89.12
275.64	75.12
275.872	92.12
276.104	84.12
276.335	81.12
276.567	76.12
276.799	88.12
277.031	86.12
277.262	91.12
277.494	92.12
277.726	90.12
277.957	99.12
278.189	71.12
278.421	84.12
278.652	70.12
278.884	72.12
279.115	82.12
279.347	89.12
279.579	79.12
279.81	84.12
280.042	88.12
280.273	87.12
280.505	87.12
280.736	73.12
280.968	89.12
281.199	78.12
281.431	77.12
281.662	73.12
281.894	98.12
282.125	74.12
282.356	87.12
282.588	76.12
282.819	83.12
283.051	93.12
283.282	92.12
283.513	87.12
283.745	86.12
283.976	86.12
284.207	69.12
284.439	78.12
284.67	94.12
284.901	91.12
285.132	80.12
285.364	77.12
285.595	86.12
285.826	92.12
286.057	98.12
286.288	98.12
286.52	88.12
286.751	70.12
286.982	83.12
287.213	90.12
287.444	85.12
287.675	83.12
287.906	101.12
288.138	82.12
288.369	85.12
288.6	74.12
288.831	89.12
289.062	98.12
289.293	77.12
289.524	76.12
289.755	96.12
289.986	87.12
290.217	66.12
290.448	98.12
290.679	84.12
290.91	88.12
291.141	86.12
291.371	90.12
291.602	86.12
291.833	99.12
292.064	77.12
292.295	91.12
292.526	79.12
292.757	84.12
292.987	77.12
293.218	82.12
293.449	83.12
293.68	81.12
293.91	72.12
294.141	69.12
294.372	90.12
294.603	66.12
294.833	91.12
295.064	88.12
295.295	87.12
295.525	90.12
295.756	86.12
295.987	84.12
296.217	91.12
296.448	72.12
296.679	89.12
296.909	96.12
297.14	97.12
297.37	103.12
297.601	92.12
297.831	90.12
298.062	76.12
298.292	77.12
298.523	78.12
298.753	85.12
298.984	85.12
299.214	77.12
299.445	79.12
299.675	82.12
299.905	84.12
300.136	81.12
300.366	86.12
300.597	86.12
300.827	73.12
301.057	80.12
301.288	95.12
301.518	73.12
301.748	89.12
301.979	88.12
302.209	84.12
302.439	86.12
302.669	76.12
302.9	86.12
303.13	85.12
303.36	82.12
303.59	87.12
303.82	78.12
304.051	86.12
304.281	96.12
304.511	81.12
304.741	89.12
304.971	82.12
305.201	93.12
305.431	88.12
305.661	82.12
305.891	94.12
306.121	87.12
306.352	69.12
306.582	86.12
306.812	68.12
307.042	87.12
307.272	80.12
307.502	77.12
307.731	88.12
307.961	72.12
308.191	94.12
308.421	96.12
308.651	76.12
308.881	90.12
309.111	80.12
309.341	78.12
309.571	91.12
309.8	82.12
310.03	86.12
310.26	74.12
310.49	75.12
310.72	71.12
310.949	92.12
311.179	76.12
311.409	78.12
311.639	91.12
311.868	85.12
312.098	87.12
312.328	100.12
312.557	79.12
312.787	82.12
313.017	89.12
313.246	87.12
313.476	83.12
313.706	94.12
313.935	90.12
314.165	87.12
314.394	87.12
314.624	79.12
314.853	90.12
315.083	82.12
315.312	89.12
315.542	89.12
315.771	84.12
316.001	87.12
316.23	75.12
316.46	83.12
316.689	96.12
316.919	96.12
317.148	75.12
317.377	86.12
317.607	102.12
317.836	74.12
318.065	88.12
318.295	86.12
318.524	73.12
318.753	76.12
318.983	84.12
319.212	84.12
319.441	84.12
319.67	79.12
319.9	82.12
320.129	89.12
320.358	78.12
320.587	85.12
320.816	89.12
321.046	83.12
321.275	84.12
321.504	82.12
321.733	77.12
321.962	82.12
322.191	74.12
322.42	83.12
322.649	75.12
322.878	90.12
323.108	82.12
323.337	98.12
323.566	88.12
323.795	90.12
324.024	94.12
324.253	62.12
324.482	80.12
324.71	69.12
324.939	99.12
325.168	79.12
325.397	90.12
325.626	84.12
325.855	82.12
326.084	88.12
326.313	95.12
326.542	77.12
326.77	80.12
326.999	91.12
327.228	81.12
327.457	81.12
327.686	63.12
327.914	73.12
328.143	87.12
328.372	95.12
328.6	89.12
328.829	91.12
329.058	75.12
329.287	90.12
329.515	92.12
329.744	83.12
329.972	84.12
330.201	90.12
330.43	91.12
330.658	83.12
330.887	68.12
331.115	89.12
331.344	87.12
331.572	72.12
331.801	82.12
332.03	70.12
332.258	83.12
332.486	80.12
332.715	81.12
332.943	58.12
333.172	91.12
333.4	95.12
333.629	90.12
333.857	67.12
334.085	80.12
334.314	83.12
334.542	73.12
334.771	91.12
334.999	83.12
335.227	80.12
335.455	94.12
335.684	91.12
335.912	81.12
336.14	82.12
336.369	86.12
336.597	79.12
336.825	82.12
337.053	86.12
337.281	88.12
337.51	97.12
337.738	72.12
337.966	99.12
338.194	88.12
338.422	79.12
338.65	96.12
338.878	82.12
339.106	82.12
339.334	86.12
339.562	75.12
339.79	88.12
340.018	87.12
340.246	78.12
340.474	83.12
340.702	82.12
340.93	99.12
341.158	102.12
341.386	83.12
341.614	91.12
341.842	81.12
342.07	71.12
342.298	91.12
342.526	86.12
342.754	87.12
342.981	91.12
343.209	78.12
343.437	78.12
343.665	88.12
343.893	80.12
344.12	92.12
344.348	92.12
344.576	83.12
344.804	89.12
345.031	81.12
345.259	79.12
345.487	82.12
345.714	94.12
345.942	85.12
346.17	84.12
346.397	71.12
346.625	86.12
346.853	78.12
347.08	77.12
347.308	87.12
347.535	83.12
347.763	92.12
347.99	92.12
348.218	87.12
348.445	91.12
348.673	78.12
348.9	88.12
349.128	83.12
349.355	88.12
349.583	86.12
349.81	82.12
350.037	97.12
350.265	82.12
350.492	86.12
350.72	95.12
350.947	93.12
351.174	79.12
351.402	91.12
351.629	84.12
351.856	77.12
352.083	80.12
352.311	97.12
352.538	88.12
352.765	70.12
352.992	76.12
353.22	93.12
353.447	96.12
353.674	82.12
353.901	88.12
354.128	92.12
354.355	93.12
354.583	94.12
354.81	92.12
355.037	88.12
355.264	75.12
355.491	94.12
355.718	82.12
355.945	88.12
356.172	90.12
356.399	86.12
356.626	77.12
356.853	82.12
357.08	92.12
357.307	87.12
357.534	86.12
357.761	76.12
357.988	88.12
358.215	76.12
358.441	87.12
358.668	82.12
358.895	80.12
359.122	91.12
359.349	83.12
359.576	85.12
359.802	88.12
360.029	76.12
360.256	80.12
360.483	82.12
360.709	82.12
360.936	81.12
361.163	86.12
361.39	79.12
361.616	77.12
361.843	66.12
362.07	73.12
362.296	85.12
362.523	86.12
362.749	80.12
362.976	82.12
363.203	75.12
363.429	79.12
363.656	90.12
363.882	82.12
364.109	67.12
364.335	83.12
364.562	84.12
364.788	89.12
365.015	83.12
365.241	88.12
365.468	82.12
365.694	88.12
365.92	88.12
366.147	80.12
366.373	81.12
366.599	88.12
366.826	89.12
367.052	98.12
367.278	78.12
367.505	93.12
367.731	94.12
367.957	88.12
368.184	78.12
368.41	90.12
368.636	81.12
368.862	86.12
369.089	86.12
369.315	93.12
369.541	75.12
369.767	84.12
369.993	93.12
370.219	94.12
370.445	82.12
370.672	91.12
370.898	76.12
371.124	95.12
371.35	90.12
371.576	98.12
371.802	84.12
372.028	94.12
372.254	104.12
372.48	103.12
372.706	102.12
372.932	85.12
373.158	94.12
373.384	91.12
373.61	95.12
373.835	97.12
374.061	105.12
374.287	95.12
374.513	92.12
374.739	82.12
374.965	111.12
375.191	87.12
375.416	92.12
375.642	111.12
375.868	101.12
376.094	88.12
376.319	87.12
376.545	87.12
376.771	79.12
376.997	93.12
377.222	104.12
377.448	99.12
377.674	110.12
377.899	102.12
378.125	99.12
378.35	100.12
378.576	77.12
378.802	90.12
379.027	88.12
379.253	101.12
379.478	101.12
379.704	103.12
379.929	92.12
380.155	106.12
380.38	91.12
380.606	106.12
380.831	90.12
381.057	97.12
381.282	99.12
381.507	108.12
381.733	103.12
381.958	100.12
382.184	101.12
382.409	97.12
382.634	88.12
382.86	99.12
383.085	100.12
383.31	110.12
383.535	103.12
383.761	85.12
383.986	101.12
384.211	107.12
384.436	94.12
384.662	114.12
384.887	112.12
385.112	95.12
385.337	101.12
385.562	108.12
385.787	91.12
386.013	107.12
386.238	91.12
386.463	101.12
386.688	102.12
386.913	84.12
387.138	88.12
387.363	113.12
387.588	101.12
387.813	111.12
388.038	92.12
388.263	108.12
388.488	98.12
388.713	91.12
388.938	81.12
389.163	91.12
389.387	102.12
389.612	110.12
389.837	104.12
390.062	95.12
390.287	103.12
390.512	102.12
390.736	96.12
390.961	97.12
391.186	110.12
391.411	106.12
391.636	111.12
391.86	88.12
392.085	110.12
392.31	115.12
392.534	122.12
392.759	107.12
392.984	114.12
393.208	107.12
393.433	106.12
393.658	119.12
393.882	122.12
394.107	105.12
394.331	103.12
394.556	122.12
394.78	104.12
395.005	115.12
395.229	107.12
395.454	108.12
395.678	105.12
395.903	102.12
396.127	109.12
396.352	104.12
396.576	102.12
396.801	119.12
397.025	100.12
397.249	108.12
397.474	105.12
397.698	111.12
397.922	106.12
398.147	114.12
398.371	95.12
398.595	116.12
398.82	110.12
399.044	102.12
399.268	110.12
399.492	118.12
399.717	115.12
399.941	102.12
400.165	120.12
400.389	104.12
400.613	116.12
400.837	118.12
401.062	105.12
401.286	108.12
401.51	119.12
401.734	112.12
401.958	110.12
402.182	106.12
402.406	114.12
402.63	112.12
402.854	100.12
403.078	108.12
403.302	117.12
403.526	114.12
403.75	121.12
403.974	126.12
404.198	122.12
404.422	110.12
404.645	113.12
404.869	115.12
405.093	116.12
405.317	114.12
405.541	118.12
405.765	119.12
405.988	129.12
406.212	120.12
406.436	127.12
406.66	132.12
406.883	116.12
407.107	119.12
407.331	110.12
407.555	124.12
407.778	124.12
408.002	129.12
408.226	124.12
408.449	114.12
408.673	118.12
408.896	123.12
409.12	124.12
409.344	116.12
409.567	111.12
409.791	119.12
410.014	118.12
410.238	114.12
410.461	130.12
410.685	137.12
410.908	122.12
411.132	130.12
411.355	129.12
411.578	113.12
411.802	101.12
412.025	127.12
412.249	120.12
412.472	124.12
412.695	134.12
412.919	124.12
413.142	127.12
413.365	124.12
413.589	117.12
413.812	131.12
414.035	128.12
414.258	117.12
414.482	134.12
414.705	122.12
414.928	123.12
415.151	124.12
415.374	116.12
415.597	122.12
415.821	136.12
416.044	122.12
416.267	129.12
416.49	146.12
416.713	134.12
416.936	134.12
417.159	124.12
417.382	140.12
417.605	132.12
417.828	131.12
418.051	125.12
418.274	128.12
418.497	135.12
418.72	124.12
418.943	126.12
419.166	144.12
419.389	131.12
419.611	122.12
419.834	123.12
420.057	143.12
420.28	126.12
420.503	129.12
420.726	136.12
420.948	140.12
421.171	122.12
421.394	135.12
421.617	139.12
421.839	131.12
422.062	142.12
422.285	136.12
422.507	126.12
422.73	137.12
422.953	140.12
423.175	136.12
423.398	140.12
423.621	126.12
423.843	131.12
424.066	151.12
424.288	151.12
424.511	148.12
424.733	150.12
424.956	141.12
425.178	136.12
425.401	163.12
425.623	138.12
425.846	137.12
426.068	139.12
426.291	138.12
426.513	150.12
426.735	130.12
426.958	141.12
427.18	129.12
427.402	127.12
427.625	129.12
427.847	130.12
428.069	122.12
428.292	119.12
428.514	128.12
428.736	115.12
428.958	122.12
429.181	135.12
429.403	127.12
429.625	144.12
429.847	128.12
430.069	132.12
430.292	131.12
430.514	137.12
430.736	128.12
430.958	126.12
431.18	139.12
431.402	122.12
431.624	122.12
431.846	121.12
432.068	100.12
432.29	100.12
432.512	115.12
432.734	120.12
432.956	131.12
433.178	139.12
433.4	139.12
433.622	140.12
433.844	136.12
434.066	136.12
434.287	101.12
434.509	83.12
434.731	97.12
434.953	103.12
435.175	107.12
435.397	136.12
435.618	128.12
435.84	112.12
436.062	112.12
436.284	111.12
436.505	119.12
436.727	130.12
436.949	132.12
437.17	126.12
437.392	128.12
437.614	122.12
437.835	112.12
438.057	111.12
438.278	115.12
438.5	126.12
438.721	142.12
438.943	130.12
439.165	138.12
439.386	140.12
439.608	154.12
439.829	143.12
440.05	178.12
440.272	151.12
440.493	148.12
440.715	153.12
440.936	124.12
441.158	152.12
441.379	164.12
441.6	146.12
441.822	154.12
442.043	132.12
442.264	148.12
442.486	151.12
442.707	143.12
442.928	135.12
443.149	148.12
443.371	156.12
443.592	138.12
443.813	127.12
444.034	143.12
444.255	135.12
444.476	144.12
444.698	124.12
444.919	156.12
445.14	269.12
445.361	205.12
445.582	161.12
445.803	151.12
446.024	138.12
446.245	156.12
446.466	144.12
446.687	171.12
446.908	167.12
447.129	165.12
447.35	156.12
447.571	162.12
447.792	161.12
448.013	157.12
448.234	133.12
448.455	139.12
448.675	132.12
448.896	141.12
449.117	136.12
449.338	138.12
449.559	139.12
449.779	135.12
450	138.12
450.221	144.12
450.442	138.12
450.662	150.12
450.883	159.12
451.104	139.12
451.324	138.12
451.545	146.12
451.766	141.12
451.986	139.12
452.207	115.12
452.428	124.12
452.648	126.12
452.869	106.12
453.089	114.12
453.31	103.12
453.53	112.12
453.751	108.12
453.971	112.12
454.192	87.12
454.412	124.12
454.633	104.12
454.853	126.12
455.073	132.12
455.294	122.12
455.514	112.12
455.734	130.12
455.955	123.12
456.175	115.12
456.395	112.12
456.616	103.12
456.836	112.12
457.056	122.12
457.276	119.12
457.497	90.12
457.717	103.12
457.937	120.12
458.157	115.12
458.377	122.12
458.598	112.12
458.818	96.12
459.038	82.12
459.258	80.12
459.478	95.12
459.698	98.12
459.918	101.12
460.138	110.12
460.358	119.12
460.578	101.12
460.798	114.12
461.018	120.12
461.238	115.12
461.458	116.12
461.678	111.12
461.898	121.12
462.118	118.12
462.338	117.12
462.558	122.12
462.777	121.12
462.997	109.12
463.217	123.12
463.437	115.12
463.657	98.12
463.876	120.12
464.096	105.12
464.316	106.12
464.536	127.12
464.755	109.12
464.975	128.12
465.195	116.12
465.414	116.12
465.634	122.12
465.854	123.12
466.073	120.12
466.293	128.12
466.512	122.12
466.732	131.12
466.951	130.12
467.171	141.12
467.391	137.12
467.61	138.12
467.829	141.12
468.049	138.12
468.268	121.12
468.488	148.12
468.707	130.12
468.927	157.12
469.146	130.12
469.365	138.12
469.585	138.12
469.804	137.12
470.023	139.12
470.243	152.12
470.462	169.12
470.681	137.12
470.901	154.12
471.12	147.12
471.339	154.12
471.558	162.12
471.777	151.12
471.997	130.12
472.216	141.12
472.435	117.12
472.654	116.12
472.873	112.12
473.092	116.12
473.311	128.12
473.53	127.12
473.749	123.12
473.968	146.12
474.187	123.12
474.406	111.12
474.625	131.12
474.844	134.12
475.063	136.12
475.282	135.12
475.501	114.12
475.72	120.12
475.939	148.12
476.158	147.12
476.377	141.12
476.596	120.12
476.814	120.12
477.033	114.12
477.252	114.12
477.471	129.12
477.69	120.12
477.908	134.12
478.127	132.12
478.346	140.12
478.564	151.12
478.783	133.12
479.002	147.12
479.22	129.12
479.439	145.12
479.658	110.12
479.876	121.12
480.095	116.12
480.313	116.12
480.532	123.12
480.751	119.12
480.969	107.12
481.188	78.12
481.406	113.12
481.624	86.12
481.843	86.12
482.061	112.12
482.28	112.12
482.498	114.12
482.717	106.12
482.935	127.12
483.153	137.12
483.372	171.12
483.59	162.12
483.808	156.12
484.027	137.12
484.245	143.12
484.463	142.12
484.681	170.12
484.9	154.12
485.118	139.12
485.336	151.12
485.554	120.12
485.772	112.12
485.99	105.12
486.209	106.12
486.427	113.12
486.645	124.12
486.863	137.12
487.081	151.12
487.299	139.12
487.517	135.12
487.735	183.12
487.953	197.12
488.171	190.12
488.389	182.12
488.607	192.12
488.825	155.12
489.043	142.12
489.261	157.12
489.479	151.12
489.696	142.12
489.914	147.12
490.132	152.12
490.35	170.12
490.568	171.12
490.786	163.12
491.003	183.12
491.221	176.12
491.439	194.12
491.657	208.12
491.874	223.12
492.092	229.12
492.31	271.12
492.527	252.12
492.745	226.12
492.963	191.12
493.18	199.12
493.398	190.12
493.615	197.12
493.833	168.12
494.05	183.12
494.268	179.12
494.485	166.12
494.703	188.12
494.92	179.12
495.138	179.12
495.355	178.12
495.573	196.12
495.79	179.12
496.008	186.12
496.225	175.12
496.442	168.12
496.66	161.12
496.877	178.12
497.094	159.12
497.312	183.12
497.529	164.12
497.746	138.12
497.963	136.12
498.181	132.12
498.398	140.12
498.615	108.12
498.832	117.12
499.049	116.12
499.267	133.12
499.484	136.12
499.701	144.12
499.918	155.12
500.135	136.12
500.352	151.12
500.569	156.12
500.786	150.12
501.003	141.12
501.22	158.12
501.437	150.12
501.654	139.12
501.871	144.12
502.088	145.12
502.305	130.12
502.522	116.12
502.739	145.12
502.956	143.12
503.172	126.12
503.389	115.12
503.606	137.12
503.823	130.12
504.04	124.12
504.256	125.12
504.473	132.12
504.69	118.12
504.907	123.12
505.123	126.12
505.34	128.12
505.557	124.12
505.773	138.12
505.99	125.12
506.207	131.12
506.423	136.12
506.64	131.12
506.856	118.12
507.073	106.12
507.289	110.12
507.506	126.12
507.722	126.12
507.939	127.12
508.155	119.12
508.372	123.12
508.588	124.12
508.805	113.12
509.021	119.12
509.238	121.12
509.454	117.12
509.67	93.12
509.887	94.12
510.103	101.12
510.319	96.12
510.536	95.12
510.752	76.12
510.968	82.12
511.184	91.12
