Data from Location6.07152019.Energy5.Lamp.07192019.3%Agarose_HRD10591_16-13-12-395.txt Node
Date: Fri Jul 19 16:13:12 EDT 2019
User: cochatt
Spectrometer: HR+D1059
Trigger mode: 1
Integration Time (sec): 1.000000E-1
Scans to average: 1
Electric dark correction enabled: true
Nonlinearity correction enabled: false
Boxcar width: 0
XAxis mode: Wavelengths
Number of Pixels in Spectrum: 2048
>>>>>Begin Spectral Data<<<<<
223.165	-13.38
223.4	-13.38
223.635	-13.38
223.869	-31.38
224.104	5.62
224.338	-26.38
224.573	-6.38
224.808	-10.38
225.042	-7.38
225.277	1.62
225.511	6.62
225.746	-9.38
225.98	4.62
226.215	-5.38
226.449	6.62
226.683	27.62
226.918	24.62
227.152	32.62
227.387	44.62
227.621	50.62
227.856	47.62
228.09	46.62
228.324	55.62
228.559	50.62
228.793	62.62
229.027	50.62
229.262	59.62
229.496	78.62
229.73	72.62
229.964	76.62
230.199	70.62
230.433	82.62
230.667	78.62
230.901	62.62
231.136	93.62
231.37	89.62
231.604	87.62
231.838	90.62
232.072	82.62
232.306	99.62
232.541	78.62
232.775	102.62
233.009	82.62
233.243	94.62
233.477	85.62
233.711	78.62
233.945	93.62
234.179	90.62
234.413	86.62
234.647	86.62
234.881	82.62
235.115	90.62
235.349	78.62
235.583	80.62
235.817	78.62
236.051	66.62
236.285	69.62
236.519	88.62
236.753	69.62
236.987	84.62
237.221	81.62
237.455	75.62
237.689	72.62
237.922	83.62
238.156	81.62
238.39	78.62
238.624	79.62
238.858	74.62
239.091	76.62
239.325	94.62
239.559	84.62
239.793	80.62
240.027	78.62
240.26	91.62
240.494	76.62
240.728	82.62
240.961	86.62
241.195	86.62
241.429	92.62
241.662	84.62
241.896	72.62
242.13	70.62
242.363	87.62
242.597	78.62
242.83	85.62
243.064	76.62
243.298	78.62
243.531	62.62
243.765	91.62
243.998	79.62
244.232	87.62
244.465	79.62
244.699	78.62
244.932	93.62
245.166	70.62
245.399	92.62
245.633	86.62
245.866	79.62
246.099	66.62
246.333	76.62
246.566	71.62
246.8	91.62
247.033	88.62
247.266	74.62
247.5	88.62
247.733	82.62
247.966	87.62
248.2	79.62
248.433	75.62
248.666	95.62
248.899	71.62
249.133	78.62
249.366	100.62
249.599	85.62
249.832	89.62
250.066	94.62
250.299	71.62
250.532	82.62
250.765	74.62
250.998	94.62
251.231	102.62
251.465	90.62
251.698	92.62
251.931	69.62
252.164	78.62
252.397	88.62
252.63	90.62
252.863	83.62
253.096	93.62
253.329	96.62
253.562	78.62
253.795	90.62
254.028	88.62
254.261	87.62
254.494	86.62
254.727	92.62
254.96	79.62
255.193	78.62
255.426	82.62
255.659	78.62
255.892	85.62
256.124	85.62
256.357	74.62
256.59	94.62
256.823	88.62
257.056	89.62
257.289	82.62
257.521	95.62
257.754	87.62
257.987	83.62
258.22	86.62
258.452	77.62
258.685	91.62
258.918	74.62
259.151	72.62
259.383	90.62
259.616	88.62
259.849	96.62
260.081	79.62
260.314	92.62
260.547	90.62
260.779	96.62
261.012	97.62
261.244	99.62
261.477	86.62
261.71	77.62
261.942	75.62
262.175	80.62
262.407	89.62
262.64	80.62
262.872	93.62
263.105	78.62
263.337	84.62
263.57	69.62
263.802	76.62
264.035	80.62
264.267	85.62
264.499	85.62
264.732	76.62
264.964	100.62
265.197	97.62
265.429	82.62
265.661	99.62
265.894	69.62
266.126	93.62
266.358	68.62
266.591	89.62
266.823	90.62
267.055	79.62
267.287	97.62
267.52	90.62
267.752	96.62
267.984	85.62
268.216	94.62
268.448	79.62
268.681	78.62
268.913	80.62
269.145	79.62
269.377	95.62
269.609	80.62
269.841	90.62
270.073	95.62
270.306	90.62
270.538	78.62
270.77	84.62
271.002	84.62
271.234	84.62
271.466	82.62
271.698	83.62
271.93	85.62
272.162	75.62
272.394	87.62
272.626	79.62
272.858	84.62
273.09	90.62
273.322	87.62
273.553	90.62
273.785	84.62
274.017	74.62
274.249	70.62
274.481	89.62
274.713	90.62
274.945	83.62
275.176	88.62
275.408	86.62
275.64	80.62
275.872	98.62
276.104	89.62
276.335	84.62
276.567	94.62
276.799	85.62
277.031	78.62
277.262	94.62
277.494	84.62
277.726	83.62
277.957	90.62
278.189	78.62
278.421	85.62
278.652	91.62
278.884	98.62
279.115	85.62
279.347	74.62
279.579	84.62
279.81	95.62
280.042	74.62
280.273	90.62
280.505	92.62
280.736	102.62
280.968	90.62
281.199	81.62
281.431	92.62
281.662	85.62
281.894	70.62
282.125	85.62
282.356	77.62
282.588	80.62
282.819	86.62
283.051	87.62
283.282	83.62
283.513	85.62
283.745	86.62
283.976	99.62
284.207	85.62
284.439	84.62
284.67	97.62
284.901	87.62
285.132	82.62
285.364	101.62
285.595	95.62
285.826	91.62
286.057	90.62
286.288	98.62
286.52	92.62
286.751	88.62
286.982	82.62
287.213	92.62
287.444	93.62
287.675	85.62
287.906	79.62
288.138	94.62
288.369	79.62
288.6	92.62
288.831	91.62
289.062	89.62
289.293	102.62
289.524	86.62
289.755	94.62
289.986	78.62
290.217	81.62
290.448	86.62
290.679	90.62
290.91	87.62
291.141	94.62
291.371	85.62
291.602	93.62
291.833	80.62
292.064	96.62
292.295	88.62
292.526	96.62
292.757	91.62
292.987	99.62
293.218	91.62
293.449	78.62
293.68	86.62
293.91	97.62
294.141	89.62
294.372	76.62
294.603	92.62
294.833	76.62
295.064	88.62
295.295	84.62
295.525	79.62
295.756	83.62
295.987	93.62
296.217	85.62
296.448	100.62
296.679	90.62
296.909	80.62
297.14	88.62
297.37	85.62
297.601	92.62
297.831	101.62
298.062	84.62
298.292	87.62
298.523	78.62
298.753	72.62
298.984	76.62
299.214	86.62
299.445	78.62
299.675	92.62
299.905	94.62
300.136	99.62
300.366	81.62
300.597	85.62
300.827	80.62
301.057	93.62
301.288	89.62
301.518	95.62
301.748	89.62
301.979	84.62
302.209	89.62
302.439	77.62
302.669	86.62
302.9	84.62
303.13	86.62
303.36	81.62
303.59	86.62
303.82	96.62
304.051	106.62
304.281	76.62
304.511	85.62
304.741	94.62
304.971	84.62
305.201	95.62
305.431	79.62
305.661	77.62
305.891	103.62
306.121	100.62
306.352	91.62
306.582	88.62
306.812	93.62
307.042	91.62
307.272	88.62
307.502	92.62
307.731	88.62
307.961	85.62
308.191	91.62
308.421	88.62
308.651	105.62
308.881	82.62
309.111	83.62
309.341	81.62
309.571	86.62
309.8	93.62
310.03	74.62
310.26	86.62
310.49	92.62
310.72	92.62
310.949	88.62
311.179	91.62
311.409	89.62
311.639	89.62
311.868	85.62
312.098	86.62
312.328	87.62
312.557	92.62
312.787	78.62
313.017	91.62
313.246	98.62
313.476	95.62
313.706	89.62
313.935	96.62
314.165	86.62
314.394	81.62
314.624	82.62
314.853	102.62
315.083	84.62
315.312	76.62
315.542	90.62
315.771	87.62
316.001	95.62
316.23	70.62
316.46	92.62
316.689	89.62
316.919	98.62
317.148	93.62
317.377	80.62
317.607	83.62
317.836	92.62
318.065	99.62
318.295	87.62
318.524	101.62
318.753	95.62
318.983	90.62
319.212	85.62
319.441	91.62
319.67	85.62
319.9	88.62
320.129	80.62
320.358	88.62
320.587	79.62
320.816	80.62
321.046	93.62
321.275	93.62
321.504	83.62
321.733	92.62
321.962	92.62
322.191	82.62
322.42	73.62
322.649	80.62
322.878	80.62
323.108	85.62
323.337	93.62
323.566	94.62
323.795	101.62
324.024	90.62
324.253	91.62
324.482	76.62
324.71	106.62
324.939	93.62
325.168	97.62
325.397	74.62
325.626	81.62
325.855	98.62
326.084	96.62
326.313	70.62
326.542	95.62
326.77	88.62
326.999	84.62
327.228	85.62
327.457	84.62
327.686	96.62
327.914	108.62
328.143	84.62
328.372	90.62
328.6	85.62
328.829	87.62
329.058	80.62
329.287	74.62
329.515	89.62
329.744	89.62
329.972	88.62
330.201	81.62
330.43	90.62
330.658	96.62
330.887	88.62
331.115	99.62
331.344	94.62
331.572	90.62
331.801	94.62
332.03	82.62
332.258	94.62
332.486	86.62
332.715	74.62
332.943	83.62
333.172	79.62
333.4	88.62
333.629	77.62
333.857	87.62
334.085	82.62
334.314	93.62
334.542	99.62
334.771	91.62
334.999	93.62
335.227	86.62
335.455	90.62
335.684	98.62
335.912	87.62
336.14	87.62
336.369	88.62
336.597	87.62
336.825	85.62
337.053	94.62
337.281	91.62
337.51	85.62
337.738	113.62
337.966	88.62
338.194	72.62
338.422	92.62
338.65	86.62
338.878	71.62
339.106	94.62
339.334	94.62
339.562	91.62
339.79	72.62
340.018	78.62
340.246	86.62
340.474	89.62
340.702	85.62
340.93	87.62
341.158	75.62
341.386	93.62
341.614	92.62
341.842	103.62
342.07	107.62
342.298	89.62
342.526	89.62
342.754	94.62
342.981	87.62
343.209	95.62
343.437	78.62
343.665	77.62
343.893	95.62
344.12	85.62
344.348	95.62
344.576	92.62
344.804	84.62
345.031	83.62
345.259	88.62
345.487	94.62
345.714	79.62
345.942	106.62
346.17	89.62
346.397	90.62
346.625	91.62
346.853	98.62
347.08	94.62
347.308	89.62
347.535	85.62
347.763	91.62
347.99	77.62
348.218	84.62
348.445	92.62
348.673	78.62
348.9	78.62
349.128	93.62
349.355	78.62
349.583	104.62
349.81	95.62
350.037	81.62
350.265	79.62
350.492	81.62
350.72	88.62
350.947	87.62
351.174	86.62
351.402	95.62
351.629	86.62
351.856	95.62
352.083	88.62
352.311	86.62
352.538	83.62
352.765	99.62
352.992	99.62
353.22	91.62
353.447	97.62
353.674	84.62
353.901	89.62
354.128	75.62
354.355	86.62
354.583	79.62
354.81	82.62
355.037	87.62
355.264	86.62
355.491	88.62
355.718	71.62
355.945	90.62
356.172	95.62
356.399	86.62
356.626	102.62
356.853	99.62
357.08	91.62
357.307	95.62
357.534	86.62
357.761	89.62
357.988	96.62
358.215	70.62
358.441	79.62
358.668	89.62
358.895	80.62
359.122	93.62
359.349	85.62
359.576	86.62
359.802	82.62
360.029	101.62
360.256	95.62
360.483	92.62
360.709	89.62
360.936	100.62
361.163	106.62
361.39	67.62
361.616	102.62
361.843	78.62
362.07	77.62
362.296	106.62
362.523	89.62
362.749	88.62
362.976	79.62
363.203	97.62
363.429	89.62
363.656	93.62
363.882	93.62
364.109	87.62
364.335	87.62
364.562	80.62
364.788	73.62
365.015	104.62
365.241	95.62
365.468	93.62
365.694	87.62
365.92	86.62
366.147	91.62
366.373	103.62
366.599	89.62
366.826	86.62
367.052	94.62
367.278	80.62
367.505	95.62
367.731	77.62
367.957	84.62
368.184	90.62
368.41	98.62
368.636	86.62
368.862	82.62
369.089	107.62
369.315	98.62
369.541	89.62
369.767	114.62
369.993	90.62
370.219	99.62
370.445	103.62
370.672	88.62
370.898	88.62
371.124	82.62
371.35	83.62
371.576	87.62
371.802	98.62
372.028	105.62
372.254	83.62
372.48	82.62
372.706	84.62
372.932	99.62
373.158	84.62
373.384	96.62
373.61	90.62
373.835	99.62
374.061	96.62
374.287	98.62
374.513	92.62
374.739	102.62
374.965	98.62
375.191	94.62
375.416	105.62
375.642	94.62
375.868	114.62
376.094	112.62
376.319	98.62
376.545	101.62
376.771	100.62
376.997	100.62
377.222	95.62
377.448	115.62
377.674	89.62
377.899	99.62
378.125	89.62
378.35	100.62
378.576	122.62
378.802	112.62
379.027	100.62
379.253	104.62
379.478	108.62
379.704	107.62
379.929	107.62
380.155	95.62
380.38	92.62
380.606	115.62
380.831	100.62
381.057	117.62
381.282	115.62
381.507	86.62
381.733	108.62
381.958	109.62
382.184	110.62
382.409	97.62
382.634	99.62
382.86	96.62
383.085	99.62
383.31	93.62
383.535	102.62
383.761	94.62
383.986	111.62
384.211	104.62
384.436	93.62
384.662	109.62
384.887	107.62
385.112	106.62
385.337	109.62
385.562	101.62
385.787	104.62
386.013	117.62
386.238	100.62
386.463	96.62
386.688	90.62
386.913	106.62
387.138	110.62
387.363	100.62
387.588	112.62
387.813	116.62
388.038	100.62
388.263	111.62
388.488	117.62
388.713	107.62
388.938	104.62
389.163	99.62
389.387	102.62
389.612	100.62
389.837	114.62
390.062	95.62
390.287	110.62
390.512	118.62
390.736	115.62
390.961	102.62
391.186	111.62
391.411	116.62
391.636	120.62
391.86	86.62
392.085	114.62
392.31	121.62
392.534	108.62
392.759	125.62
392.984	116.62
393.208	111.62
393.433	122.62
393.658	116.62
393.882	83.62
394.107	108.62
394.331	115.62
394.556	121.62
394.78	107.62
395.005	110.62
395.229	120.62
395.454	119.62
395.678	115.62
395.903	114.62
396.127	115.62
396.352	111.62
396.576	130.62
396.801	110.62
397.025	112.62
397.249	115.62
397.474	109.62
397.698	108.62
397.922	123.62
398.147	121.62
398.371	111.62
398.595	132.62
398.82	106.62
399.044	115.62
399.268	122.62
399.492	132.62
399.717	126.62
399.941	115.62
400.165	116.62
400.389	113.62
400.613	119.62
400.837	119.62
401.062	128.62
401.286	116.62
401.51	113.62
401.734	128.62
401.958	123.62
402.182	124.62
402.406	120.62
402.63	126.62
402.854	109.62
403.078	122.62
403.302	114.62
403.526	119.62
403.75	115.62
403.974	110.62
404.198	134.62
404.422	126.62
404.645	117.62
404.869	122.62
405.093	136.62
405.317	127.62
405.541	125.62
405.765	121.62
405.988	122.62
406.212	127.62
406.436	122.62
406.66	128.62
406.883	135.62
407.107	120.62
407.331	122.62
407.555	116.62
407.778	131.62
408.002	120.62
408.226	123.62
408.449	114.62
408.673	132.62
408.896	132.62
409.12	127.62
409.344	141.62
409.567	128.62
409.791	137.62
410.014	130.62
410.238	123.62
410.461	128.62
410.685	122.62
410.908	129.62
411.132	121.62
411.355	127.62
411.578	142.62
411.802	126.62
412.025	116.62
412.249	125.62
412.472	120.62
412.695	122.62
412.919	122.62
413.142	130.62
413.365	127.62
413.589	125.62
413.812	141.62
414.035	134.62
414.258	131.62
414.482	127.62
414.705	132.62
414.928	133.62
415.151	126.62
415.374	130.62
415.597	128.62
415.821	140.62
416.044	116.62
416.267	142.62
416.49	139.62
416.713	139.62
416.936	131.62
417.159	125.62
417.382	124.62
417.605	136.62
417.828	131.62
418.051	131.62
418.274	137.62
418.497	149.62
418.72	155.62
418.943	126.62
419.166	147.62
419.389	131.62
419.611	136.62
419.834	138.62
420.057	147.62
420.28	144.62
420.503	145.62
420.726	140.62
420.948	125.62
421.171	138.62
421.394	151.62
421.617	148.62
421.839	148.62
422.062	141.62
422.285	132.62
422.507	136.62
422.73	139.62
422.953	138.62
423.175	129.62
423.398	132.62
423.621	147.62
423.843	144.62
424.066	144.62
424.288	142.62
424.511	159.62
424.733	148.62
424.956	147.62
425.178	144.62
425.401	153.62
425.623	147.62
425.846	145.62
426.068	155.62
426.291	141.62
426.513	125.62
426.735	137.62
426.958	131.62
427.18	146.62
427.402	146.62
427.625	138.62
427.847	128.62
428.069	145.62
428.292	126.62
428.514	125.62
428.736	136.62
428.958	152.62
429.181	128.62
429.403	155.62
429.625	135.62
429.847	136.62
430.069	136.62
430.292	143.62
430.514	145.62
430.736	140.62
430.958	145.62
431.18	138.62
431.402	127.62
431.624	114.62
431.846	120.62
432.068	96.62
432.29	106.62
432.512	122.62
432.734	134.62
432.956	135.62
433.178	143.62
433.4	132.62
433.622	139.62
433.844	143.62
434.066	121.62
434.287	112.62
434.509	115.62
434.731	88.62
434.953	112.62
435.175	131.62
435.397	141.62
435.618	129.62
435.84	116.62
436.062	128.62
436.284	129.62
436.505	134.62
436.727	119.62
436.949	146.62
437.17	138.62
437.392	136.62
437.614	128.62
437.835	126.62
438.057	112.62
438.278	130.62
438.5	125.62
438.721	136.62
438.943	148.62
439.165	142.62
439.386	148.62
439.608	140.62
439.829	140.62
440.05	167.62
440.272	148.62
440.493	165.62
440.715	160.62
440.936	157.62
441.158	141.62
441.379	139.62
441.6	144.62
441.822	147.62
442.043	148.62
442.264	145.62
442.486	155.62
442.707	149.62
442.928	155.62
443.149	137.62
443.371	148.62
443.592	152.62
443.813	145.62
444.034	154.62
444.255	131.62
444.476	135.62
444.698	151.62
444.919	158.62
445.14	307.62
445.361	222.62
445.582	150.62
445.803	156.62
446.024	170.62
446.245	154.62
446.466	166.62
446.687	152.62
446.908	179.62
447.129	141.62
447.35	150.62
447.571	162.62
447.792	168.62
448.013	143.62
448.234	144.62
448.455	134.62
448.675	143.62
448.896	140.62
449.117	162.62
449.338	139.62
449.559	143.62
449.779	155.62
450	148.62
450.221	147.62
450.442	159.62
450.662	150.62
450.883	150.62
451.104	145.62
451.324	143.62
451.545	140.62
451.766	141.62
451.986	128.62
452.207	130.62
452.428	144.62
452.648	149.62
452.869	138.62
453.089	137.62
453.31	121.62
453.53	124.62
453.751	112.62
453.971	107.62
454.192	118.62
454.412	127.62
454.633	129.62
454.853	126.62
455.073	138.62
455.294	139.62
455.514	133.62
455.734	127.62
455.955	122.62
456.175	122.62
456.395	121.62
456.616	120.62
456.836	118.62
457.056	124.62
457.276	130.62
457.497	114.62
457.717	117.62
457.937	123.62
458.157	119.62
458.377	108.62
458.598	100.62
458.818	95.62
459.038	94.62
459.258	87.62
459.478	85.62
459.698	106.62
459.918	108.62
460.138	103.62
460.358	117.62
460.578	132.62
460.798	128.62
461.018	118.62
461.238	119.62
461.458	119.62
461.678	123.62
461.898	121.62
462.118	125.62
462.338	113.62
462.558	111.62
462.777	118.62
462.997	120.62
463.217	115.62
463.437	116.62
463.657	110.62
463.876	114.62
464.096	122.62
464.316	107.62
464.536	137.62
464.755	132.62
464.975	129.62
465.195	121.62
465.414	131.62
465.634	121.62
465.854	108.62
466.073	130.62
466.293	139.62
466.512	144.62
466.732	139.62
466.951	142.62
467.171	140.62
467.391	135.62
467.61	150.62
467.829	145.62
468.049	144.62
468.268	130.62
468.488	137.62
468.707	125.62
468.927	143.62
469.146	147.62
469.365	157.62
469.585	150.62
469.804	145.62
470.023	158.62
470.243	156.62
470.462	160.62
470.681	153.62
470.901	150.62
471.12	157.62
471.339	153.62
471.558	147.62
471.777	163.62
471.997	139.62
472.216	141.62
472.435	105.62
472.654	119.62
472.873	126.62
473.092	119.62
473.311	143.62
473.53	137.62
473.749	139.62
473.968	139.62
474.187	123.62
474.406	126.62
474.625	127.62
474.844	143.62
475.063	151.62
475.282	130.62
475.501	134.62
475.72	133.62
475.939	127.62
476.158	130.62
476.377	138.62
476.596	129.62
476.814	125.62
477.033	128.62
477.252	143.62
477.471	122.62
477.69	136.62
477.908	165.62
478.127	144.62
478.346	142.62
478.564	141.62
478.783	144.62
479.002	158.62
479.22	134.62
479.439	135.62
479.658	128.62
479.876	117.62
480.095	127.62
480.313	124.62
480.532	123.62
480.751	125.62
480.969	104.62
481.188	101.62
481.406	95.62
481.624	87.62
481.843	105.62
482.061	102.62
482.28	122.62
482.498	123.62
482.717	140.62
482.935	135.62
483.153	140.62
483.372	161.62
483.59	169.62
483.808	154.62
484.027	153.62
484.245	143.62
484.463	158.62
484.681	166.62
484.9	149.62
485.118	170.62
485.336	138.62
485.554	123.62
485.772	109.62
485.99	116.62
486.209	130.62
486.427	112.62
486.645	124.62
486.863	136.62
487.081	144.62
487.299	143.62
487.517	151.62
487.735	174.62
487.953	209.62
488.171	211.62
488.389	187.62
488.607	168.62
488.825	165.62
489.043	140.62
489.261	155.62
489.479	139.62
489.696	143.62
489.914	145.62
490.132	160.62
490.35	175.62
490.568	168.62
490.786	186.62
491.003	189.62
491.221	189.62
491.439	208.62
491.657	216.62
491.874	212.62
492.092	237.62
492.31	244.62
492.527	256.62
492.745	221.62
492.963	214.62
493.18	197.62
493.398	198.62
493.615	189.62
493.833	182.62
494.05	172.62
494.268	179.62
494.485	165.62
494.703	186.62
494.92	182.62
495.138	176.62
495.355	186.62
495.573	188.62
495.79	182.62
496.008	195.62
496.225	175.62
496.442	170.62
496.66	188.62
496.877	173.62
497.094	182.62
497.312	180.62
497.529	172.62
497.746	162.62
497.963	144.62
498.181	150.62
498.398	119.62
498.615	128.62
498.832	132.62
499.049	134.62
499.267	119.62
499.484	134.62
499.701	124.62
499.918	135.62
500.135	154.62
500.352	170.62
500.569	156.62
500.786	154.62
501.003	130.62
501.22	148.62
501.437	157.62
501.654	154.62
501.871	148.62
502.088	146.62
502.305	146.62
502.522	145.62
502.739	139.62
502.956	150.62
503.172	128.62
503.389	145.62
503.606	134.62
503.823	129.62
504.04	127.62
504.256	131.62
504.473	120.62
504.69	130.62
504.907	133.62
505.123	133.62
505.34	135.62
505.557	153.62
505.773	144.62
505.99	122.62
506.207	121.62
506.423	133.62
506.64	136.62
506.856	134.62
507.073	142.62
507.289	133.62
507.506	123.62
507.722	128.62
507.939	123.62
508.155	120.62
508.372	126.62
508.588	125.62
508.805	130.62
509.021	121.62
509.238	102.62
509.454	111.62
509.67	108.62
509.887	105.62
510.103	98.62
510.319	103.62
510.536	89.62
510.752	98.62
