Data from Location6.07152019.Energy5.Lamp.07192019.3%Agarose_HRD10591_16-12-53-395.txt Node
Date: Fri Jul 19 16:12:53 EDT 2019
User: cochatt
Spectrometer: HR+D1059
Trigger mode: 1
Integration Time (sec): 1.000000E-1
Scans to average: 1
Electric dark correction enabled: true
Nonlinearity correction enabled: false
Boxcar width: 0
XAxis mode: Wavelengths
Number of Pixels in Spectrum: 2048
>>>>>Begin Spectral Data<<<<<
223.165	-18.19
223.4	-18.19
223.635	-18.19
223.869	-19.19
224.104	-11.19
224.338	-10.19
224.573	-9.19
224.808	6.81
225.042	-8.19
225.277	-2.19
225.511	-1.19
225.746	-0.19
225.98	-9.19
226.215	4.81
226.449	16.81
226.683	8.81
226.918	23.81
227.152	27.81
227.387	25.81
227.621	28.81
227.856	40.81
228.09	51.81
228.324	46.81
228.559	58.81
228.793	57.81
229.027	54.81
229.262	61.81
229.496	65.81
229.73	54.81
229.964	67.81
230.199	73.81
230.433	77.81
230.667	68.81
230.901	70.81
231.136	69.81
231.37	82.81
231.604	77.81
231.838	83.81
232.072	83.81
232.306	88.81
232.541	84.81
232.775	71.81
233.009	82.81
233.243	79.81
233.477	73.81
233.711	75.81
233.945	68.81
234.179	81.81
234.413	82.81
234.647	86.81
234.881	79.81
235.115	77.81
235.349	73.81
235.583	83.81
235.817	75.81
236.051	74.81
236.285	68.81
236.519	82.81
236.753	71.81
236.987	62.81
237.221	58.81
237.455	80.81
237.689	77.81
237.922	81.81
238.156	88.81
238.39	76.81
238.624	89.81
238.858	81.81
239.091	78.81
239.325	69.81
239.559	77.81
239.793	75.81
240.027	73.81
240.26	85.81
240.494	68.81
240.728	82.81
240.961	75.81
241.195	83.81
241.429	80.81
241.662	76.81
241.896	73.81
242.13	83.81
242.363	81.81
242.597	79.81
242.83	82.81
243.064	83.81
243.298	87.81
243.531	83.81
243.765	76.81
243.998	68.81
244.232	88.81
244.465	72.81
244.699	77.81
244.932	76.81
245.166	75.81
245.399	75.81
245.633	86.81
245.866	78.81
246.099	82.81
246.333	69.81
246.566	82.81
246.8	76.81
247.033	71.81
247.266	87.81
247.5	72.81
247.733	78.81
247.966	66.81
248.2	75.81
248.433	77.81
248.666	76.81
248.899	81.81
249.133	71.81
249.366	79.81
249.599	83.81
249.832	66.81
250.066	67.81
250.299	77.81
250.532	85.81
250.765	72.81
250.998	83.81
251.231	85.81
251.465	66.81
251.698	74.81
251.931	67.81
252.164	82.81
252.397	72.81
252.63	93.81
252.863	81.81
253.096	82.81
253.329	79.81
253.562	68.81
253.795	73.81
254.028	84.81
254.261	96.81
254.494	80.81
254.727	82.81
254.96	77.81
255.193	80.81
255.426	83.81
255.659	72.81
255.892	81.81
256.124	79.81
256.357	97.81
256.59	70.81
256.823	76.81
257.056	80.81
257.289	85.81
257.521	68.81
257.754	80.81
257.987	70.81
258.22	81.81
258.452	76.81
258.685	84.81
258.918	76.81
259.151	69.81
259.383	90.81
259.616	86.81
259.849	88.81
260.081	74.81
260.314	88.81
260.547	76.81
260.779	71.81
261.012	87.81
261.244	74.81
261.477	79.81
261.71	86.81
261.942	83.81
262.175	90.81
262.407	71.81
262.64	70.81
262.872	96.81
263.105	74.81
263.337	66.81
263.57	78.81
263.802	85.81
264.035	77.81
264.267	85.81
264.499	76.81
264.732	78.81
264.964	90.81
265.197	72.81
265.429	98.81
265.661	83.81
265.894	74.81
266.126	79.81
266.358	81.81
266.591	87.81
266.823	87.81
267.055	83.81
267.287	70.81
267.52	60.81
267.752	78.81
267.984	76.81
268.216	85.81
268.448	80.81
268.681	88.81
268.913	89.81
269.145	70.81
269.377	91.81
269.609	88.81
269.841	91.81
270.073	79.81
270.306	80.81
270.538	79.81
270.77	84.81
271.002	78.81
271.234	84.81
271.466	93.81
271.698	89.81
271.93	88.81
272.162	88.81
272.394	75.81
272.626	82.81
272.858	73.81
273.09	83.81
273.322	83.81
273.553	74.81
273.785	81.81
274.017	67.81
274.249	95.81
274.481	84.81
274.713	81.81
274.945	89.81
275.176	73.81
275.408	72.81
275.64	80.81
275.872	83.81
276.104	96.81
276.335	94.81
276.567	75.81
276.799	78.81
277.031	88.81
277.262	79.81
277.494	83.81
277.726	97.81
277.957	87.81
278.189	84.81
278.421	69.81
278.652	85.81
278.884	91.81
279.115	77.81
279.347	79.81
279.579	85.81
279.81	84.81
280.042	70.81
280.273	88.81
280.505	77.81
280.736	85.81
280.968	87.81
281.199	81.81
281.431	84.81
281.662	75.81
281.894	81.81
282.125	86.81
282.356	77.81
282.588	85.81
282.819	84.81
283.051	83.81
283.282	63.81
283.513	85.81
283.745	101.81
283.976	94.81
284.207	97.81
284.439	75.81
284.67	79.81
284.901	82.81
285.132	96.81
285.364	94.81
285.595	95.81
285.826	85.81
286.057	91.81
286.288	87.81
286.52	86.81
286.751	85.81
286.982	98.81
287.213	76.81
287.444	91.81
287.675	100.81
287.906	85.81
288.138	80.81
288.369	81.81
288.6	85.81
288.831	81.81
289.062	90.81
289.293	77.81
289.524	87.81
289.755	78.81
289.986	77.81
290.217	81.81
290.448	78.81
290.679	90.81
290.91	87.81
291.141	95.81
291.371	81.81
291.602	94.81
291.833	82.81
292.064	81.81
292.295	89.81
292.526	85.81
292.757	87.81
292.987	80.81
293.218	66.81
293.449	91.81
293.68	88.81
293.91	91.81
294.141	91.81
294.372	68.81
294.603	79.81
294.833	84.81
295.064	96.81
295.295	94.81
295.525	90.81
295.756	88.81
295.987	76.81
296.217	76.81
296.448	85.81
296.679	75.81
296.909	85.81
297.14	81.81
297.37	78.81
297.601	84.81
297.831	96.81
298.062	92.81
298.292	85.81
298.523	85.81
298.753	93.81
298.984	87.81
299.214	80.81
299.445	69.81
299.675	71.81
299.905	72.81
300.136	69.81
300.366	89.81
300.597	76.81
300.827	96.81
301.057	87.81
301.288	84.81
301.518	94.81
301.748	78.81
301.979	84.81
302.209	97.81
302.439	80.81
302.669	79.81
302.9	94.81
303.13	78.81
303.36	71.81
303.59	89.81
303.82	86.81
304.051	82.81
304.281	90.81
304.511	70.81
304.741	89.81
304.971	84.81
305.201	89.81
305.431	82.81
305.661	83.81
305.891	86.81
306.121	73.81
306.352	91.81
306.582	74.81
306.812	76.81
307.042	82.81
307.272	87.81
307.502	102.81
307.731	85.81
307.961	75.81
308.191	78.81
308.421	75.81
308.651	84.81
308.881	83.81
309.111	80.81
309.341	90.81
309.571	88.81
309.8	90.81
310.03	91.81
310.26	93.81
310.49	85.81
310.72	90.81
310.949	90.81
311.179	83.81
311.409	85.81
311.639	74.81
311.868	83.81
312.098	95.81
312.328	93.81
312.557	88.81
312.787	80.81
313.017	87.81
313.246	88.81
313.476	85.81
313.706	80.81
313.935	97.81
314.165	89.81
314.394	85.81
314.624	90.81
314.853	91.81
315.083	72.81
315.312	75.81
315.542	73.81
315.771	91.81
316.001	66.81
316.23	87.81
316.46	99.81
316.689	81.81
316.919	91.81
317.148	83.81
317.377	87.81
317.607	83.81
317.836	70.81
318.065	87.81
318.295	86.81
318.524	91.81
318.753	90.81
318.983	71.81
319.212	88.81
319.441	82.81
319.67	89.81
319.9	98.81
320.129	93.81
320.358	71.81
320.587	86.81
320.816	106.81
321.046	91.81
321.275	92.81
321.504	85.81
321.733	71.81
321.962	81.81
322.191	92.81
322.42	84.81
322.649	96.81
322.878	79.81
323.108	90.81
323.337	100.81
323.566	81.81
323.795	82.81
324.024	83.81
324.253	82.81
324.482	96.81
324.71	83.81
324.939	86.81
325.168	79.81
325.397	80.81
325.626	94.81
325.855	84.81
326.084	78.81
326.313	88.81
326.542	72.81
326.77	72.81
326.999	75.81
327.228	82.81
327.457	83.81
327.686	71.81
327.914	82.81
328.143	81.81
328.372	94.81
328.6	75.81
328.829	79.81
329.058	93.81
329.287	97.81
329.515	92.81
329.744	79.81
329.972	69.81
330.201	93.81
330.43	92.81
330.658	73.81
330.887	85.81
331.115	78.81
331.344	88.81
331.572	81.81
331.801	87.81
332.03	82.81
332.258	72.81
332.486	83.81
332.715	75.81
332.943	77.81
333.172	88.81
333.4	83.81
333.629	75.81
333.857	87.81
334.085	86.81
334.314	81.81
334.542	72.81
334.771	80.81
334.999	84.81
335.227	83.81
335.455	86.81
335.684	97.81
335.912	90.81
336.14	95.81
336.369	84.81
336.597	89.81
336.825	88.81
337.053	85.81
337.281	90.81
337.51	78.81
337.738	83.81
337.966	81.81
338.194	83.81
338.422	86.81
338.65	69.81
338.878	90.81
339.106	79.81
339.334	94.81
339.562	72.81
339.79	79.81
340.018	71.81
340.246	85.81
340.474	90.81
340.702	77.81
340.93	105.81
341.158	103.81
341.386	80.81
341.614	71.81
341.842	81.81
342.07	80.81
342.298	77.81
342.526	79.81
342.754	85.81
342.981	89.81
343.209	77.81
343.437	86.81
343.665	91.81
343.893	96.81
344.12	78.81
344.348	80.81
344.576	84.81
344.804	74.81
345.031	83.81
345.259	93.81
345.487	92.81
345.714	85.81
345.942	93.81
346.17	90.81
346.397	94.81
346.625	81.81
346.853	70.81
347.08	83.81
347.308	76.81
347.535	72.81
347.763	79.81
347.99	86.81
348.218	84.81
348.445	83.81
348.673	75.81
348.9	90.81
349.128	85.81
349.355	83.81
349.583	91.81
349.81	61.81
350.037	79.81
350.265	85.81
350.492	94.81
350.72	87.81
350.947	87.81
351.174	85.81
351.402	94.81
351.629	71.81
351.856	82.81
352.083	97.81
352.311	87.81
352.538	85.81
352.765	68.81
352.992	77.81
353.22	91.81
353.447	80.81
353.674	86.81
353.901	72.81
354.128	90.81
354.355	74.81
354.583	87.81
354.81	88.81
355.037	90.81
355.264	93.81
355.491	77.81
355.718	80.81
355.945	83.81
356.172	82.81
356.399	85.81
356.626	90.81
356.853	70.81
357.08	89.81
357.307	87.81
357.534	93.81
357.761	59.81
357.988	83.81
358.215	86.81
358.441	76.81
358.668	79.81
358.895	85.81
359.122	96.81
359.349	88.81
359.576	97.81
359.802	84.81
360.029	91.81
360.256	87.81
360.483	88.81
360.709	88.81
360.936	99.81
361.163	73.81
361.39	83.81
361.616	92.81
361.843	94.81
362.07	84.81
362.296	86.81
362.523	84.81
362.749	85.81
362.976	78.81
363.203	83.81
363.429	82.81
363.656	76.81
363.882	93.81
364.109	76.81
364.335	88.81
364.562	77.81
364.788	77.81
365.015	95.81
365.241	88.81
365.468	90.81
365.694	72.81
365.92	81.81
366.147	69.81
366.373	76.81
366.599	78.81
366.826	93.81
367.052	78.81
367.278	79.81
367.505	84.81
367.731	90.81
367.957	83.81
368.184	97.81
368.41	78.81
368.636	82.81
368.862	91.81
369.089	97.81
369.315	92.81
369.541	102.81
369.767	96.81
369.993	104.81
370.219	91.81
370.445	96.81
370.672	97.81
370.898	101.81
371.124	98.81
371.35	74.81
371.576	96.81
371.802	87.81
372.028	98.81
372.254	87.81
372.48	99.81
372.706	92.81
372.932	94.81
373.158	87.81
373.384	105.81
373.61	84.81
373.835	98.81
374.061	80.81
374.287	86.81
374.513	85.81
374.739	81.81
374.965	92.81
375.191	98.81
375.416	90.81
375.642	101.81
375.868	91.81
376.094	91.81
376.319	78.81
376.545	92.81
376.771	89.81
376.997	98.81
377.222	72.81
377.448	102.81
377.674	95.81
377.899	94.81
378.125	87.81
378.35	100.81
378.576	101.81
378.802	104.81
379.027	104.81
379.253	84.81
379.478	101.81
379.704	100.81
379.929	102.81
380.155	93.81
380.38	79.81
380.606	95.81
380.831	94.81
381.057	102.81
381.282	96.81
381.507	92.81
381.733	104.81
381.958	82.81
382.184	98.81
382.409	91.81
382.634	85.81
382.86	98.81
383.085	101.81
383.31	94.81
383.535	105.81
383.761	104.81
383.986	109.81
384.211	105.81
384.436	94.81
384.662	98.81
384.887	80.81
385.112	85.81
385.337	93.81
385.562	98.81
385.787	101.81
386.013	97.81
386.238	104.81
386.463	112.81
386.688	83.81
386.913	98.81
387.138	117.81
387.363	113.81
387.588	112.81
387.813	109.81
388.038	111.81
388.263	111.81
388.488	107.81
388.713	105.81
388.938	106.81
389.163	96.81
389.387	97.81
389.612	105.81
389.837	101.81
390.062	115.81
390.287	107.81
390.512	103.81
390.736	103.81
390.961	105.81
391.186	105.81
391.411	103.81
391.636	125.81
391.86	124.81
392.085	123.81
392.31	112.81
392.534	112.81
392.759	114.81
392.984	103.81
393.208	98.81
393.433	96.81
393.658	113.81
393.882	99.81
394.107	111.81
394.331	120.81
394.556	112.81
394.78	100.81
395.005	111.81
395.229	109.81
395.454	98.81
395.678	98.81
395.903	103.81
396.127	112.81
396.352	102.81
396.576	114.81
396.801	113.81
397.025	113.81
397.249	103.81
397.474	111.81
397.698	113.81
397.922	114.81
398.147	119.81
398.371	108.81
398.595	121.81
398.82	121.81
399.044	104.81
399.268	119.81
399.492	115.81
399.717	106.81
399.941	115.81
400.165	136.81
400.389	109.81
400.613	119.81
400.837	112.81
401.062	112.81
401.286	103.81
401.51	105.81
401.734	127.81
401.958	122.81
402.182	113.81
402.406	124.81
402.63	127.81
402.854	116.81
403.078	109.81
403.302	116.81
403.526	119.81
403.75	117.81
403.974	117.81
404.198	112.81
404.422	106.81
404.645	117.81
404.869	105.81
405.093	132.81
405.317	119.81
405.541	113.81
405.765	127.81
405.988	134.81
406.212	132.81
406.436	122.81
406.66	120.81
406.883	119.81
407.107	129.81
407.331	114.81
407.555	111.81
407.778	119.81
408.002	102.81
408.226	117.81
408.449	121.81
408.673	124.81
408.896	119.81
409.12	109.81
409.344	114.81
409.567	117.81
409.791	129.81
410.014	116.81
410.238	123.81
410.461	133.81
410.685	126.81
410.908	124.81
411.132	124.81
411.355	125.81
411.578	135.81
411.802	123.81
412.025	122.81
412.249	140.81
412.472	131.81
412.695	106.81
412.919	117.81
413.142	119.81
413.365	127.81
413.589	119.81
413.812	132.81
414.035	124.81
414.258	126.81
414.482	131.81
414.705	129.81
414.928	127.81
415.151	127.81
415.374	128.81
415.597	131.81
415.821	128.81
416.044	111.81
416.267	133.81
416.49	131.81
416.713	141.81
416.936	144.81
417.159	135.81
417.382	143.81
417.605	129.81
417.828	129.81
418.051	133.81
418.274	138.81
418.497	133.81
418.72	153.81
418.943	135.81
419.166	116.81
419.389	155.81
419.611	142.81
419.834	122.81
420.057	135.81
420.28	118.81
420.503	142.81
420.726	147.81
420.948	140.81
421.171	143.81
421.394	135.81
421.617	133.81
421.839	148.81
422.062	148.81
422.285	136.81
422.507	153.81
422.73	125.81
422.953	128.81
423.175	125.81
423.398	155.81
423.621	123.81
423.843	135.81
424.066	143.81
424.288	136.81
424.511	145.81
424.733	161.81
424.956	150.81
425.178	129.81
425.401	161.81
425.623	143.81
425.846	134.81
426.068	139.81
426.291	146.81
426.513	136.81
426.735	134.81
426.958	139.81
427.18	130.81
427.402	142.81
427.625	138.81
427.847	142.81
428.069	129.81
428.292	129.81
428.514	138.81
428.736	130.81
428.958	124.81
429.181	122.81
429.403	137.81
429.625	125.81
429.847	137.81
430.069	133.81
430.292	145.81
430.514	131.81
430.736	145.81
430.958	145.81
431.18	142.81
431.402	127.81
431.624	115.81
431.846	113.81
432.068	89.81
432.29	96.81
432.512	111.81
432.734	135.81
432.956	136.81
433.178	131.81
433.4	149.81
433.622	150.81
433.844	146.81
434.066	133.81
434.287	107.81
434.509	95.81
434.731	96.81
434.953	116.81
435.175	130.81
435.397	134.81
435.618	111.81
435.84	120.81
436.062	115.81
436.284	131.81
436.505	131.81
436.727	122.81
436.949	127.81
437.17	119.81
437.392	125.81
437.614	113.81
437.835	108.81
438.057	108.81
438.278	119.81
438.5	131.81
438.721	119.81
438.943	142.81
439.165	151.81
439.386	148.81
439.608	161.81
439.829	149.81
440.05	151.81
440.272	151.81
440.493	151.81
440.715	137.81
440.936	147.81
441.158	146.81
441.379	152.81
441.6	152.81
441.822	149.81
442.043	135.81
442.264	151.81
442.486	140.81
442.707	155.81
442.928	159.81
443.149	136.81
443.371	142.81
443.592	139.81
443.813	147.81
444.034	149.81
444.255	141.81
444.476	124.81
444.698	141.81
444.919	142.81
445.14	283.81
445.361	204.81
445.582	160.81
445.803	152.81
446.024	147.81
446.245	139.81
446.466	163.81
446.687	161.81
446.908	168.81
447.129	164.81
447.35	154.81
447.571	152.81
447.792	146.81
448.013	152.81
448.234	143.81
448.455	147.81
448.675	135.81
448.896	138.81
449.117	157.81
449.338	134.81
449.559	153.81
449.779	151.81
450	155.81
450.221	146.81
450.442	142.81
450.662	143.81
450.883	135.81
451.104	136.81
451.324	132.81
451.545	139.81
451.766	143.81
451.986	123.81
452.207	108.81
452.428	129.81
452.648	131.81
452.869	128.81
453.089	111.81
453.31	115.81
453.53	108.81
453.751	108.81
453.971	116.81
454.192	119.81
454.412	104.81
454.633	103.81
454.853	128.81
455.073	124.81
455.294	116.81
455.514	139.81
455.734	131.81
455.955	145.81
456.175	133.81
456.395	122.81
456.616	109.81
456.836	116.81
457.056	117.81
457.276	98.81
457.497	103.81
457.717	113.81
457.937	121.81
458.157	116.81
458.377	99.81
458.598	101.81
458.818	97.81
459.038	90.81
459.258	79.81
459.478	81.81
459.698	84.81
459.918	91.81
460.138	97.81
460.358	125.81
460.578	124.81
460.798	114.81
461.018	118.81
461.238	142.81
461.458	115.81
461.678	115.81
461.898	114.81
462.118	124.81
462.338	115.81
462.558	131.81
462.777	104.81
462.997	114.81
463.217	110.81
463.437	114.81
463.657	119.81
463.876	118.81
464.096	105.81
464.316	108.81
464.536	123.81
464.755	119.81
464.975	119.81
465.195	120.81
465.414	133.81
465.634	123.81
465.854	123.81
466.073	115.81
466.293	125.81
466.512	135.81
466.732	135.81
466.951	131.81
467.171	136.81
467.391	133.81
467.61	122.81
467.829	143.81
468.049	151.81
468.268	150.81
468.488	135.81
468.707	137.81
468.927	120.81
469.146	135.81
469.365	151.81
469.585	138.81
469.804	121.81
470.023	145.81
470.243	139.81
470.462	161.81
470.681	158.81
470.901	134.81
471.12	154.81
471.339	141.81
471.558	126.81
471.777	129.81
471.997	143.81
472.216	134.81
472.435	123.81
472.654	116.81
472.873	123.81
473.092	131.81
473.311	137.81
473.53	122.81
473.749	136.81
473.968	143.81
474.187	125.81
474.406	119.81
474.625	123.81
474.844	123.81
475.063	136.81
475.282	135.81
475.501	133.81
475.72	135.81
475.939	136.81
476.158	127.81
476.377	137.81
476.596	123.81
476.814	125.81
477.033	116.81
477.252	128.81
477.471	113.81
477.69	128.81
477.908	130.81
478.127	141.81
478.346	138.81
478.564	144.81
478.783	141.81
479.002	135.81
479.22	147.81
479.439	141.81
479.658	131.81
479.876	117.81
480.095	111.81
480.313	122.81
480.532	119.81
480.751	121.81
480.969	95.81
481.188	93.81
481.406	96.81
481.624	101.81
481.843	98.81
482.061	98.81
482.28	119.81
482.498	122.81
482.717	102.81
482.935	120.81
483.153	157.81
483.372	159.81
483.59	151.81
483.808	145.81
484.027	142.81
484.245	145.81
484.463	166.81
484.681	166.81
484.9	145.81
485.118	130.81
485.336	139.81
485.554	122.81
485.772	98.81
485.99	103.81
486.209	109.81
486.427	104.81
486.645	112.81
486.863	145.81
487.081	150.81
487.299	136.81
487.517	160.81
487.735	176.81
487.953	199.81
488.171	198.81
488.389	178.81
488.607	160.81
488.825	145.81
489.043	135.81
489.261	152.81
489.479	134.81
489.696	154.81
489.914	141.81
490.132	140.81
490.35	164.81
490.568	162.81
490.786	173.81
491.003	173.81
491.221	198.81
491.439	196.81
491.657	203.81
491.874	199.81
492.092	227.81
492.31	259.81
492.527	235.81
492.745	222.81
492.963	216.81
493.18	200.81
493.398	185.81
493.615	185.81
493.833	187.81
494.05	172.81
494.268	164.81
494.485	184.81
494.703	171.81
494.92	179.81
495.138	179.81
495.355	181.81
495.573	184.81
495.79	167.81
496.008	175.81
496.225	159.81
496.442	170.81
496.66	172.81
496.877	173.81
497.094	164.81
497.312	170.81
497.529	160.81
497.746	164.81
497.963	145.81
498.181	139.81
498.398	125.81
498.615	109.81
498.832	122.81
499.049	128.81
499.267	121.81
499.484	136.81
499.701	137.81
499.918	136.81
500.135	130.81
500.352	153.81
500.569	146.81
500.786	153.81
501.003	147.81
501.22	154.81
501.437	153.81
501.654	152.81
501.871	155.81
502.088	133.81
502.305	130.81
502.522	124.81
502.739	129.81
502.956	124.81
503.172	124.81
503.389	123.81
503.606	123.81
503.823	114.81
504.04	127.81
504.256	128.81
504.473	125.81
504.69	130.81
504.907	125.81
505.123	135.81
505.34	117.81
505.557	123.81
505.773	133.81
505.99	124.81
506.207	104.81
506.423	121.81
506.64	137.81
506.856	128.81
507.073	115.81
507.289	119.81
507.506	119.81
507.722	139.81
507.939	116.81
508.155	123.81
508.372	119.81
508.588	115.81
508.805	134.81
509.021	104.81
509.238	105.81
509.454	95.81
509.67	101.81
509.887	84.81
510.103	106.81
510.319	95.81
510.536	97.81
510.752	83.81
510.968	83.81
511.184	78.81
511.401	97.81
