Data from Location6.07152019.Energy5.Lamp.07192019.3%Agarose_HRD10591_16-11-14-394.txt Node
Date: Fri Jul 19 16:11:14 EDT 2019
User: cochatt
Spectrometer: HR+D1059
Trigger mode: 1
Integration Time (sec): 1.000000E-1
Scans to average: 1
Electric dark correction enabled: true
Nonlinearity correction enabled: false
Boxcar width: 0
XAxis mode: Wavelengths
Number of Pixels in Spectrum: 2048
>>>>>Begin Spectral Data<<<<<
223.165	-18.25
223.4	-18.25
223.635	-18.25
223.869	-21.25
224.104	-22.25
224.338	-16.25
224.573	-15.25
224.808	-1.25
225.042	-2.25
225.277	-15.25
225.511	-13.25
225.746	3.75
225.98	14.75
226.215	12.75
226.449	10.75
226.683	17.75
226.918	39.75
227.152	25.75
227.387	33.75
227.621	24.75
227.856	40.75
228.09	35.75
228.324	47.75
228.559	52.75
228.793	52.75
229.027	56.75
229.262	59.75
229.496	62.75
229.73	63.75
229.964	55.75
230.199	71.75
230.433	71.75
230.667	74.75
230.901	66.75
231.136	87.75
231.37	80.75
231.604	70.75
231.838	71.75
232.072	66.75
232.306	70.75
232.541	78.75
232.775	84.75
233.009	81.75
233.243	71.75
233.477	74.75
233.711	76.75
233.945	85.75
234.179	73.75
234.413	82.75
234.647	92.75
234.881	78.75
235.115	74.75
235.349	82.75
235.583	79.75
235.817	77.75
236.051	81.75
236.285	74.75
236.519	72.75
236.753	83.75
236.987	73.75
237.221	77.75
237.455	78.75
237.689	94.75
237.922	72.75
238.156	68.75
238.39	69.75
238.624	80.75
238.858	75.75
239.091	69.75
239.325	64.75
239.559	69.75
239.793	63.75
240.027	70.75
240.26	62.75
240.494	62.75
240.728	73.75
240.961	74.75
241.195	100.75
241.429	72.75
241.662	70.75
241.896	69.75
242.13	64.75
242.363	64.75
242.597	74.75
242.83	74.75
243.064	68.75
243.298	74.75
243.531	81.75
243.765	69.75
243.998	71.75
244.232	67.75
244.465	70.75
244.699	58.75
244.932	77.75
245.166	77.75
245.399	79.75
245.633	76.75
245.866	72.75
246.099	74.75
246.333	69.75
246.566	68.75
246.8	70.75
247.033	78.75
247.266	81.75
247.5	80.75
247.733	85.75
247.966	82.75
248.2	71.75
248.433	84.75
248.666	72.75
248.899	89.75
249.133	99.75
249.366	79.75
249.599	86.75
249.832	88.75
250.066	74.75
250.299	75.75
250.532	73.75
250.765	89.75
250.998	76.75
251.231	76.75
251.465	77.75
251.698	83.75
251.931	81.75
252.164	72.75
252.397	85.75
252.63	84.75
252.863	75.75
253.096	76.75
253.329	92.75
253.562	74.75
253.795	70.75
254.028	80.75
254.261	71.75
254.494	67.75
254.727	80.75
254.96	79.75
255.193	76.75
255.426	85.75
255.659	84.75
255.892	71.75
256.124	78.75
256.357	82.75
256.59	82.75
256.823	80.75
257.056	92.75
257.289	73.75
257.521	80.75
257.754	85.75
257.987	79.75
258.22	73.75
258.452	78.75
258.685	65.75
258.918	86.75
259.151	86.75
259.383	74.75
259.616	70.75
259.849	91.75
260.081	80.75
260.314	74.75
260.547	65.75
260.779	64.75
261.012	89.75
261.244	73.75
261.477	77.75
261.71	86.75
261.942	72.75
262.175	78.75
262.407	76.75
262.64	68.75
262.872	80.75
263.105	71.75
263.337	78.75
263.57	82.75
263.802	86.75
264.035	77.75
264.267	77.75
264.499	96.75
264.732	89.75
264.964	73.75
265.197	84.75
265.429	76.75
265.661	86.75
265.894	66.75
266.126	66.75
266.358	85.75
266.591	81.75
266.823	80.75
267.055	82.75
267.287	66.75
267.52	88.75
267.752	92.75
267.984	65.75
268.216	79.75
268.448	73.75
268.681	78.75
268.913	80.75
269.145	88.75
269.377	80.75
269.609	75.75
269.841	89.75
270.073	78.75
270.306	85.75
270.538	72.75
270.77	87.75
271.002	81.75
271.234	83.75
271.466	90.75
271.698	71.75
271.93	70.75
272.162	87.75
272.394	74.75
272.626	69.75
272.858	69.75
273.09	81.75
273.322	80.75
273.553	82.75
273.785	93.75
274.017	75.75
274.249	86.75
274.481	80.75
274.713	79.75
274.945	70.75
275.176	74.75
275.408	86.75
275.64	81.75
275.872	90.75
276.104	87.75
276.335	77.75
276.567	77.75
276.799	89.75
277.031	89.75
277.262	84.75
277.494	99.75
277.726	74.75
277.957	89.75
278.189	81.75
278.421	80.75
278.652	86.75
278.884	82.75
279.115	74.75
279.347	85.75
279.579	89.75
279.81	92.75
280.042	82.75
280.273	76.75
280.505	73.75
280.736	73.75
280.968	81.75
281.199	88.75
281.431	77.75
281.662	70.75
281.894	78.75
282.125	79.75
282.356	74.75
282.588	79.75
282.819	76.75
283.051	89.75
283.282	90.75
283.513	89.75
283.745	86.75
283.976	81.75
284.207	79.75
284.439	88.75
284.67	93.75
284.901	90.75
285.132	82.75
285.364	70.75
285.595	74.75
285.826	81.75
286.057	75.75
286.288	79.75
286.52	71.75
286.751	69.75
286.982	83.75
287.213	73.75
287.444	65.75
287.675	84.75
287.906	73.75
288.138	82.75
288.369	78.75
288.6	94.75
288.831	79.75
289.062	66.75
289.293	76.75
289.524	88.75
289.755	66.75
289.986	86.75
290.217	74.75
290.448	85.75
290.679	100.75
290.91	93.75
291.141	84.75
291.371	73.75
291.602	81.75
291.833	68.75
292.064	92.75
292.295	88.75
292.526	64.75
292.757	81.75
292.987	67.75
293.218	69.75
293.449	80.75
293.68	87.75
293.91	83.75
294.141	90.75
294.372	90.75
294.603	68.75
294.833	68.75
295.064	84.75
295.295	64.75
295.525	81.75
295.756	74.75
295.987	87.75
296.217	103.75
296.448	77.75
296.679	80.75
296.909	91.75
297.14	94.75
297.37	86.75
297.601	81.75
297.831	80.75
298.062	72.75
298.292	69.75
298.523	88.75
298.753	79.75
298.984	73.75
299.214	72.75
299.445	87.75
299.675	89.75
299.905	84.75
300.136	74.75
300.366	87.75
300.597	85.75
300.827	78.75
301.057	82.75
301.288	75.75
301.518	69.75
301.748	78.75
301.979	66.75
302.209	75.75
302.439	78.75
302.669	74.75
302.9	84.75
303.13	90.75
303.36	72.75
303.59	81.75
303.82	90.75
304.051	74.75
304.281	97.75
304.511	84.75
304.741	82.75
304.971	83.75
305.201	89.75
305.431	80.75
305.661	69.75
305.891	87.75
306.121	82.75
306.352	100.75
306.582	79.75
306.812	70.75
307.042	96.75
307.272	82.75
307.502	68.75
307.731	88.75
307.961	73.75
308.191	88.75
308.421	78.75
308.651	70.75
308.881	92.75
309.111	83.75
309.341	80.75
309.571	93.75
309.8	83.75
310.03	74.75
310.26	73.75
310.49	73.75
310.72	87.75
310.949	93.75
311.179	81.75
311.409	81.75
311.639	77.75
311.868	83.75
312.098	85.75
312.328	88.75
312.557	68.75
312.787	72.75
313.017	92.75
313.246	76.75
313.476	82.75
313.706	84.75
313.935	81.75
314.165	79.75
314.394	78.75
314.624	88.75
314.853	93.75
315.083	84.75
315.312	76.75
315.542	76.75
315.771	77.75
316.001	75.75
316.23	71.75
316.46	68.75
316.689	83.75
316.919	94.75
317.148	100.75
317.377	92.75
317.607	72.75
317.836	78.75
318.065	91.75
318.295	69.75
318.524	79.75
318.753	70.75
318.983	82.75
319.212	62.75
319.441	83.75
319.67	86.75
319.9	72.75
320.129	88.75
320.358	69.75
320.587	78.75
320.816	84.75
321.046	88.75
321.275	89.75
321.504	79.75
321.733	77.75
321.962	89.75
322.191	89.75
322.42	91.75
322.649	85.75
322.878	86.75
323.108	94.75
323.337	84.75
323.566	79.75
323.795	84.75
324.024	92.75
324.253	72.75
324.482	83.75
324.71	86.75
324.939	77.75
325.168	78.75
325.397	85.75
325.626	77.75
325.855	80.75
326.084	99.75
326.313	92.75
326.542	89.75
326.77	70.75
326.999	63.75
327.228	83.75
327.457	99.75
327.686	87.75
327.914	91.75
328.143	75.75
328.372	83.75
328.6	78.75
328.829	82.75
329.058	79.75
329.287	74.75
329.515	72.75
329.744	77.75
329.972	84.75
330.201	68.75
330.43	85.75
330.658	88.75
330.887	75.75
331.115	85.75
331.344	78.75
331.572	81.75
331.801	76.75
332.03	84.75
332.258	68.75
332.486	72.75
332.715	84.75
332.943	81.75
333.172	74.75
333.4	85.75
333.629	74.75
333.857	96.75
334.085	84.75
334.314	83.75
334.542	95.75
334.771	85.75
334.999	78.75
335.227	75.75
335.455	82.75
335.684	74.75
335.912	85.75
336.14	92.75
336.369	86.75
336.597	87.75
336.825	89.75
337.053	72.75
337.281	73.75
337.51	85.75
337.738	88.75
337.966	86.75
338.194	78.75
338.422	79.75
338.65	78.75
338.878	74.75
339.106	82.75
339.334	87.75
339.562	91.75
339.79	80.75
340.018	87.75
340.246	79.75
340.474	80.75
340.702	81.75
340.93	77.75
341.158	74.75
341.386	73.75
341.614	81.75
341.842	84.75
342.07	79.75
342.298	80.75
342.526	71.75
342.754	84.75
342.981	98.75
343.209	81.75
343.437	93.75
343.665	91.75
343.893	82.75
344.12	80.75
344.348	81.75
344.576	78.75
344.804	75.75
345.031	74.75
345.259	81.75
345.487	71.75
345.714	76.75
345.942	78.75
346.17	94.75
346.397	93.75
346.625	88.75
346.853	63.75
347.08	69.75
347.308	73.75
347.535	82.75
347.763	78.75
347.99	86.75
348.218	89.75
348.445	76.75
348.673	77.75
348.9	81.75
349.128	88.75
349.355	87.75
349.583	86.75
349.81	74.75
350.037	95.75
350.265	100.75
350.492	96.75
350.72	85.75
350.947	87.75
351.174	90.75
351.402	75.75
351.629	75.75
351.856	73.75
352.083	92.75
352.311	79.75
352.538	90.75
352.765	75.75
352.992	87.75
353.22	85.75
353.447	76.75
353.674	82.75
353.901	83.75
354.128	76.75
354.355	73.75
354.583	74.75
354.81	84.75
355.037	87.75
355.264	93.75
355.491	91.75
355.718	77.75
355.945	84.75
356.172	83.75
356.399	78.75
356.626	80.75
356.853	95.75
357.08	81.75
357.307	90.75
357.534	93.75
357.761	70.75
357.988	71.75
358.215	92.75
358.441	89.75
358.668	95.75
358.895	85.75
359.122	78.75
359.349	82.75
359.576	86.75
359.802	78.75
360.029	95.75
360.256	89.75
360.483	76.75
360.709	75.75
360.936	86.75
361.163	102.75
361.39	79.75
361.616	86.75
361.843	84.75
362.07	85.75
362.296	80.75
362.523	89.75
362.749	70.75
362.976	84.75
363.203	87.75
363.429	80.75
363.656	96.75
363.882	87.75
364.109	85.75
364.335	83.75
364.562	85.75
364.788	78.75
365.015	87.75
365.241	94.75
365.468	82.75
365.694	80.75
365.92	82.75
366.147	74.75
366.373	84.75
366.599	83.75
366.826	80.75
367.052	78.75
367.278	83.75
367.505	84.75
367.731	85.75
367.957	71.75
368.184	100.75
368.41	93.75
368.636	69.75
368.862	91.75
369.089	86.75
369.315	102.75
369.541	104.75
369.767	83.75
369.993	82.75
370.219	75.75
370.445	85.75
370.672	93.75
370.898	79.75
371.124	79.75
371.35	93.75
371.576	103.75
371.802	98.75
372.028	94.75
372.254	84.75
372.48	96.75
372.706	95.75
372.932	83.75
373.158	87.75
373.384	98.75
373.61	92.75
373.835	86.75
374.061	76.75
374.287	103.75
374.513	88.75
374.739	92.75
374.965	99.75
375.191	94.75
375.416	87.75
375.642	82.75
375.868	88.75
376.094	86.75
376.319	81.75
376.545	81.75
376.771	80.75
376.997	98.75
377.222	91.75
377.448	88.75
377.674	92.75
377.899	92.75
378.125	75.75
378.35	111.75
378.576	99.75
378.802	100.75
379.027	100.75
379.253	89.75
379.478	102.75
379.704	90.75
379.929	87.75
380.155	103.75
380.38	90.75
380.606	104.75
380.831	104.75
381.057	109.75
381.282	98.75
381.507	103.75
381.733	97.75
381.958	86.75
382.184	90.75
382.409	86.75
382.634	97.75
382.86	97.75
383.085	103.75
383.31	90.75
383.535	105.75
383.761	100.75
383.986	86.75
384.211	81.75
384.436	92.75
384.662	94.75
384.887	88.75
385.112	89.75
385.337	95.75
385.562	97.75
385.787	105.75
386.013	106.75
386.238	104.75
386.463	105.75
386.688	93.75
386.913	95.75
387.138	85.75
387.363	89.75
387.588	86.75
387.813	103.75
388.038	91.75
388.263	94.75
388.488	89.75
388.713	99.75
388.938	96.75
389.163	106.75
389.387	108.75
389.612	108.75
389.837	117.75
390.062	93.75
390.287	97.75
390.512	103.75
390.736	98.75
390.961	90.75
391.186	99.75
391.411	111.75
391.636	103.75
391.86	121.75
392.085	99.75
392.31	108.75
392.534	82.75
392.759	111.75
392.984	101.75
393.208	89.75
393.433	110.75
393.658	104.75
393.882	118.75
394.107	107.75
394.331	98.75
394.556	112.75
394.78	110.75
395.005	115.75
395.229	102.75
395.454	101.75
395.678	102.75
395.903	95.75
396.127	94.75
396.352	102.75
396.576	106.75
396.801	113.75
397.025	113.75
397.249	106.75
397.474	126.75
397.698	111.75
397.922	114.75
398.147	111.75
398.371	119.75
398.595	99.75
398.82	118.75
399.044	102.75
399.268	104.75
399.492	92.75
399.717	118.75
399.941	105.75
400.165	117.75
400.389	111.75
400.613	110.75
400.837	116.75
401.062	110.75
401.286	102.75
401.51	116.75
401.734	110.75
401.958	128.75
402.182	112.75
402.406	127.75
402.63	111.75
402.854	121.75
403.078	111.75
403.302	90.75
403.526	128.75
403.75	136.75
403.974	112.75
404.198	116.75
404.422	111.75
404.645	109.75
404.869	109.75
405.093	120.75
405.317	108.75
405.541	109.75
405.765	96.75
405.988	118.75
406.212	126.75
406.436	120.75
406.66	115.75
406.883	119.75
407.107	118.75
407.331	119.75
407.555	102.75
407.778	121.75
408.002	117.75
408.226	112.75
408.449	129.75
408.673	120.75
408.896	144.75
409.12	111.75
409.344	134.75
409.567	114.75
409.791	123.75
410.014	125.75
410.238	125.75
410.461	123.75
410.685	117.75
410.908	121.75
411.132	129.75
411.355	120.75
411.578	130.75
411.802	142.75
412.025	134.75
412.249	110.75
412.472	124.75
412.695	120.75
412.919	122.75
413.142	118.75
413.365	128.75
413.589	111.75
413.812	119.75
414.035	125.75
414.258	109.75
414.482	119.75
414.705	137.75
414.928	132.75
415.151	121.75
415.374	133.75
415.597	128.75
415.821	124.75
416.044	123.75
416.267	120.75
416.49	119.75
416.713	117.75
416.936	127.75
417.159	133.75
417.382	127.75
417.605	122.75
417.828	133.75
418.051	113.75
418.274	115.75
418.497	132.75
418.72	130.75
418.943	127.75
419.166	130.75
419.389	142.75
419.611	137.75
419.834	137.75
420.057	131.75
420.28	134.75
420.503	130.75
420.726	126.75
420.948	144.75
421.171	119.75
421.394	138.75
421.617	139.75
421.839	137.75
422.062	150.75
422.285	130.75
422.507	121.75
422.73	126.75
422.953	123.75
423.175	129.75
423.398	121.75
423.621	123.75
423.843	128.75
424.066	142.75
424.288	152.75
424.511	141.75
424.733	144.75
424.956	142.75
425.178	142.75
425.401	140.75
425.623	125.75
425.846	145.75
426.068	126.75
426.291	134.75
426.513	133.75
426.735	122.75
426.958	123.75
427.18	148.75
427.402	138.75
427.625	130.75
427.847	120.75
428.069	121.75
428.292	117.75
428.514	125.75
428.736	126.75
428.958	141.75
429.181	137.75
429.403	117.75
429.625	122.75
429.847	119.75
430.069	128.75
430.292	138.75
430.514	131.75
430.736	132.75
430.958	137.75
431.18	134.75
431.402	132.75
431.624	129.75
431.846	105.75
432.068	103.75
432.29	103.75
432.512	102.75
432.734	123.75
432.956	124.75
433.178	131.75
433.4	136.75
433.622	134.75
433.844	124.75
434.066	132.75
434.287	101.75
434.509	90.75
434.731	119.75
434.953	111.75
435.175	136.75
435.397	133.75
435.618	122.75
435.84	110.75
436.062	112.75
436.284	129.75
436.505	128.75
436.727	128.75
436.949	116.75
437.17	124.75
437.392	145.75
437.614	120.75
437.835	112.75
438.057	115.75
438.278	104.75
438.5	126.75
438.721	128.75
438.943	148.75
439.165	151.75
439.386	144.75
439.608	148.75
439.829	143.75
440.05	149.75
440.272	146.75
440.493	145.75
440.715	146.75
440.936	141.75
441.158	149.75
441.379	135.75
441.6	153.75
441.822	143.75
442.043	149.75
442.264	153.75
442.486	137.75
442.707	147.75
442.928	139.75
443.149	140.75
443.371	133.75
443.592	154.75
443.813	148.75
444.034	143.75
444.255	160.75
444.476	154.75
444.698	133.75
444.919	145.75
445.14	271.75
445.361	202.75
445.582	165.75
445.803	149.75
446.024	153.75
446.245	153.75
446.466	156.75
446.687	153.75
446.908	144.75
447.129	138.75
447.35	146.75
447.571	141.75
447.792	136.75
448.013	149.75
448.234	147.75
448.455	138.75
448.675	143.75
448.896	152.75
449.117	152.75
449.338	126.75
449.559	151.75
449.779	143.75
450	130.75
450.221	126.75
450.442	146.75
450.662	134.75
450.883	136.75
451.104	138.75
451.324	134.75
451.545	137.75
451.766	127.75
451.986	126.75
452.207	120.75
452.428	128.75
452.648	121.75
452.869	136.75
453.089	115.75
453.31	121.75
453.53	125.75
453.751	104.75
453.971	94.75
454.192	106.75
454.412	116.75
454.633	120.75
454.853	130.75
455.073	139.75
455.294	121.75
455.514	123.75
455.734	125.75
455.955	128.75
456.175	108.75
456.395	110.75
456.616	111.75
456.836	111.75
457.056	113.75
457.276	113.75
457.497	104.75
457.717	115.75
457.937	112.75
458.157	108.75
458.377	101.75
458.598	99.75
458.818	100.75
459.038	101.75
459.258	82.75
459.478	89.75
459.698	82.75
459.918	95.75
460.138	109.75
460.358	102.75
460.578	119.75
460.798	113.75
461.018	126.75
461.238	120.75
461.458	118.75
461.678	116.75
461.898	113.75
462.118	105.75
462.338	108.75
462.558	103.75
462.777	114.75
462.997	120.75
463.217	105.75
463.437	114.75
463.657	120.75
463.876	104.75
464.096	111.75
464.316	108.75
464.536	123.75
464.755	121.75
464.975	107.75
465.195	102.75
465.414	119.75
465.634	117.75
465.854	128.75
466.073	122.75
466.293	114.75
466.512	114.75
466.732	124.75
466.951	134.75
467.171	133.75
467.391	128.75
467.61	132.75
467.829	147.75
468.049	142.75
468.268	125.75
468.488	119.75
468.707	130.75
468.927	128.75
469.146	147.75
469.365	135.75
469.585	149.75
469.804	156.75
470.023	128.75
470.243	151.75
470.462	138.75
470.681	142.75
470.901	142.75
471.12	136.75
471.339	150.75
471.558	150.75
471.777	132.75
471.997	133.75
472.216	127.75
472.435	116.75
472.654	92.75
472.873	100.75
473.092	124.75
473.311	128.75
473.53	133.75
473.749	128.75
473.968	134.75
474.187	127.75
474.406	133.75
474.625	120.75
474.844	122.75
475.063	129.75
475.282	124.75
475.501	112.75
475.72	113.75
475.939	132.75
476.158	136.75
476.377	135.75
476.596	136.75
476.814	121.75
477.033	119.75
477.252	105.75
477.471	114.75
477.69	132.75
477.908	128.75
478.127	129.75
478.346	128.75
478.564	146.75
478.783	144.75
479.002	153.75
479.22	144.75
479.439	130.75
479.658	125.75
479.876	113.75
480.095	105.75
480.313	118.75
480.532	122.75
480.751	115.75
480.969	84.75
481.188	83.75
481.406	83.75
481.624	94.75
481.843	85.75
482.061	111.75
482.28	113.75
482.498	104.75
482.717	112.75
482.935	118.75
483.153	160.75
483.372	153.75
483.59	150.75
483.808	149.75
484.027	144.75
484.245	139.75
484.463	148.75
484.681	179.75
484.9	151.75
485.118	148.75
485.336	118.75
485.554	104.75
485.772	105.75
485.99	118.75
486.209	106.75
486.427	116.75
486.645	130.75
486.863	145.75
487.081	139.75
487.299	129.75
487.517	148.75
487.735	182.75
487.953	184.75
488.171	193.75
488.389	182.75
488.607	162.75
488.825	136.75
489.043	137.75
489.261	135.75
489.479	144.75
489.696	146.75
489.914	137.75
490.132	142.75
490.35	146.75
490.568	161.75
490.786	169.75
491.003	173.75
491.221	184.75
491.439	198.75
491.657	198.75
491.874	208.75
492.092	255.75
492.31	242.75
492.527	240.75
492.745	218.75
492.963	198.75
493.18	192.75
493.398	192.75
493.615	181.75
493.833	185.75
494.05	180.75
494.268	195.75
494.485	169.75
494.703	154.75
494.92	165.75
495.138	178.75
495.355	176.75
495.573	181.75
495.79	163.75
496.008	167.75
496.225	180.75
496.442	180.75
496.66	181.75
496.877	165.75
497.094	171.75
497.312	175.75
497.529	162.75
497.746	163.75
497.963	148.75
498.181	144.75
498.398	118.75
498.615	123.75
498.832	114.75
499.049	105.75
499.267	121.75
499.484	125.75
499.701	127.75
499.918	154.75
500.135	142.75
500.352	133.75
500.569	150.75
500.786	135.75
501.003	132.75
501.22	152.75
501.437	144.75
501.654	137.75
501.871	121.75
502.088	144.75
502.305	111.75
502.522	136.75
502.739	143.75
502.956	134.75
503.172	129.75
503.389	127.75
503.606	126.75
503.823	138.75
504.04	127.75
504.256	120.75
504.473	120.75
504.69	119.75
504.907	128.75
505.123	119.75
505.34	124.75
505.557	112.75
505.773	131.75
505.99	133.75
506.207	114.75
506.423	118.75
506.64	119.75
506.856	120.75
507.073	119.75
507.289	133.75
507.506	120.75
507.722	124.75
507.939	110.75
508.155	130.75
508.372	119.75
508.588	107.75
508.805	108.75
509.021	122.75
509.238	100.75
509.454	99.75
509.67	102.75
509.887	82.75
510.103	93.75
510.319	94.75
510.536	90.75
510.752	86.75
510.968	92.75
511.184	70.75
511.401	91.75
511.617	83.75
