Data from Location6.07152019.Energy5.Lamp.07192019.3%Agarose_HRD10591_16-11-33-395.txt Node
Date: Fri Jul 19 16:11:33 EDT 2019
User: cochatt
Spectrometer: HR+D1059
Trigger mode: 1
Integration Time (sec): 1.000000E-1
Scans to average: 1
Electric dark correction enabled: true
Nonlinearity correction enabled: false
Boxcar width: 0
XAxis mode: Wavelengths
Number of Pixels in Spectrum: 2048
>>>>>Begin Spectral Data<<<<<
223.165	-15.94
223.4	-15.94
223.635	-15.94
223.869	-23.94
224.104	-23.94
224.338	-24.94
224.573	-9.94
224.808	-4.94
225.042	-0.94
225.277	-3.94
225.511	4.06
225.746	12.06
225.98	4.06
226.215	11.06
226.449	5.06
226.683	18.06
226.918	18.06
227.152	36.06
227.387	42.06
227.621	38.06
227.856	39.06
228.09	44.06
228.324	40.06
228.559	51.06
228.793	50.06
229.027	53.06
229.262	63.06
229.496	66.06
229.73	83.06
229.964	68.06
230.199	77.06
230.433	88.06
230.667	68.06
230.901	68.06
231.136	82.06
231.37	78.06
231.604	86.06
231.838	85.06
232.072	78.06
232.306	81.06
232.541	80.06
232.775	57.06
233.009	86.06
233.243	70.06
233.477	83.06
233.711	81.06
233.945	69.06
234.179	77.06
234.413	77.06
234.647	66.06
234.881	84.06
235.115	79.06
235.349	69.06
235.583	69.06
235.817	80.06
236.051	75.06
236.285	76.06
236.519	68.06
236.753	79.06
236.987	86.06
237.221	81.06
237.455	89.06
237.689	87.06
237.922	75.06
238.156	76.06
238.39	75.06
238.624	86.06
238.858	74.06
239.091	90.06
239.325	68.06
239.559	79.06
239.793	87.06
240.027	84.06
240.26	78.06
240.494	83.06
240.728	91.06
240.961	84.06
241.195	76.06
241.429	71.06
241.662	70.06
241.896	63.06
242.13	81.06
242.363	83.06
242.597	71.06
242.83	67.06
243.064	70.06
243.298	88.06
243.531	75.06
243.765	80.06
243.998	84.06
244.232	66.06
244.465	85.06
244.699	84.06
244.932	79.06
245.166	80.06
245.399	82.06
245.633	70.06
245.866	74.06
246.099	79.06
246.333	77.06
246.566	81.06
246.8	86.06
247.033	77.06
247.266	82.06
247.5	71.06
247.733	60.06
247.966	74.06
248.2	83.06
248.433	87.06
248.666	75.06
248.899	86.06
249.133	72.06
249.366	79.06
249.599	80.06
249.832	80.06
250.066	90.06
250.299	81.06
250.532	68.06
250.765	75.06
250.998	89.06
251.231	88.06
251.465	86.06
251.698	89.06
251.931	60.06
252.164	82.06
252.397	71.06
252.63	83.06
252.863	75.06
253.096	69.06
253.329	81.06
253.562	86.06
253.795	91.06
254.028	82.06
254.261	93.06
254.494	81.06
254.727	84.06
254.96	78.06
255.193	85.06
255.426	85.06
255.659	71.06
255.892	75.06
256.124	85.06
256.357	75.06
256.59	76.06
256.823	74.06
257.056	85.06
257.289	72.06
257.521	87.06
257.754	70.06
257.987	76.06
258.22	88.06
258.452	75.06
258.685	74.06
258.918	63.06
259.151	69.06
259.383	71.06
259.616	70.06
259.849	80.06
260.081	79.06
260.314	75.06
260.547	72.06
260.779	85.06
261.012	64.06
261.244	88.06
261.477	88.06
261.71	78.06
261.942	78.06
262.175	75.06
262.407	89.06
262.64	86.06
262.872	75.06
263.105	86.06
263.337	91.06
263.57	72.06
263.802	80.06
264.035	81.06
264.267	68.06
264.499	74.06
264.732	82.06
264.964	76.06
265.197	70.06
265.429	79.06
265.661	54.06
265.894	83.06
266.126	84.06
266.358	89.06
266.591	66.06
266.823	68.06
267.055	80.06
267.287	87.06
267.52	96.06
267.752	92.06
267.984	72.06
268.216	97.06
268.448	92.06
268.681	75.06
268.913	74.06
269.145	82.06
269.377	74.06
269.609	73.06
269.841	87.06
270.073	74.06
270.306	77.06
270.538	79.06
270.77	73.06
271.002	77.06
271.234	84.06
271.466	85.06
271.698	78.06
271.93	72.06
272.162	85.06
272.394	91.06
272.626	89.06
272.858	82.06
273.09	86.06
273.322	74.06
273.553	86.06
273.785	74.06
274.017	77.06
274.249	87.06
274.481	83.06
274.713	85.06
274.945	82.06
275.176	84.06
275.408	84.06
275.64	81.06
275.872	79.06
276.104	72.06
276.335	86.06
276.567	76.06
276.799	74.06
277.031	80.06
277.262	79.06
277.494	67.06
277.726	78.06
277.957	80.06
278.189	93.06
278.421	76.06
278.652	90.06
278.884	90.06
279.115	93.06
279.347	83.06
279.579	71.06
279.81	81.06
280.042	85.06
280.273	84.06
280.505	66.06
280.736	80.06
280.968	76.06
281.199	83.06
281.431	84.06
281.662	83.06
281.894	83.06
282.125	83.06
282.356	88.06
282.588	87.06
282.819	97.06
283.051	77.06
283.282	81.06
283.513	76.06
283.745	87.06
283.976	88.06
284.207	79.06
284.439	83.06
284.67	76.06
284.901	89.06
285.132	82.06
285.364	87.06
285.595	79.06
285.826	72.06
286.057	83.06
286.288	91.06
286.52	77.06
286.751	87.06
286.982	73.06
287.213	90.06
287.444	90.06
287.675	92.06
287.906	90.06
288.138	84.06
288.369	102.06
288.6	88.06
288.831	79.06
289.062	90.06
289.293	92.06
289.524	69.06
289.755	70.06
289.986	80.06
290.217	82.06
290.448	86.06
290.679	84.06
290.91	69.06
291.141	83.06
291.371	83.06
291.602	86.06
291.833	91.06
292.064	81.06
292.295	96.06
292.526	86.06
292.757	83.06
292.987	77.06
293.218	93.06
293.449	86.06
293.68	79.06
293.91	73.06
294.141	86.06
294.372	76.06
294.603	86.06
294.833	88.06
295.064	95.06
295.295	82.06
295.525	76.06
295.756	92.06
295.987	88.06
296.217	84.06
296.448	86.06
296.679	76.06
296.909	71.06
297.14	89.06
297.37	93.06
297.601	79.06
297.831	70.06
298.062	80.06
298.292	89.06
298.523	85.06
298.753	78.06
298.984	73.06
299.214	88.06
299.445	91.06
299.675	84.06
299.905	80.06
300.136	79.06
300.366	79.06
300.597	92.06
300.827	91.06
301.057	84.06
301.288	91.06
301.518	80.06
301.748	75.06
301.979	70.06
302.209	91.06
302.439	81.06
302.669	87.06
302.9	85.06
303.13	84.06
303.36	84.06
303.59	82.06
303.82	79.06
304.051	67.06
304.281	89.06
304.511	85.06
304.741	74.06
304.971	88.06
305.201	94.06
305.431	78.06
305.661	86.06
305.891	86.06
306.121	92.06
306.352	84.06
306.582	89.06
306.812	69.06
307.042	82.06
307.272	74.06
307.502	75.06
307.731	86.06
307.961	84.06
308.191	88.06
308.421	86.06
308.651	93.06
308.881	88.06
309.111	76.06
309.341	74.06
309.571	79.06
309.8	73.06
310.03	80.06
310.26	91.06
310.49	94.06
310.72	88.06
310.949	74.06
311.179	81.06
311.409	72.06
311.639	77.06
311.868	70.06
312.098	82.06
312.328	98.06
312.557	76.06
312.787	71.06
313.017	97.06
313.246	82.06
313.476	83.06
313.706	95.06
313.935	83.06
314.165	88.06
314.394	72.06
314.624	79.06
314.853	77.06
315.083	84.06
315.312	101.06
315.542	82.06
315.771	82.06
316.001	67.06
316.23	63.06
316.46	81.06
316.689	81.06
316.919	86.06
317.148	96.06
317.377	98.06
317.607	98.06
317.836	73.06
318.065	92.06
318.295	99.06
318.524	72.06
318.753	64.06
318.983	78.06
319.212	86.06
319.441	91.06
319.67	99.06
319.9	84.06
320.129	84.06
320.358	83.06
320.587	65.06
320.816	91.06
321.046	95.06
321.275	81.06
321.504	79.06
321.733	72.06
321.962	77.06
322.191	91.06
322.42	76.06
322.649	71.06
322.878	84.06
323.108	76.06
323.337	90.06
323.566	95.06
323.795	86.06
324.024	84.06
324.253	87.06
324.482	94.06
324.71	78.06
324.939	79.06
325.168	74.06
325.397	72.06
325.626	84.06
325.855	88.06
326.084	74.06
326.313	91.06
326.542	83.06
326.77	84.06
326.999	74.06
327.228	73.06
327.457	88.06
327.686	92.06
327.914	83.06
328.143	77.06
328.372	89.06
328.6	79.06
328.829	83.06
329.058	71.06
329.287	88.06
329.515	92.06
329.744	89.06
329.972	76.06
330.201	82.06
330.43	83.06
330.658	68.06
330.887	86.06
331.115	79.06
331.344	83.06
331.572	92.06
331.801	78.06
332.03	80.06
332.258	90.06
332.486	95.06
332.715	88.06
332.943	76.06
333.172	82.06
333.4	82.06
333.629	83.06
333.857	72.06
334.085	90.06
334.314	101.06
334.542	95.06
334.771	79.06
334.999	66.06
335.227	85.06
335.455	95.06
335.684	92.06
335.912	79.06
336.14	86.06
336.369	87.06
336.597	92.06
336.825	74.06
337.053	90.06
337.281	96.06
337.51	90.06
337.738	96.06
337.966	92.06
338.194	76.06
338.422	85.06
338.65	84.06
338.878	84.06
339.106	84.06
339.334	91.06
339.562	95.06
339.79	92.06
340.018	86.06
340.246	80.06
340.474	85.06
340.702	76.06
340.93	83.06
341.158	95.06
341.386	82.06
341.614	82.06
341.842	81.06
342.07	102.06
342.298	83.06
342.526	88.06
342.754	80.06
342.981	77.06
343.209	83.06
343.437	88.06
343.665	78.06
343.893	75.06
344.12	81.06
344.348	80.06
344.576	90.06
344.804	89.06
345.031	76.06
345.259	80.06
345.487	97.06
345.714	82.06
345.942	77.06
346.17	96.06
346.397	83.06
346.625	68.06
346.853	77.06
347.08	92.06
347.308	73.06
347.535	81.06
347.763	79.06
347.99	95.06
348.218	84.06
348.445	81.06
348.673	84.06
348.9	87.06
349.128	82.06
349.355	84.06
349.583	84.06
349.81	95.06
350.037	86.06
350.265	78.06
350.492	85.06
350.72	85.06
350.947	84.06
351.174	83.06
351.402	83.06
351.629	74.06
351.856	79.06
352.083	86.06
352.311	82.06
352.538	81.06
352.765	93.06
352.992	94.06
353.22	73.06
353.447	86.06
353.674	86.06
353.901	94.06
354.128	72.06
354.355	75.06
354.583	88.06
354.81	99.06
355.037	80.06
355.264	83.06
355.491	86.06
355.718	91.06
355.945	75.06
356.172	71.06
356.399	90.06
356.626	68.06
356.853	81.06
357.08	80.06
357.307	77.06
357.534	79.06
357.761	88.06
357.988	81.06
358.215	85.06
358.441	87.06
358.668	82.06
358.895	92.06
359.122	91.06
359.349	75.06
359.576	92.06
359.802	89.06
360.029	88.06
360.256	90.06
360.483	77.06
360.709	77.06
360.936	91.06
361.163	71.06
361.39	72.06
361.616	79.06
361.843	82.06
362.07	98.06
362.296	91.06
362.523	81.06
362.749	73.06
362.976	80.06
363.203	72.06
363.429	76.06
363.656	64.06
363.882	79.06
364.109	83.06
364.335	87.06
364.562	75.06
364.788	80.06
365.015	87.06
365.241	88.06
365.468	86.06
365.694	75.06
365.92	104.06
366.147	94.06
366.373	81.06
366.599	79.06
366.826	95.06
367.052	86.06
367.278	76.06
367.505	92.06
367.731	99.06
367.957	102.06
368.184	93.06
368.41	86.06
368.636	98.06
368.862	93.06
369.089	93.06
369.315	99.06
369.541	93.06
369.767	105.06
369.993	94.06
370.219	81.06
370.445	96.06
370.672	94.06
370.898	93.06
371.124	80.06
371.35	90.06
371.576	93.06
371.802	98.06
372.028	92.06
372.254	82.06
372.48	98.06
372.706	83.06
372.932	94.06
373.158	100.06
373.384	88.06
373.61	98.06
373.835	91.06
374.061	90.06
374.287	90.06
374.513	98.06
374.739	87.06
374.965	89.06
375.191	90.06
375.416	96.06
375.642	94.06
375.868	85.06
376.094	92.06
376.319	99.06
376.545	97.06
376.771	103.06
376.997	79.06
377.222	85.06
377.448	95.06
377.674	94.06
377.899	87.06
378.125	87.06
378.35	107.06
378.576	86.06
378.802	91.06
379.027	97.06
379.253	102.06
379.478	85.06
379.704	107.06
379.929	92.06
380.155	84.06
380.38	94.06
380.606	104.06
380.831	98.06
381.057	96.06
381.282	80.06
381.507	100.06
381.733	112.06
381.958	105.06
382.184	109.06
382.409	97.06
382.634	102.06
382.86	101.06
383.085	103.06
383.31	99.06
383.535	94.06
383.761	96.06
383.986	100.06
384.211	101.06
384.436	99.06
384.662	98.06
384.887	89.06
385.112	99.06
385.337	88.06
385.562	84.06
385.787	105.06
386.013	122.06
386.238	91.06
386.463	92.06
386.688	97.06
386.913	88.06
387.138	105.06
387.363	93.06
387.588	110.06
387.813	100.06
388.038	104.06
388.263	98.06
388.488	102.06
388.713	106.06
388.938	101.06
389.163	104.06
389.387	102.06
389.612	104.06
389.837	98.06
390.062	111.06
390.287	106.06
390.512	105.06
390.736	106.06
390.961	104.06
391.186	101.06
391.411	103.06
391.636	100.06
391.86	117.06
392.085	118.06
392.31	110.06
392.534	123.06
392.759	95.06
392.984	112.06
393.208	102.06
393.433	97.06
393.658	114.06
393.882	100.06
394.107	107.06
394.331	106.06
394.556	95.06
394.78	108.06
395.005	102.06
395.229	107.06
395.454	106.06
395.678	105.06
395.903	114.06
396.127	115.06
396.352	104.06
396.576	102.06
396.801	102.06
397.025	117.06
397.249	117.06
397.474	116.06
397.698	112.06
397.922	108.06
398.147	108.06
398.371	127.06
398.595	110.06
398.82	117.06
399.044	111.06
399.268	115.06
399.492	103.06
399.717	122.06
399.941	117.06
400.165	119.06
400.389	108.06
400.613	119.06
400.837	120.06
401.062	122.06
401.286	97.06
401.51	105.06
401.734	113.06
401.958	120.06
402.182	120.06
402.406	119.06
402.63	124.06
402.854	112.06
403.078	110.06
403.302	121.06
403.526	121.06
403.75	117.06
403.974	111.06
404.198	100.06
404.422	114.06
404.645	113.06
404.869	113.06
405.093	119.06
405.317	123.06
405.541	123.06
405.765	105.06
405.988	104.06
406.212	110.06
406.436	114.06
406.66	121.06
406.883	94.06
407.107	112.06
407.331	110.06
407.555	117.06
407.778	130.06
408.002	112.06
408.226	113.06
408.449	129.06
408.673	119.06
408.896	110.06
409.12	110.06
409.344	130.06
409.567	110.06
409.791	132.06
410.014	125.06
410.238	130.06
410.461	120.06
410.685	115.06
410.908	121.06
411.132	134.06
411.355	130.06
411.578	121.06
411.802	125.06
412.025	126.06
412.249	117.06
412.472	133.06
412.695	118.06
412.919	115.06
413.142	136.06
413.365	128.06
413.589	122.06
413.812	128.06
414.035	130.06
414.258	128.06
414.482	123.06
414.705	120.06
414.928	131.06
415.151	120.06
415.374	132.06
415.597	129.06
415.821	130.06
416.044	130.06
416.267	119.06
416.49	128.06
416.713	126.06
416.936	123.06
417.159	126.06
417.382	121.06
417.605	134.06
417.828	132.06
418.051	134.06
418.274	138.06
418.497	134.06
418.72	125.06
418.943	140.06
419.166	136.06
419.389	136.06
419.611	144.06
419.834	136.06
420.057	145.06
420.28	129.06
420.503	132.06
420.726	132.06
420.948	166.06
421.171	123.06
421.394	127.06
421.617	130.06
421.839	145.06
422.062	135.06
422.285	141.06
422.507	132.06
422.73	127.06
422.953	132.06
423.175	126.06
423.398	131.06
423.621	126.06
423.843	144.06
424.066	145.06
424.288	138.06
424.511	130.06
424.733	149.06
424.956	140.06
425.178	152.06
425.401	138.06
425.623	146.06
425.846	143.06
426.068	131.06
426.291	145.06
426.513	137.06
426.735	133.06
426.958	138.06
427.18	150.06
427.402	122.06
427.625	119.06
427.847	115.06
428.069	119.06
428.292	140.06
428.514	129.06
428.736	138.06
428.958	145.06
429.181	134.06
429.403	116.06
429.625	129.06
429.847	135.06
430.069	130.06
430.292	128.06
430.514	132.06
430.736	127.06
430.958	138.06
431.18	113.06
431.402	134.06
431.624	131.06
431.846	114.06
432.068	99.06
432.29	122.06
432.512	113.06
432.734	119.06
432.956	141.06
433.178	135.06
433.4	154.06
433.622	138.06
433.844	123.06
434.066	124.06
434.287	115.06
434.509	81.06
434.731	113.06
434.953	128.06
435.175	136.06
435.397	130.06
435.618	116.06
435.84	112.06
436.062	110.06
436.284	123.06
436.505	124.06
436.727	132.06
436.949	118.06
437.17	140.06
437.392	140.06
437.614	131.06
437.835	105.06
438.057	133.06
438.278	124.06
438.5	142.06
438.721	128.06
438.943	133.06
439.165	131.06
439.386	147.06
439.608	157.06
439.829	152.06
440.05	155.06
440.272	148.06
440.493	150.06
440.715	136.06
440.936	152.06
441.158	152.06
441.379	160.06
441.6	153.06
441.822	163.06
442.043	159.06
442.264	155.06
442.486	145.06
442.707	122.06
442.928	142.06
443.149	134.06
443.371	145.06
443.592	127.06
443.813	149.06
444.034	155.06
444.255	153.06
444.476	151.06
444.698	154.06
444.919	150.06
445.14	274.06
445.361	187.06
445.582	156.06
445.803	159.06
446.024	148.06
446.245	167.06
446.466	150.06
446.687	158.06
446.908	161.06
447.129	158.06
447.35	158.06
447.571	153.06
447.792	150.06
448.013	149.06
448.234	147.06
448.455	132.06
448.675	144.06
448.896	138.06
449.117	139.06
449.338	147.06
449.559	144.06
449.779	125.06
450	131.06
450.221	156.06
450.442	131.06
450.662	130.06
450.883	145.06
451.104	134.06
451.324	148.06
451.545	128.06
451.766	132.06
451.986	122.06
452.207	131.06
452.428	121.06
452.648	128.06
452.869	108.06
453.089	103.06
453.31	113.06
453.53	114.06
453.751	116.06
453.971	107.06
454.192	108.06
454.412	111.06
454.633	119.06
454.853	120.06
455.073	123.06
455.294	119.06
455.514	128.06
455.734	118.06
455.955	136.06
456.175	124.06
456.395	122.06
456.616	96.06
456.836	107.06
457.056	113.06
457.276	109.06
457.497	117.06
457.717	120.06
457.937	107.06
458.157	96.06
458.377	114.06
458.598	103.06
458.818	110.06
459.038	91.06
459.258	111.06
459.478	95.06
459.698	97.06
459.918	89.06
460.138	121.06
460.358	127.06
460.578	104.06
460.798	123.06
461.018	119.06
461.238	110.06
461.458	110.06
461.678	122.06
461.898	125.06
462.118	118.06
462.338	123.06
462.558	117.06
462.777	122.06
462.997	111.06
463.217	123.06
463.437	113.06
463.657	120.06
463.876	103.06
464.096	109.06
464.316	105.06
464.536	120.06
464.755	123.06
464.975	126.06
465.195	123.06
465.414	123.06
465.634	111.06
465.854	127.06
466.073	133.06
466.293	129.06
466.512	134.06
466.732	123.06
466.951	137.06
467.171	141.06
467.391	142.06
467.61	139.06
467.829	136.06
468.049	143.06
468.268	134.06
468.488	141.06
468.707	134.06
468.927	126.06
469.146	145.06
469.365	132.06
469.585	138.06
469.804	127.06
470.023	148.06
470.243	134.06
470.462	138.06
470.681	145.06
470.901	139.06
471.12	138.06
471.339	148.06
471.558	143.06
471.777	147.06
471.997	145.06
472.216	146.06
472.435	120.06
472.654	118.06
472.873	104.06
473.092	123.06
473.311	139.06
473.53	139.06
473.749	122.06
473.968	134.06
474.187	111.06
474.406	140.06
474.625	137.06
474.844	137.06
475.063	122.06
475.282	131.06
475.501	115.06
475.72	132.06
475.939	151.06
476.158	134.06
476.377	133.06
476.596	131.06
476.814	130.06
477.033	118.06
477.252	126.06
477.471	132.06
477.69	147.06
477.908	146.06
478.127	145.06
478.346	139.06
478.564	157.06
478.783	144.06
479.002	150.06
479.22	143.06
479.439	122.06
479.658	128.06
479.876	118.06
480.095	107.06
480.313	123.06
480.532	105.06
480.751	108.06
480.969	91.06
481.188	94.06
481.406	95.06
481.624	100.06
481.843	84.06
482.061	98.06
482.28	122.06
482.498	124.06
482.717	102.06
482.935	134.06
483.153	136.06
483.372	159.06
483.59	166.06
483.808	137.06
484.027	145.06
484.245	143.06
484.463	147.06
484.681	191.06
484.9	160.06
485.118	151.06
485.336	143.06
485.554	125.06
485.772	108.06
485.99	108.06
486.209	114.06
486.427	106.06
486.645	114.06
486.863	130.06
487.081	131.06
487.299	131.06
487.517	150.06
487.735	164.06
487.953	186.06
488.171	180.06
488.389	171.06
488.607	160.06
488.825	141.06
489.043	146.06
489.261	135.06
489.479	147.06
489.696	148.06
489.914	140.06
490.132	170.06
490.35	162.06
490.568	157.06
490.786	155.06
491.003	181.06
491.221	183.06
491.439	195.06
491.657	203.06
491.874	227.06
492.092	244.06
492.31	236.06
492.527	242.06
492.745	223.06
492.963	208.06
493.18	199.06
493.398	187.06
493.615	183.06
493.833	197.06
494.05	187.06
494.268	183.06
494.485	167.06
494.703	182.06
494.92	176.06
495.138	181.06
495.355	169.06
495.573	168.06
495.79	169.06
496.008	169.06
496.225	175.06
496.442	180.06
496.66	179.06
496.877	180.06
497.094	169.06
497.312	161.06
497.529	158.06
497.746	163.06
497.963	137.06
498.181	132.06
498.398	118.06
498.615	126.06
498.832	119.06
499.049	138.06
499.267	128.06
499.484	121.06
499.701	142.06
499.918	128.06
500.135	140.06
500.352	140.06
500.569	139.06
500.786	149.06
501.003	160.06
501.22	151.06
501.437	146.06
501.654	128.06
501.871	133.06
502.088	127.06
502.305	128.06
502.522	122.06
502.739	135.06
502.956	144.06
503.172	121.06
503.389	126.06
503.606	116.06
503.823	119.06
504.04	132.06
504.256	124.06
504.473	131.06
504.69	121.06
504.907	128.06
505.123	133.06
505.34	130.06
505.557	130.06
505.773	139.06
505.99	132.06
506.207	129.06
506.423	137.06
506.64	121.06
506.856	137.06
507.073	122.06
507.289	122.06
507.506	121.06
507.722	120.06
507.939	133.06
508.155	112.06
508.372	121.06
508.588	131.06
508.805	118.06
509.021	117.06
509.238	101.06
509.454	112.06
509.67	90.06
509.887	103.06
510.103	103.06
510.319	115.06
510.536	81.06
510.752	81.06
510.968	92.06
511.184	107.06
511.401	90.06
