Data from Location6.07152019.Energy5.Lamp.07192019.3%Agarose_HRD10591_16-12-30-396.txt Node
Date: Fri Jul 19 16:12:30 EDT 2019
User: cochatt
Spectrometer: HR+D1059
Trigger mode: 1
Integration Time (sec): 1.000000E-1
Scans to average: 1
Electric dark correction enabled: true
Nonlinearity correction enabled: false
Boxcar width: 0
XAxis mode: Wavelengths
Number of Pixels in Spectrum: 2048
>>>>>Begin Spectral Data<<<<<
223.165	-6.38
223.4	-6.38
223.635	-6.38
223.869	-11.38
224.104	-22.38
224.338	-20.38
224.573	-14.38
224.808	-20.38
225.042	-10.38
225.277	-0.38
225.511	-3.38
225.746	13.62
225.98	-6.38
226.215	9.62
226.449	16.62
226.683	18.62
226.918	29.62
227.152	27.62
227.387	36.62
227.621	40.62
227.856	44.62
228.09	58.62
228.324	50.62
228.559	61.62
228.793	62.62
229.027	63.62
229.262	56.62
229.496	57.62
229.73	79.62
229.964	72.62
230.199	78.62
230.433	81.62
230.667	59.62
230.901	81.62
231.136	78.62
231.37	88.62
231.604	65.62
231.838	93.62
232.072	87.62
232.306	84.62
232.541	71.62
232.775	78.62
233.009	99.62
233.243	74.62
233.477	90.62
233.711	82.62
233.945	82.62
234.179	82.62
234.413	78.62
234.647	87.62
234.881	94.62
235.115	86.62
235.349	85.62
235.583	84.62
235.817	77.62
236.051	78.62
236.285	80.62
236.519	75.62
236.753	82.62
236.987	85.62
237.221	73.62
237.455	79.62
237.689	80.62
237.922	71.62
238.156	74.62
238.39	91.62
238.624	83.62
238.858	76.62
239.091	84.62
239.325	82.62
239.559	90.62
239.793	88.62
240.027	67.62
240.26	74.62
240.494	67.62
240.728	77.62
240.961	73.62
241.195	82.62
241.429	65.62
241.662	87.62
241.896	65.62
242.13	66.62
242.363	75.62
242.597	89.62
242.83	84.62
243.064	69.62
243.298	85.62
243.531	74.62
243.765	89.62
243.998	80.62
244.232	91.62
244.465	91.62
244.699	76.62
244.932	90.62
245.166	71.62
245.399	75.62
245.633	78.62
245.866	85.62
246.099	75.62
246.333	65.62
246.566	78.62
246.8	75.62
247.033	76.62
247.266	69.62
247.5	81.62
247.733	84.62
247.966	82.62
248.2	80.62
248.433	83.62
248.666	82.62
248.899	84.62
249.133	90.62
249.366	90.62
249.599	86.62
249.832	73.62
250.066	92.62
250.299	78.62
250.532	83.62
250.765	81.62
250.998	89.62
251.231	78.62
251.465	75.62
251.698	90.62
251.931	69.62
252.164	71.62
252.397	69.62
252.63	80.62
252.863	86.62
253.096	72.62
253.329	84.62
253.562	71.62
253.795	76.62
254.028	85.62
254.261	66.62
254.494	79.62
254.727	67.62
254.96	86.62
255.193	86.62
255.426	94.62
255.659	81.62
255.892	87.62
256.124	82.62
256.357	87.62
256.59	80.62
256.823	93.62
257.056	92.62
257.289	87.62
257.521	86.62
257.754	87.62
257.987	77.62
258.22	79.62
258.452	89.62
258.685	69.62
258.918	85.62
259.151	82.62
259.383	85.62
259.616	87.62
259.849	84.62
260.081	84.62
260.314	69.62
260.547	82.62
260.779	102.62
261.012	85.62
261.244	90.62
261.477	86.62
261.71	76.62
261.942	82.62
262.175	77.62
262.407	88.62
262.64	82.62
262.872	76.62
263.105	90.62
263.337	89.62
263.57	82.62
263.802	85.62
264.035	89.62
264.267	71.62
264.499	80.62
264.732	87.62
264.964	71.62
265.197	79.62
265.429	88.62
265.661	87.62
265.894	89.62
266.126	72.62
266.358	84.62
266.591	82.62
266.823	65.62
267.055	96.62
267.287	74.62
267.52	82.62
267.752	94.62
267.984	58.62
268.216	79.62
268.448	86.62
268.681	81.62
268.913	83.62
269.145	95.62
269.377	91.62
269.609	91.62
269.841	93.62
270.073	78.62
270.306	77.62
270.538	90.62
270.77	67.62
271.002	82.62
271.234	91.62
271.466	84.62
271.698	70.62
271.93	92.62
272.162	77.62
272.394	87.62
272.626	92.62
272.858	88.62
273.09	98.62
273.322	99.62
273.553	76.62
273.785	74.62
274.017	81.62
274.249	83.62
274.481	85.62
274.713	76.62
274.945	86.62
275.176	90.62
275.408	80.62
275.64	81.62
275.872	83.62
276.104	91.62
276.335	90.62
276.567	101.62
276.799	78.62
277.031	73.62
277.262	77.62
277.494	87.62
277.726	97.62
277.957	79.62
278.189	84.62
278.421	79.62
278.652	74.62
278.884	95.62
279.115	94.62
279.347	91.62
279.579	80.62
279.81	93.62
280.042	71.62
280.273	78.62
280.505	85.62
280.736	84.62
280.968	89.62
281.199	76.62
281.431	78.62
281.662	80.62
281.894	79.62
282.125	89.62
282.356	90.62
282.588	90.62
282.819	83.62
283.051	100.62
283.282	84.62
283.513	93.62
283.745	101.62
283.976	87.62
284.207	75.62
284.439	92.62
284.67	87.62
284.901	85.62
285.132	74.62
285.364	83.62
285.595	76.62
285.826	82.62
286.057	72.62
286.288	78.62
286.52	69.62
286.751	104.62
286.982	91.62
287.213	96.62
287.444	95.62
287.675	87.62
287.906	85.62
288.138	95.62
288.369	83.62
288.6	99.62
288.831	90.62
289.062	90.62
289.293	80.62
289.524	91.62
289.755	100.62
289.986	77.62
290.217	87.62
290.448	96.62
290.679	93.62
290.91	97.62
291.141	95.62
291.371	102.62
291.602	87.62
291.833	89.62
292.064	87.62
292.295	87.62
292.526	84.62
292.757	89.62
292.987	90.62
293.218	84.62
293.449	84.62
293.68	78.62
293.91	100.62
294.141	79.62
294.372	86.62
294.603	82.62
294.833	90.62
295.064	89.62
295.295	70.62
295.525	84.62
295.756	97.62
295.987	74.62
296.217	83.62
296.448	78.62
296.679	87.62
296.909	97.62
297.14	81.62
297.37	89.62
297.601	82.62
297.831	92.62
298.062	87.62
298.292	86.62
298.523	89.62
298.753	94.62
298.984	78.62
299.214	98.62
299.445	84.62
299.675	106.62
299.905	102.62
300.136	84.62
300.366	91.62
300.597	74.62
300.827	88.62
301.057	91.62
301.288	85.62
301.518	87.62
301.748	81.62
301.979	82.62
302.209	97.62
302.439	74.62
302.669	82.62
302.9	88.62
303.13	93.62
303.36	77.62
303.59	80.62
303.82	76.62
304.051	90.62
304.281	102.62
304.511	88.62
304.741	90.62
304.971	84.62
305.201	75.62
305.431	71.62
305.661	79.62
305.891	68.62
306.121	93.62
306.352	83.62
306.582	69.62
306.812	85.62
307.042	87.62
307.272	105.62
307.502	91.62
307.731	89.62
307.961	90.62
308.191	84.62
308.421	90.62
308.651	96.62
308.881	86.62
309.111	75.62
309.341	95.62
309.571	89.62
309.8	95.62
310.03	88.62
310.26	90.62
310.49	80.62
310.72	84.62
310.949	86.62
311.179	74.62
311.409	69.62
311.639	92.62
311.868	89.62
312.098	78.62
312.328	82.62
312.557	95.62
312.787	84.62
313.017	98.62
313.246	79.62
313.476	94.62
313.706	87.62
313.935	73.62
314.165	85.62
314.394	78.62
314.624	95.62
314.853	78.62
315.083	87.62
315.312	86.62
315.542	77.62
315.771	67.62
316.001	91.62
316.23	92.62
316.46	76.62
316.689	85.62
316.919	85.62
317.148	92.62
317.377	78.62
317.607	88.62
317.836	91.62
318.065	89.62
318.295	91.62
318.524	74.62
318.753	83.62
318.983	87.62
319.212	88.62
319.441	72.62
319.67	79.62
319.9	87.62
320.129	84.62
320.358	85.62
320.587	83.62
320.816	90.62
321.046	95.62
321.275	105.62
321.504	88.62
321.733	82.62
321.962	85.62
322.191	94.62
322.42	80.62
322.649	86.62
322.878	95.62
323.108	83.62
323.337	89.62
323.566	84.62
323.795	83.62
324.024	82.62
324.253	70.62
324.482	86.62
324.71	92.62
324.939	95.62
325.168	90.62
325.397	85.62
325.626	93.62
325.855	86.62
326.084	95.62
326.313	74.62
326.542	87.62
326.77	99.62
326.999	97.62
327.228	90.62
327.457	87.62
327.686	99.62
327.914	106.62
328.143	83.62
328.372	93.62
328.6	85.62
328.829	93.62
329.058	84.62
329.287	87.62
329.515	84.62
329.744	95.62
329.972	79.62
330.201	86.62
330.43	86.62
330.658	87.62
330.887	93.62
331.115	98.62
331.344	82.62
331.572	85.62
331.801	82.62
332.03	97.62
332.258	83.62
332.486	87.62
332.715	93.62
332.943	85.62
333.172	75.62
333.4	91.62
333.629	94.62
333.857	85.62
334.085	77.62
334.314	87.62
334.542	92.62
334.771	67.62
334.999	84.62
335.227	88.62
335.455	73.62
335.684	96.62
335.912	90.62
336.14	80.62
336.369	82.62
336.597	97.62
336.825	73.62
337.053	94.62
337.281	78.62
337.51	90.62
337.738	85.62
337.966	95.62
338.194	81.62
338.422	75.62
338.65	81.62
338.878	84.62
339.106	86.62
339.334	72.62
339.562	83.62
339.79	84.62
340.018	89.62
340.246	94.62
340.474	84.62
340.702	85.62
340.93	77.62
341.158	86.62
341.386	81.62
341.614	82.62
341.842	75.62
342.07	85.62
342.298	90.62
342.526	78.62
342.754	97.62
342.981	86.62
343.209	87.62
343.437	95.62
343.665	86.62
343.893	84.62
344.12	86.62
344.348	93.62
344.576	84.62
344.804	90.62
345.031	93.62
345.259	108.62
345.487	110.62
345.714	77.62
345.942	77.62
346.17	88.62
346.397	65.62
346.625	77.62
346.853	94.62
347.08	86.62
347.308	81.62
347.535	79.62
347.763	78.62
347.99	95.62
348.218	85.62
348.445	93.62
348.673	97.62
348.9	82.62
349.128	96.62
349.355	80.62
349.583	70.62
349.81	82.62
350.037	92.62
350.265	82.62
350.492	87.62
350.72	93.62
350.947	93.62
351.174	92.62
351.402	92.62
351.629	93.62
351.856	84.62
352.083	75.62
352.311	84.62
352.538	88.62
352.765	98.62
352.992	94.62
353.22	78.62
353.447	89.62
353.674	90.62
353.901	87.62
354.128	91.62
354.355	83.62
354.583	96.62
354.81	83.62
355.037	74.62
355.264	85.62
355.491	92.62
355.718	92.62
355.945	94.62
356.172	86.62
356.399	93.62
356.626	88.62
356.853	84.62
357.08	75.62
357.307	91.62
357.534	82.62
357.761	80.62
357.988	95.62
358.215	94.62
358.441	92.62
358.668	101.62
358.895	88.62
359.122	85.62
359.349	75.62
359.576	85.62
359.802	87.62
360.029	87.62
360.256	80.62
360.483	87.62
360.709	88.62
360.936	91.62
361.163	97.62
361.39	87.62
361.616	91.62
361.843	75.62
362.07	84.62
362.296	94.62
362.523	98.62
362.749	85.62
362.976	81.62
363.203	91.62
363.429	81.62
363.656	85.62
363.882	97.62
364.109	104.62
364.335	79.62
364.562	85.62
364.788	90.62
365.015	106.62
365.241	87.62
365.468	86.62
365.694	68.62
365.92	90.62
366.147	69.62
366.373	92.62
366.599	94.62
366.826	89.62
367.052	80.62
367.278	86.62
367.505	93.62
367.731	111.62
367.957	96.62
368.184	89.62
368.41	93.62
368.636	95.62
368.862	105.62
369.089	79.62
369.315	93.62
369.541	76.62
369.767	103.62
369.993	85.62
370.219	87.62
370.445	91.62
370.672	78.62
370.898	81.62
371.124	81.62
371.35	100.62
371.576	104.62
371.802	106.62
372.028	90.62
372.254	89.62
372.48	84.62
372.706	96.62
372.932	93.62
373.158	86.62
373.384	93.62
373.61	102.62
373.835	101.62
374.061	85.62
374.287	94.62
374.513	90.62
374.739	103.62
374.965	94.62
375.191	95.62
375.416	90.62
375.642	103.62
375.868	93.62
376.094	92.62
376.319	95.62
376.545	95.62
376.771	102.62
376.997	97.62
377.222	89.62
377.448	104.62
377.674	91.62
377.899	94.62
378.125	101.62
378.35	95.62
378.576	102.62
378.802	115.62
379.027	99.62
379.253	97.62
379.478	94.62
379.704	89.62
379.929	94.62
380.155	91.62
380.38	94.62
380.606	107.62
380.831	102.62
381.057	106.62
381.282	102.62
381.507	100.62
381.733	105.62
381.958	90.62
382.184	94.62
382.409	92.62
382.634	116.62
382.86	106.62
383.085	110.62
383.31	102.62
383.535	87.62
383.761	94.62
383.986	100.62
384.211	107.62
384.436	102.62
384.662	93.62
384.887	101.62
385.112	93.62
385.337	109.62
385.562	94.62
385.787	109.62
386.013	118.62
386.238	119.62
386.463	114.62
386.688	108.62
386.913	105.62
387.138	114.62
387.363	113.62
387.588	102.62
387.813	109.62
388.038	98.62
388.263	99.62
388.488	103.62
388.713	100.62
388.938	91.62
389.163	115.62
389.387	101.62
389.612	109.62
389.837	110.62
390.062	106.62
390.287	101.62
390.512	119.62
390.736	111.62
390.961	111.62
391.186	113.62
391.411	99.62
391.636	116.62
391.86	104.62
392.085	108.62
392.31	105.62
392.534	114.62
392.759	115.62
392.984	111.62
393.208	104.62
393.433	120.62
393.658	105.62
393.882	117.62
394.107	107.62
394.331	118.62
394.556	109.62
394.78	101.62
395.005	111.62
395.229	114.62
395.454	112.62
395.678	122.62
395.903	116.62
396.127	105.62
396.352	101.62
396.576	100.62
396.801	120.62
397.025	99.62
397.249	108.62
397.474	122.62
397.698	120.62
397.922	126.62
398.147	114.62
398.371	115.62
398.595	106.62
398.82	106.62
399.044	117.62
399.268	120.62
399.492	114.62
399.717	119.62
399.941	106.62
400.165	115.62
400.389	117.62
400.613	111.62
400.837	116.62
401.062	118.62
401.286	116.62
401.51	122.62
401.734	113.62
401.958	107.62
402.182	118.62
402.406	111.62
402.63	115.62
402.854	113.62
403.078	120.62
403.302	129.62
403.526	122.62
403.75	116.62
403.974	123.62
404.198	126.62
404.422	112.62
404.645	114.62
404.869	120.62
405.093	137.62
405.317	130.62
405.541	114.62
405.765	128.62
405.988	107.62
406.212	125.62
406.436	130.62
406.66	131.62
406.883	133.62
407.107	125.62
407.331	126.62
407.555	126.62
407.778	123.62
408.002	130.62
408.226	133.62
408.449	120.62
408.673	108.62
408.896	115.62
409.12	102.62
409.344	117.62
409.567	135.62
409.791	137.62
410.014	122.62
410.238	117.62
410.461	133.62
410.685	119.62
410.908	130.62
411.132	118.62
411.355	118.62
411.578	142.62
411.802	126.62
412.025	126.62
412.249	135.62
412.472	123.62
412.695	129.62
412.919	129.62
413.142	127.62
413.365	127.62
413.589	120.62
413.812	129.62
414.035	129.62
414.258	118.62
414.482	121.62
414.705	129.62
414.928	117.62
415.151	121.62
415.374	123.62
415.597	135.62
415.821	122.62
416.044	122.62
416.267	143.62
416.49	136.62
416.713	135.62
416.936	134.62
417.159	137.62
417.382	131.62
417.605	139.62
417.828	126.62
418.051	138.62
418.274	133.62
418.497	141.62
418.72	134.62
418.943	141.62
419.166	150.62
419.389	146.62
419.611	137.62
419.834	135.62
420.057	142.62
420.28	132.62
420.503	156.62
420.726	148.62
420.948	126.62
421.171	136.62
421.394	137.62
421.617	144.62
421.839	155.62
422.062	162.62
422.285	139.62
422.507	121.62
422.73	129.62
422.953	127.62
423.175	131.62
423.398	147.62
423.621	131.62
423.843	137.62
424.066	148.62
424.288	159.62
424.511	159.62
424.733	163.62
424.956	146.62
425.178	140.62
425.401	146.62
425.623	157.62
425.846	147.62
426.068	133.62
426.291	134.62
426.513	141.62
426.735	147.62
426.958	147.62
427.18	144.62
427.402	122.62
427.625	136.62
427.847	144.62
428.069	143.62
428.292	151.62
428.514	120.62
428.736	129.62
428.958	137.62
429.181	137.62
429.403	146.62
429.625	141.62
429.847	136.62
430.069	135.62
430.292	149.62
430.514	126.62
430.736	127.62
430.958	138.62
431.18	136.62
431.402	146.62
431.624	134.62
431.846	132.62
432.068	113.62
432.29	116.62
432.512	103.62
432.734	136.62
432.956	129.62
433.178	139.62
433.4	147.62
433.622	148.62
433.844	135.62
434.066	138.62
434.287	122.62
434.509	103.62
434.731	102.62
434.953	109.62
435.175	131.62
435.397	123.62
435.618	113.62
435.84	129.62
436.062	125.62
436.284	117.62
436.505	129.62
436.727	136.62
436.949	137.62
437.17	138.62
437.392	124.62
437.614	122.62
437.835	130.62
438.057	123.62
438.278	118.62
438.5	131.62
438.721	138.62
438.943	154.62
439.165	142.62
439.386	149.62
439.608	157.62
439.829	142.62
440.05	158.62
440.272	168.62
440.493	141.62
440.715	164.62
440.936	165.62
441.158	151.62
441.379	147.62
441.6	156.62
441.822	155.62
442.043	147.62
442.264	151.62
442.486	141.62
442.707	147.62
442.928	159.62
443.149	148.62
443.371	142.62
443.592	137.62
443.813	135.62
444.034	144.62
444.255	133.62
444.476	141.62
444.698	161.62
444.919	156.62
445.14	275.62
445.361	204.62
445.582	149.62
445.803	149.62
446.024	163.62
446.245	151.62
446.466	159.62
446.687	168.62
446.908	165.62
447.129	178.62
447.35	167.62
447.571	155.62
447.792	149.62
448.013	159.62
448.234	155.62
448.455	146.62
448.675	144.62
448.896	154.62
449.117	155.62
449.338	158.62
449.559	162.62
449.779	141.62
450	151.62
450.221	143.62
450.442	157.62
450.662	150.62
450.883	135.62
451.104	139.62
451.324	127.62
451.545	139.62
451.766	128.62
451.986	132.62
452.207	135.62
452.428	140.62
452.648	138.62
452.869	126.62
453.089	129.62
453.31	116.62
453.53	99.62
453.751	105.62
453.971	106.62
454.192	113.62
454.412	126.62
454.633	121.62
454.853	115.62
455.073	126.62
455.294	111.62
455.514	132.62
455.734	134.62
455.955	130.62
456.175	129.62
456.395	119.62
456.616	103.62
456.836	117.62
457.056	120.62
457.276	113.62
457.497	108.62
457.717	119.62
457.937	115.62
458.157	120.62
458.377	110.62
458.598	114.62
458.818	97.62
459.038	99.62
459.258	93.62
459.478	96.62
459.698	92.62
459.918	101.62
460.138	119.62
460.358	122.62
460.578	129.62
460.798	120.62
461.018	131.62
461.238	123.62
461.458	122.62
461.678	120.62
461.898	122.62
462.118	122.62
462.338	132.62
462.558	113.62
462.777	117.62
462.997	106.62
463.217	120.62
463.437	125.62
463.657	101.62
463.876	114.62
464.096	112.62
464.316	113.62
464.536	107.62
464.755	133.62
464.975	122.62
465.195	120.62
465.414	115.62
465.634	126.62
465.854	128.62
466.073	133.62
466.293	129.62
466.512	135.62
466.732	130.62
466.951	141.62
467.171	147.62
467.391	139.62
467.61	161.62
467.829	127.62
468.049	142.62
468.268	154.62
468.488	138.62
468.707	138.62
468.927	162.62
469.146	139.62
469.365	144.62
469.585	154.62
469.804	161.62
470.023	133.62
470.243	156.62
470.462	147.62
470.681	149.62
470.901	141.62
471.12	141.62
471.339	149.62
471.558	149.62
471.777	152.62
471.997	143.62
472.216	131.62
472.435	124.62
472.654	122.62
472.873	131.62
473.092	127.62
473.311	109.62
473.53	129.62
473.749	137.62
473.968	161.62
474.187	119.62
474.406	122.62
474.625	124.62
474.844	130.62
475.063	145.62
475.282	129.62
475.501	124.62
475.72	123.62
475.939	137.62
476.158	134.62
476.377	125.62
476.596	138.62
476.814	120.62
477.033	121.62
477.252	113.62
477.471	129.62
477.69	150.62
477.908	148.62
478.127	154.62
478.346	147.62
478.564	145.62
478.783	147.62
479.002	162.62
479.22	137.62
479.439	139.62
479.658	136.62
479.876	127.62
480.095	124.62
480.313	112.62
480.532	126.62
480.751	120.62
480.969	93.62
481.188	95.62
481.406	104.62
481.624	99.62
481.843	96.62
482.061	104.62
482.28	133.62
482.498	139.62
482.717	92.62
482.935	125.62
483.153	141.62
483.372	164.62
483.59	160.62
483.808	144.62
484.027	131.62
484.245	151.62
484.463	169.62
484.681	180.62
484.9	149.62
485.118	157.62
485.336	131.62
485.554	119.62
485.772	103.62
485.99	120.62
486.209	107.62
486.427	133.62
486.645	131.62
486.863	144.62
487.081	148.62
487.299	143.62
487.517	153.62
487.735	186.62
487.953	196.62
488.171	178.62
488.389	185.62
488.607	184.62
488.825	153.62
489.043	137.62
489.261	141.62
489.479	150.62
489.696	159.62
489.914	146.62
490.132	155.62
490.35	154.62
490.568	174.62
490.786	192.62
491.003	179.62
491.221	188.62
491.439	197.62
491.657	196.62
491.874	225.62
492.092	228.62
492.31	255.62
492.527	245.62
492.745	211.62
492.963	209.62
493.18	199.62
493.398	207.62
493.615	193.62
493.833	196.62
494.05	182.62
494.268	185.62
494.485	170.62
494.703	191.62
494.92	188.62
495.138	182.62
495.355	191.62
495.573	167.62
495.79	164.62
496.008	170.62
496.225	169.62
496.442	169.62
496.66	185.62
496.877	181.62
497.094	173.62
497.312	167.62
497.529	173.62
497.746	155.62
497.963	149.62
498.181	148.62
498.398	133.62
498.615	114.62
498.832	121.62
499.049	118.62
499.267	141.62
499.484	130.62
499.701	139.62
499.918	142.62
500.135	150.62
500.352	150.62
500.569	152.62
500.786	157.62
501.003	145.62
501.22	124.62
501.437	151.62
501.654	139.62
501.871	138.62
502.088	140.62
502.305	132.62
502.522	158.62
502.739	141.62
502.956	133.62
503.172	149.62
503.389	133.62
503.606	110.62
503.823	118.62
504.04	131.62
504.256	116.62
504.473	117.62
504.69	125.62
504.907	133.62
505.123	113.62
505.34	122.62
505.557	132.62
505.773	127.62
505.99	145.62
506.207	131.62
506.423	122.62
506.64	121.62
506.856	125.62
507.073	125.62
507.289	137.62
507.506	129.62
507.722	125.62
507.939	123.62
508.155	117.62
508.372	121.62
508.588	113.62
508.805	125.62
509.021	123.62
509.238	109.62
509.454	102.62
509.67	105.62
509.887	109.62
510.103	109.62
510.319	102.62
510.536	101.62
510.752	112.62
510.968	96.62
