Data from Location6.07152019.Energy5.Lamp.07192019.3%Agarose_HRD10591_16-12-58-395.txt Node
Date: Fri Jul 19 16:12:58 EDT 2019
User: cochatt
Spectrometer: HR+D1059
Trigger mode: 1
Integration Time (sec): 1.000000E-1
Scans to average: 1
Electric dark correction enabled: true
Nonlinearity correction enabled: false
Boxcar width: 0
XAxis mode: Wavelengths
Number of Pixels in Spectrum: 2048
>>>>>Begin Spectral Data<<<<<
223.165	-8.5
223.4	-8.5
223.635	-8.5
223.869	-19.5
224.104	-26.5
224.338	-22.5
224.573	-22.5
224.808	-10.5
225.042	-9.5
225.277	0.5
225.511	-1.5
225.746	7.5
225.98	15.5
226.215	21.5
226.449	13.5
226.683	27.5
226.918	21.5
227.152	13.5
227.387	31.5
227.621	33.5
227.856	46.5
228.09	33.5
228.324	61.5
228.559	49.5
228.793	63.5
229.027	61.5
229.262	49.5
229.496	58.5
229.73	65.5
229.964	65.5
230.199	84.5
230.433	78.5
230.667	93.5
230.901	78.5
231.136	78.5
231.37	79.5
231.604	81.5
231.838	76.5
232.072	76.5
232.306	94.5
232.541	69.5
232.775	69.5
233.009	78.5
233.243	91.5
233.477	76.5
233.711	89.5
233.945	85.5
234.179	82.5
234.413	88.5
234.647	74.5
234.881	93.5
235.115	73.5
235.349	90.5
235.583	83.5
235.817	76.5
236.051	87.5
236.285	88.5
236.519	89.5
236.753	91.5
236.987	85.5
237.221	69.5
237.455	83.5
237.689	77.5
237.922	70.5
238.156	69.5
238.39	78.5
238.624	81.5
238.858	72.5
239.091	81.5
239.325	72.5
239.559	78.5
239.793	66.5
240.027	71.5
240.26	82.5
240.494	72.5
240.728	79.5
240.961	80.5
241.195	76.5
241.429	69.5
241.662	80.5
241.896	65.5
242.13	63.5
242.363	77.5
242.597	84.5
242.83	69.5
243.064	82.5
243.298	80.5
243.531	73.5
243.765	80.5
243.998	87.5
244.232	67.5
244.465	99.5
244.699	71.5
244.932	78.5
245.166	82.5
245.399	92.5
245.633	81.5
245.866	76.5
246.099	79.5
246.333	90.5
246.566	88.5
246.8	81.5
247.033	79.5
247.266	74.5
247.5	70.5
247.733	76.5
247.966	74.5
248.2	74.5
248.433	70.5
248.666	74.5
248.899	77.5
249.133	74.5
249.366	71.5
249.599	67.5
249.832	87.5
250.066	75.5
250.299	82.5
250.532	73.5
250.765	88.5
250.998	83.5
251.231	79.5
251.465	95.5
251.698	84.5
251.931	71.5
252.164	84.5
252.397	85.5
252.63	72.5
252.863	80.5
253.096	78.5
253.329	82.5
253.562	78.5
253.795	77.5
254.028	72.5
254.261	84.5
254.494	69.5
254.727	91.5
254.96	75.5
255.193	81.5
255.426	72.5
255.659	90.5
255.892	87.5
256.124	91.5
256.357	94.5
256.59	65.5
256.823	75.5
257.056	79.5
257.289	71.5
257.521	82.5
257.754	87.5
257.987	85.5
258.22	98.5
258.452	89.5
258.685	86.5
258.918	68.5
259.151	87.5
259.383	84.5
259.616	80.5
259.849	76.5
260.081	93.5
260.314	82.5
260.547	90.5
260.779	70.5
261.012	74.5
261.244	79.5
261.477	83.5
261.71	68.5
261.942	82.5
262.175	74.5
262.407	84.5
262.64	85.5
262.872	79.5
263.105	79.5
263.337	73.5
263.57	83.5
263.802	90.5
264.035	76.5
264.267	70.5
264.499	76.5
264.732	90.5
264.964	97.5
265.197	81.5
265.429	92.5
265.661	73.5
265.894	77.5
266.126	76.5
266.358	69.5
266.591	73.5
266.823	74.5
267.055	92.5
267.287	76.5
267.52	84.5
267.752	74.5
267.984	77.5
268.216	87.5
268.448	82.5
268.681	98.5
268.913	89.5
269.145	90.5
269.377	86.5
269.609	91.5
269.841	76.5
270.073	71.5
270.306	77.5
270.538	65.5
270.77	82.5
271.002	91.5
271.234	93.5
271.466	99.5
271.698	92.5
271.93	89.5
272.162	90.5
272.394	75.5
272.626	104.5
272.858	84.5
273.09	79.5
273.322	91.5
273.553	67.5
273.785	75.5
274.017	73.5
274.249	96.5
274.481	83.5
274.713	76.5
274.945	86.5
275.176	91.5
275.408	97.5
275.64	95.5
275.872	84.5
276.104	98.5
276.335	81.5
276.567	80.5
276.799	85.5
277.031	90.5
277.262	86.5
277.494	76.5
277.726	79.5
277.957	85.5
278.189	87.5
278.421	94.5
278.652	90.5
278.884	81.5
279.115	83.5
279.347	82.5
279.579	90.5
279.81	90.5
280.042	71.5
280.273	86.5
280.505	94.5
280.736	98.5
280.968	81.5
281.199	93.5
281.431	80.5
281.662	78.5
281.894	83.5
282.125	79.5
282.356	82.5
282.588	76.5
282.819	84.5
283.051	90.5
283.282	95.5
283.513	94.5
283.745	78.5
283.976	76.5
284.207	83.5
284.439	99.5
284.67	85.5
284.901	90.5
285.132	80.5
285.364	85.5
285.595	92.5
285.826	77.5
286.057	84.5
286.288	89.5
286.52	90.5
286.751	80.5
286.982	82.5
287.213	83.5
287.444	89.5
287.675	83.5
287.906	90.5
288.138	86.5
288.369	78.5
288.6	76.5
288.831	83.5
289.062	89.5
289.293	98.5
289.524	83.5
289.755	78.5
289.986	87.5
290.217	91.5
290.448	85.5
290.679	63.5
290.91	82.5
291.141	74.5
291.371	81.5
291.602	90.5
291.833	92.5
292.064	80.5
292.295	82.5
292.526	81.5
292.757	78.5
292.987	73.5
293.218	99.5
293.449	82.5
293.68	80.5
293.91	80.5
294.141	98.5
294.372	83.5
294.603	95.5
294.833	81.5
295.064	81.5
295.295	77.5
295.525	71.5
295.756	88.5
295.987	82.5
296.217	88.5
296.448	86.5
296.679	87.5
296.909	70.5
297.14	75.5
297.37	83.5
297.601	78.5
297.831	62.5
298.062	77.5
298.292	90.5
298.523	83.5
298.753	94.5
298.984	87.5
299.214	86.5
299.445	83.5
299.675	87.5
299.905	91.5
300.136	90.5
300.366	76.5
300.597	90.5
300.827	95.5
301.057	79.5
301.288	75.5
301.518	87.5
301.748	80.5
301.979	89.5
302.209	92.5
302.439	82.5
302.669	74.5
302.9	73.5
303.13	79.5
303.36	92.5
303.59	88.5
303.82	95.5
304.051	92.5
304.281	84.5
304.511	89.5
304.741	82.5
304.971	78.5
305.201	87.5
305.431	93.5
305.661	74.5
305.891	85.5
306.121	85.5
306.352	84.5
306.582	81.5
306.812	84.5
307.042	68.5
307.272	98.5
307.502	104.5
307.731	110.5
307.961	97.5
308.191	87.5
308.421	74.5
308.651	87.5
308.881	79.5
309.111	84.5
309.341	91.5
309.571	85.5
309.8	69.5
310.03	90.5
310.26	76.5
310.49	75.5
310.72	83.5
310.949	83.5
311.179	78.5
311.409	80.5
311.639	78.5
311.868	90.5
312.098	87.5
312.328	85.5
312.557	93.5
312.787	86.5
313.017	85.5
313.246	92.5
313.476	87.5
313.706	72.5
313.935	93.5
314.165	78.5
314.394	79.5
314.624	69.5
314.853	82.5
315.083	80.5
315.312	83.5
315.542	84.5
315.771	70.5
316.001	92.5
316.23	82.5
316.46	98.5
316.689	92.5
316.919	90.5
317.148	87.5
317.377	97.5
317.607	80.5
317.836	91.5
318.065	91.5
318.295	71.5
318.524	83.5
318.753	86.5
318.983	84.5
319.212	98.5
319.441	93.5
319.67	87.5
319.9	89.5
320.129	71.5
320.358	88.5
320.587	75.5
320.816	86.5
321.046	89.5
321.275	91.5
321.504	84.5
321.733	83.5
321.962	87.5
322.191	91.5
322.42	92.5
322.649	85.5
322.878	94.5
323.108	86.5
323.337	85.5
323.566	83.5
323.795	83.5
324.024	86.5
324.253	78.5
324.482	84.5
324.71	88.5
324.939	73.5
325.168	96.5
325.397	85.5
325.626	79.5
325.855	96.5
326.084	75.5
326.313	90.5
326.542	94.5
326.77	84.5
326.999	75.5
327.228	75.5
327.457	89.5
327.686	83.5
327.914	87.5
328.143	92.5
328.372	107.5
328.6	94.5
328.829	85.5
329.058	83.5
329.287	97.5
329.515	84.5
329.744	85.5
329.972	79.5
330.201	87.5
330.43	85.5
330.658	82.5
330.887	66.5
331.115	86.5
331.344	88.5
331.572	77.5
331.801	91.5
332.03	91.5
332.258	88.5
332.486	84.5
332.715	82.5
332.943	94.5
333.172	85.5
333.4	89.5
333.629	82.5
333.857	86.5
334.085	80.5
334.314	90.5
334.542	82.5
334.771	87.5
334.999	86.5
335.227	83.5
335.455	77.5
335.684	91.5
335.912	94.5
336.14	75.5
336.369	78.5
336.597	77.5
336.825	84.5
337.053	83.5
337.281	75.5
337.51	98.5
337.738	86.5
337.966	83.5
338.194	91.5
338.422	85.5
338.65	85.5
338.878	88.5
339.106	85.5
339.334	97.5
339.562	76.5
339.79	79.5
340.018	74.5
340.246	84.5
340.474	105.5
340.702	80.5
340.93	87.5
341.158	77.5
341.386	88.5
341.614	78.5
341.842	89.5
342.07	83.5
342.298	76.5
342.526	74.5
342.754	82.5
342.981	75.5
343.209	68.5
343.437	94.5
343.665	77.5
343.893	94.5
344.12	97.5
344.348	90.5
344.576	90.5
344.804	71.5
345.031	102.5
345.259	82.5
345.487	101.5
345.714	83.5
345.942	89.5
346.17	89.5
346.397	84.5
346.625	74.5
346.853	91.5
347.08	84.5
347.308	86.5
347.535	87.5
347.763	79.5
347.99	90.5
348.218	94.5
348.445	89.5
348.673	86.5
348.9	94.5
349.128	100.5
349.355	86.5
349.583	77.5
349.81	89.5
350.037	82.5
350.265	95.5
350.492	78.5
350.72	89.5
350.947	90.5
351.174	86.5
351.402	79.5
351.629	72.5
351.856	91.5
352.083	81.5
352.311	89.5
352.538	88.5
352.765	76.5
352.992	78.5
353.22	77.5
353.447	78.5
353.674	88.5
353.901	99.5
354.128	75.5
354.355	84.5
354.583	89.5
354.81	86.5
355.037	82.5
355.264	97.5
355.491	66.5
355.718	77.5
355.945	88.5
356.172	83.5
356.399	88.5
356.626	85.5
356.853	78.5
357.08	77.5
357.307	85.5
357.534	87.5
357.761	86.5
357.988	79.5
358.215	91.5
358.441	80.5
358.668	76.5
358.895	67.5
359.122	90.5
359.349	78.5
359.576	83.5
359.802	88.5
360.029	84.5
360.256	91.5
360.483	73.5
360.709	60.5
360.936	94.5
361.163	100.5
361.39	104.5
361.616	75.5
361.843	84.5
362.07	73.5
362.296	91.5
362.523	97.5
362.749	85.5
362.976	83.5
363.203	86.5
363.429	76.5
363.656	84.5
363.882	82.5
364.109	88.5
364.335	86.5
364.562	73.5
364.788	77.5
365.015	88.5
365.241	89.5
365.468	84.5
365.694	85.5
365.92	97.5
366.147	97.5
366.373	95.5
366.599	101.5
366.826	86.5
367.052	75.5
367.278	95.5
367.505	75.5
367.731	92.5
367.957	78.5
368.184	93.5
368.41	93.5
368.636	86.5
368.862	72.5
369.089	87.5
369.315	91.5
369.541	95.5
369.767	94.5
369.993	97.5
370.219	81.5
370.445	89.5
370.672	83.5
370.898	91.5
371.124	96.5
371.35	92.5
371.576	80.5
371.802	101.5
372.028	93.5
372.254	91.5
372.48	87.5
372.706	85.5
372.932	87.5
373.158	98.5
373.384	89.5
373.61	98.5
373.835	91.5
374.061	92.5
374.287	79.5
374.513	87.5
374.739	102.5
374.965	110.5
375.191	86.5
375.416	88.5
375.642	108.5
375.868	104.5
376.094	89.5
376.319	94.5
376.545	83.5
376.771	90.5
376.997	87.5
377.222	96.5
377.448	94.5
377.674	94.5
377.899	84.5
378.125	103.5
378.35	93.5
378.576	92.5
378.802	87.5
379.027	104.5
379.253	106.5
379.478	90.5
379.704	96.5
379.929	92.5
380.155	94.5
380.38	94.5
380.606	87.5
380.831	89.5
381.057	98.5
381.282	92.5
381.507	79.5
381.733	95.5
381.958	101.5
382.184	93.5
382.409	96.5
382.634	102.5
382.86	98.5
383.085	113.5
383.31	99.5
383.535	94.5
383.761	102.5
383.986	99.5
384.211	105.5
384.436	118.5
384.662	94.5
384.887	104.5
385.112	85.5
385.337	113.5
385.562	97.5
385.787	101.5
386.013	95.5
386.238	99.5
386.463	103.5
386.688	107.5
386.913	95.5
387.138	94.5
387.363	93.5
387.588	105.5
387.813	114.5
388.038	110.5
388.263	99.5
388.488	106.5
388.713	108.5
388.938	107.5
389.163	113.5
389.387	108.5
389.612	113.5
389.837	111.5
390.062	92.5
390.287	116.5
390.512	97.5
390.736	100.5
390.961	101.5
391.186	105.5
391.411	113.5
391.636	104.5
391.86	99.5
392.085	101.5
392.31	107.5
392.534	120.5
392.759	116.5
392.984	98.5
393.208	109.5
393.433	105.5
393.658	111.5
393.882	101.5
394.107	117.5
394.331	101.5
394.556	118.5
394.78	112.5
395.005	110.5
395.229	104.5
395.454	102.5
395.678	110.5
395.903	110.5
396.127	109.5
396.352	106.5
396.576	117.5
396.801	100.5
397.025	104.5
397.249	123.5
397.474	114.5
397.698	116.5
397.922	114.5
398.147	104.5
398.371	116.5
398.595	127.5
398.82	110.5
399.044	103.5
399.268	107.5
399.492	106.5
399.717	131.5
399.941	121.5
400.165	117.5
400.389	119.5
400.613	107.5
400.837	115.5
401.062	113.5
401.286	114.5
401.51	114.5
401.734	115.5
401.958	115.5
402.182	118.5
402.406	124.5
402.63	113.5
402.854	115.5
403.078	126.5
403.302	119.5
403.526	110.5
403.75	117.5
403.974	118.5
404.198	117.5
404.422	110.5
404.645	122.5
404.869	119.5
405.093	125.5
405.317	123.5
405.541	99.5
405.765	121.5
405.988	125.5
406.212	126.5
406.436	122.5
406.66	117.5
406.883	135.5
407.107	110.5
407.331	110.5
407.555	118.5
407.778	117.5
408.002	118.5
408.226	121.5
408.449	117.5
408.673	139.5
408.896	116.5
409.12	115.5
409.344	137.5
409.567	139.5
409.791	115.5
410.014	108.5
410.238	121.5
410.461	140.5
410.685	132.5
410.908	132.5
411.132	130.5
411.355	126.5
411.578	131.5
411.802	129.5
412.025	125.5
412.249	138.5
412.472	108.5
412.695	112.5
412.919	123.5
413.142	130.5
413.365	128.5
413.589	119.5
413.812	124.5
414.035	121.5
414.258	123.5
414.482	134.5
414.705	127.5
414.928	141.5
415.151	131.5
415.374	132.5
415.597	135.5
415.821	124.5
416.044	149.5
416.267	118.5
416.49	137.5
416.713	136.5
416.936	128.5
417.159	134.5
417.382	137.5
417.605	131.5
417.828	123.5
418.051	139.5
418.274	142.5
418.497	155.5
418.72	151.5
418.943	141.5
419.166	135.5
419.389	143.5
419.611	126.5
419.834	140.5
420.057	141.5
420.28	133.5
420.503	142.5
420.726	134.5
420.948	143.5
421.171	127.5
421.394	135.5
421.617	146.5
421.839	149.5
422.062	129.5
422.285	150.5
422.507	138.5
422.73	109.5
422.953	128.5
423.175	125.5
423.398	133.5
423.621	131.5
423.843	142.5
424.066	132.5
424.288	161.5
424.511	150.5
424.733	138.5
424.956	145.5
425.178	137.5
425.401	138.5
425.623	155.5
425.846	149.5
426.068	137.5
426.291	138.5
426.513	128.5
426.735	131.5
426.958	130.5
427.18	138.5
427.402	141.5
427.625	159.5
427.847	128.5
428.069	138.5
428.292	137.5
428.514	143.5
428.736	130.5
428.958	140.5
429.181	137.5
429.403	123.5
429.625	142.5
429.847	142.5
430.069	135.5
430.292	137.5
430.514	125.5
430.736	122.5
430.958	142.5
431.18	139.5
431.402	136.5
431.624	121.5
431.846	117.5
432.068	98.5
432.29	102.5
432.512	108.5
432.734	131.5
432.956	122.5
433.178	151.5
433.4	138.5
433.622	129.5
433.844	142.5
434.066	134.5
434.287	119.5
434.509	99.5
434.731	94.5
434.953	103.5
435.175	146.5
435.397	156.5
435.618	135.5
435.84	125.5
436.062	122.5
436.284	105.5
436.505	137.5
436.727	113.5
436.949	141.5
437.17	146.5
437.392	145.5
437.614	119.5
437.835	125.5
438.057	109.5
438.278	121.5
438.5	122.5
438.721	142.5
438.943	151.5
439.165	149.5
439.386	145.5
439.608	149.5
439.829	149.5
440.05	152.5
440.272	170.5
440.493	158.5
440.715	149.5
440.936	139.5
441.158	141.5
441.379	143.5
441.6	161.5
441.822	150.5
442.043	151.5
442.264	158.5
442.486	134.5
442.707	156.5
442.928	163.5
443.149	135.5
443.371	152.5
443.592	152.5
443.813	143.5
444.034	143.5
444.255	140.5
444.476	135.5
444.698	158.5
444.919	155.5
445.14	274.5
445.361	212.5
445.582	153.5
445.803	154.5
446.024	168.5
446.245	159.5
446.466	162.5
446.687	177.5
446.908	155.5
447.129	148.5
447.35	159.5
447.571	157.5
447.792	159.5
448.013	150.5
448.234	153.5
448.455	153.5
448.675	154.5
448.896	149.5
449.117	143.5
449.338	139.5
449.559	158.5
449.779	135.5
450	133.5
450.221	141.5
450.442	150.5
450.662	135.5
450.883	126.5
451.104	139.5
451.324	150.5
451.545	150.5
451.766	130.5
451.986	134.5
452.207	151.5
452.428	114.5
452.648	122.5
452.869	135.5
453.089	121.5
453.31	105.5
453.53	105.5
453.751	117.5
453.971	105.5
454.192	113.5
454.412	106.5
454.633	123.5
454.853	134.5
455.073	122.5
455.294	129.5
455.514	120.5
455.734	132.5
455.955	125.5
456.175	114.5
456.395	108.5
456.616	119.5
456.836	127.5
457.056	107.5
457.276	129.5
457.497	99.5
457.717	105.5
457.937	102.5
458.157	100.5
458.377	107.5
458.598	95.5
458.818	77.5
459.038	100.5
459.258	81.5
459.478	113.5
459.698	88.5
459.918	102.5
460.138	108.5
460.358	121.5
460.578	127.5
460.798	117.5
461.018	132.5
461.238	121.5
461.458	101.5
461.678	116.5
461.898	114.5
462.118	116.5
462.338	125.5
462.558	131.5
462.777	115.5
462.997	119.5
463.217	115.5
463.437	113.5
463.657	124.5
463.876	113.5
464.096	127.5
464.316	116.5
464.536	115.5
464.755	142.5
464.975	125.5
465.195	131.5
465.414	127.5
465.634	115.5
465.854	129.5
466.073	131.5
466.293	134.5
466.512	143.5
466.732	138.5
466.951	157.5
467.171	136.5
467.391	119.5
467.61	141.5
467.829	152.5
468.049	141.5
468.268	137.5
468.488	138.5
468.707	144.5
468.927	143.5
469.146	141.5
469.365	150.5
469.585	155.5
469.804	159.5
470.023	144.5
470.243	140.5
470.462	148.5
470.681	139.5
470.901	149.5
471.12	141.5
471.339	149.5
471.558	144.5
471.777	131.5
471.997	140.5
472.216	125.5
472.435	130.5
472.654	117.5
472.873	119.5
473.092	122.5
473.311	129.5
473.53	124.5
473.749	141.5
473.968	127.5
474.187	141.5
474.406	127.5
474.625	125.5
474.844	130.5
475.063	133.5
475.282	122.5
475.501	121.5
475.72	130.5
475.939	137.5
476.158	137.5
476.377	125.5
476.596	130.5
476.814	118.5
477.033	118.5
477.252	125.5
477.471	129.5
477.69	138.5
477.908	139.5
478.127	155.5
478.346	142.5
478.564	153.5
478.783	141.5
479.002	154.5
479.22	135.5
479.439	122.5
479.658	143.5
479.876	124.5
480.095	113.5
480.313	113.5
480.532	131.5
480.751	104.5
480.969	105.5
481.188	99.5
481.406	95.5
481.624	94.5
481.843	94.5
482.061	110.5
482.28	126.5
482.498	109.5
482.717	105.5
482.935	135.5
483.153	152.5
483.372	158.5
483.59	152.5
483.808	144.5
484.027	157.5
484.245	147.5
484.463	151.5
484.681	171.5
484.9	161.5
485.118	157.5
485.336	139.5
485.554	137.5
485.772	114.5
485.99	104.5
486.209	115.5
486.427	110.5
486.645	131.5
486.863	154.5
487.081	149.5
487.299	139.5
487.517	148.5
487.735	172.5
487.953	194.5
488.171	191.5
488.389	187.5
488.607	181.5
488.825	143.5
489.043	147.5
489.261	124.5
489.479	151.5
489.696	147.5
489.914	158.5
490.132	161.5
490.35	161.5
490.568	166.5
490.786	171.5
491.003	182.5
491.221	197.5
491.439	193.5
491.657	184.5
491.874	214.5
492.092	227.5
492.31	235.5
492.527	250.5
492.745	220.5
492.963	208.5
493.18	198.5
493.398	205.5
493.615	180.5
493.833	187.5
494.05	198.5
494.268	180.5
494.485	160.5
494.703	201.5
494.92	193.5
495.138	171.5
495.355	187.5
495.573	179.5
495.79	173.5
496.008	181.5
496.225	186.5
496.442	182.5
496.66	156.5
496.877	183.5
497.094	179.5
497.312	169.5
497.529	170.5
497.746	139.5
497.963	155.5
498.181	143.5
498.398	123.5
498.615	129.5
498.832	123.5
499.049	116.5
499.267	133.5
499.484	127.5
499.701	140.5
499.918	149.5
500.135	133.5
500.352	145.5
500.569	152.5
500.786	149.5
501.003	148.5
501.22	166.5
501.437	139.5
501.654	150.5
501.871	139.5
502.088	149.5
502.305	120.5
502.522	139.5
502.739	131.5
502.956	136.5
503.172	137.5
503.389	125.5
503.606	129.5
503.823	124.5
504.04	122.5
504.256	142.5
504.473	126.5
504.69	134.5
504.907	122.5
505.123	121.5
505.34	132.5
505.557	118.5
505.773	127.5
505.99	119.5
506.207	137.5
506.423	131.5
506.64	134.5
506.856	120.5
507.073	110.5
507.289	118.5
507.506	138.5
507.722	105.5
507.939	127.5
508.155	124.5
508.372	107.5
508.588	124.5
508.805	97.5
509.021	114.5
509.238	106.5
509.454	99.5
509.67	106.5
509.887	107.5
510.103	88.5
510.319	86.5
510.536	124.5
510.752	95.5
510.968	83.5
511.184	82.5
511.401	89.5
511.617	93.5
511.833	91.5
512.049	103.5
512.265	92.5
512.481	87.5
512.698	100.5
512.914	87.5
513.13	104.5
513.346	97.5
513.562	89.5
513.778	93.5
513.994	95.5
514.21	101.5
514.426	88.5
514.642	91.5
514.858	95.5
515.074	88.5
515.29	100.5
515.506	87.5
515.721	94.5
515.937	90.5
516.153	79.5
516.369	92.5
516.585	90.5
516.801	99.5
517.016	95.5
517.232	111.5
517.448	84.5
517.664	92.5
517.879	97.5
518.095	102.5
518.311	97.5
518.527	101.5
518.742	87.5
518.958	108.5
519.173	116.5
519.389	133.5
519.605	102.5
519.82	113.5
520.036	118.5
520.251	113.5
520.467	114.5
520.682	99.5
520.898	105.5
521.113	92.5
521.329	103.5
521.544	89.5
521.76	92.5
521.975	101.5
522.19	82.5
522.406	103.5
522.621	86.5
522.836	100.5
523.052	118.5
523.267	111.5
523.482	109.5
523.698	104.5
523.913	110.5
524.128	120.5
524.343	125.5
524.559	118.5
524.774	128.5
524.989	124.5
525.204	122.5
525.419	131.5
525.634	121.5
525.849	105.5
526.064	102.5
526.28	102.5
526.495	95.5
526.71	100.5
526.925	90.5
527.14	78.5
527.355	81.5
527.57	87.5
527.785	93.5
527.999	99.5
528.214	106.5
528.429	116.5
528.644	125.5
528.859	141.5
529.074	160.5
529.289	173.5
529.503	172.5
529.718	152.5
529.933	113.5
530.148	107.5
530.363	92.5
