Data from Location6.07152019.Energy5.Lamp.07192019.3%Agarose_HRD10591_16-10-43-394.txt Node
Date: Fri Jul 19 16:10:43 EDT 2019
User: cochatt
Spectrometer: HR+D1059
Trigger mode: 1
Integration Time (sec): 1.000000E-1
Scans to average: 1
Electric dark correction enabled: true
Nonlinearity correction enabled: false
Boxcar width: 0
XAxis mode: Wavelengths
Number of Pixels in Spectrum: 2048
>>>>>Begin Spectral Data<<<<<
223.165	-11.44
223.4	-11.44
223.635	-11.44
223.869	-10.44
224.104	-10.44
224.338	-20.44
224.573	-22.44
224.808	-20.44
225.042	-16.44
225.277	-10.44
225.511	-4.44
225.746	5.56
225.98	19.56
226.215	5.56
226.449	16.56
226.683	20.56
226.918	30.56
227.152	28.56
227.387	30.56
227.621	46.56
227.856	44.56
228.09	32.56
228.324	48.56
228.559	48.56
228.793	53.56
229.027	55.56
229.262	58.56
229.496	55.56
229.73	81.56
229.964	59.56
230.199	73.56
230.433	64.56
230.667	84.56
230.901	70.56
231.136	75.56
231.37	79.56
231.604	88.56
231.838	79.56
232.072	74.56
232.306	77.56
232.541	71.56
232.775	77.56
233.009	71.56
233.243	65.56
233.477	78.56
233.711	83.56
233.945	96.56
234.179	71.56
234.413	87.56
234.647	73.56
234.881	83.56
235.115	84.56
235.349	82.56
235.583	77.56
235.817	77.56
236.051	78.56
236.285	78.56
236.519	74.56
236.753	66.56
236.987	68.56
237.221	72.56
237.455	86.56
237.689	79.56
237.922	87.56
238.156	81.56
238.39	68.56
238.624	72.56
238.858	63.56
239.091	77.56
239.325	72.56
239.559	67.56
239.793	71.56
240.027	71.56
240.26	67.56
240.494	57.56
240.728	62.56
240.961	65.56
241.195	71.56
241.429	82.56
241.662	93.56
241.896	83.56
242.13	74.56
242.363	72.56
242.597	84.56
242.83	79.56
243.064	64.56
243.298	78.56
243.531	75.56
243.765	61.56
243.998	72.56
244.232	67.56
244.465	63.56
244.699	68.56
244.932	69.56
245.166	68.56
245.399	78.56
245.633	69.56
245.866	88.56
246.099	65.56
246.333	68.56
246.566	87.56
246.8	72.56
247.033	73.56
247.266	82.56
247.5	82.56
247.733	75.56
247.966	69.56
248.2	77.56
248.433	82.56
248.666	67.56
248.899	79.56
249.133	79.56
249.366	83.56
249.599	77.56
249.832	66.56
250.066	68.56
250.299	67.56
250.532	60.56
250.765	76.56
250.998	72.56
251.231	67.56
251.465	83.56
251.698	77.56
251.931	72.56
252.164	83.56
252.397	71.56
252.63	71.56
252.863	68.56
253.096	87.56
253.329	84.56
253.562	71.56
253.795	81.56
254.028	74.56
254.261	73.56
254.494	86.56
254.727	79.56
254.96	86.56
255.193	70.56
255.426	70.56
255.659	82.56
255.892	68.56
256.124	78.56
256.357	79.56
256.59	86.56
256.823	61.56
257.056	79.56
257.289	78.56
257.521	86.56
257.754	76.56
257.987	84.56
258.22	73.56
258.452	89.56
258.685	78.56
258.918	89.56
259.151	65.56
259.383	68.56
259.616	80.56
259.849	84.56
260.081	84.56
260.314	78.56
260.547	69.56
260.779	83.56
261.012	76.56
261.244	93.56
261.477	88.56
261.71	82.56
261.942	71.56
262.175	85.56
262.407	79.56
262.64	82.56
262.872	78.56
263.105	86.56
263.337	69.56
263.57	70.56
263.802	91.56
264.035	78.56
264.267	72.56
264.499	75.56
264.732	73.56
264.964	79.56
265.197	77.56
265.429	76.56
265.661	89.56
265.894	76.56
266.126	75.56
266.358	79.56
266.591	68.56
266.823	85.56
267.055	89.56
267.287	92.56
267.52	83.56
267.752	69.56
267.984	89.56
268.216	88.56
268.448	72.56
268.681	84.56
268.913	82.56
269.145	83.56
269.377	84.56
269.609	87.56
269.841	98.56
270.073	80.56
270.306	66.56
270.538	82.56
270.77	72.56
271.002	68.56
271.234	72.56
271.466	82.56
271.698	69.56
271.93	91.56
272.162	87.56
272.394	87.56
272.626	87.56
272.858	80.56
273.09	71.56
273.322	88.56
273.553	70.56
273.785	75.56
274.017	86.56
274.249	81.56
274.481	65.56
274.713	78.56
274.945	67.56
275.176	87.56
275.408	83.56
275.64	76.56
275.872	84.56
276.104	87.56
276.335	80.56
276.567	87.56
276.799	73.56
277.031	73.56
277.262	75.56
277.494	94.56
277.726	71.56
277.957	78.56
278.189	71.56
278.421	82.56
278.652	77.56
278.884	73.56
279.115	74.56
279.347	89.56
279.579	83.56
279.81	71.56
280.042	78.56
280.273	75.56
280.505	84.56
280.736	78.56
280.968	84.56
281.199	84.56
281.431	90.56
281.662	83.56
281.894	87.56
282.125	95.56
282.356	74.56
282.588	86.56
282.819	73.56
283.051	85.56
283.282	86.56
283.513	75.56
283.745	65.56
283.976	74.56
284.207	88.56
284.439	79.56
284.67	76.56
284.901	77.56
285.132	91.56
285.364	64.56
285.595	91.56
285.826	84.56
286.057	67.56
286.288	69.56
286.52	88.56
286.751	64.56
286.982	73.56
287.213	75.56
287.444	83.56
287.675	89.56
287.906	79.56
288.138	79.56
288.369	80.56
288.6	90.56
288.831	77.56
289.062	83.56
289.293	79.56
289.524	81.56
289.755	72.56
289.986	79.56
290.217	71.56
290.448	77.56
290.679	77.56
290.91	80.56
291.141	80.56
291.371	99.56
291.602	70.56
291.833	67.56
292.064	75.56
292.295	77.56
292.526	86.56
292.757	78.56
292.987	89.56
293.218	85.56
293.449	75.56
293.68	77.56
293.91	89.56
294.141	75.56
294.372	83.56
294.603	89.56
294.833	83.56
295.064	76.56
295.295	78.56
295.525	94.56
295.756	77.56
295.987	86.56
296.217	75.56
296.448	87.56
296.679	91.56
296.909	85.56
297.14	85.56
297.37	87.56
297.601	86.56
297.831	85.56
298.062	86.56
298.292	82.56
298.523	81.56
298.753	90.56
298.984	91.56
299.214	78.56
299.445	77.56
299.675	76.56
299.905	89.56
300.136	71.56
300.366	79.56
300.597	92.56
300.827	80.56
301.057	79.56
301.288	76.56
301.518	95.56
301.748	89.56
301.979	89.56
302.209	92.56
302.439	76.56
302.669	88.56
302.9	79.56
303.13	92.56
303.36	71.56
303.59	75.56
303.82	73.56
304.051	80.56
304.281	86.56
304.511	84.56
304.741	74.56
304.971	82.56
305.201	76.56
305.431	84.56
305.661	94.56
305.891	78.56
306.121	64.56
306.352	68.56
306.582	69.56
306.812	83.56
307.042	78.56
307.272	85.56
307.502	65.56
307.731	79.56
307.961	80.56
308.191	83.56
308.421	71.56
308.651	90.56
308.881	84.56
309.111	83.56
309.341	82.56
309.571	69.56
309.8	81.56
310.03	86.56
310.26	80.56
310.49	80.56
310.72	77.56
310.949	90.56
311.179	68.56
311.409	84.56
311.639	78.56
311.868	81.56
312.098	77.56
312.328	71.56
312.557	91.56
312.787	78.56
313.017	84.56
313.246	78.56
313.476	61.56
313.706	76.56
313.935	87.56
314.165	69.56
314.394	82.56
314.624	73.56
314.853	83.56
315.083	92.56
315.312	72.56
315.542	74.56
315.771	73.56
316.001	91.56
316.23	72.56
316.46	81.56
316.689	76.56
316.919	79.56
317.148	93.56
317.377	97.56
317.607	81.56
317.836	91.56
318.065	71.56
318.295	71.56
318.524	84.56
318.753	82.56
318.983	78.56
319.212	72.56
319.441	84.56
319.67	79.56
319.9	92.56
320.129	77.56
320.358	86.56
320.587	75.56
320.816	83.56
321.046	80.56
321.275	73.56
321.504	81.56
321.733	94.56
321.962	81.56
322.191	96.56
322.42	84.56
322.649	86.56
322.878	77.56
323.108	73.56
323.337	72.56
323.566	74.56
323.795	74.56
324.024	77.56
324.253	86.56
324.482	73.56
324.71	76.56
324.939	95.56
325.168	78.56
325.397	87.56
325.626	91.56
325.855	77.56
326.084	69.56
326.313	81.56
326.542	86.56
326.77	77.56
326.999	89.56
327.228	73.56
327.457	86.56
327.686	89.56
327.914	89.56
328.143	100.56
328.372	80.56
328.6	70.56
328.829	80.56
329.058	78.56
329.287	94.56
329.515	96.56
329.744	87.56
329.972	79.56
330.201	93.56
330.43	86.56
330.658	81.56
330.887	84.56
331.115	71.56
331.344	84.56
331.572	91.56
331.801	93.56
332.03	73.56
332.258	81.56
332.486	79.56
332.715	90.56
332.943	75.56
333.172	69.56
333.4	76.56
333.629	77.56
333.857	82.56
334.085	76.56
334.314	81.56
334.542	69.56
334.771	83.56
334.999	80.56
335.227	79.56
335.455	80.56
335.684	86.56
335.912	87.56
336.14	81.56
336.369	93.56
336.597	82.56
336.825	72.56
337.053	82.56
337.281	76.56
337.51	85.56
337.738	98.56
337.966	84.56
338.194	77.56
338.422	81.56
338.65	87.56
338.878	96.56
339.106	83.56
339.334	90.56
339.562	84.56
339.79	80.56
340.018	80.56
340.246	78.56
340.474	85.56
340.702	87.56
340.93	77.56
341.158	74.56
341.386	77.56
341.614	70.56
341.842	61.56
342.07	79.56
342.298	74.56
342.526	88.56
342.754	87.56
342.981	77.56
343.209	93.56
343.437	85.56
343.665	90.56
343.893	90.56
344.12	85.56
344.348	79.56
344.576	84.56
344.804	85.56
345.031	76.56
345.259	76.56
345.487	93.56
345.714	85.56
345.942	83.56
346.17	85.56
346.397	88.56
346.625	86.56
346.853	80.56
347.08	85.56
347.308	76.56
347.535	84.56
347.763	71.56
347.99	80.56
348.218	81.56
348.445	77.56
348.673	75.56
348.9	64.56
349.128	74.56
349.355	80.56
349.583	82.56
349.81	68.56
350.037	82.56
350.265	86.56
350.492	82.56
350.72	75.56
350.947	81.56
351.174	93.56
351.402	75.56
351.629	81.56
351.856	77.56
352.083	71.56
352.311	69.56
352.538	68.56
352.765	76.56
352.992	83.56
353.22	82.56
353.447	88.56
353.674	80.56
353.901	70.56
354.128	79.56
354.355	83.56
354.583	75.56
354.81	84.56
355.037	87.56
355.264	84.56
355.491	82.56
355.718	75.56
355.945	85.56
356.172	88.56
356.399	93.56
356.626	78.56
356.853	72.56
357.08	76.56
357.307	67.56
357.534	77.56
357.761	83.56
357.988	84.56
358.215	68.56
358.441	93.56
358.668	79.56
358.895	86.56
359.122	83.56
359.349	75.56
359.576	82.56
359.802	77.56
360.029	72.56
360.256	83.56
360.483	90.56
360.709	81.56
360.936	91.56
361.163	88.56
361.39	75.56
361.616	89.56
361.843	87.56
362.07	90.56
362.296	82.56
362.523	86.56
362.749	74.56
362.976	85.56
363.203	79.56
363.429	82.56
363.656	89.56
363.882	71.56
364.109	79.56
364.335	92.56
364.562	73.56
364.788	77.56
365.015	81.56
365.241	81.56
365.468	88.56
365.694	85.56
365.92	84.56
366.147	80.56
366.373	76.56
366.599	81.56
366.826	84.56
367.052	88.56
367.278	91.56
367.505	102.56
367.731	88.56
367.957	91.56
368.184	92.56
368.41	88.56
368.636	91.56
368.862	96.56
369.089	84.56
369.315	81.56
369.541	82.56
369.767	96.56
369.993	94.56
370.219	95.56
370.445	74.56
370.672	73.56
370.898	79.56
371.124	96.56
371.35	86.56
371.576	86.56
371.802	86.56
372.028	94.56
372.254	95.56
372.48	85.56
372.706	92.56
372.932	94.56
373.158	91.56
373.384	93.56
373.61	78.56
373.835	87.56
374.061	71.56
374.287	84.56
374.513	91.56
374.739	91.56
374.965	95.56
375.191	83.56
375.416	85.56
375.642	91.56
375.868	97.56
376.094	99.56
376.319	91.56
376.545	91.56
376.771	92.56
376.997	85.56
377.222	87.56
377.448	83.56
377.674	95.56
377.899	94.56
378.125	89.56
378.35	95.56
378.576	86.56
378.802	85.56
379.027	87.56
379.253	94.56
379.478	95.56
379.704	85.56
379.929	89.56
380.155	101.56
380.38	93.56
380.606	96.56
380.831	94.56
381.057	105.56
381.282	89.56
381.507	100.56
381.733	100.56
381.958	69.56
382.184	85.56
382.409	85.56
382.634	95.56
382.86	98.56
383.085	92.56
383.31	81.56
383.535	100.56
383.761	95.56
383.986	89.56
384.211	97.56
384.436	102.56
384.662	92.56
384.887	97.56
385.112	104.56
385.337	121.56
385.562	109.56
385.787	95.56
386.013	95.56
386.238	111.56
386.463	107.56
386.688	92.56
386.913	98.56
387.138	100.56
387.363	112.56
387.588	108.56
387.813	101.56
388.038	97.56
388.263	102.56
388.488	93.56
388.713	96.56
388.938	92.56
389.163	115.56
389.387	99.56
389.612	99.56
389.837	90.56
390.062	90.56
390.287	108.56
390.512	99.56
390.736	93.56
390.961	98.56
391.186	100.56
391.411	87.56
391.636	105.56
391.86	89.56
392.085	111.56
392.31	97.56
392.534	112.56
392.759	105.56
392.984	98.56
393.208	91.56
393.433	105.56
393.658	95.56
393.882	110.56
394.107	114.56
394.331	118.56
394.556	99.56
394.78	100.56
395.005	80.56
395.229	102.56
395.454	96.56
395.678	100.56
395.903	94.56
396.127	100.56
396.352	107.56
396.576	105.56
396.801	99.56
397.025	112.56
397.249	113.56
397.474	112.56
397.698	119.56
397.922	103.56
398.147	91.56
398.371	103.56
398.595	122.56
398.82	93.56
399.044	115.56
399.268	100.56
399.492	100.56
399.717	104.56
399.941	119.56
400.165	114.56
400.389	111.56
400.613	101.56
400.837	117.56
401.062	107.56
401.286	118.56
401.51	131.56
401.734	122.56
401.958	122.56
402.182	112.56
402.406	101.56
402.63	96.56
402.854	100.56
403.078	117.56
403.302	111.56
403.526	119.56
403.75	112.56
403.974	117.56
404.198	109.56
404.422	110.56
404.645	111.56
404.869	117.56
405.093	113.56
405.317	115.56
405.541	111.56
405.765	122.56
405.988	118.56
406.212	112.56
406.436	98.56
406.66	125.56
406.883	129.56
407.107	117.56
407.331	122.56
407.555	128.56
407.778	119.56
408.002	113.56
408.226	122.56
408.449	124.56
408.673	116.56
408.896	123.56
409.12	117.56
409.344	112.56
409.567	115.56
409.791	119.56
410.014	124.56
410.238	115.56
410.461	127.56
410.685	131.56
410.908	122.56
411.132	124.56
411.355	104.56
411.578	125.56
411.802	133.56
412.025	119.56
412.249	102.56
412.472	119.56
412.695	114.56
412.919	130.56
413.142	121.56
413.365	133.56
413.589	132.56
413.812	128.56
414.035	121.56
414.258	133.56
414.482	117.56
414.705	115.56
414.928	110.56
415.151	127.56
415.374	124.56
415.597	127.56
415.821	135.56
416.044	132.56
416.267	127.56
416.49	129.56
416.713	112.56
416.936	132.56
417.159	127.56
417.382	122.56
417.605	140.56
417.828	125.56
418.051	142.56
418.274	134.56
418.497	123.56
418.72	133.56
418.943	127.56
419.166	129.56
419.389	125.56
419.611	144.56
419.834	140.56
420.057	138.56
420.28	132.56
420.503	133.56
420.726	128.56
420.948	121.56
421.171	129.56
421.394	143.56
421.617	151.56
421.839	142.56
422.062	143.56
422.285	143.56
422.507	140.56
422.73	139.56
422.953	132.56
423.175	123.56
423.398	136.56
423.621	149.56
423.843	129.56
424.066	149.56
424.288	152.56
424.511	146.56
424.733	157.56
424.956	141.56
425.178	153.56
425.401	148.56
425.623	125.56
425.846	128.56
426.068	136.56
426.291	122.56
426.513	134.56
426.735	137.56
426.958	129.56
427.18	137.56
427.402	118.56
427.625	116.56
427.847	133.56
428.069	126.56
428.292	131.56
428.514	123.56
428.736	120.56
428.958	115.56
429.181	127.56
429.403	132.56
429.625	129.56
429.847	129.56
430.069	114.56
430.292	131.56
430.514	128.56
430.736	116.56
430.958	131.56
431.18	126.56
431.402	127.56
431.624	124.56
431.846	107.56
432.068	97.56
432.29	99.56
432.512	107.56
432.734	117.56
432.956	116.56
433.178	125.56
433.4	144.56
433.622	137.56
433.844	148.56
434.066	136.56
434.287	106.56
434.509	111.56
434.731	95.56
434.953	114.56
435.175	100.56
435.397	131.56
435.618	135.56
435.84	125.56
436.062	109.56
436.284	128.56
436.505	136.56
436.727	131.56
436.949	129.56
437.17	130.56
437.392	123.56
437.614	121.56
437.835	102.56
438.057	116.56
438.278	111.56
438.5	125.56
438.721	160.56
438.943	161.56
439.165	132.56
439.386	145.56
439.608	149.56
439.829	142.56
440.05	152.56
440.272	136.56
440.493	147.56
440.715	149.56
440.936	151.56
441.158	147.56
441.379	157.56
441.6	141.56
441.822	148.56
442.043	123.56
442.264	129.56
442.486	148.56
442.707	147.56
442.928	155.56
443.149	144.56
443.371	144.56
443.592	124.56
443.813	143.56
444.034	120.56
444.255	136.56
444.476	149.56
444.698	142.56
444.919	146.56
445.14	272.56
445.361	205.56
445.582	163.56
445.803	149.56
446.024	148.56
446.245	144.56
446.466	153.56
446.687	162.56
446.908	173.56
447.129	159.56
447.35	136.56
447.571	143.56
447.792	136.56
448.013	135.56
448.234	154.56
448.455	155.56
448.675	142.56
448.896	146.56
449.117	149.56
449.338	138.56
449.559	148.56
449.779	142.56
450	143.56
450.221	141.56
450.442	138.56
450.662	150.56
450.883	138.56
451.104	135.56
451.324	141.56
451.545	129.56
451.766	124.56
451.986	131.56
452.207	119.56
452.428	131.56
452.648	116.56
452.869	124.56
453.089	116.56
453.31	109.56
453.53	109.56
453.751	94.56
453.971	104.56
454.192	109.56
454.412	110.56
454.633	117.56
454.853	132.56
455.073	122.56
455.294	120.56
455.514	133.56
455.734	119.56
455.955	117.56
456.175	120.56
456.395	118.56
456.616	119.56
456.836	104.56
457.056	113.56
457.276	98.56
457.497	105.56
457.717	107.56
457.937	116.56
458.157	107.56
458.377	100.56
458.598	116.56
458.818	91.56
459.038	73.56
459.258	82.56
459.478	102.56
459.698	96.56
459.918	92.56
460.138	102.56
460.358	110.56
460.578	131.56
460.798	113.56
461.018	115.56
461.238	116.56
461.458	124.56
461.678	98.56
461.898	110.56
462.118	119.56
462.338	114.56
462.558	108.56
462.777	115.56
462.997	101.56
463.217	105.56
463.437	105.56
463.657	100.56
463.876	122.56
464.096	101.56
464.316	101.56
464.536	117.56
464.755	123.56
464.975	112.56
465.195	105.56
465.414	105.56
465.634	114.56
465.854	113.56
466.073	109.56
466.293	123.56
466.512	138.56
466.732	141.56
466.951	131.56
467.171	130.56
467.391	136.56
467.61	143.56
467.829	146.56
468.049	137.56
468.268	129.56
468.488	138.56
468.707	129.56
468.927	139.56
469.146	134.56
469.365	137.56
469.585	149.56
469.804	137.56
470.023	135.56
470.243	146.56
470.462	143.56
470.681	136.56
470.901	148.56
471.12	135.56
471.339	133.56
471.558	145.56
471.777	152.56
471.997	139.56
472.216	122.56
472.435	125.56
472.654	117.56
472.873	104.56
473.092	126.56
473.311	131.56
473.53	127.56
473.749	136.56
473.968	125.56
474.187	135.56
474.406	127.56
474.625	134.56
474.844	125.56
475.063	135.56
475.282	127.56
475.501	122.56
475.72	111.56
475.939	121.56
476.158	136.56
476.377	127.56
476.596	113.56
476.814	123.56
477.033	108.56
477.252	121.56
477.471	110.56
477.69	123.56
477.908	137.56
478.127	142.56
478.346	145.56
478.564	133.56
478.783	131.56
479.002	143.56
479.22	142.56
479.439	146.56
479.658	122.56
479.876	121.56
480.095	109.56
480.313	132.56
480.532	128.56
480.751	115.56
480.969	92.56
481.188	88.56
481.406	95.56
481.624	91.56
481.843	85.56
482.061	90.56
482.28	102.56
482.498	103.56
482.717	113.56
482.935	129.56
483.153	147.56
483.372	153.56
483.59	146.56
483.808	133.56
484.027	129.56
484.245	136.56
484.463	152.56
484.681	163.56
484.9	145.56
485.118	140.56
485.336	131.56
485.554	117.56
485.772	114.56
485.99	101.56
486.209	95.56
486.427	105.56
486.645	125.56
486.863	153.56
487.081	143.56
487.299	128.56
487.517	129.56
487.735	182.56
487.953	179.56
488.171	187.56
488.389	165.56
488.607	149.56
488.825	138.56
489.043	126.56
489.261	131.56
489.479	152.56
489.696	148.56
489.914	157.56
490.132	152.56
490.35	168.56
490.568	155.56
490.786	184.56
491.003	198.56
491.221	192.56
491.439	198.56
491.657	194.56
491.874	212.56
492.092	226.56
492.31	245.56
492.527	230.56
492.745	216.56
492.963	194.56
493.18	187.56
493.398	205.56
493.615	193.56
493.833	167.56
494.05	184.56
494.268	191.56
494.485	176.56
494.703	195.56
494.92	187.56
495.138	177.56
495.355	191.56
495.573	174.56
495.79	169.56
496.008	176.56
496.225	168.56
496.442	166.56
496.66	188.56
496.877	172.56
497.094	156.56
497.312	169.56
497.529	157.56
497.746	144.56
497.963	136.56
498.181	135.56
498.398	135.56
498.615	133.56
498.832	114.56
499.049	129.56
499.267	113.56
499.484	129.56
499.701	142.56
499.918	127.56
500.135	126.56
500.352	133.56
500.569	133.56
500.786	144.56
501.003	144.56
501.22	168.56
501.437	144.56
501.654	131.56
501.871	143.56
502.088	135.56
502.305	136.56
502.522	138.56
502.739	123.56
502.956	131.56
503.172	129.56
503.389	116.56
503.606	128.56
503.823	124.56
504.04	130.56
504.256	120.56
504.473	126.56
504.69	118.56
504.907	118.56
505.123	119.56
505.34	120.56
505.557	132.56
505.773	124.56
505.99	115.56
506.207	131.56
506.423	113.56
506.64	116.56
506.856	133.56
507.073	119.56
507.289	121.56
507.506	127.56
507.722	115.56
507.939	104.56
508.155	127.56
508.372	113.56
508.588	125.56
508.805	119.56
509.021	103.56
509.238	111.56
509.454	97.56
509.67	104.56
509.887	101.56
510.103	104.56
510.319	73.56
510.536	105.56
510.752	89.56
510.968	86.56
511.184	89.56
511.401	84.56
511.617	79.56
511.833	79.56
