Data from Location6.07152019.Energy5.Lamp.07192019.3%Agarose_HRD10591_16-12-32-397.txt Node
Date: Fri Jul 19 16:12:32 EDT 2019
User: cochatt
Spectrometer: HR+D1059
Trigger mode: 1
Integration Time (sec): 1.000000E-1
Scans to average: 1
Electric dark correction enabled: true
Nonlinearity correction enabled: false
Boxcar width: 0
XAxis mode: Wavelengths
Number of Pixels in Spectrum: 2048
>>>>>Begin Spectral Data<<<<<
223.165	-14.88
223.4	-14.88
223.635	-14.88
223.869	-28.88
224.104	-14.88
224.338	-7.88
224.573	-7.88
224.808	-12.88
225.042	-15.88
225.277	6.12
225.511	4.12
225.746	5.12
225.98	11.12
226.215	20.12
226.449	3.12
226.683	19.12
226.918	4.12
227.152	30.12
227.387	38.12
227.621	27.12
227.856	49.12
228.09	56.12
228.324	38.12
228.559	58.12
228.793	50.12
229.027	56.12
229.262	57.12
229.496	69.12
229.73	83.12
229.964	68.12
230.199	92.12
230.433	67.12
230.667	76.12
230.901	80.12
231.136	82.12
231.37	80.12
231.604	77.12
231.838	78.12
232.072	74.12
232.306	83.12
232.541	73.12
232.775	74.12
233.009	90.12
233.243	82.12
233.477	77.12
233.711	81.12
233.945	72.12
234.179	89.12
234.413	89.12
234.647	68.12
234.881	92.12
235.115	72.12
235.349	77.12
235.583	75.12
235.817	71.12
236.051	78.12
236.285	74.12
236.519	80.12
236.753	74.12
236.987	80.12
237.221	78.12
237.455	70.12
237.689	81.12
237.922	82.12
238.156	80.12
238.39	79.12
238.624	67.12
238.858	80.12
239.091	84.12
239.325	84.12
239.559	77.12
239.793	71.12
240.027	88.12
240.26	80.12
240.494	81.12
240.728	73.12
240.961	70.12
241.195	78.12
241.429	80.12
241.662	71.12
241.896	72.12
242.13	72.12
242.363	71.12
242.597	80.12
242.83	81.12
243.064	72.12
243.298	77.12
243.531	78.12
243.765	80.12
243.998	64.12
244.232	74.12
244.465	81.12
244.699	79.12
244.932	76.12
245.166	60.12
245.399	85.12
245.633	81.12
245.866	76.12
246.099	85.12
246.333	78.12
246.566	68.12
246.8	74.12
247.033	61.12
247.266	87.12
247.5	65.12
247.733	62.12
247.966	70.12
248.2	86.12
248.433	80.12
248.666	82.12
248.899	77.12
249.133	83.12
249.366	78.12
249.599	80.12
249.832	74.12
250.066	88.12
250.299	77.12
250.532	71.12
250.765	89.12
250.998	73.12
251.231	82.12
251.465	75.12
251.698	106.12
251.931	67.12
252.164	77.12
252.397	79.12
252.63	93.12
252.863	82.12
253.096	85.12
253.329	89.12
253.562	68.12
253.795	78.12
254.028	74.12
254.261	82.12
254.494	86.12
254.727	78.12
254.96	69.12
255.193	81.12
255.426	92.12
255.659	83.12
255.892	91.12
256.124	90.12
256.357	89.12
256.59	75.12
256.823	85.12
257.056	79.12
257.289	84.12
257.521	79.12
257.754	82.12
257.987	91.12
258.22	81.12
258.452	76.12
258.685	88.12
258.918	67.12
259.151	74.12
259.383	77.12
259.616	81.12
259.849	82.12
260.081	68.12
260.314	85.12
260.547	75.12
260.779	67.12
261.012	91.12
261.244	86.12
261.477	102.12
261.71	80.12
261.942	75.12
262.175	90.12
262.407	74.12
262.64	78.12
262.872	98.12
263.105	87.12
263.337	75.12
263.57	83.12
263.802	78.12
264.035	89.12
264.267	97.12
264.499	90.12
264.732	80.12
264.964	89.12
265.197	81.12
265.429	82.12
265.661	79.12
265.894	85.12
266.126	84.12
266.358	93.12
266.591	84.12
266.823	77.12
267.055	100.12
267.287	86.12
267.52	76.12
267.752	80.12
267.984	83.12
268.216	81.12
268.448	89.12
268.681	89.12
268.913	89.12
269.145	78.12
269.377	98.12
269.609	80.12
269.841	85.12
270.073	82.12
270.306	82.12
270.538	75.12
270.77	82.12
271.002	79.12
271.234	83.12
271.466	72.12
271.698	92.12
271.93	81.12
272.162	69.12
272.394	93.12
272.626	79.12
272.858	78.12
273.09	77.12
273.322	81.12
273.553	77.12
273.785	89.12
274.017	83.12
274.249	92.12
274.481	90.12
274.713	96.12
274.945	85.12
275.176	75.12
275.408	90.12
275.64	76.12
275.872	84.12
276.104	79.12
276.335	76.12
276.567	96.12
276.799	88.12
277.031	76.12
277.262	79.12
277.494	92.12
277.726	87.12
277.957	89.12
278.189	76.12
278.421	91.12
278.652	72.12
278.884	82.12
279.115	78.12
279.347	105.12
279.579	76.12
279.81	77.12
280.042	94.12
280.273	90.12
280.505	89.12
280.736	89.12
280.968	83.12
281.199	78.12
281.431	86.12
281.662	105.12
281.894	96.12
282.125	86.12
282.356	89.12
282.588	82.12
282.819	77.12
283.051	81.12
283.282	83.12
283.513	86.12
283.745	97.12
283.976	87.12
284.207	70.12
284.439	90.12
284.67	76.12
284.901	100.12
285.132	84.12
285.364	87.12
285.595	95.12
285.826	88.12
286.057	91.12
286.288	93.12
286.52	85.12
286.751	73.12
286.982	82.12
287.213	86.12
287.444	88.12
287.675	86.12
287.906	85.12
288.138	80.12
288.369	95.12
288.6	85.12
288.831	87.12
289.062	80.12
289.293	88.12
289.524	88.12
289.755	75.12
289.986	77.12
290.217	99.12
290.448	77.12
290.679	65.12
290.91	93.12
291.141	88.12
291.371	78.12
291.602	73.12
291.833	75.12
292.064	91.12
292.295	81.12
292.526	88.12
292.757	89.12
292.987	89.12
293.218	74.12
293.449	78.12
293.68	94.12
293.91	82.12
294.141	94.12
294.372	82.12
294.603	88.12
294.833	79.12
295.064	98.12
295.295	85.12
295.525	87.12
295.756	75.12
295.987	87.12
296.217	90.12
296.448	82.12
296.679	93.12
296.909	84.12
297.14	84.12
297.37	95.12
297.601	80.12
297.831	82.12
298.062	88.12
298.292	83.12
298.523	77.12
298.753	82.12
298.984	89.12
299.214	90.12
299.445	83.12
299.675	88.12
299.905	84.12
300.136	82.12
300.366	81.12
300.597	81.12
300.827	88.12
301.057	87.12
301.288	85.12
301.518	89.12
301.748	68.12
301.979	79.12
302.209	76.12
302.439	82.12
302.669	79.12
302.9	92.12
303.13	93.12
303.36	95.12
303.59	86.12
303.82	77.12
304.051	87.12
304.281	85.12
304.511	76.12
304.741	82.12
304.971	72.12
305.201	85.12
305.431	84.12
305.661	72.12
305.891	79.12
306.121	83.12
306.352	84.12
306.582	92.12
306.812	96.12
307.042	98.12
307.272	100.12
307.502	72.12
307.731	80.12
307.961	73.12
308.191	89.12
308.421	80.12
308.651	96.12
308.881	83.12
309.111	83.12
309.341	78.12
309.571	78.12
309.8	78.12
310.03	90.12
310.26	90.12
310.49	87.12
310.72	99.12
310.949	80.12
311.179	87.12
311.409	92.12
311.639	89.12
311.868	88.12
312.098	95.12
312.328	83.12
312.557	92.12
312.787	81.12
313.017	96.12
313.246	77.12
313.476	84.12
313.706	96.12
313.935	96.12
314.165	86.12
314.394	90.12
314.624	107.12
314.853	84.12
315.083	88.12
315.312	100.12
315.542	81.12
315.771	80.12
316.001	85.12
316.23	83.12
316.46	69.12
316.689	80.12
316.919	72.12
317.148	82.12
317.377	101.12
317.607	87.12
317.836	92.12
318.065	93.12
318.295	85.12
318.524	84.12
318.753	89.12
318.983	84.12
319.212	88.12
319.441	76.12
319.67	84.12
319.9	84.12
320.129	88.12
320.358	89.12
320.587	101.12
320.816	88.12
321.046	87.12
321.275	90.12
321.504	82.12
321.733	83.12
321.962	83.12
322.191	81.12
322.42	86.12
322.649	69.12
322.878	80.12
323.108	87.12
323.337	106.12
323.566	93.12
323.795	84.12
324.024	85.12
324.253	92.12
324.482	96.12
324.71	83.12
324.939	80.12
325.168	91.12
325.397	87.12
325.626	78.12
325.855	88.12
326.084	86.12
326.313	82.12
326.542	95.12
326.77	91.12
326.999	86.12
327.228	82.12
327.457	79.12
327.686	100.12
327.914	104.12
328.143	93.12
328.372	80.12
328.6	83.12
328.829	94.12
329.058	86.12
329.287	75.12
329.515	74.12
329.744	90.12
329.972	80.12
330.201	90.12
330.43	101.12
330.658	75.12
330.887	82.12
331.115	103.12
331.344	77.12
331.572	91.12
331.801	80.12
332.03	79.12
332.258	78.12
332.486	76.12
332.715	80.12
332.943	81.12
333.172	82.12
333.4	97.12
333.629	77.12
333.857	77.12
334.085	84.12
334.314	83.12
334.542	75.12
334.771	91.12
334.999	95.12
335.227	81.12
335.455	89.12
335.684	91.12
335.912	81.12
336.14	71.12
336.369	84.12
336.597	83.12
336.825	92.12
337.053	76.12
337.281	94.12
337.51	84.12
337.738	70.12
337.966	91.12
338.194	96.12
338.422	87.12
338.65	73.12
338.878	88.12
339.106	75.12
339.334	88.12
339.562	85.12
339.79	87.12
340.018	63.12
340.246	95.12
340.474	81.12
340.702	97.12
340.93	104.12
341.158	84.12
341.386	81.12
341.614	87.12
341.842	81.12
342.07	80.12
342.298	75.12
342.526	77.12
342.754	79.12
342.981	66.12
343.209	80.12
343.437	77.12
343.665	87.12
343.893	96.12
344.12	93.12
344.348	82.12
344.576	79.12
344.804	95.12
345.031	77.12
345.259	82.12
345.487	92.12
345.714	77.12
345.942	70.12
346.17	91.12
346.397	92.12
346.625	89.12
346.853	73.12
347.08	78.12
347.308	91.12
347.535	92.12
347.763	89.12
347.99	89.12
348.218	73.12
348.445	83.12
348.673	83.12
348.9	85.12
349.128	77.12
349.355	85.12
349.583	87.12
349.81	80.12
350.037	82.12
350.265	101.12
350.492	86.12
350.72	87.12
350.947	86.12
351.174	84.12
351.402	81.12
351.629	78.12
351.856	90.12
352.083	87.12
352.311	82.12
352.538	77.12
352.765	91.12
352.992	80.12
353.22	85.12
353.447	87.12
353.674	71.12
353.901	69.12
354.128	84.12
354.355	76.12
354.583	75.12
354.81	86.12
355.037	87.12
355.264	96.12
355.491	101.12
355.718	97.12
355.945	98.12
356.172	89.12
356.399	87.12
356.626	80.12
356.853	76.12
357.08	85.12
357.307	90.12
357.534	91.12
357.761	89.12
357.988	96.12
358.215	97.12
358.441	82.12
358.668	88.12
358.895	81.12
359.122	84.12
359.349	70.12
359.576	68.12
359.802	71.12
360.029	67.12
360.256	79.12
360.483	87.12
360.709	78.12
360.936	76.12
361.163	97.12
361.39	77.12
361.616	73.12
361.843	93.12
362.07	94.12
362.296	84.12
362.523	79.12
362.749	89.12
362.976	96.12
363.203	95.12
363.429	87.12
363.656	77.12
363.882	90.12
364.109	88.12
364.335	92.12
364.562	72.12
364.788	81.12
365.015	83.12
365.241	91.12
365.468	78.12
365.694	98.12
365.92	84.12
366.147	85.12
366.373	86.12
366.599	79.12
366.826	83.12
367.052	74.12
367.278	79.12
367.505	84.12
367.731	96.12
367.957	85.12
368.184	85.12
368.41	90.12
368.636	89.12
368.862	92.12
369.089	95.12
369.315	89.12
369.541	95.12
369.767	84.12
369.993	84.12
370.219	98.12
370.445	97.12
370.672	89.12
370.898	100.12
371.124	97.12
371.35	104.12
371.576	89.12
371.802	98.12
372.028	72.12
372.254	95.12
372.48	82.12
372.706	90.12
372.932	94.12
373.158	91.12
373.384	98.12
373.61	99.12
373.835	96.12
374.061	101.12
374.287	97.12
374.513	88.12
374.739	89.12
374.965	92.12
375.191	80.12
375.416	88.12
375.642	93.12
375.868	102.12
376.094	103.12
376.319	85.12
376.545	98.12
376.771	93.12
376.997	110.12
377.222	91.12
377.448	84.12
377.674	96.12
377.899	90.12
378.125	105.12
378.35	102.12
378.576	102.12
378.802	90.12
379.027	85.12
379.253	99.12
379.478	95.12
379.704	89.12
379.929	106.12
380.155	109.12
380.38	97.12
380.606	117.12
380.831	91.12
381.057	92.12
381.282	115.12
381.507	89.12
381.733	91.12
381.958	111.12
382.184	92.12
382.409	94.12
382.634	106.12
382.86	98.12
383.085	101.12
383.31	97.12
383.535	95.12
383.761	88.12
383.986	112.12
384.211	96.12
384.436	113.12
384.662	107.12
384.887	101.12
385.112	105.12
385.337	95.12
385.562	97.12
385.787	102.12
386.013	105.12
386.238	87.12
386.463	97.12
386.688	111.12
386.913	106.12
387.138	99.12
387.363	91.12
387.588	108.12
387.813	104.12
388.038	101.12
388.263	104.12
388.488	104.12
388.713	107.12
388.938	101.12
389.163	103.12
389.387	100.12
389.612	104.12
389.837	101.12
390.062	98.12
390.287	107.12
390.512	108.12
390.736	109.12
390.961	120.12
391.186	111.12
391.411	106.12
391.636	105.12
391.86	111.12
392.085	116.12
392.31	89.12
392.534	97.12
392.759	103.12
392.984	101.12
393.208	113.12
393.433	101.12
393.658	103.12
393.882	117.12
394.107	102.12
394.331	103.12
394.556	102.12
394.78	97.12
395.005	112.12
395.229	119.12
395.454	112.12
395.678	101.12
395.903	125.12
396.127	120.12
396.352	101.12
396.576	116.12
396.801	111.12
397.025	114.12
397.249	107.12
397.474	124.12
397.698	121.12
397.922	103.12
398.147	101.12
398.371	124.12
398.595	107.12
398.82	120.12
399.044	97.12
399.268	102.12
399.492	114.12
399.717	111.12
399.941	117.12
400.165	120.12
400.389	103.12
400.613	115.12
400.837	106.12
401.062	107.12
401.286	121.12
401.51	121.12
401.734	118.12
401.958	95.12
402.182	119.12
402.406	127.12
402.63	114.12
402.854	127.12
403.078	113.12
403.302	121.12
403.526	129.12
403.75	129.12
403.974	120.12
404.198	108.12
404.422	125.12
404.645	121.12
404.869	125.12
405.093	112.12
405.317	111.12
405.541	121.12
405.765	122.12
405.988	106.12
406.212	125.12
406.436	115.12
406.66	126.12
406.883	109.12
407.107	123.12
407.331	117.12
407.555	96.12
407.778	131.12
408.002	104.12
408.226	116.12
408.449	121.12
408.673	122.12
408.896	115.12
409.12	125.12
409.344	115.12
409.567	138.12
409.791	139.12
410.014	140.12
410.238	119.12
410.461	121.12
410.685	124.12
410.908	127.12
411.132	124.12
411.355	131.12
411.578	122.12
411.802	106.12
412.025	111.12
412.249	123.12
412.472	125.12
412.695	120.12
412.919	137.12
413.142	126.12
413.365	121.12
413.589	129.12
413.812	126.12
414.035	132.12
414.258	127.12
414.482	125.12
414.705	124.12
414.928	122.12
415.151	131.12
415.374	112.12
415.597	123.12
415.821	125.12
416.044	116.12
416.267	118.12
416.49	119.12
416.713	118.12
416.936	119.12
417.159	142.12
417.382	133.12
417.605	137.12
417.828	106.12
418.051	124.12
418.274	129.12
418.497	133.12
418.72	132.12
418.943	138.12
419.166	146.12
419.389	143.12
419.611	132.12
419.834	149.12
420.057	149.12
420.28	121.12
420.503	136.12
420.726	128.12
420.948	129.12
421.171	155.12
421.394	145.12
421.617	140.12
421.839	143.12
422.062	143.12
422.285	131.12
422.507	125.12
422.73	138.12
422.953	131.12
423.175	136.12
423.398	130.12
423.621	141.12
423.843	146.12
424.066	151.12
424.288	146.12
424.511	147.12
424.733	145.12
424.956	145.12
425.178	128.12
425.401	138.12
425.623	128.12
425.846	131.12
426.068	124.12
426.291	137.12
426.513	125.12
426.735	145.12
426.958	150.12
427.18	132.12
427.402	137.12
427.625	143.12
427.847	147.12
428.069	123.12
428.292	127.12
428.514	130.12
428.736	133.12
428.958	136.12
429.181	133.12
429.403	136.12
429.625	129.12
429.847	125.12
430.069	136.12
430.292	134.12
430.514	128.12
430.736	137.12
430.958	127.12
431.18	133.12
431.402	130.12
431.624	130.12
431.846	124.12
432.068	98.12
432.29	95.12
432.512	105.12
432.734	124.12
432.956	137.12
433.178	154.12
433.4	145.12
433.622	162.12
433.844	142.12
434.066	122.12
434.287	108.12
434.509	120.12
434.731	93.12
434.953	106.12
435.175	123.12
435.397	126.12
435.618	119.12
435.84	105.12
436.062	116.12
436.284	139.12
436.505	141.12
436.727	119.12
436.949	139.12
437.17	135.12
437.392	118.12
437.614	109.12
437.835	118.12
438.057	121.12
438.278	126.12
438.5	125.12
438.721	131.12
438.943	144.12
439.165	131.12
439.386	170.12
439.608	158.12
439.829	134.12
440.05	143.12
440.272	146.12
440.493	179.12
440.715	149.12
440.936	141.12
441.158	151.12
441.379	158.12
441.6	141.12
441.822	157.12
442.043	135.12
442.264	145.12
442.486	141.12
442.707	143.12
442.928	152.12
443.149	150.12
443.371	135.12
443.592	146.12
443.813	135.12
444.034	145.12
444.255	133.12
444.476	152.12
444.698	145.12
444.919	149.12
445.14	270.12
445.361	213.12
445.582	163.12
445.803	146.12
446.024	149.12
446.245	159.12
446.466	169.12
446.687	162.12
446.908	162.12
447.129	164.12
447.35	153.12
447.571	135.12
447.792	151.12
448.013	167.12
448.234	155.12
448.455	152.12
448.675	127.12
448.896	144.12
449.117	149.12
449.338	133.12
449.559	137.12
449.779	159.12
450	140.12
450.221	131.12
450.442	127.12
450.662	132.12
450.883	128.12
451.104	145.12
451.324	136.12
451.545	146.12
451.766	127.12
451.986	128.12
452.207	133.12
452.428	130.12
452.648	141.12
452.869	131.12
453.089	122.12
453.31	117.12
453.53	119.12
453.751	120.12
453.971	102.12
454.192	96.12
454.412	113.12
454.633	113.12
454.853	134.12
455.073	125.12
455.294	122.12
455.514	125.12
455.734	121.12
455.955	126.12
456.175	114.12
456.395	117.12
456.616	109.12
456.836	121.12
457.056	112.12
457.276	114.12
457.497	108.12
457.717	105.12
457.937	128.12
458.157	127.12
458.377	117.12
458.598	105.12
458.818	89.12
459.038	89.12
459.258	97.12
459.478	95.12
459.698	96.12
459.918	95.12
460.138	108.12
460.358	122.12
460.578	123.12
460.798	110.12
461.018	129.12
461.238	126.12
461.458	124.12
461.678	113.12
461.898	131.12
462.118	106.12
462.338	117.12
462.558	123.12
462.777	107.12
462.997	119.12
463.217	118.12
463.437	118.12
463.657	118.12
463.876	99.12
464.096	104.12
464.316	111.12
464.536	117.12
464.755	120.12
464.975	127.12
465.195	120.12
465.414	124.12
465.634	122.12
465.854	119.12
466.073	125.12
466.293	144.12
466.512	141.12
466.732	131.12
466.951	156.12
467.171	137.12
467.391	132.12
467.61	142.12
467.829	148.12
468.049	151.12
468.268	148.12
468.488	135.12
468.707	138.12
468.927	138.12
469.146	142.12
469.365	135.12
469.585	147.12
469.804	149.12
470.023	149.12
470.243	152.12
470.462	147.12
470.681	155.12
470.901	141.12
471.12	153.12
471.339	144.12
471.558	133.12
471.777	136.12
471.997	153.12
472.216	138.12
472.435	111.12
472.654	105.12
472.873	99.12
473.092	124.12
473.311	133.12
473.53	133.12
473.749	134.12
473.968	137.12
474.187	115.12
474.406	138.12
474.625	132.12
474.844	126.12
475.063	129.12
475.282	129.12
475.501	128.12
475.72	137.12
475.939	129.12
476.158	134.12
476.377	151.12
476.596	130.12
476.814	107.12
477.033	117.12
477.252	124.12
477.471	129.12
477.69	139.12
477.908	134.12
478.127	138.12
478.346	135.12
478.564	144.12
478.783	145.12
479.002	150.12
479.22	145.12
479.439	144.12
479.658	120.12
479.876	119.12
480.095	128.12
480.313	109.12
480.532	116.12
480.751	115.12
480.969	118.12
481.188	90.12
481.406	95.12
481.624	93.12
481.843	99.12
482.061	91.12
482.28	112.12
482.498	116.12
482.717	102.12
482.935	113.12
483.153	152.12
483.372	163.12
483.59	159.12
483.808	144.12
484.027	144.12
484.245	138.12
484.463	151.12
484.681	184.12
484.9	164.12
485.118	136.12
485.336	124.12
485.554	100.12
485.772	97.12
485.99	117.12
486.209	120.12
486.427	133.12
486.645	125.12
486.863	139.12
487.081	139.12
487.299	150.12
487.517	147.12
487.735	182.12
487.953	195.12
488.171	191.12
488.389	205.12
488.607	160.12
488.825	140.12
489.043	124.12
489.261	140.12
489.479	123.12
489.696	144.12
489.914	135.12
490.132	157.12
490.35	151.12
490.568	161.12
490.786	165.12
491.003	191.12
491.221	195.12
491.439	187.12
491.657	187.12
491.874	222.12
492.092	236.12
492.31	250.12
492.527	259.12
492.745	207.12
492.963	201.12
493.18	221.12
493.398	192.12
493.615	164.12
493.833	185.12
494.05	179.12
494.268	175.12
494.485	184.12
494.703	176.12
494.92	186.12
495.138	175.12
495.355	165.12
495.573	179.12
495.79	175.12
496.008	184.12
496.225	162.12
496.442	178.12
496.66	168.12
496.877	169.12
497.094	187.12
497.312	169.12
497.529	170.12
497.746	170.12
497.963	155.12
498.181	132.12
498.398	140.12
498.615	133.12
498.832	125.12
499.049	127.12
499.267	129.12
499.484	135.12
499.701	138.12
499.918	128.12
500.135	143.12
500.352	153.12
500.569	153.12
500.786	146.12
501.003	156.12
501.22	142.12
501.437	131.12
501.654	135.12
501.871	129.12
502.088	137.12
502.305	125.12
502.522	133.12
502.739	123.12
502.956	139.12
503.172	133.12
503.389	119.12
503.606	123.12
503.823	123.12
504.04	121.12
504.256	130.12
504.473	132.12
504.69	138.12
504.907	136.12
505.123	121.12
505.34	118.12
505.557	133.12
505.773	113.12
505.99	132.12
506.207	144.12
506.423	127.12
506.64	129.12
506.856	127.12
507.073	124.12
507.289	137.12
507.506	112.12
507.722	130.12
507.939	117.12
508.155	120.12
508.372	115.12
508.588	119.12
508.805	112.12
509.021	112.12
509.238	105.12
509.454	123.12
509.67	102.12
509.887	110.12
510.103	101.12
510.319	101.12
510.536	101.12
510.752	98.12
510.968	76.12
511.184	90.12
