Data from Location6.07152019.Energy5.Lamp.07192019.3%Agarose_HRD10591_16-12-24-394.txt Node
Date: Fri Jul 19 16:12:24 EDT 2019
User: cochatt
Spectrometer: HR+D1059
Trigger mode: 1
Integration Time (sec): 1.000000E-1
Scans to average: 1
Electric dark correction enabled: true
Nonlinearity correction enabled: false
Boxcar width: 0
XAxis mode: Wavelengths
Number of Pixels in Spectrum: 2048
>>>>>Begin Spectral Data<<<<<
223.165	-25.12
223.4	-25.12
223.635	-25.12
223.869	-15.12
224.104	-19.12
224.338	-15.12
224.573	-0.12
224.808	-10.12
225.042	-16.12
225.277	-17.12
225.511	5.88
225.746	-3.12
225.98	6.88
226.215	20.88
226.449	20.88
226.683	15.88
226.918	14.88
227.152	35.88
227.387	20.88
227.621	25.88
227.856	50.88
228.09	38.88
228.324	40.88
228.559	36.88
228.793	61.88
229.027	64.88
229.262	74.88
229.496	67.88
229.73	63.88
229.964	65.88
230.199	57.88
230.433	67.88
230.667	74.88
230.901	76.88
231.136	74.88
231.37	84.88
231.604	77.88
231.838	93.88
232.072	76.88
232.306	69.88
232.541	73.88
232.775	78.88
233.009	73.88
233.243	72.88
233.477	77.88
233.711	81.88
233.945	89.88
234.179	74.88
234.413	70.88
234.647	69.88
234.881	71.88
235.115	61.88
235.349	71.88
235.583	72.88
235.817	73.88
236.051	85.88
236.285	84.88
236.519	92.88
236.753	73.88
236.987	73.88
237.221	74.88
237.455	81.88
237.689	65.88
237.922	85.88
238.156	80.88
238.39	85.88
238.624	68.88
238.858	77.88
239.091	89.88
239.325	71.88
239.559	59.88
239.793	80.88
240.027	88.88
240.26	60.88
240.494	65.88
240.728	79.88
240.961	71.88
241.195	73.88
241.429	72.88
241.662	70.88
241.896	77.88
242.13	97.88
242.363	69.88
242.597	90.88
242.83	80.88
243.064	77.88
243.298	85.88
243.531	72.88
243.765	73.88
243.998	74.88
244.232	79.88
244.465	78.88
244.699	70.88
244.932	69.88
245.166	78.88
245.399	73.88
245.633	100.88
245.866	78.88
246.099	74.88
246.333	78.88
246.566	75.88
246.8	63.88
247.033	63.88
247.266	74.88
247.5	73.88
247.733	89.88
247.966	73.88
248.2	71.88
248.433	74.88
248.666	56.88
248.899	69.88
249.133	73.88
249.366	97.88
249.599	86.88
249.832	55.88
250.066	70.88
250.299	77.88
250.532	79.88
250.765	74.88
250.998	86.88
251.231	71.88
251.465	77.88
251.698	84.88
251.931	79.88
252.164	81.88
252.397	82.88
252.63	81.88
252.863	88.88
253.096	75.88
253.329	84.88
253.562	75.88
253.795	92.88
254.028	84.88
254.261	77.88
254.494	74.88
254.727	73.88
254.96	69.88
255.193	69.88
255.426	54.88
255.659	78.88
255.892	83.88
256.124	75.88
256.357	78.88
256.59	88.88
256.823	80.88
257.056	84.88
257.289	76.88
257.521	77.88
257.754	87.88
257.987	85.88
258.22	77.88
258.452	68.88
258.685	88.88
258.918	88.88
259.151	80.88
259.383	80.88
259.616	77.88
259.849	81.88
260.081	96.88
260.314	70.88
260.547	62.88
260.779	81.88
261.012	69.88
261.244	69.88
261.477	88.88
261.71	72.88
261.942	88.88
262.175	79.88
262.407	64.88
262.64	87.88
262.872	89.88
263.105	64.88
263.337	76.88
263.57	84.88
263.802	83.88
264.035	76.88
264.267	78.88
264.499	62.88
264.732	74.88
264.964	80.88
265.197	81.88
265.429	85.88
265.661	90.88
265.894	85.88
266.126	85.88
266.358	81.88
266.591	85.88
266.823	74.88
267.055	78.88
267.287	85.88
267.52	88.88
267.752	79.88
267.984	75.88
268.216	94.88
268.448	83.88
268.681	78.88
268.913	94.88
269.145	81.88
269.377	80.88
269.609	75.88
269.841	72.88
270.073	72.88
270.306	81.88
270.538	71.88
270.77	71.88
271.002	67.88
271.234	71.88
271.466	69.88
271.698	83.88
271.93	74.88
272.162	85.88
272.394	76.88
272.626	86.88
272.858	89.88
273.09	75.88
273.322	85.88
273.553	82.88
273.785	72.88
274.017	80.88
274.249	69.88
274.481	91.88
274.713	95.88
274.945	84.88
275.176	75.88
275.408	76.88
275.64	78.88
275.872	65.88
276.104	86.88
276.335	85.88
276.567	89.88
276.799	83.88
277.031	88.88
277.262	79.88
277.494	79.88
277.726	83.88
277.957	64.88
278.189	74.88
278.421	75.88
278.652	84.88
278.884	82.88
279.115	83.88
279.347	87.88
279.579	96.88
279.81	89.88
280.042	84.88
280.273	97.88
280.505	72.88
280.736	80.88
280.968	93.88
281.199	81.88
281.431	98.88
281.662	74.88
281.894	74.88
282.125	73.88
282.356	98.88
282.588	79.88
282.819	77.88
283.051	87.88
283.282	86.88
283.513	78.88
283.745	85.88
283.976	86.88
284.207	99.88
284.439	87.88
284.67	83.88
284.901	74.88
285.132	87.88
285.364	83.88
285.595	82.88
285.826	99.88
286.057	74.88
286.288	75.88
286.52	84.88
286.751	82.88
286.982	79.88
287.213	77.88
287.444	74.88
287.675	100.88
287.906	90.88
288.138	92.88
288.369	83.88
288.6	86.88
288.831	86.88
289.062	83.88
289.293	81.88
289.524	73.88
289.755	93.88
289.986	87.88
290.217	86.88
290.448	78.88
290.679	74.88
290.91	82.88
291.141	81.88
291.371	71.88
291.602	77.88
291.833	76.88
292.064	85.88
292.295	71.88
292.526	79.88
292.757	82.88
292.987	75.88
293.218	84.88
293.449	78.88
293.68	67.88
293.91	91.88
294.141	86.88
294.372	81.88
294.603	84.88
294.833	81.88
295.064	79.88
295.295	74.88
295.525	86.88
295.756	72.88
295.987	80.88
296.217	83.88
296.448	78.88
296.679	75.88
296.909	79.88
297.14	71.88
297.37	71.88
297.601	85.88
297.831	88.88
298.062	84.88
298.292	96.88
298.523	84.88
298.753	87.88
298.984	81.88
299.214	90.88
299.445	78.88
299.675	90.88
299.905	85.88
300.136	77.88
300.366	66.88
300.597	78.88
300.827	86.88
301.057	78.88
301.288	83.88
301.518	80.88
301.748	80.88
301.979	71.88
302.209	80.88
302.439	73.88
302.669	89.88
302.9	87.88
303.13	65.88
303.36	69.88
303.59	96.88
303.82	77.88
304.051	82.88
304.281	71.88
304.511	86.88
304.741	85.88
304.971	80.88
305.201	84.88
305.431	77.88
305.661	73.88
305.891	60.88
306.121	78.88
306.352	90.88
306.582	79.88
306.812	78.88
307.042	89.88
307.272	89.88
307.502	80.88
307.731	69.88
307.961	96.88
308.191	89.88
308.421	87.88
308.651	85.88
308.881	93.88
309.111	90.88
309.341	77.88
309.571	75.88
309.8	80.88
310.03	82.88
310.26	90.88
310.49	93.88
310.72	85.88
310.949	89.88
311.179	83.88
311.409	82.88
311.639	87.88
311.868	78.88
312.098	90.88
312.328	66.88
312.557	74.88
312.787	88.88
313.017	83.88
313.246	84.88
313.476	86.88
313.706	74.88
313.935	85.88
314.165	80.88
314.394	80.88
314.624	75.88
314.853	79.88
315.083	84.88
315.312	76.88
315.542	76.88
315.771	83.88
316.001	99.88
316.23	81.88
316.46	78.88
316.689	79.88
316.919	75.88
317.148	98.88
317.377	83.88
317.607	93.88
317.836	79.88
318.065	84.88
318.295	91.88
318.524	74.88
318.753	84.88
318.983	71.88
319.212	76.88
319.441	84.88
319.67	84.88
319.9	84.88
320.129	91.88
320.358	83.88
320.587	68.88
320.816	84.88
321.046	84.88
321.275	74.88
321.504	89.88
321.733	88.88
321.962	86.88
322.191	93.88
322.42	75.88
322.649	84.88
322.878	78.88
323.108	81.88
323.337	78.88
323.566	92.88
323.795	83.88
324.024	93.88
324.253	70.88
324.482	85.88
324.71	87.88
324.939	72.88
325.168	75.88
325.397	74.88
325.626	78.88
325.855	71.88
326.084	94.88
326.313	81.88
326.542	88.88
326.77	90.88
326.999	90.88
327.228	89.88
327.457	86.88
327.686	81.88
327.914	82.88
328.143	70.88
328.372	77.88
328.6	84.88
328.829	84.88
329.058	88.88
329.287	86.88
329.515	93.88
329.744	74.88
329.972	82.88
330.201	90.88
330.43	90.88
330.658	79.88
330.887	81.88
331.115	71.88
331.344	84.88
331.572	85.88
331.801	69.88
332.03	75.88
332.258	94.88
332.486	85.88
332.715	84.88
332.943	80.88
333.172	84.88
333.4	84.88
333.629	85.88
333.857	74.88
334.085	85.88
334.314	86.88
334.542	85.88
334.771	74.88
334.999	75.88
335.227	68.88
335.455	84.88
335.684	65.88
335.912	88.88
336.14	78.88
336.369	95.88
336.597	101.88
336.825	92.88
337.053	103.88
337.281	89.88
337.51	75.88
337.738	84.88
337.966	84.88
338.194	85.88
338.422	84.88
338.65	66.88
338.878	84.88
339.106	86.88
339.334	74.88
339.562	72.88
339.79	75.88
340.018	86.88
340.246	87.88
340.474	72.88
340.702	86.88
340.93	74.88
341.158	93.88
341.386	75.88
341.614	72.88
341.842	81.88
342.07	73.88
342.298	92.88
342.526	82.88
342.754	87.88
342.981	69.88
343.209	86.88
343.437	88.88
343.665	76.88
343.893	60.88
344.12	93.88
344.348	80.88
344.576	85.88
344.804	76.88
345.031	76.88
345.259	64.88
345.487	86.88
345.714	92.88
345.942	93.88
346.17	87.88
346.397	75.88
346.625	74.88
346.853	74.88
347.08	70.88
347.308	86.88
347.535	77.88
347.763	75.88
347.99	92.88
348.218	74.88
348.445	82.88
348.673	83.88
348.9	77.88
349.128	96.88
349.355	80.88
349.583	101.88
349.81	76.88
350.037	89.88
350.265	84.88
350.492	80.88
350.72	81.88
350.947	78.88
351.174	77.88
351.402	69.88
351.629	78.88
351.856	96.88
352.083	73.88
352.311	87.88
352.538	79.88
352.765	73.88
352.992	88.88
353.22	90.88
353.447	90.88
353.674	73.88
353.901	79.88
354.128	84.88
354.355	73.88
354.583	73.88
354.81	72.88
355.037	66.88
355.264	84.88
355.491	54.88
355.718	88.88
355.945	86.88
356.172	70.88
356.399	84.88
356.626	80.88
356.853	76.88
357.08	95.88
357.307	71.88
357.534	79.88
357.761	74.88
357.988	74.88
358.215	88.88
358.441	91.88
358.668	78.88
358.895	92.88
359.122	90.88
359.349	78.88
359.576	76.88
359.802	75.88
360.029	72.88
360.256	91.88
360.483	78.88
360.709	85.88
360.936	79.88
361.163	92.88
361.39	95.88
361.616	78.88
361.843	81.88
362.07	85.88
362.296	83.88
362.523	77.88
362.749	68.88
362.976	84.88
363.203	82.88
363.429	73.88
363.656	82.88
363.882	93.88
364.109	92.88
364.335	92.88
364.562	101.88
364.788	83.88
365.015	83.88
365.241	99.88
365.468	87.88
365.694	88.88
365.92	62.88
366.147	66.88
366.373	79.88
366.599	84.88
366.826	92.88
367.052	93.88
367.278	80.88
367.505	96.88
367.731	81.88
367.957	96.88
368.184	91.88
368.41	96.88
368.636	90.88
368.862	86.88
369.089	92.88
369.315	84.88
369.541	83.88
369.767	81.88
369.993	73.88
370.219	94.88
370.445	94.88
370.672	88.88
370.898	97.88
371.124	89.88
371.35	79.88
371.576	93.88
371.802	83.88
372.028	93.88
372.254	109.88
372.48	90.88
372.706	82.88
372.932	99.88
373.158	80.88
373.384	82.88
373.61	91.88
373.835	90.88
374.061	87.88
374.287	90.88
374.513	99.88
374.739	69.88
374.965	79.88
375.191	83.88
375.416	95.88
375.642	89.88
375.868	90.88
376.094	95.88
376.319	89.88
376.545	97.88
376.771	99.88
376.997	80.88
377.222	88.88
377.448	80.88
377.674	90.88
377.899	89.88
378.125	105.88
378.35	101.88
378.576	79.88
378.802	80.88
379.027	88.88
379.253	87.88
379.478	86.88
379.704	96.88
379.929	98.88
380.155	94.88
380.38	90.88
380.606	91.88
380.831	96.88
381.057	101.88
381.282	108.88
381.507	102.88
381.733	85.88
381.958	94.88
382.184	89.88
382.409	101.88
382.634	96.88
382.86	96.88
383.085	104.88
383.31	90.88
383.535	102.88
383.761	104.88
383.986	120.88
384.211	76.88
384.436	85.88
384.662	86.88
384.887	97.88
385.112	109.88
385.337	90.88
385.562	95.88
385.787	95.88
386.013	101.88
386.238	87.88
386.463	90.88
386.688	90.88
386.913	95.88
387.138	99.88
387.363	102.88
387.588	103.88
387.813	100.88
388.038	104.88
388.263	115.88
388.488	111.88
388.713	96.88
388.938	98.88
389.163	108.88
389.387	88.88
389.612	110.88
389.837	91.88
390.062	96.88
390.287	103.88
390.512	98.88
390.736	103.88
390.961	100.88
391.186	91.88
391.411	98.88
391.636	104.88
391.86	98.88
392.085	102.88
392.31	104.88
392.534	117.88
392.759	101.88
392.984	108.88
393.208	94.88
393.433	112.88
393.658	98.88
393.882	104.88
394.107	116.88
394.331	92.88
394.556	97.88
394.78	112.88
395.005	108.88
395.229	103.88
395.454	105.88
395.678	113.88
395.903	108.88
396.127	115.88
396.352	109.88
396.576	116.88
396.801	117.88
397.025	114.88
397.249	108.88
397.474	101.88
397.698	102.88
397.922	121.88
398.147	112.88
398.371	97.88
398.595	97.88
398.82	102.88
399.044	116.88
399.268	100.88
399.492	100.88
399.717	91.88
399.941	112.88
400.165	101.88
400.389	113.88
400.613	104.88
400.837	120.88
401.062	103.88
401.286	108.88
401.51	103.88
401.734	107.88
401.958	110.88
402.182	104.88
402.406	108.88
402.63	112.88
402.854	116.88
403.078	118.88
403.302	109.88
403.526	111.88
403.75	109.88
403.974	113.88
404.198	118.88
404.422	113.88
404.645	123.88
404.869	126.88
405.093	118.88
405.317	120.88
405.541	122.88
405.765	114.88
405.988	118.88
406.212	127.88
406.436	118.88
406.66	130.88
406.883	126.88
407.107	124.88
407.331	108.88
407.555	113.88
407.778	129.88
408.002	106.88
408.226	118.88
408.449	122.88
408.673	125.88
408.896	124.88
409.12	109.88
409.344	116.88
409.567	118.88
409.791	113.88
410.014	112.88
410.238	114.88
410.461	121.88
410.685	119.88
410.908	120.88
411.132	136.88
411.355	119.88
411.578	126.88
411.802	110.88
412.025	112.88
412.249	123.88
412.472	124.88
412.695	123.88
412.919	121.88
413.142	119.88
413.365	125.88
413.589	134.88
413.812	127.88
414.035	134.88
414.258	123.88
414.482	126.88
414.705	126.88
414.928	126.88
415.151	130.88
415.374	120.88
415.597	130.88
415.821	113.88
416.044	136.88
416.267	133.88
416.49	120.88
416.713	118.88
416.936	123.88
417.159	113.88
417.382	132.88
417.605	128.88
417.828	129.88
418.051	124.88
418.274	110.88
418.497	144.88
418.72	129.88
418.943	132.88
419.166	126.88
419.389	135.88
419.611	136.88
419.834	137.88
420.057	143.88
420.28	134.88
420.503	126.88
420.726	134.88
420.948	121.88
421.171	133.88
421.394	133.88
421.617	143.88
421.839	144.88
422.062	142.88
422.285	132.88
422.507	128.88
422.73	132.88
422.953	121.88
423.175	116.88
423.398	134.88
423.621	136.88
423.843	114.88
424.066	115.88
424.288	138.88
424.511	158.88
424.733	153.88
424.956	134.88
425.178	144.88
425.401	135.88
425.623	149.88
425.846	150.88
426.068	145.88
426.291	127.88
426.513	117.88
426.735	136.88
426.958	128.88
427.18	131.88
427.402	138.88
427.625	125.88
427.847	118.88
428.069	126.88
428.292	118.88
428.514	145.88
428.736	136.88
428.958	143.88
429.181	135.88
429.403	128.88
429.625	137.88
429.847	113.88
430.069	119.88
430.292	122.88
430.514	135.88
430.736	114.88
430.958	116.88
431.18	122.88
431.402	122.88
431.624	122.88
431.846	93.88
432.068	92.88
432.29	104.88
432.512	103.88
432.734	133.88
432.956	118.88
433.178	137.88
433.4	132.88
433.622	158.88
433.844	126.88
434.066	116.88
434.287	107.88
434.509	99.88
434.731	102.88
434.953	120.88
435.175	126.88
435.397	136.88
435.618	119.88
435.84	117.88
436.062	122.88
436.284	120.88
436.505	138.88
436.727	145.88
436.949	133.88
437.17	119.88
437.392	119.88
437.614	124.88
437.835	120.88
438.057	113.88
438.278	129.88
438.5	125.88
438.721	128.88
438.943	148.88
439.165	145.88
439.386	128.88
439.608	145.88
439.829	143.88
440.05	147.88
440.272	152.88
440.493	141.88
440.715	138.88
440.936	142.88
441.158	162.88
441.379	135.88
441.6	147.88
441.822	143.88
442.043	152.88
442.264	150.88
442.486	144.88
442.707	145.88
442.928	153.88
443.149	122.88
443.371	139.88
443.592	150.88
443.813	135.88
444.034	136.88
444.255	136.88
444.476	149.88
444.698	128.88
444.919	149.88
445.14	265.88
445.361	200.88
445.582	156.88
445.803	147.88
446.024	139.88
446.245	146.88
446.466	149.88
446.687	168.88
446.908	156.88
447.129	167.88
447.35	167.88
447.571	148.88
447.792	138.88
448.013	137.88
448.234	144.88
448.455	146.88
448.675	155.88
448.896	139.88
449.117	155.88
449.338	141.88
449.559	129.88
449.779	147.88
450	130.88
450.221	135.88
450.442	130.88
450.662	133.88
450.883	133.88
451.104	130.88
451.324	132.88
451.545	135.88
451.766	125.88
451.986	132.88
452.207	119.88
452.428	114.88
452.648	113.88
452.869	128.88
453.089	137.88
453.31	121.88
453.53	124.88
453.751	119.88
453.971	109.88
454.192	108.88
454.412	101.88
454.633	112.88
454.853	117.88
455.073	108.88
455.294	125.88
455.514	118.88
455.734	105.88
455.955	112.88
456.175	116.88
456.395	100.88
456.616	112.88
456.836	114.88
457.056	111.88
457.276	108.88
457.497	92.88
457.717	106.88
457.937	117.88
458.157	100.88
458.377	108.88
458.598	108.88
458.818	95.88
459.038	82.88
459.258	84.88
459.478	90.88
459.698	93.88
459.918	103.88
460.138	106.88
460.358	109.88
460.578	116.88
460.798	119.88
461.018	105.88
461.238	98.88
461.458	106.88
461.678	114.88
461.898	117.88
462.118	124.88
462.338	104.88
462.558	116.88
462.777	109.88
462.997	96.88
463.217	111.88
463.437	85.88
463.657	112.88
463.876	111.88
464.096	105.88
464.316	112.88
464.536	118.88
464.755	119.88
464.975	115.88
465.195	108.88
465.414	111.88
465.634	118.88
465.854	117.88
466.073	121.88
466.293	144.88
466.512	150.88
466.732	140.88
466.951	136.88
467.171	132.88
467.391	145.88
467.61	146.88
467.829	133.88
468.049	133.88
468.268	130.88
468.488	139.88
468.707	155.88
468.927	140.88
469.146	140.88
469.365	141.88
469.585	138.88
469.804	144.88
470.023	129.88
470.243	151.88
470.462	149.88
470.681	141.88
470.901	147.88
471.12	137.88
471.339	138.88
471.558	143.88
471.777	152.88
471.997	142.88
472.216	124.88
472.435	120.88
472.654	103.88
472.873	104.88
473.092	122.88
473.311	133.88
473.53	126.88
473.749	141.88
473.968	142.88
474.187	121.88
474.406	126.88
474.625	127.88
474.844	121.88
475.063	115.88
475.282	141.88
475.501	128.88
475.72	136.88
475.939	140.88
476.158	129.88
476.377	130.88
476.596	126.88
476.814	117.88
477.033	112.88
477.252	98.88
477.471	142.88
477.69	144.88
477.908	131.88
478.127	148.88
478.346	153.88
478.564	125.88
478.783	133.88
479.002	132.88
479.22	156.88
479.439	152.88
479.658	116.88
479.876	108.88
480.095	124.88
480.313	118.88
480.532	123.88
480.751	103.88
480.969	94.88
481.188	87.88
481.406	79.88
481.624	96.88
481.843	93.88
482.061	88.88
482.28	112.88
482.498	116.88
482.717	114.88
482.935	110.88
483.153	149.88
483.372	163.88
483.59	149.88
483.808	131.88
484.027	136.88
484.245	144.88
484.463	133.88
484.681	160.88
484.9	164.88
485.118	152.88
485.336	139.88
485.554	124.88
485.772	104.88
485.99	98.88
486.209	116.88
486.427	120.88
486.645	116.88
486.863	139.88
487.081	155.88
487.299	133.88
487.517	136.88
487.735	160.88
487.953	204.88
488.171	191.88
488.389	201.88
488.607	167.88
488.825	138.88
489.043	124.88
489.261	124.88
489.479	157.88
489.696	149.88
489.914	128.88
490.132	144.88
490.35	146.88
490.568	157.88
490.786	174.88
491.003	192.88
491.221	193.88
491.439	178.88
491.657	193.88
491.874	216.88
492.092	226.88
492.31	263.88
492.527	243.88
492.745	203.88
492.963	189.88
493.18	202.88
493.398	186.88
493.615	190.88
493.833	180.88
494.05	190.88
494.268	174.88
494.485	176.88
494.703	178.88
494.92	187.88
495.138	176.88
495.355	193.88
495.573	171.88
495.79	169.88
496.008	166.88
496.225	166.88
496.442	158.88
496.66	174.88
496.877	165.88
497.094	167.88
497.312	172.88
497.529	156.88
497.746	167.88
497.963	147.88
498.181	127.88
498.398	121.88
498.615	131.88
498.832	120.88
499.049	115.88
499.267	133.88
499.484	137.88
499.701	133.88
499.918	153.88
500.135	142.88
500.352	143.88
500.569	132.88
500.786	145.88
501.003	142.88
501.22	148.88
501.437	142.88
501.654	145.88
501.871	124.88
502.088	133.88
502.305	120.88
502.522	151.88
502.739	139.88
502.956	130.88
503.172	136.88
503.389	126.88
503.606	136.88
503.823	109.88
504.04	126.88
504.256	121.88
504.473	127.88
504.69	127.88
504.907	125.88
505.123	108.88
505.34	115.88
505.557	124.88
505.773	124.88
505.99	129.88
506.207	134.88
506.423	117.88
506.64	131.88
506.856	109.88
507.073	111.88
507.289	129.88
507.506	122.88
507.722	120.88
507.939	119.88
508.155	119.88
508.372	116.88
508.588	111.88
508.805	95.88
509.021	102.88
509.238	90.88
509.454	110.88
509.67	92.88
509.887	91.88
510.103	114.88
510.319	96.88
510.536	93.88
510.752	89.88
510.968	85.88
511.184	88.88
511.401	85.88
511.617	79.88
511.833	91.88
