Data from Location6.07152019.Energy5.Lamp.07192019.3%Agarose_HRD10591_16-13-50-395.txt Node
Date: Fri Jul 19 16:13:50 EDT 2019
User: cochatt
Spectrometer: HR+D1059
Trigger mode: 1
Integration Time (sec): 1.000000E-1
Scans to average: 1
Electric dark correction enabled: true
Nonlinearity correction enabled: false
Boxcar width: 0
XAxis mode: Wavelengths
Number of Pixels in Spectrum: 2048
>>>>>Begin Spectral Data<<<<<
223.165	-19.06
223.4	-19.06
223.635	-19.06
223.869	-29.06
224.104	-13.06
224.338	-9.06
224.573	-16.06
224.808	-11.06
225.042	3.94
225.277	-20.06
225.511	5.94
225.746	8.94
225.98	-1.06
226.215	21.94
226.449	13.94
226.683	12.94
226.918	15.94
227.152	34.94
227.387	32.94
227.621	32.94
227.856	32.94
228.09	28.94
228.324	37.94
228.559	52.94
228.793	47.94
229.027	64.94
229.262	57.94
229.496	63.94
229.73	65.94
229.964	66.94
230.199	71.94
230.433	71.94
230.667	72.94
230.901	83.94
231.136	76.94
231.37	85.94
231.604	84.94
231.838	70.94
232.072	75.94
232.306	80.94
232.541	83.94
232.775	84.94
233.009	99.94
233.243	80.94
233.477	90.94
233.711	81.94
233.945	62.94
234.179	70.94
234.413	82.94
234.647	88.94
234.881	79.94
235.115	86.94
235.349	77.94
235.583	79.94
235.817	65.94
236.051	71.94
236.285	76.94
236.519	66.94
236.753	65.94
236.987	67.94
237.221	74.94
237.455	64.94
237.689	82.94
237.922	77.94
238.156	62.94
238.39	70.94
238.624	67.94
238.858	70.94
239.091	78.94
239.325	61.94
239.559	75.94
239.793	84.94
240.027	77.94
240.26	83.94
240.494	82.94
240.728	86.94
240.961	62.94
241.195	73.94
241.429	83.94
241.662	75.94
241.896	74.94
242.13	70.94
242.363	68.94
242.597	84.94
242.83	81.94
243.064	79.94
243.298	74.94
243.531	67.94
243.765	77.94
243.998	82.94
244.232	84.94
244.465	84.94
244.699	76.94
244.932	71.94
245.166	81.94
245.399	73.94
245.633	79.94
245.866	73.94
246.099	81.94
246.333	78.94
246.566	74.94
246.8	71.94
247.033	76.94
247.266	77.94
247.5	83.94
247.733	64.94
247.966	75.94
248.2	86.94
248.433	79.94
248.666	79.94
248.899	68.94
249.133	65.94
249.366	80.94
249.599	80.94
249.832	74.94
250.066	73.94
250.299	72.94
250.532	65.94
250.765	73.94
250.998	86.94
251.231	85.94
251.465	77.94
251.698	76.94
251.931	76.94
252.164	76.94
252.397	81.94
252.63	83.94
252.863	59.94
253.096	71.94
253.329	73.94
253.562	71.94
253.795	71.94
254.028	87.94
254.261	90.94
254.494	79.94
254.727	86.94
254.96	74.94
255.193	75.94
255.426	65.94
255.659	70.94
255.892	91.94
256.124	71.94
256.357	77.94
256.59	82.94
256.823	81.94
257.056	89.94
257.289	76.94
257.521	80.94
257.754	85.94
257.987	75.94
258.22	81.94
258.452	80.94
258.685	83.94
258.918	96.94
259.151	95.94
259.383	90.94
259.616	68.94
259.849	86.94
260.081	78.94
260.314	86.94
260.547	79.94
260.779	72.94
261.012	82.94
261.244	73.94
261.477	83.94
261.71	92.94
261.942	63.94
262.175	76.94
262.407	84.94
262.64	70.94
262.872	82.94
263.105	66.94
263.337	75.94
263.57	71.94
263.802	96.94
264.035	67.94
264.267	54.94
264.499	81.94
264.732	64.94
264.964	84.94
265.197	71.94
265.429	103.94
265.661	96.94
265.894	88.94
266.126	80.94
266.358	70.94
266.591	80.94
266.823	89.94
267.055	91.94
267.287	90.94
267.52	62.94
267.752	78.94
267.984	81.94
268.216	95.94
268.448	88.94
268.681	80.94
268.913	87.94
269.145	92.94
269.377	83.94
269.609	88.94
269.841	89.94
270.073	78.94
270.306	79.94
270.538	85.94
270.77	68.94
271.002	70.94
271.234	89.94
271.466	72.94
271.698	82.94
271.93	72.94
272.162	91.94
272.394	83.94
272.626	74.94
272.858	88.94
273.09	98.94
273.322	83.94
273.553	81.94
273.785	89.94
274.017	73.94
274.249	79.94
274.481	88.94
274.713	83.94
274.945	87.94
275.176	73.94
275.408	82.94
275.64	93.94
275.872	65.94
276.104	80.94
276.335	77.94
276.567	83.94
276.799	86.94
277.031	72.94
277.262	90.94
277.494	84.94
277.726	74.94
277.957	91.94
278.189	76.94
278.421	76.94
278.652	78.94
278.884	75.94
279.115	75.94
279.347	94.94
279.579	96.94
279.81	92.94
280.042	89.94
280.273	83.94
280.505	84.94
280.736	80.94
280.968	82.94
281.199	84.94
281.431	78.94
281.662	94.94
281.894	86.94
282.125	80.94
282.356	66.94
282.588	81.94
282.819	76.94
283.051	83.94
283.282	94.94
283.513	92.94
283.745	80.94
283.976	89.94
284.207	75.94
284.439	84.94
284.67	74.94
284.901	74.94
285.132	90.94
285.364	89.94
285.595	81.94
285.826	73.94
286.057	71.94
286.288	83.94
286.52	76.94
286.751	90.94
286.982	89.94
287.213	70.94
287.444	85.94
287.675	90.94
287.906	77.94
288.138	84.94
288.369	85.94
288.6	87.94
288.831	64.94
289.062	83.94
289.293	81.94
289.524	78.94
289.755	76.94
289.986	90.94
290.217	83.94
290.448	83.94
290.679	90.94
290.91	94.94
291.141	74.94
291.371	89.94
291.602	86.94
291.833	84.94
292.064	76.94
292.295	80.94
292.526	74.94
292.757	82.94
292.987	78.94
293.218	83.94
293.449	88.94
293.68	85.94
293.91	86.94
294.141	66.94
294.372	82.94
294.603	87.94
294.833	76.94
295.064	79.94
295.295	85.94
295.525	86.94
295.756	72.94
295.987	80.94
296.217	87.94
296.448	78.94
296.679	88.94
296.909	84.94
297.14	88.94
297.37	101.94
297.601	85.94
297.831	81.94
298.062	79.94
298.292	85.94
298.523	76.94
298.753	82.94
298.984	81.94
299.214	74.94
299.445	86.94
299.675	93.94
299.905	89.94
300.136	75.94
300.366	86.94
300.597	86.94
300.827	73.94
301.057	84.94
301.288	87.94
301.518	82.94
301.748	67.94
301.979	75.94
302.209	95.94
302.439	79.94
302.669	73.94
302.9	87.94
303.13	74.94
303.36	88.94
303.59	104.94
303.82	72.94
304.051	83.94
304.281	83.94
304.511	82.94
304.741	84.94
304.971	81.94
305.201	75.94
305.431	74.94
305.661	96.94
305.891	84.94
306.121	86.94
306.352	89.94
306.582	87.94
306.812	84.94
307.042	82.94
307.272	70.94
307.502	89.94
307.731	81.94
307.961	76.94
308.191	87.94
308.421	87.94
308.651	88.94
308.881	76.94
309.111	74.94
309.341	80.94
309.571	78.94
309.8	90.94
310.03	85.94
310.26	89.94
310.49	96.94
310.72	86.94
310.949	90.94
311.179	88.94
311.409	88.94
311.639	79.94
311.868	82.94
312.098	75.94
312.328	86.94
312.557	88.94
312.787	92.94
313.017	87.94
313.246	88.94
313.476	89.94
313.706	85.94
313.935	97.94
314.165	92.94
314.394	80.94
314.624	87.94
314.853	86.94
315.083	85.94
315.312	84.94
315.542	72.94
315.771	77.94
316.001	86.94
316.23	94.94
316.46	78.94
316.689	80.94
316.919	80.94
317.148	91.94
317.377	79.94
317.607	71.94
317.836	91.94
318.065	75.94
318.295	84.94
318.524	96.94
318.753	84.94
318.983	82.94
319.212	85.94
319.441	85.94
319.67	91.94
319.9	92.94
320.129	91.94
320.358	89.94
320.587	92.94
320.816	85.94
321.046	81.94
321.275	89.94
321.504	81.94
321.733	80.94
321.962	87.94
322.191	76.94
322.42	84.94
322.649	92.94
322.878	87.94
323.108	90.94
323.337	85.94
323.566	82.94
323.795	75.94
324.024	73.94
324.253	85.94
324.482	82.94
324.71	85.94
324.939	94.94
325.168	83.94
325.397	88.94
325.626	82.94
325.855	79.94
326.084	79.94
326.313	86.94
326.542	89.94
326.77	81.94
326.999	89.94
327.228	78.94
327.457	62.94
327.686	88.94
327.914	71.94
328.143	87.94
328.372	70.94
328.6	82.94
328.829	75.94
329.058	84.94
329.287	82.94
329.515	73.94
329.744	78.94
329.972	73.94
330.201	80.94
330.43	78.94
330.658	74.94
330.887	83.94
331.115	96.94
331.344	75.94
331.572	94.94
331.801	73.94
332.03	99.94
332.258	89.94
332.486	84.94
332.715	71.94
332.943	73.94
333.172	95.94
333.4	92.94
333.629	85.94
333.857	94.94
334.085	79.94
334.314	94.94
334.542	95.94
334.771	84.94
334.999	71.94
335.227	81.94
335.455	79.94
335.684	99.94
335.912	83.94
336.14	77.94
336.369	89.94
336.597	87.94
336.825	89.94
337.053	81.94
337.281	79.94
337.51	89.94
337.738	83.94
337.966	86.94
338.194	79.94
338.422	77.94
338.65	71.94
338.878	99.94
339.106	71.94
339.334	86.94
339.562	88.94
339.79	82.94
340.018	76.94
340.246	86.94
340.474	89.94
340.702	93.94
340.93	87.94
341.158	88.94
341.386	86.94
341.614	80.94
341.842	86.94
342.07	81.94
342.298	74.94
342.526	82.94
342.754	83.94
342.981	71.94
343.209	81.94
343.437	91.94
343.665	82.94
343.893	85.94
344.12	61.94
344.348	95.94
344.576	88.94
344.804	80.94
345.031	94.94
345.259	90.94
345.487	93.94
345.714	90.94
345.942	81.94
346.17	85.94
346.397	91.94
346.625	82.94
346.853	83.94
347.08	85.94
347.308	78.94
347.535	85.94
347.763	97.94
347.99	85.94
348.218	86.94
348.445	69.94
348.673	97.94
348.9	83.94
349.128	76.94
349.355	82.94
349.583	79.94
349.81	73.94
350.037	88.94
350.265	88.94
350.492	89.94
350.72	86.94
350.947	77.94
351.174	87.94
351.402	82.94
351.629	86.94
351.856	76.94
352.083	87.94
352.311	94.94
352.538	85.94
352.765	77.94
352.992	89.94
353.22	77.94
353.447	75.94
353.674	77.94
353.901	84.94
354.128	79.94
354.355	83.94
354.583	85.94
354.81	91.94
355.037	74.94
355.264	91.94
355.491	85.94
355.718	86.94
355.945	70.94
356.172	71.94
356.399	87.94
356.626	65.94
356.853	79.94
357.08	94.94
357.307	85.94
357.534	81.94
357.761	90.94
357.988	107.94
358.215	92.94
358.441	91.94
358.668	71.94
358.895	90.94
359.122	90.94
359.349	80.94
359.576	85.94
359.802	70.94
360.029	73.94
360.256	86.94
360.483	89.94
360.709	77.94
360.936	88.94
361.163	82.94
361.39	73.94
361.616	74.94
361.843	88.94
362.07	90.94
362.296	73.94
362.523	76.94
362.749	61.94
362.976	86.94
363.203	92.94
363.429	88.94
363.656	89.94
363.882	87.94
364.109	83.94
364.335	74.94
364.562	82.94
364.788	86.94
365.015	90.94
365.241	78.94
365.468	86.94
365.694	90.94
365.92	98.94
366.147	75.94
366.373	74.94
366.599	92.94
366.826	82.94
367.052	77.94
367.278	84.94
367.505	86.94
367.731	90.94
367.957	90.94
368.184	93.94
368.41	93.94
368.636	82.94
368.862	73.94
369.089	90.94
369.315	98.94
369.541	89.94
369.767	87.94
369.993	88.94
370.219	90.94
370.445	87.94
370.672	94.94
370.898	92.94
371.124	89.94
371.35	89.94
371.576	79.94
371.802	91.94
372.028	87.94
372.254	91.94
372.48	100.94
372.706	90.94
372.932	84.94
373.158	95.94
373.384	86.94
373.61	92.94
373.835	91.94
374.061	72.94
374.287	95.94
374.513	94.94
374.739	100.94
374.965	104.94
375.191	92.94
375.416	71.94
375.642	110.94
375.868	100.94
376.094	99.94
376.319	89.94
376.545	90.94
376.771	83.94
376.997	87.94
377.222	84.94
377.448	95.94
377.674	87.94
377.899	97.94
378.125	105.94
378.35	101.94
378.576	90.94
378.802	92.94
379.027	90.94
379.253	98.94
379.478	94.94
379.704	94.94
379.929	87.94
380.155	90.94
380.38	99.94
380.606	110.94
380.831	105.94
381.057	103.94
381.282	115.94
381.507	95.94
381.733	102.94
381.958	82.94
382.184	86.94
382.409	92.94
382.634	98.94
382.86	99.94
383.085	94.94
383.31	92.94
383.535	102.94
383.761	105.94
383.986	102.94
384.211	89.94
384.436	85.94
384.662	94.94
384.887	91.94
385.112	96.94
385.337	101.94
385.562	104.94
385.787	114.94
386.013	110.94
386.238	96.94
386.463	110.94
386.688	103.94
386.913	106.94
387.138	103.94
387.363	99.94
387.588	98.94
387.813	107.94
388.038	104.94
388.263	103.94
388.488	99.94
388.713	106.94
388.938	98.94
389.163	103.94
389.387	94.94
389.612	102.94
389.837	100.94
390.062	96.94
390.287	98.94
390.512	98.94
390.736	102.94
390.961	103.94
391.186	124.94
391.411	101.94
391.636	113.94
391.86	109.94
392.085	103.94
392.31	108.94
392.534	96.94
392.759	118.94
392.984	120.94
393.208	99.94
393.433	109.94
393.658	102.94
393.882	96.94
394.107	124.94
394.331	112.94
394.556	98.94
394.78	102.94
395.005	105.94
395.229	98.94
395.454	102.94
395.678	105.94
395.903	102.94
396.127	119.94
396.352	117.94
396.576	118.94
396.801	117.94
397.025	99.94
397.249	115.94
397.474	111.94
397.698	110.94
397.922	97.94
398.147	104.94
398.371	105.94
398.595	104.94
398.82	105.94
399.044	98.94
399.268	104.94
399.492	101.94
399.717	98.94
399.941	118.94
400.165	110.94
400.389	103.94
400.613	101.94
400.837	127.94
401.062	110.94
401.286	114.94
401.51	117.94
401.734	108.94
401.958	115.94
402.182	120.94
402.406	118.94
402.63	110.94
402.854	131.94
403.078	113.94
403.302	118.94
403.526	107.94
403.75	122.94
403.974	122.94
404.198	111.94
404.422	115.94
404.645	128.94
404.869	119.94
405.093	112.94
405.317	118.94
405.541	118.94
405.765	132.94
405.988	124.94
406.212	119.94
406.436	114.94
406.66	127.94
406.883	126.94
407.107	109.94
407.331	121.94
407.555	114.94
407.778	124.94
408.002	116.94
408.226	126.94
408.449	111.94
408.673	118.94
408.896	104.94
409.12	126.94
409.344	98.94
409.567	120.94
409.791	135.94
410.014	116.94
410.238	120.94
410.461	130.94
410.685	128.94
410.908	122.94
411.132	133.94
411.355	132.94
411.578	121.94
411.802	114.94
412.025	119.94
412.249	133.94
412.472	125.94
412.695	116.94
412.919	122.94
413.142	134.94
413.365	120.94
413.589	139.94
413.812	124.94
414.035	139.94
414.258	133.94
414.482	124.94
414.705	128.94
414.928	132.94
415.151	122.94
415.374	98.94
415.597	114.94
415.821	119.94
416.044	130.94
416.267	128.94
416.49	135.94
416.713	125.94
416.936	130.94
417.159	126.94
417.382	134.94
417.605	124.94
417.828	128.94
418.051	136.94
418.274	134.94
418.497	133.94
418.72	143.94
418.943	140.94
419.166	126.94
419.389	150.94
419.611	151.94
419.834	131.94
420.057	144.94
420.28	139.94
420.503	140.94
420.726	135.94
420.948	134.94
421.171	143.94
421.394	134.94
421.617	166.94
421.839	147.94
422.062	152.94
422.285	137.94
422.507	137.94
422.73	150.94
422.953	130.94
423.175	139.94
423.398	131.94
423.621	139.94
423.843	147.94
424.066	144.94
424.288	144.94
424.511	153.94
424.733	151.94
424.956	159.94
425.178	145.94
425.401	138.94
425.623	139.94
425.846	145.94
426.068	130.94
426.291	135.94
426.513	126.94
426.735	121.94
426.958	123.94
427.18	137.94
427.402	128.94
427.625	141.94
427.847	130.94
428.069	124.94
428.292	128.94
428.514	139.94
428.736	121.94
428.958	122.94
429.181	139.94
429.403	122.94
429.625	128.94
429.847	143.94
430.069	141.94
430.292	139.94
430.514	135.94
430.736	124.94
430.958	127.94
431.18	122.94
431.402	134.94
431.624	125.94
431.846	126.94
432.068	103.94
432.29	94.94
432.512	115.94
432.734	134.94
432.956	126.94
433.178	134.94
433.4	134.94
433.622	135.94
433.844	146.94
434.066	141.94
434.287	115.94
434.509	103.94
434.731	105.94
434.953	101.94
435.175	126.94
435.397	130.94
435.618	122.94
435.84	104.94
436.062	126.94
436.284	116.94
436.505	115.94
436.727	145.94
436.949	133.94
437.17	126.94
437.392	127.94
437.614	114.94
437.835	119.94
438.057	106.94
438.278	104.94
438.5	138.94
438.721	134.94
438.943	136.94
439.165	145.94
439.386	130.94
439.608	145.94
439.829	147.94
440.05	153.94
440.272	159.94
440.493	150.94
440.715	140.94
440.936	146.94
441.158	139.94
441.379	144.94
441.6	164.94
441.822	151.94
442.043	165.94
442.264	148.94
442.486	146.94
442.707	153.94
442.928	164.94
443.149	140.94
443.371	146.94
443.592	153.94
443.813	141.94
444.034	134.94
444.255	128.94
444.476	134.94
444.698	138.94
444.919	145.94
445.14	263.94
445.361	202.94
445.582	152.94
445.803	160.94
446.024	140.94
446.245	162.94
446.466	163.94
446.687	176.94
446.908	159.94
447.129	160.94
447.35	156.94
447.571	164.94
447.792	159.94
448.013	139.94
448.234	170.94
448.455	132.94
448.675	148.94
448.896	145.94
449.117	138.94
449.338	132.94
449.559	146.94
449.779	143.94
450	140.94
450.221	145.94
450.442	151.94
450.662	144.94
450.883	138.94
451.104	140.94
451.324	134.94
451.545	128.94
451.766	125.94
451.986	135.94
452.207	135.94
452.428	131.94
452.648	125.94
452.869	123.94
453.089	111.94
453.31	96.94
453.53	105.94
453.751	92.94
453.971	97.94
454.192	102.94
454.412	114.94
454.633	116.94
454.853	130.94
455.073	123.94
455.294	117.94
455.514	126.94
455.734	147.94
455.955	118.94
456.175	120.94
456.395	114.94
456.616	120.94
456.836	116.94
457.056	120.94
457.276	110.94
457.497	116.94
457.717	120.94
457.937	107.94
458.157	110.94
458.377	125.94
458.598	102.94
458.818	92.94
459.038	102.94
459.258	84.94
459.478	89.94
459.698	97.94
459.918	99.94
460.138	115.94
460.358	118.94
460.578	119.94
460.798	100.94
461.018	125.94
461.238	114.94
461.458	121.94
461.678	115.94
461.898	117.94
462.118	129.94
462.338	113.94
462.558	110.94
462.777	118.94
462.997	122.94
463.217	104.94
463.437	124.94
463.657	112.94
463.876	113.94
464.096	102.94
464.316	124.94
464.536	114.94
464.755	116.94
464.975	117.94
465.195	114.94
465.414	119.94
465.634	108.94
465.854	115.94
466.073	114.94
466.293	121.94
466.512	123.94
466.732	132.94
466.951	142.94
467.171	145.94
467.391	146.94
467.61	139.94
467.829	126.94
468.049	143.94
468.268	129.94
468.488	131.94
468.707	127.94
468.927	133.94
469.146	146.94
469.365	132.94
469.585	150.94
469.804	152.94
470.023	150.94
470.243	150.94
470.462	140.94
470.681	160.94
470.901	150.94
471.12	160.94
471.339	140.94
471.558	157.94
471.777	148.94
471.997	147.94
472.216	131.94
472.435	117.94
472.654	113.94
472.873	116.94
473.092	110.94
473.311	129.94
473.53	139.94
473.749	127.94
473.968	142.94
474.187	126.94
474.406	128.94
474.625	131.94
474.844	149.94
475.063	126.94
475.282	118.94
475.501	118.94
475.72	121.94
475.939	142.94
476.158	131.94
476.377	126.94
476.596	117.94
476.814	109.94
477.033	121.94
477.252	116.94
477.471	133.94
477.69	143.94
477.908	143.94
478.127	155.94
478.346	143.94
478.564	123.94
478.783	132.94
479.002	150.94
479.22	145.94
479.439	153.94
479.658	128.94
479.876	134.94
480.095	109.94
480.313	118.94
480.532	128.94
480.751	118.94
480.969	103.94
481.188	103.94
481.406	78.94
481.624	90.94
481.843	100.94
482.061	82.94
482.28	120.94
482.498	122.94
482.717	121.94
482.935	121.94
483.153	146.94
483.372	151.94
483.59	169.94
483.808	146.94
484.027	155.94
484.245	155.94
484.463	144.94
484.681	163.94
484.9	144.94
485.118	122.94
485.336	126.94
485.554	107.94
485.772	106.94
485.99	115.94
486.209	110.94
486.427	108.94
486.645	130.94
486.863	139.94
487.081	127.94
487.299	149.94
487.517	135.94
487.735	170.94
487.953	202.94
488.171	195.94
488.389	176.94
488.607	167.94
488.825	138.94
489.043	154.94
489.261	144.94
489.479	143.94
489.696	152.94
489.914	148.94
490.132	134.94
490.35	151.94
490.568	176.94
490.786	188.94
491.003	184.94
491.221	193.94
491.439	203.94
491.657	192.94
491.874	204.94
492.092	253.94
492.31	251.94
492.527	239.94
492.745	220.94
492.963	201.94
493.18	206.94
493.398	208.94
493.615	172.94
493.833	153.94
494.05	165.94
494.268	170.94
494.485	174.94
494.703	186.94
494.92	197.94
495.138	179.94
495.355	168.94
495.573	176.94
495.79	174.94
496.008	176.94
496.225	185.94
496.442	162.94
496.66	171.94
496.877	176.94
497.094	174.94
497.312	176.94
497.529	152.94
497.746	161.94
497.963	146.94
498.181	151.94
498.398	130.94
498.615	115.94
498.832	130.94
499.049	121.94
499.267	120.94
499.484	141.94
499.701	129.94
499.918	125.94
500.135	149.94
500.352	140.94
500.569	156.94
500.786	161.94
501.003	164.94
501.22	154.94
501.437	153.94
501.654	133.94
501.871	132.94
502.088	128.94
502.305	134.94
502.522	137.94
502.739	116.94
502.956	132.94
503.172	119.94
503.389	123.94
503.606	116.94
503.823	126.94
504.04	121.94
504.256	123.94
504.473	124.94
504.69	111.94
504.907	122.94
505.123	120.94
505.34	119.94
505.557	121.94
505.773	114.94
505.99	129.94
506.207	115.94
506.423	117.94
506.64	119.94
506.856	129.94
507.073	135.94
507.289	133.94
507.506	144.94
507.722	127.94
507.939	121.94
508.155	125.94
508.372	108.94
508.588	116.94
508.805	122.94
509.021	106.94
509.238	118.94
509.454	99.94
509.67	110.94
509.887	102.94
510.103	98.94
510.319	87.94
510.536	85.94
510.752	91.94
510.968	89.94
511.184	96.94
511.401	87.94
511.617	80.94
