Data from Location6.07152019.Energy5.Lamp.07192019.3%Agarose_HRD10591_16-12-15-394.txt Node
Date: Fri Jul 19 16:12:15 EDT 2019
User: cochatt
Spectrometer: HR+D1059
Trigger mode: 1
Integration Time (sec): 1.000000E-1
Scans to average: 1
Electric dark correction enabled: true
Nonlinearity correction enabled: false
Boxcar width: 0
XAxis mode: Wavelengths
Number of Pixels in Spectrum: 2048
>>>>>Begin Spectral Data<<<<<
223.165	-18.81
223.4	-18.81
223.635	-18.81
223.869	-15.81
224.104	-18.81
224.338	-26.81
224.573	-14.81
224.808	-2.81
225.042	-12.81
225.277	-10.81
225.511	4.19
225.746	1.19
225.98	7.19
226.215	11.19
226.449	17.19
226.683	16.19
226.918	21.19
227.152	43.19
227.387	28.19
227.621	31.19
227.856	33.19
228.09	47.19
228.324	39.19
228.559	55.19
228.793	52.19
229.027	60.19
229.262	62.19
229.496	56.19
229.73	54.19
229.964	71.19
230.199	73.19
230.433	80.19
230.667	69.19
230.901	61.19
231.136	69.19
231.37	77.19
231.604	72.19
231.838	83.19
232.072	68.19
232.306	82.19
232.541	78.19
232.775	85.19
233.009	79.19
233.243	80.19
233.477	91.19
233.711	80.19
233.945	80.19
234.179	96.19
234.413	77.19
234.647	85.19
234.881	83.19
235.115	83.19
235.349	88.19
235.583	79.19
235.817	78.19
236.051	68.19
236.285	79.19
236.519	90.19
236.753	80.19
236.987	94.19
237.221	81.19
237.455	96.19
237.689	80.19
237.922	59.19
238.156	71.19
238.39	84.19
238.624	79.19
238.858	84.19
239.091	78.19
239.325	83.19
239.559	77.19
239.793	83.19
240.027	73.19
240.26	75.19
240.494	77.19
240.728	70.19
240.961	78.19
241.195	86.19
241.429	84.19
241.662	71.19
241.896	75.19
242.13	66.19
242.363	81.19
242.597	83.19
242.83	67.19
243.064	79.19
243.298	67.19
243.531	80.19
243.765	94.19
243.998	81.19
244.232	93.19
244.465	83.19
244.699	85.19
244.932	79.19
245.166	75.19
245.399	79.19
245.633	83.19
245.866	70.19
246.099	71.19
246.333	70.19
246.566	74.19
246.8	89.19
247.033	83.19
247.266	76.19
247.5	77.19
247.733	84.19
247.966	83.19
248.2	65.19
248.433	77.19
248.666	85.19
248.899	78.19
249.133	79.19
249.366	97.19
249.599	77.19
249.832	85.19
250.066	90.19
250.299	87.19
250.532	78.19
250.765	80.19
250.998	76.19
251.231	77.19
251.465	92.19
251.698	66.19
251.931	79.19
252.164	100.19
252.397	77.19
252.63	74.19
252.863	81.19
253.096	69.19
253.329	80.19
253.562	87.19
253.795	95.19
254.028	76.19
254.261	78.19
254.494	84.19
254.727	76.19
254.96	73.19
255.193	80.19
255.426	80.19
255.659	84.19
255.892	93.19
256.124	77.19
256.357	91.19
256.59	79.19
256.823	87.19
257.056	85.19
257.289	90.19
257.521	77.19
257.754	85.19
257.987	83.19
258.22	90.19
258.452	63.19
258.685	78.19
258.918	81.19
259.151	85.19
259.383	75.19
259.616	75.19
259.849	90.19
260.081	87.19
260.314	80.19
260.547	85.19
260.779	82.19
261.012	85.19
261.244	73.19
261.477	85.19
261.71	79.19
261.942	88.19
262.175	85.19
262.407	77.19
262.64	82.19
262.872	91.19
263.105	99.19
263.337	66.19
263.57	93.19
263.802	92.19
264.035	86.19
264.267	70.19
264.499	72.19
264.732	76.19
264.964	89.19
265.197	82.19
265.429	82.19
265.661	91.19
265.894	76.19
266.126	85.19
266.358	72.19
266.591	82.19
266.823	73.19
267.055	85.19
267.287	72.19
267.52	72.19
267.752	92.19
267.984	74.19
268.216	83.19
268.448	85.19
268.681	76.19
268.913	80.19
269.145	87.19
269.377	89.19
269.609	102.19
269.841	89.19
270.073	84.19
270.306	80.19
270.538	90.19
270.77	83.19
271.002	69.19
271.234	83.19
271.466	69.19
271.698	81.19
271.93	71.19
272.162	83.19
272.394	92.19
272.626	75.19
272.858	91.19
273.09	79.19
273.322	81.19
273.553	86.19
273.785	84.19
274.017	86.19
274.249	83.19
274.481	75.19
274.713	82.19
274.945	85.19
275.176	75.19
275.408	90.19
275.64	84.19
275.872	82.19
276.104	90.19
276.335	86.19
276.567	88.19
276.799	77.19
277.031	71.19
277.262	79.19
277.494	81.19
277.726	84.19
277.957	93.19
278.189	77.19
278.421	82.19
278.652	77.19
278.884	82.19
279.115	95.19
279.347	88.19
279.579	87.19
279.81	89.19
280.042	88.19
280.273	81.19
280.505	82.19
280.736	71.19
280.968	91.19
281.199	88.19
281.431	83.19
281.662	78.19
281.894	84.19
282.125	93.19
282.356	91.19
282.588	80.19
282.819	102.19
283.051	87.19
283.282	86.19
283.513	83.19
283.745	72.19
283.976	82.19
284.207	88.19
284.439	90.19
284.67	98.19
284.901	96.19
285.132	77.19
285.364	101.19
285.595	90.19
285.826	80.19
286.057	78.19
286.288	80.19
286.52	87.19
286.751	90.19
286.982	92.19
287.213	79.19
287.444	79.19
287.675	72.19
287.906	87.19
288.138	91.19
288.369	89.19
288.6	88.19
288.831	88.19
289.062	89.19
289.293	95.19
289.524	91.19
289.755	79.19
289.986	78.19
290.217	98.19
290.448	79.19
290.679	81.19
290.91	87.19
291.141	86.19
291.371	90.19
291.602	76.19
291.833	95.19
292.064	86.19
292.295	74.19
292.526	71.19
292.757	85.19
292.987	77.19
293.218	76.19
293.449	89.19
293.68	82.19
293.91	89.19
294.141	71.19
294.372	91.19
294.603	98.19
294.833	71.19
295.064	79.19
295.295	89.19
295.525	75.19
295.756	86.19
295.987	74.19
296.217	68.19
296.448	84.19
296.679	75.19
296.909	87.19
297.14	95.19
297.37	85.19
297.601	89.19
297.831	76.19
298.062	80.19
298.292	76.19
298.523	88.19
298.753	75.19
298.984	83.19
299.214	96.19
299.445	72.19
299.675	93.19
299.905	91.19
300.136	80.19
300.366	83.19
300.597	80.19
300.827	91.19
301.057	92.19
301.288	88.19
301.518	82.19
301.748	78.19
301.979	91.19
302.209	79.19
302.439	71.19
302.669	94.19
302.9	91.19
303.13	80.19
303.36	86.19
303.59	77.19
303.82	91.19
304.051	84.19
304.281	84.19
304.511	84.19
304.741	88.19
304.971	76.19
305.201	81.19
305.431	77.19
305.661	85.19
305.891	83.19
306.121	92.19
306.352	86.19
306.582	76.19
306.812	87.19
307.042	82.19
307.272	72.19
307.502	75.19
307.731	88.19
307.961	94.19
308.191	84.19
308.421	70.19
308.651	77.19
308.881	98.19
309.111	85.19
309.341	80.19
309.571	97.19
309.8	83.19
310.03	90.19
310.26	86.19
310.49	90.19
310.72	91.19
310.949	96.19
311.179	90.19
311.409	89.19
311.639	82.19
311.868	81.19
312.098	90.19
312.328	76.19
312.557	72.19
312.787	89.19
313.017	87.19
313.246	82.19
313.476	76.19
313.706	72.19
313.935	83.19
314.165	77.19
314.394	84.19
314.624	87.19
314.853	72.19
315.083	80.19
315.312	75.19
315.542	87.19
315.771	78.19
316.001	87.19
316.23	80.19
316.46	71.19
316.689	86.19
316.919	79.19
317.148	85.19
317.377	93.19
317.607	96.19
317.836	103.19
318.065	85.19
318.295	91.19
318.524	92.19
318.753	88.19
318.983	84.19
319.212	90.19
319.441	70.19
319.67	87.19
319.9	100.19
320.129	82.19
320.358	81.19
320.587	79.19
320.816	91.19
321.046	91.19
321.275	96.19
321.504	73.19
321.733	77.19
321.962	87.19
322.191	76.19
322.42	79.19
322.649	92.19
322.878	84.19
323.108	71.19
323.337	80.19
323.566	87.19
323.795	90.19
324.024	95.19
324.253	89.19
324.482	84.19
324.71	99.19
324.939	103.19
325.168	88.19
325.397	88.19
325.626	76.19
325.855	92.19
326.084	77.19
326.313	81.19
326.542	87.19
326.77	78.19
326.999	86.19
327.228	76.19
327.457	80.19
327.686	73.19
327.914	77.19
328.143	76.19
328.372	87.19
328.6	79.19
328.829	72.19
329.058	83.19
329.287	67.19
329.515	88.19
329.744	88.19
329.972	88.19
330.201	85.19
330.43	73.19
330.658	78.19
330.887	95.19
331.115	87.19
331.344	97.19
331.572	83.19
331.801	78.19
332.03	86.19
332.258	69.19
332.486	89.19
332.715	90.19
332.943	83.19
333.172	91.19
333.4	84.19
333.629	68.19
333.857	78.19
334.085	71.19
334.314	91.19
334.542	96.19
334.771	77.19
334.999	76.19
335.227	90.19
335.455	86.19
335.684	100.19
335.912	96.19
336.14	68.19
336.369	79.19
336.597	83.19
336.825	88.19
337.053	85.19
337.281	86.19
337.51	89.19
337.738	92.19
337.966	84.19
338.194	86.19
338.422	92.19
338.65	84.19
338.878	94.19
339.106	79.19
339.334	96.19
339.562	102.19
339.79	93.19
340.018	80.19
340.246	82.19
340.474	83.19
340.702	87.19
340.93	90.19
341.158	77.19
341.386	82.19
341.614	88.19
341.842	87.19
342.07	89.19
342.298	95.19
342.526	85.19
342.754	93.19
342.981	89.19
343.209	77.19
343.437	84.19
343.665	94.19
343.893	90.19
344.12	86.19
344.348	90.19
344.576	84.19
344.804	87.19
345.031	87.19
345.259	76.19
345.487	69.19
345.714	84.19
345.942	80.19
346.17	96.19
346.397	91.19
346.625	82.19
346.853	73.19
347.08	92.19
347.308	86.19
347.535	78.19
347.763	75.19
347.99	94.19
348.218	95.19
348.445	89.19
348.673	87.19
348.9	79.19
349.128	85.19
349.355	97.19
349.583	83.19
349.81	98.19
350.037	88.19
350.265	99.19
350.492	81.19
350.72	78.19
350.947	92.19
351.174	85.19
351.402	83.19
351.629	89.19
351.856	93.19
352.083	92.19
352.311	79.19
352.538	89.19
352.765	82.19
352.992	83.19
353.22	97.19
353.447	80.19
353.674	83.19
353.901	75.19
354.128	89.19
354.355	85.19
354.583	80.19
354.81	73.19
355.037	87.19
355.264	75.19
355.491	73.19
355.718	70.19
355.945	73.19
356.172	78.19
356.399	83.19
356.626	75.19
356.853	76.19
357.08	68.19
357.307	86.19
357.534	79.19
357.761	81.19
357.988	90.19
358.215	89.19
358.441	75.19
358.668	76.19
358.895	93.19
359.122	68.19
359.349	91.19
359.576	90.19
359.802	72.19
360.029	84.19
360.256	95.19
360.483	81.19
360.709	86.19
360.936	77.19
361.163	81.19
361.39	95.19
361.616	83.19
361.843	87.19
362.07	84.19
362.296	82.19
362.523	87.19
362.749	92.19
362.976	74.19
363.203	88.19
363.429	83.19
363.656	91.19
363.882	94.19
364.109	89.19
364.335	70.19
364.562	101.19
364.788	77.19
365.015	74.19
365.241	79.19
365.468	85.19
365.694	101.19
365.92	93.19
366.147	86.19
366.373	83.19
366.599	74.19
366.826	82.19
367.052	88.19
367.278	82.19
367.505	96.19
367.731	96.19
367.957	96.19
368.184	90.19
368.41	97.19
368.636	102.19
368.862	96.19
369.089	84.19
369.315	82.19
369.541	90.19
369.767	81.19
369.993	87.19
370.219	100.19
370.445	93.19
370.672	85.19
370.898	91.19
371.124	90.19
371.35	87.19
371.576	94.19
371.802	96.19
372.028	102.19
372.254	97.19
372.48	87.19
372.706	86.19
372.932	83.19
373.158	93.19
373.384	87.19
373.61	84.19
373.835	91.19
374.061	89.19
374.287	91.19
374.513	83.19
374.739	79.19
374.965	92.19
375.191	95.19
375.416	90.19
375.642	104.19
375.868	92.19
376.094	89.19
376.319	78.19
376.545	79.19
376.771	96.19
376.997	96.19
377.222	83.19
377.448	94.19
377.674	85.19
377.899	94.19
378.125	96.19
378.35	92.19
378.576	78.19
378.802	107.19
379.027	84.19
379.253	106.19
379.478	91.19
379.704	85.19
379.929	98.19
380.155	101.19
380.38	99.19
380.606	90.19
380.831	104.19
381.057	95.19
381.282	98.19
381.507	96.19
381.733	96.19
381.958	95.19
382.184	98.19
382.409	94.19
382.634	108.19
382.86	92.19
383.085	104.19
383.31	113.19
383.535	86.19
383.761	106.19
383.986	103.19
384.211	103.19
384.436	89.19
384.662	104.19
384.887	93.19
385.112	103.19
385.337	107.19
385.562	89.19
385.787	102.19
386.013	106.19
386.238	116.19
386.463	117.19
386.688	104.19
386.913	92.19
387.138	107.19
387.363	98.19
387.588	102.19
387.813	111.19
388.038	118.19
388.263	96.19
388.488	113.19
388.713	102.19
388.938	98.19
389.163	101.19
389.387	93.19
389.612	85.19
389.837	93.19
390.062	101.19
390.287	111.19
390.512	106.19
390.736	115.19
390.961	97.19
391.186	102.19
391.411	109.19
391.636	103.19
391.86	106.19
392.085	105.19
392.31	109.19
392.534	90.19
392.759	99.19
392.984	121.19
393.208	115.19
393.433	112.19
393.658	102.19
393.882	119.19
394.107	113.19
394.331	101.19
394.556	111.19
394.78	115.19
395.005	111.19
395.229	92.19
395.454	108.19
395.678	131.19
395.903	113.19
396.127	96.19
396.352	102.19
396.576	122.19
396.801	106.19
397.025	99.19
397.249	112.19
397.474	108.19
397.698	119.19
397.922	113.19
398.147	122.19
398.371	106.19
398.595	111.19
398.82	103.19
399.044	117.19
399.268	96.19
399.492	123.19
399.717	117.19
399.941	116.19
400.165	121.19
400.389	111.19
400.613	112.19
400.837	117.19
401.062	102.19
401.286	117.19
401.51	102.19
401.734	120.19
401.958	119.19
402.182	118.19
402.406	118.19
402.63	113.19
402.854	116.19
403.078	108.19
403.302	111.19
403.526	127.19
403.75	116.19
403.974	107.19
404.198	111.19
404.422	118.19
404.645	113.19
404.869	116.19
405.093	137.19
405.317	126.19
405.541	115.19
405.765	127.19
405.988	113.19
406.212	121.19
406.436	117.19
406.66	124.19
406.883	131.19
407.107	126.19
407.331	128.19
407.555	124.19
407.778	112.19
408.002	124.19
408.226	113.19
408.449	127.19
408.673	117.19
408.896	113.19
409.12	105.19
409.344	129.19
409.567	121.19
409.791	115.19
410.014	135.19
410.238	129.19
410.461	123.19
410.685	122.19
410.908	121.19
411.132	127.19
411.355	112.19
411.578	113.19
411.802	128.19
412.025	131.19
412.249	115.19
412.472	132.19
412.695	128.19
412.919	134.19
413.142	121.19
413.365	139.19
413.589	147.19
413.812	137.19
414.035	128.19
414.258	128.19
414.482	117.19
414.705	141.19
414.928	128.19
415.151	115.19
415.374	133.19
415.597	135.19
415.821	121.19
416.044	125.19
416.267	122.19
416.49	130.19
416.713	123.19
416.936	127.19
417.159	135.19
417.382	132.19
417.605	120.19
417.828	125.19
418.051	126.19
418.274	123.19
418.497	133.19
418.72	149.19
418.943	127.19
419.166	128.19
419.389	119.19
419.611	139.19
419.834	153.19
420.057	131.19
420.28	139.19
420.503	146.19
420.726	149.19
420.948	133.19
421.171	127.19
421.394	145.19
421.617	129.19
421.839	160.19
422.062	151.19
422.285	127.19
422.507	142.19
422.73	141.19
422.953	120.19
423.175	125.19
423.398	135.19
423.621	137.19
423.843	133.19
424.066	148.19
424.288	151.19
424.511	144.19
424.733	137.19
424.956	155.19
425.178	144.19
425.401	127.19
425.623	143.19
425.846	156.19
426.068	128.19
426.291	128.19
426.513	136.19
426.735	139.19
426.958	135.19
427.18	138.19
427.402	130.19
427.625	147.19
427.847	127.19
428.069	136.19
428.292	136.19
428.514	132.19
428.736	121.19
428.958	135.19
429.181	129.19
429.403	125.19
429.625	138.19
429.847	136.19
430.069	138.19
430.292	143.19
430.514	137.19
430.736	127.19
430.958	136.19
431.18	115.19
431.402	141.19
431.624	115.19
431.846	104.19
432.068	87.19
432.29	100.19
432.512	111.19
432.734	111.19
432.956	150.19
433.178	133.19
433.4	134.19
433.622	142.19
433.844	133.19
434.066	131.19
434.287	115.19
434.509	119.19
434.731	101.19
434.953	123.19
435.175	132.19
435.397	127.19
435.618	120.19
435.84	118.19
436.062	105.19
436.284	109.19
436.505	123.19
436.727	134.19
436.949	146.19
437.17	138.19
437.392	145.19
437.614	131.19
437.835	113.19
438.057	116.19
438.278	112.19
438.5	131.19
438.721	126.19
438.943	151.19
439.165	141.19
439.386	145.19
439.608	147.19
439.829	142.19
440.05	151.19
440.272	160.19
440.493	150.19
440.715	136.19
440.936	151.19
441.158	152.19
441.379	145.19
441.6	148.19
441.822	157.19
442.043	159.19
442.264	160.19
442.486	155.19
442.707	141.19
442.928	141.19
443.149	129.19
443.371	129.19
443.592	138.19
443.813	143.19
444.034	141.19
444.255	153.19
444.476	141.19
444.698	142.19
444.919	153.19
445.14	285.19
445.361	211.19
445.582	154.19
445.803	169.19
446.024	178.19
446.245	164.19
446.466	157.19
446.687	152.19
446.908	160.19
447.129	135.19
447.35	163.19
447.571	155.19
447.792	157.19
448.013	157.19
448.234	166.19
448.455	155.19
448.675	157.19
448.896	152.19
449.117	131.19
449.338	149.19
449.559	153.19
449.779	133.19
450	141.19
450.221	130.19
450.442	144.19
450.662	153.19
450.883	139.19
451.104	134.19
451.324	123.19
451.545	142.19
451.766	133.19
451.986	137.19
452.207	139.19
452.428	152.19
452.648	145.19
452.869	132.19
453.089	112.19
453.31	109.19
453.53	118.19
453.751	116.19
453.971	95.19
454.192	107.19
454.412	118.19
454.633	127.19
454.853	116.19
455.073	125.19
455.294	123.19
455.514	139.19
455.734	122.19
455.955	112.19
456.175	131.19
456.395	120.19
456.616	127.19
456.836	117.19
457.056	108.19
457.276	116.19
457.497	110.19
457.717	115.19
457.937	113.19
458.157	111.19
458.377	102.19
458.598	109.19
458.818	98.19
459.038	91.19
459.258	84.19
459.478	106.19
459.698	90.19
459.918	115.19
460.138	116.19
460.358	107.19
460.578	113.19
460.798	118.19
461.018	121.19
461.238	137.19
461.458	123.19
461.678	109.19
461.898	127.19
462.118	101.19
462.338	90.19
462.558	111.19
462.777	111.19
462.997	98.19
463.217	111.19
463.437	116.19
463.657	120.19
463.876	128.19
464.096	102.19
464.316	106.19
464.536	121.19
464.755	113.19
464.975	112.19
465.195	122.19
465.414	115.19
465.634	118.19
465.854	131.19
466.073	131.19
466.293	136.19
466.512	122.19
466.732	151.19
466.951	129.19
467.171	134.19
467.391	132.19
467.61	154.19
467.829	145.19
468.049	136.19
468.268	154.19
468.488	125.19
468.707	150.19
468.927	164.19
469.146	134.19
469.365	151.19
469.585	136.19
469.804	153.19
470.023	142.19
470.243	156.19
470.462	146.19
470.681	143.19
470.901	143.19
471.12	159.19
471.339	134.19
471.558	137.19
471.777	150.19
471.997	138.19
472.216	127.19
472.435	141.19
472.654	106.19
472.873	111.19
473.092	107.19
473.311	137.19
473.53	136.19
473.749	131.19
473.968	132.19
474.187	111.19
474.406	121.19
474.625	122.19
474.844	121.19
475.063	139.19
475.282	125.19
475.501	118.19
475.72	123.19
475.939	121.19
476.158	129.19
476.377	132.19
476.596	131.19
476.814	123.19
477.033	109.19
477.252	122.19
477.471	115.19
477.69	131.19
477.908	133.19
478.127	134.19
478.346	127.19
478.564	146.19
478.783	133.19
479.002	139.19
479.22	148.19
479.439	129.19
479.658	134.19
479.876	113.19
480.095	102.19
480.313	127.19
480.532	132.19
480.751	112.19
480.969	120.19
481.188	92.19
481.406	91.19
481.624	109.19
481.843	94.19
482.061	108.19
482.28	115.19
482.498	109.19
482.717	102.19
482.935	120.19
483.153	151.19
483.372	169.19
483.59	161.19
483.808	142.19
484.027	131.19
484.245	128.19
484.463	162.19
484.681	162.19
484.9	151.19
485.118	153.19
485.336	120.19
485.554	111.19
485.772	107.19
485.99	111.19
486.209	108.19
486.427	118.19
486.645	130.19
486.863	140.19
487.081	136.19
487.299	154.19
487.517	137.19
487.735	175.19
487.953	192.19
488.171	212.19
488.389	173.19
488.607	167.19
488.825	142.19
489.043	142.19
489.261	152.19
489.479	143.19
489.696	135.19
489.914	145.19
490.132	162.19
490.35	158.19
490.568	177.19
490.786	175.19
491.003	187.19
491.221	199.19
491.439	205.19
491.657	193.19
491.874	197.19
492.092	217.19
492.31	261.19
492.527	245.19
492.745	223.19
492.963	220.19
493.18	185.19
493.398	194.19
493.615	195.19
493.833	183.19
494.05	171.19
494.268	168.19
494.485	178.19
494.703	177.19
494.92	184.19
495.138	199.19
495.355	188.19
495.573	201.19
495.79	163.19
496.008	185.19
496.225	178.19
496.442	185.19
496.66	181.19
496.877	166.19
497.094	174.19
497.312	156.19
497.529	191.19
497.746	161.19
497.963	151.19
498.181	146.19
498.398	144.19
498.615	125.19
498.832	127.19
499.049	127.19
499.267	137.19
499.484	128.19
499.701	138.19
499.918	135.19
500.135	147.19
500.352	146.19
500.569	151.19
500.786	150.19
501.003	137.19
501.22	133.19
501.437	156.19
501.654	141.19
501.871	142.19
502.088	147.19
502.305	133.19
502.522	121.19
502.739	131.19
502.956	132.19
503.172	131.19
503.389	130.19
503.606	124.19
503.823	131.19
504.04	133.19
504.256	114.19
504.473	114.19
504.69	133.19
504.907	133.19
505.123	133.19
505.34	129.19
505.557	132.19
505.773	118.19
505.99	133.19
506.207	145.19
506.423	118.19
506.64	115.19
506.856	143.19
507.073	131.19
507.289	124.19
507.506	128.19
507.722	133.19
507.939	126.19
508.155	120.19
508.372	113.19
508.588	108.19
508.805	133.19
509.021	111.19
509.238	119.19
509.454	123.19
509.67	100.19
509.887	87.19
510.103	88.19
510.319	98.19
510.536	106.19
510.752	94.19
510.968	89.19
511.184	89.19
511.401	96.19
