Data from Location6.07152019.Energy5.Lamp.07192019.3%Agarose_HRD10591_16-11-59-397.txt Node
Date: Fri Jul 19 16:11:59 EDT 2019
User: cochatt
Spectrometer: HR+D1059
Trigger mode: 1
Integration Time (sec): 1.000000E-1
Scans to average: 1
Electric dark correction enabled: true
Nonlinearity correction enabled: false
Boxcar width: 0
XAxis mode: Wavelengths
Number of Pixels in Spectrum: 2048
>>>>>Begin Spectral Data<<<<<
223.165	-23.44
223.4	-23.44
223.635	-23.44
223.869	-13.44
224.104	-19.44
224.338	-11.44
224.573	-13.44
224.808	-25.44
225.042	-5.44
225.277	-4.44
225.511	-2.44
225.746	-12.44
225.98	9.56
226.215	17.56
226.449	19.56
226.683	17.56
226.918	28.56
227.152	38.56
227.387	23.56
227.621	37.56
227.856	42.56
228.09	35.56
228.324	55.56
228.559	64.56
228.793	55.56
229.027	53.56
229.262	61.56
229.496	48.56
229.73	70.56
229.964	87.56
230.199	80.56
230.433	67.56
230.667	83.56
230.901	81.56
231.136	78.56
231.37	81.56
231.604	89.56
231.838	76.56
232.072	76.56
232.306	70.56
232.541	83.56
232.775	75.56
233.009	76.56
233.243	85.56
233.477	88.56
233.711	89.56
233.945	86.56
234.179	81.56
234.413	102.56
234.647	91.56
234.881	90.56
235.115	74.56
235.349	75.56
235.583	86.56
235.817	76.56
236.051	87.56
236.285	70.56
236.519	76.56
236.753	83.56
236.987	79.56
237.221	87.56
237.455	75.56
237.689	73.56
237.922	73.56
238.156	79.56
238.39	84.56
238.624	67.56
238.858	90.56
239.091	71.56
239.325	73.56
239.559	85.56
239.793	84.56
240.027	72.56
240.26	65.56
240.494	80.56
240.728	78.56
240.961	67.56
241.195	85.56
241.429	81.56
241.662	90.56
241.896	81.56
242.13	91.56
242.363	71.56
242.597	80.56
242.83	86.56
243.064	75.56
243.298	84.56
243.531	76.56
243.765	83.56
243.998	83.56
244.232	85.56
244.465	95.56
244.699	79.56
244.932	82.56
245.166	73.56
245.399	76.56
245.633	77.56
245.866	79.56
246.099	77.56
246.333	71.56
246.566	69.56
246.8	59.56
247.033	79.56
247.266	75.56
247.5	80.56
247.733	60.56
247.966	83.56
248.2	81.56
248.433	80.56
248.666	93.56
248.899	83.56
249.133	89.56
249.366	86.56
249.599	94.56
249.832	84.56
250.066	92.56
250.299	84.56
250.532	92.56
250.765	79.56
250.998	83.56
251.231	82.56
251.465	100.56
251.698	75.56
251.931	79.56
252.164	84.56
252.397	76.56
252.63	79.56
252.863	85.56
253.096	90.56
253.329	90.56
253.562	75.56
253.795	85.56
254.028	89.56
254.261	72.56
254.494	84.56
254.727	58.56
254.96	83.56
255.193	75.56
255.426	93.56
255.659	85.56
255.892	89.56
256.124	86.56
256.357	74.56
256.59	82.56
256.823	80.56
257.056	78.56
257.289	78.56
257.521	75.56
257.754	86.56
257.987	85.56
258.22	79.56
258.452	79.56
258.685	74.56
258.918	70.56
259.151	79.56
259.383	94.56
259.616	78.56
259.849	79.56
260.081	73.56
260.314	84.56
260.547	77.56
260.779	84.56
261.012	86.56
261.244	87.56
261.477	83.56
261.71	72.56
261.942	86.56
262.175	73.56
262.407	71.56
262.64	83.56
262.872	87.56
263.105	73.56
263.337	73.56
263.57	86.56
263.802	75.56
264.035	89.56
264.267	80.56
264.499	78.56
264.732	97.56
264.964	94.56
265.197	77.56
265.429	86.56
265.661	79.56
265.894	87.56
266.126	74.56
266.358	85.56
266.591	84.56
266.823	70.56
267.055	87.56
267.287	89.56
267.52	87.56
267.752	90.56
267.984	89.56
268.216	83.56
268.448	75.56
268.681	89.56
268.913	68.56
269.145	74.56
269.377	97.56
269.609	71.56
269.841	77.56
270.073	80.56
270.306	78.56
270.538	87.56
270.77	96.56
271.002	83.56
271.234	79.56
271.466	77.56
271.698	88.56
271.93	97.56
272.162	91.56
272.394	96.56
272.626	97.56
272.858	90.56
273.09	82.56
273.322	86.56
273.553	78.56
273.785	83.56
274.017	90.56
274.249	76.56
274.481	83.56
274.713	81.56
274.945	85.56
275.176	86.56
275.408	83.56
275.64	89.56
275.872	95.56
276.104	101.56
276.335	83.56
276.567	79.56
276.799	96.56
277.031	91.56
277.262	95.56
277.494	86.56
277.726	82.56
277.957	88.56
278.189	83.56
278.421	87.56
278.652	85.56
278.884	94.56
279.115	70.56
279.347	79.56
279.579	98.56
279.81	90.56
280.042	87.56
280.273	76.56
280.505	99.56
280.736	71.56
280.968	89.56
281.199	69.56
281.431	77.56
281.662	92.56
281.894	83.56
282.125	83.56
282.356	90.56
282.588	93.56
282.819	78.56
283.051	82.56
283.282	76.56
283.513	84.56
283.745	86.56
283.976	86.56
284.207	81.56
284.439	82.56
284.67	90.56
284.901	98.56
285.132	82.56
285.364	83.56
285.595	90.56
285.826	82.56
286.057	89.56
286.288	76.56
286.52	79.56
286.751	92.56
286.982	87.56
287.213	80.56
287.444	92.56
287.675	97.56
287.906	96.56
288.138	78.56
288.369	89.56
288.6	79.56
288.831	78.56
289.062	77.56
289.293	82.56
289.524	84.56
289.755	95.56
289.986	88.56
290.217	87.56
290.448	87.56
290.679	91.56
290.91	102.56
291.141	71.56
291.371	84.56
291.602	65.56
291.833	85.56
292.064	77.56
292.295	83.56
292.526	87.56
292.757	84.56
292.987	73.56
293.218	82.56
293.449	99.56
293.68	74.56
293.91	79.56
294.141	81.56
294.372	83.56
294.603	90.56
294.833	86.56
295.064	78.56
295.295	94.56
295.525	89.56
295.756	72.56
295.987	77.56
296.217	78.56
296.448	76.56
296.679	84.56
296.909	90.56
297.14	91.56
297.37	89.56
297.601	93.56
297.831	104.56
298.062	84.56
298.292	80.56
298.523	88.56
298.753	84.56
298.984	84.56
299.214	91.56
299.445	81.56
299.675	81.56
299.905	86.56
300.136	91.56
300.366	85.56
300.597	73.56
300.827	83.56
301.057	87.56
301.288	82.56
301.518	94.56
301.748	77.56
301.979	79.56
302.209	66.56
302.439	79.56
302.669	86.56
302.9	78.56
303.13	82.56
303.36	83.56
303.59	86.56
303.82	72.56
304.051	87.56
304.281	92.56
304.511	82.56
304.741	89.56
304.971	75.56
305.201	89.56
305.431	83.56
305.661	75.56
305.891	95.56
306.121	87.56
306.352	86.56
306.582	82.56
306.812	85.56
307.042	77.56
307.272	92.56
307.502	91.56
307.731	82.56
307.961	83.56
308.191	74.56
308.421	100.56
308.651	77.56
308.881	82.56
309.111	93.56
309.341	90.56
309.571	82.56
309.8	85.56
310.03	88.56
310.26	85.56
310.49	93.56
310.72	89.56
310.949	90.56
311.179	88.56
311.409	82.56
311.639	82.56
311.868	87.56
312.098	79.56
312.328	81.56
312.557	82.56
312.787	93.56
313.017	101.56
313.246	91.56
313.476	93.56
313.706	80.56
313.935	93.56
314.165	79.56
314.394	86.56
314.624	78.56
314.853	102.56
315.083	100.56
315.312	88.56
315.542	68.56
315.771	87.56
316.001	87.56
316.23	80.56
316.46	91.56
316.689	92.56
316.919	93.56
317.148	101.56
317.377	87.56
317.607	89.56
317.836	88.56
318.065	94.56
318.295	90.56
318.524	87.56
318.753	78.56
318.983	92.56
319.212	79.56
319.441	94.56
319.67	85.56
319.9	94.56
320.129	92.56
320.358	90.56
320.587	92.56
320.816	83.56
321.046	95.56
321.275	88.56
321.504	78.56
321.733	81.56
321.962	89.56
322.191	79.56
322.42	83.56
322.649	88.56
322.878	78.56
323.108	101.56
323.337	92.56
323.566	90.56
323.795	98.56
324.024	89.56
324.253	86.56
324.482	73.56
324.71	88.56
324.939	89.56
325.168	93.56
325.397	73.56
325.626	81.56
325.855	77.56
326.084	82.56
326.313	95.56
326.542	83.56
326.77	75.56
326.999	89.56
327.228	94.56
327.457	94.56
327.686	78.56
327.914	81.56
328.143	76.56
328.372	80.56
328.6	94.56
328.829	86.56
329.058	92.56
329.287	89.56
329.515	83.56
329.744	92.56
329.972	93.56
330.201	89.56
330.43	74.56
330.658	88.56
330.887	79.56
331.115	77.56
331.344	74.56
331.572	95.56
331.801	96.56
332.03	91.56
332.258	87.56
332.486	94.56
332.715	95.56
332.943	100.56
333.172	74.56
333.4	75.56
333.629	93.56
333.857	73.56
334.085	76.56
334.314	87.56
334.542	89.56
334.771	100.56
334.999	97.56
335.227	70.56
335.455	70.56
335.684	97.56
335.912	87.56
336.14	78.56
336.369	98.56
336.597	86.56
336.825	86.56
337.053	97.56
337.281	99.56
337.51	97.56
337.738	86.56
337.966	90.56
338.194	87.56
338.422	90.56
338.65	96.56
338.878	94.56
339.106	89.56
339.334	89.56
339.562	87.56
339.79	93.56
340.018	87.56
340.246	90.56
340.474	86.56
340.702	91.56
340.93	85.56
341.158	87.56
341.386	98.56
341.614	87.56
341.842	78.56
342.07	105.56
342.298	101.56
342.526	89.56
342.754	97.56
342.981	84.56
343.209	94.56
343.437	90.56
343.665	89.56
343.893	71.56
344.12	83.56
344.348	95.56
344.576	95.56
344.804	96.56
345.031	81.56
345.259	90.56
345.487	81.56
345.714	77.56
345.942	90.56
346.17	79.56
346.397	89.56
346.625	80.56
346.853	85.56
347.08	81.56
347.308	86.56
347.535	81.56
347.763	82.56
347.99	96.56
348.218	93.56
348.445	92.56
348.673	87.56
348.9	89.56
349.128	91.56
349.355	91.56
349.583	91.56
349.81	86.56
350.037	79.56
350.265	79.56
350.492	94.56
350.72	93.56
350.947	81.56
351.174	87.56
351.402	97.56
351.629	84.56
351.856	82.56
352.083	83.56
352.311	78.56
352.538	86.56
352.765	88.56
352.992	76.56
353.22	89.56
353.447	86.56
353.674	82.56
353.901	77.56
354.128	94.56
354.355	81.56
354.583	78.56
354.81	85.56
355.037	87.56
355.264	79.56
355.491	88.56
355.718	86.56
355.945	83.56
356.172	90.56
356.399	77.56
356.626	84.56
356.853	89.56
357.08	100.56
357.307	87.56
357.534	91.56
357.761	79.56
357.988	96.56
358.215	90.56
358.441	85.56
358.668	81.56
358.895	82.56
359.122	96.56
359.349	86.56
359.576	90.56
359.802	92.56
360.029	77.56
360.256	101.56
360.483	91.56
360.709	95.56
360.936	89.56
361.163	81.56
361.39	89.56
361.616	79.56
361.843	86.56
362.07	88.56
362.296	105.56
362.523	83.56
362.749	79.56
362.976	96.56
363.203	93.56
363.429	94.56
363.656	91.56
363.882	81.56
364.109	92.56
364.335	96.56
364.562	86.56
364.788	94.56
365.015	101.56
365.241	87.56
365.468	77.56
365.694	77.56
365.92	84.56
366.147	85.56
366.373	94.56
366.599	91.56
366.826	93.56
367.052	91.56
367.278	79.56
367.505	87.56
367.731	98.56
367.957	84.56
368.184	98.56
368.41	94.56
368.636	94.56
368.862	98.56
369.089	87.56
369.315	104.56
369.541	91.56
369.767	88.56
369.993	98.56
370.219	102.56
370.445	83.56
370.672	82.56
370.898	94.56
371.124	92.56
371.35	92.56
371.576	85.56
371.802	88.56
372.028	102.56
372.254	96.56
372.48	94.56
372.706	93.56
372.932	110.56
373.158	92.56
373.384	90.56
373.61	98.56
373.835	92.56
374.061	104.56
374.287	95.56
374.513	93.56
374.739	91.56
374.965	101.56
375.191	102.56
375.416	106.56
375.642	91.56
375.868	82.56
376.094	116.56
376.319	93.56
376.545	85.56
376.771	96.56
376.997	97.56
377.222	103.56
377.448	93.56
377.674	98.56
377.899	105.56
378.125	114.56
378.35	97.56
378.576	92.56
378.802	108.56
379.027	117.56
379.253	86.56
379.478	81.56
379.704	103.56
379.929	93.56
380.155	89.56
380.38	93.56
380.606	103.56
380.831	94.56
381.057	98.56
381.282	98.56
381.507	93.56
381.733	99.56
381.958	93.56
382.184	93.56
382.409	103.56
382.634	110.56
382.86	107.56
383.085	130.56
383.31	98.56
383.535	110.56
383.761	93.56
383.986	99.56
384.211	85.56
384.436	94.56
384.662	105.56
384.887	91.56
385.112	99.56
385.337	108.56
385.562	119.56
385.787	112.56
386.013	113.56
386.238	84.56
386.463	115.56
386.688	105.56
386.913	119.56
387.138	106.56
387.363	103.56
387.588	109.56
387.813	102.56
388.038	97.56
388.263	106.56
388.488	113.56
388.713	103.56
388.938	121.56
389.163	109.56
389.387	104.56
389.612	115.56
389.837	104.56
390.062	102.56
390.287	105.56
390.512	98.56
390.736	108.56
390.961	96.56
391.186	115.56
391.411	94.56
391.636	106.56
391.86	110.56
392.085	120.56
392.31	114.56
392.534	102.56
392.759	106.56
392.984	115.56
393.208	117.56
393.433	118.56
393.658	100.56
393.882	102.56
394.107	117.56
394.331	118.56
394.556	123.56
394.78	110.56
395.005	102.56
395.229	112.56
395.454	113.56
395.678	111.56
395.903	115.56
396.127	110.56
396.352	109.56
396.576	117.56
396.801	110.56
397.025	125.56
397.249	115.56
397.474	131.56
397.698	121.56
397.922	111.56
398.147	113.56
398.371	98.56
398.595	115.56
398.82	119.56
399.044	114.56
399.268	103.56
399.492	113.56
399.717	127.56
399.941	127.56
400.165	121.56
400.389	113.56
400.613	125.56
400.837	115.56
401.062	130.56
401.286	122.56
401.51	117.56
401.734	112.56
401.958	107.56
402.182	107.56
402.406	124.56
402.63	121.56
402.854	101.56
403.078	122.56
403.302	106.56
403.526	128.56
403.75	110.56
403.974	110.56
404.198	120.56
404.422	119.56
404.645	127.56
404.869	124.56
405.093	133.56
405.317	118.56
405.541	117.56
405.765	111.56
405.988	107.56
406.212	126.56
406.436	132.56
406.66	127.56
406.883	138.56
407.107	121.56
407.331	120.56
407.555	122.56
407.778	120.56
408.002	105.56
408.226	116.56
408.449	123.56
408.673	117.56
408.896	133.56
409.12	138.56
409.344	136.56
409.567	135.56
409.791	133.56
410.014	132.56
410.238	125.56
410.461	113.56
410.685	127.56
410.908	125.56
411.132	141.56
411.355	137.56
411.578	143.56
411.802	134.56
412.025	142.56
412.249	120.56
412.472	134.56
412.695	118.56
412.919	134.56
413.142	125.56
413.365	125.56
413.589	135.56
413.812	129.56
414.035	148.56
414.258	123.56
414.482	125.56
414.705	129.56
414.928	139.56
415.151	118.56
415.374	138.56
415.597	131.56
415.821	121.56
416.044	130.56
416.267	151.56
416.49	136.56
416.713	133.56
416.936	111.56
417.159	131.56
417.382	118.56
417.605	121.56
417.828	137.56
418.051	143.56
418.274	134.56
418.497	138.56
418.72	138.56
418.943	136.56
419.166	138.56
419.389	135.56
419.611	141.56
419.834	138.56
420.057	141.56
420.28	148.56
420.503	138.56
420.726	113.56
420.948	142.56
421.171	141.56
421.394	140.56
421.617	143.56
421.839	153.56
422.062	143.56
422.285	153.56
422.507	139.56
422.73	137.56
422.953	134.56
423.175	155.56
423.398	125.56
423.621	141.56
423.843	131.56
424.066	149.56
424.288	142.56
424.511	161.56
424.733	166.56
424.956	149.56
425.178	161.56
425.401	145.56
425.623	151.56
425.846	157.56
426.068	134.56
426.291	126.56
426.513	128.56
426.735	154.56
426.958	141.56
427.18	133.56
427.402	126.56
427.625	134.56
427.847	130.56
428.069	135.56
428.292	122.56
428.514	136.56
428.736	118.56
428.958	135.56
429.181	131.56
429.403	153.56
429.625	131.56
429.847	121.56
430.069	137.56
430.292	132.56
430.514	124.56
430.736	142.56
430.958	136.56
431.18	129.56
431.402	128.56
431.624	133.56
431.846	119.56
432.068	99.56
432.29	108.56
432.512	129.56
432.734	122.56
432.956	129.56
433.178	151.56
433.4	133.56
433.622	155.56
433.844	143.56
434.066	121.56
434.287	107.56
434.509	84.56
434.731	101.56
434.953	111.56
435.175	114.56
435.397	127.56
435.618	129.56
435.84	119.56
436.062	107.56
436.284	124.56
436.505	121.56
436.727	147.56
436.949	140.56
437.17	136.56
437.392	149.56
437.614	129.56
437.835	131.56
438.057	119.56
438.278	135.56
438.5	134.56
438.721	154.56
438.943	131.56
439.165	147.56
439.386	154.56
439.608	169.56
439.829	145.56
440.05	146.56
440.272	154.56
440.493	151.56
440.715	153.56
440.936	150.56
441.158	143.56
441.379	155.56
441.6	162.56
441.822	161.56
442.043	166.56
442.264	142.56
442.486	136.56
442.707	154.56
442.928	135.56
443.149	151.56
443.371	159.56
443.592	153.56
443.813	137.56
444.034	144.56
444.255	144.56
444.476	163.56
444.698	144.56
444.919	137.56
445.14	258.56
445.361	206.56
445.582	154.56
445.803	150.56
446.024	149.56
446.245	175.56
446.466	156.56
446.687	160.56
446.908	162.56
447.129	163.56
447.35	164.56
447.571	150.56
447.792	152.56
448.013	157.56
448.234	158.56
448.455	137.56
448.675	147.56
448.896	137.56
449.117	151.56
449.338	147.56
449.559	137.56
449.779	137.56
450	143.56
450.221	144.56
450.442	148.56
450.662	137.56
450.883	146.56
451.104	133.56
451.324	135.56
451.545	143.56
451.766	128.56
451.986	137.56
452.207	128.56
452.428	142.56
452.648	139.56
452.869	115.56
453.089	114.56
453.31	127.56
453.53	113.56
453.751	117.56
453.971	103.56
454.192	122.56
454.412	119.56
454.633	122.56
454.853	131.56
455.073	129.56
455.294	132.56
455.514	124.56
455.734	126.56
455.955	130.56
456.175	113.56
456.395	99.56
456.616	118.56
456.836	117.56
457.056	119.56
457.276	112.56
457.497	107.56
457.717	107.56
457.937	122.56
458.157	109.56
458.377	123.56
458.598	105.56
458.818	110.56
459.038	102.56
459.258	76.56
459.478	91.56
459.698	84.56
459.918	101.56
460.138	105.56
460.358	124.56
460.578	135.56
460.798	135.56
461.018	119.56
461.238	120.56
461.458	129.56
461.678	126.56
461.898	117.56
462.118	115.56
462.338	128.56
462.558	113.56
462.777	118.56
462.997	115.56
463.217	106.56
463.437	114.56
463.657	119.56
463.876	109.56
464.096	113.56
464.316	117.56
464.536	120.56
464.755	114.56
464.975	125.56
465.195	118.56
465.414	101.56
465.634	138.56
465.854	125.56
466.073	137.56
466.293	137.56
466.512	139.56
466.732	137.56
466.951	141.56
467.171	132.56
467.391	127.56
467.61	145.56
467.829	153.56
468.049	151.56
468.268	137.56
468.488	150.56
468.707	151.56
468.927	134.56
469.146	116.56
469.365	149.56
469.585	139.56
469.804	143.56
470.023	125.56
470.243	141.56
470.462	150.56
470.681	155.56
470.901	147.56
471.12	147.56
471.339	149.56
471.558	144.56
471.777	150.56
471.997	130.56
472.216	131.56
472.435	121.56
472.654	110.56
472.873	115.56
473.092	113.56
473.311	148.56
473.53	132.56
473.749	127.56
473.968	129.56
474.187	134.56
474.406	122.56
474.625	129.56
474.844	147.56
475.063	138.56
475.282	135.56
475.501	134.56
475.72	129.56
475.939	142.56
476.158	152.56
476.377	136.56
476.596	134.56
476.814	127.56
477.033	124.56
477.252	124.56
477.471	154.56
477.69	144.56
477.908	145.56
478.127	159.56
478.346	135.56
478.564	143.56
478.783	158.56
479.002	138.56
479.22	158.56
479.439	136.56
479.658	130.56
479.876	138.56
480.095	116.56
480.313	110.56
480.532	122.56
480.751	118.56
480.969	100.56
481.188	98.56
481.406	87.56
481.624	77.56
481.843	89.56
482.061	97.56
482.28	122.56
482.498	120.56
482.717	108.56
482.935	131.56
483.153	152.56
483.372	161.56
483.59	155.56
483.808	145.56
484.027	126.56
484.245	142.56
484.463	171.56
484.681	172.56
484.9	161.56
485.118	147.56
485.336	110.56
485.554	118.56
485.772	110.56
485.99	119.56
486.209	139.56
486.427	116.56
486.645	123.56
486.863	143.56
487.081	145.56
487.299	152.56
487.517	152.56
487.735	182.56
487.953	205.56
488.171	218.56
488.389	179.56
488.607	167.56
488.825	146.56
489.043	149.56
489.261	136.56
489.479	135.56
489.696	151.56
489.914	146.56
490.132	155.56
490.35	134.56
490.568	171.56
490.786	173.56
491.003	179.56
491.221	195.56
491.439	198.56
491.657	209.56
491.874	232.56
492.092	235.56
492.31	279.56
492.527	253.56
492.745	212.56
492.963	197.56
493.18	192.56
493.398	172.56
493.615	191.56
493.833	172.56
494.05	177.56
494.268	197.56
494.485	189.56
494.703	184.56
494.92	186.56
495.138	183.56
495.355	177.56
495.573	195.56
495.79	178.56
496.008	175.56
496.225	185.56
496.442	182.56
496.66	169.56
496.877	167.56
497.094	169.56
497.312	174.56
497.529	156.56
497.746	161.56
497.963	148.56
498.181	133.56
498.398	124.56
498.615	143.56
498.832	121.56
499.049	123.56
499.267	138.56
499.484	142.56
499.701	144.56
499.918	136.56
500.135	145.56
500.352	142.56
500.569	144.56
500.786	139.56
501.003	147.56
501.22	143.56
501.437	145.56
501.654	133.56
501.871	137.56
502.088	124.56
502.305	132.56
502.522	129.56
502.739	137.56
502.956	139.56
503.172	128.56
503.389	130.56
503.606	134.56
503.823	131.56
504.04	129.56
504.256	116.56
504.473	126.56
504.69	117.56
504.907	127.56
505.123	126.56
505.34	125.56
505.557	140.56
505.773	142.56
505.99	137.56
506.207	129.56
506.423	123.56
506.64	115.56
506.856	129.56
507.073	124.56
507.289	135.56
507.506	127.56
507.722	121.56
507.939	118.56
508.155	118.56
508.372	123.56
508.588	113.56
508.805	110.56
509.021	115.56
509.238	107.56
509.454	105.56
509.67	106.56
509.887	96.56
510.103	89.56
510.319	96.56
510.536	102.56
510.752	103.56
510.968	83.56
