Data from Location6.07152019.Energy5.Lamp.07192019.3%Agarose_HRD10591_16-12-48-395.txt Node
Date: Fri Jul 19 16:12:48 EDT 2019
User: cochatt
Spectrometer: HR+D1059
Trigger mode: 1
Integration Time (sec): 1.000000E-1
Scans to average: 1
Electric dark correction enabled: true
Nonlinearity correction enabled: false
Boxcar width: 0
XAxis mode: Wavelengths
Number of Pixels in Spectrum: 2048
>>>>>Begin Spectral Data<<<<<
223.165	-19.5
223.4	-19.5
223.635	-19.5
223.869	-14.5
224.104	-23.5
224.338	-12.5
224.573	-14.5
224.808	-21.5
225.042	1.5
225.277	-11.5
225.511	6.5
225.746	5.5
225.98	3.5
226.215	2.5
226.449	19.5
226.683	26.5
226.918	20.5
227.152	31.5
227.387	50.5
227.621	44.5
227.856	41.5
228.09	42.5
228.324	52.5
228.559	47.5
228.793	54.5
229.027	55.5
229.262	62.5
229.496	77.5
229.73	65.5
229.964	72.5
230.199	73.5
230.433	81.5
230.667	66.5
230.901	73.5
231.136	78.5
231.37	81.5
231.604	83.5
231.838	82.5
232.072	76.5
232.306	86.5
232.541	99.5
232.775	99.5
233.009	82.5
233.243	79.5
233.477	67.5
233.711	81.5
233.945	84.5
234.179	86.5
234.413	81.5
234.647	86.5
234.881	81.5
235.115	72.5
235.349	95.5
235.583	98.5
235.817	81.5
236.051	88.5
236.285	87.5
236.519	84.5
236.753	83.5
236.987	88.5
237.221	82.5
237.455	60.5
237.689	75.5
237.922	80.5
238.156	82.5
238.39	75.5
238.624	85.5
238.858	86.5
239.091	63.5
239.325	91.5
239.559	82.5
239.793	89.5
240.027	76.5
240.26	75.5
240.494	77.5
240.728	64.5
240.961	81.5
241.195	93.5
241.429	76.5
241.662	80.5
241.896	85.5
242.13	67.5
242.363	65.5
242.597	80.5
242.83	86.5
243.064	78.5
243.298	71.5
243.531	77.5
243.765	71.5
243.998	83.5
244.232	80.5
244.465	76.5
244.699	78.5
244.932	83.5
245.166	66.5
245.399	86.5
245.633	82.5
245.866	91.5
246.099	77.5
246.333	83.5
246.566	89.5
246.8	67.5
247.033	73.5
247.266	80.5
247.5	89.5
247.733	63.5
247.966	80.5
248.2	89.5
248.433	72.5
248.666	86.5
248.899	96.5
249.133	83.5
249.366	84.5
249.599	83.5
249.832	87.5
250.066	83.5
250.299	80.5
250.532	93.5
250.765	86.5
250.998	79.5
251.231	80.5
251.465	80.5
251.698	75.5
251.931	86.5
252.164	85.5
252.397	92.5
252.63	71.5
252.863	71.5
253.096	78.5
253.329	86.5
253.562	82.5
253.795	73.5
254.028	84.5
254.261	69.5
254.494	85.5
254.727	95.5
254.96	81.5
255.193	88.5
255.426	76.5
255.659	77.5
255.892	97.5
256.124	77.5
256.357	76.5
256.59	84.5
256.823	88.5
257.056	81.5
257.289	90.5
257.521	82.5
257.754	93.5
257.987	87.5
258.22	84.5
258.452	90.5
258.685	79.5
258.918	75.5
259.151	94.5
259.383	78.5
259.616	79.5
259.849	90.5
260.081	83.5
260.314	82.5
260.547	77.5
260.779	79.5
261.012	85.5
261.244	86.5
261.477	87.5
261.71	76.5
261.942	81.5
262.175	93.5
262.407	84.5
262.64	68.5
262.872	80.5
263.105	81.5
263.337	81.5
263.57	67.5
263.802	76.5
264.035	87.5
264.267	76.5
264.499	71.5
264.732	83.5
264.964	98.5
265.197	83.5
265.429	90.5
265.661	79.5
265.894	82.5
266.126	89.5
266.358	80.5
266.591	78.5
266.823	85.5
267.055	76.5
267.287	81.5
267.52	76.5
267.752	87.5
267.984	77.5
268.216	98.5
268.448	81.5
268.681	78.5
268.913	94.5
269.145	88.5
269.377	80.5
269.609	70.5
269.841	85.5
270.073	82.5
270.306	84.5
270.538	75.5
270.77	78.5
271.002	80.5
271.234	87.5
271.466	87.5
271.698	90.5
271.93	89.5
272.162	82.5
272.394	85.5
272.626	89.5
272.858	98.5
273.09	91.5
273.322	81.5
273.553	76.5
273.785	82.5
274.017	87.5
274.249	85.5
274.481	70.5
274.713	80.5
274.945	75.5
275.176	76.5
275.408	77.5
275.64	81.5
275.872	87.5
276.104	79.5
276.335	84.5
276.567	84.5
276.799	87.5
277.031	76.5
277.262	75.5
277.494	95.5
277.726	77.5
277.957	86.5
278.189	88.5
278.421	74.5
278.652	92.5
278.884	85.5
279.115	72.5
279.347	86.5
279.579	82.5
279.81	84.5
280.042	96.5
280.273	96.5
280.505	87.5
280.736	87.5
280.968	84.5
281.199	85.5
281.431	91.5
281.662	78.5
281.894	82.5
282.125	70.5
282.356	98.5
282.588	91.5
282.819	81.5
283.051	93.5
283.282	81.5
283.513	85.5
283.745	76.5
283.976	72.5
284.207	80.5
284.439	76.5
284.67	97.5
284.901	95.5
285.132	67.5
285.364	77.5
285.595	84.5
285.826	102.5
286.057	87.5
286.288	75.5
286.52	90.5
286.751	78.5
286.982	94.5
287.213	97.5
287.444	94.5
287.675	97.5
287.906	95.5
288.138	84.5
288.369	77.5
288.6	81.5
288.831	101.5
289.062	88.5
289.293	76.5
289.524	88.5
289.755	81.5
289.986	96.5
290.217	80.5
290.448	83.5
290.679	96.5
290.91	73.5
291.141	72.5
291.371	84.5
291.602	78.5
291.833	98.5
292.064	88.5
292.295	81.5
292.526	83.5
292.757	89.5
292.987	83.5
293.218	91.5
293.449	79.5
293.68	74.5
293.91	78.5
294.141	97.5
294.372	88.5
294.603	85.5
294.833	92.5
295.064	87.5
295.295	78.5
295.525	83.5
295.756	82.5
295.987	79.5
296.217	83.5
296.448	84.5
296.679	79.5
296.909	91.5
297.14	81.5
297.37	84.5
297.601	89.5
297.831	83.5
298.062	75.5
298.292	79.5
298.523	85.5
298.753	99.5
298.984	87.5
299.214	82.5
299.445	94.5
299.675	90.5
299.905	89.5
300.136	85.5
300.366	76.5
300.597	87.5
300.827	90.5
301.057	91.5
301.288	93.5
301.518	90.5
301.748	76.5
301.979	87.5
302.209	91.5
302.439	84.5
302.669	85.5
302.9	89.5
303.13	89.5
303.36	81.5
303.59	88.5
303.82	91.5
304.051	96.5
304.281	97.5
304.511	77.5
304.741	87.5
304.971	76.5
305.201	79.5
305.431	102.5
305.661	99.5
305.891	89.5
306.121	91.5
306.352	91.5
306.582	90.5
306.812	96.5
307.042	91.5
307.272	81.5
307.502	82.5
307.731	97.5
307.961	81.5
308.191	84.5
308.421	83.5
308.651	84.5
308.881	82.5
309.111	84.5
309.341	91.5
309.571	94.5
309.8	84.5
310.03	75.5
310.26	89.5
310.49	83.5
310.72	74.5
310.949	89.5
311.179	62.5
311.409	91.5
311.639	87.5
311.868	101.5
312.098	92.5
312.328	82.5
312.557	83.5
312.787	93.5
313.017	81.5
313.246	96.5
313.476	92.5
313.706	95.5
313.935	79.5
314.165	73.5
314.394	79.5
314.624	89.5
314.853	91.5
315.083	85.5
315.312	93.5
315.542	92.5
315.771	81.5
316.001	94.5
316.23	81.5
316.46	91.5
316.689	81.5
316.919	80.5
317.148	74.5
317.377	80.5
317.607	97.5
317.836	98.5
318.065	81.5
318.295	88.5
318.524	81.5
318.753	78.5
318.983	95.5
319.212	64.5
319.441	91.5
319.67	85.5
319.9	89.5
320.129	84.5
320.358	84.5
320.587	90.5
320.816	84.5
321.046	84.5
321.275	91.5
321.504	82.5
321.733	89.5
321.962	87.5
322.191	100.5
322.42	70.5
322.649	86.5
322.878	88.5
323.108	89.5
323.337	85.5
323.566	89.5
323.795	75.5
324.024	88.5
324.253	103.5
324.482	76.5
324.71	76.5
324.939	83.5
325.168	77.5
325.397	80.5
325.626	75.5
325.855	77.5
326.084	95.5
326.313	86.5
326.542	68.5
326.77	89.5
326.999	91.5
327.228	84.5
327.457	76.5
327.686	82.5
327.914	97.5
328.143	74.5
328.372	90.5
328.6	79.5
328.829	89.5
329.058	92.5
329.287	80.5
329.515	85.5
329.744	87.5
329.972	83.5
330.201	76.5
330.43	70.5
330.658	85.5
330.887	103.5
331.115	82.5
331.344	85.5
331.572	85.5
331.801	94.5
332.03	103.5
332.258	81.5
332.486	85.5
332.715	87.5
332.943	85.5
333.172	84.5
333.4	92.5
333.629	75.5
333.857	80.5
334.085	85.5
334.314	92.5
334.542	94.5
334.771	88.5
334.999	86.5
335.227	77.5
335.455	91.5
335.684	76.5
335.912	67.5
336.14	70.5
336.369	80.5
336.597	68.5
336.825	104.5
337.053	83.5
337.281	74.5
337.51	79.5
337.738	89.5
337.966	77.5
338.194	79.5
338.422	86.5
338.65	84.5
338.878	76.5
339.106	89.5
339.334	91.5
339.562	107.5
339.79	82.5
340.018	86.5
340.246	94.5
340.474	78.5
340.702	84.5
340.93	90.5
341.158	80.5
341.386	67.5
341.614	79.5
341.842	87.5
342.07	78.5
342.298	97.5
342.526	98.5
342.754	73.5
342.981	77.5
343.209	76.5
343.437	85.5
343.665	78.5
343.893	87.5
344.12	89.5
344.348	96.5
344.576	81.5
344.804	89.5
345.031	88.5
345.259	78.5
345.487	77.5
345.714	88.5
345.942	95.5
346.17	93.5
346.397	81.5
346.625	92.5
346.853	74.5
347.08	91.5
347.308	80.5
347.535	75.5
347.763	69.5
347.99	75.5
348.218	95.5
348.445	76.5
348.673	93.5
348.9	85.5
349.128	93.5
349.355	87.5
349.583	93.5
349.81	91.5
350.037	96.5
350.265	87.5
350.492	86.5
350.72	73.5
350.947	102.5
351.174	83.5
351.402	77.5
351.629	89.5
351.856	91.5
352.083	75.5
352.311	91.5
352.538	94.5
352.765	75.5
352.992	73.5
353.22	93.5
353.447	81.5
353.674	77.5
353.901	84.5
354.128	89.5
354.355	81.5
354.583	75.5
354.81	84.5
355.037	98.5
355.264	77.5
355.491	81.5
355.718	97.5
355.945	72.5
356.172	88.5
356.399	91.5
356.626	72.5
356.853	78.5
357.08	84.5
357.307	92.5
357.534	76.5
357.761	95.5
357.988	75.5
358.215	88.5
358.441	89.5
358.668	81.5
358.895	100.5
359.122	88.5
359.349	83.5
359.576	80.5
359.802	83.5
360.029	96.5
360.256	95.5
360.483	85.5
360.709	87.5
360.936	80.5
361.163	93.5
361.39	75.5
361.616	81.5
361.843	81.5
362.07	82.5
362.296	73.5
362.523	83.5
362.749	84.5
362.976	87.5
363.203	81.5
363.429	88.5
363.656	78.5
363.882	88.5
364.109	77.5
364.335	83.5
364.562	89.5
364.788	83.5
365.015	96.5
365.241	85.5
365.468	88.5
365.694	88.5
365.92	82.5
366.147	96.5
366.373	97.5
366.599	80.5
366.826	80.5
367.052	89.5
367.278	80.5
367.505	95.5
367.731	74.5
367.957	102.5
368.184	83.5
368.41	84.5
368.636	89.5
368.862	84.5
369.089	92.5
369.315	84.5
369.541	90.5
369.767	92.5
369.993	96.5
370.219	98.5
370.445	99.5
370.672	89.5
370.898	89.5
371.124	92.5
371.35	83.5
371.576	86.5
371.802	94.5
372.028	89.5
372.254	90.5
372.48	82.5
372.706	88.5
372.932	82.5
373.158	80.5
373.384	107.5
373.61	89.5
373.835	88.5
374.061	87.5
374.287	96.5
374.513	95.5
374.739	88.5
374.965	93.5
375.191	92.5
375.416	109.5
375.642	96.5
375.868	83.5
376.094	99.5
376.319	81.5
376.545	89.5
376.771	99.5
376.997	114.5
377.222	85.5
377.448	85.5
377.674	100.5
377.899	84.5
378.125	82.5
378.35	103.5
378.576	93.5
378.802	95.5
379.027	86.5
379.253	79.5
379.478	93.5
379.704	90.5
379.929	108.5
380.155	101.5
380.38	95.5
380.606	108.5
380.831	81.5
381.057	91.5
381.282	117.5
381.507	106.5
381.733	98.5
381.958	104.5
382.184	99.5
382.409	82.5
382.634	89.5
382.86	94.5
383.085	103.5
383.31	115.5
383.535	97.5
383.761	113.5
383.986	103.5
384.211	103.5
384.436	80.5
384.662	101.5
384.887	93.5
385.112	92.5
385.337	103.5
385.562	100.5
385.787	98.5
386.013	119.5
386.238	104.5
386.463	100.5
386.688	90.5
386.913	111.5
387.138	103.5
387.363	95.5
387.588	108.5
387.813	91.5
388.038	104.5
388.263	97.5
388.488	96.5
388.713	101.5
388.938	107.5
389.163	100.5
389.387	90.5
389.612	100.5
389.837	94.5
390.062	99.5
390.287	105.5
390.512	103.5
390.736	96.5
390.961	88.5
391.186	104.5
391.411	107.5
391.636	103.5
391.86	94.5
392.085	100.5
392.31	101.5
392.534	123.5
392.759	96.5
392.984	105.5
393.208	109.5
393.433	100.5
393.658	111.5
393.882	106.5
394.107	111.5
394.331	108.5
394.556	118.5
394.78	93.5
395.005	111.5
395.229	113.5
395.454	116.5
395.678	106.5
395.903	117.5
396.127	111.5
396.352	112.5
396.576	122.5
396.801	100.5
397.025	103.5
397.249	118.5
397.474	106.5
397.698	98.5
397.922	99.5
398.147	110.5
398.371	106.5
398.595	106.5
398.82	101.5
399.044	111.5
399.268	121.5
399.492	107.5
399.717	109.5
399.941	120.5
400.165	131.5
400.389	125.5
400.613	98.5
400.837	113.5
401.062	117.5
401.286	112.5
401.51	103.5
401.734	111.5
401.958	120.5
402.182	113.5
402.406	108.5
402.63	126.5
402.854	115.5
403.078	122.5
403.302	117.5
403.526	119.5
403.75	123.5
403.974	131.5
404.198	113.5
404.422	119.5
404.645	127.5
404.869	125.5
405.093	127.5
405.317	117.5
405.541	119.5
405.765	133.5
405.988	121.5
406.212	123.5
406.436	116.5
406.66	145.5
406.883	114.5
407.107	115.5
407.331	109.5
407.555	111.5
407.778	115.5
408.002	113.5
408.226	113.5
408.449	116.5
408.673	120.5
408.896	120.5
409.12	128.5
409.344	118.5
409.567	127.5
409.791	125.5
410.014	128.5
410.238	118.5
410.461	131.5
410.685	136.5
410.908	135.5
411.132	129.5
411.355	121.5
411.578	119.5
411.802	112.5
412.025	122.5
412.249	112.5
412.472	120.5
412.695	137.5
412.919	125.5
413.142	125.5
413.365	134.5
413.589	116.5
413.812	135.5
414.035	124.5
414.258	129.5
414.482	124.5
414.705	133.5
414.928	120.5
415.151	125.5
415.374	121.5
415.597	137.5
415.821	123.5
416.044	129.5
416.267	132.5
416.49	135.5
416.713	132.5
416.936	124.5
417.159	129.5
417.382	121.5
417.605	121.5
417.828	126.5
418.051	129.5
418.274	141.5
418.497	140.5
418.72	126.5
418.943	128.5
419.166	124.5
419.389	140.5
419.611	139.5
419.834	127.5
420.057	136.5
420.28	140.5
420.503	143.5
420.726	123.5
420.948	135.5
421.171	129.5
421.394	131.5
421.617	153.5
421.839	150.5
422.062	136.5
422.285	136.5
422.507	127.5
422.73	150.5
422.953	131.5
423.175	120.5
423.398	124.5
423.621	130.5
423.843	111.5
424.066	129.5
424.288	147.5
424.511	147.5
424.733	148.5
424.956	138.5
425.178	139.5
425.401	140.5
425.623	132.5
425.846	155.5
426.068	147.5
426.291	130.5
426.513	137.5
426.735	152.5
426.958	136.5
427.18	129.5
427.402	125.5
427.625	127.5
427.847	144.5
428.069	135.5
428.292	139.5
428.514	130.5
428.736	146.5
428.958	139.5
429.181	135.5
429.403	145.5
429.625	141.5
429.847	125.5
430.069	127.5
430.292	145.5
430.514	131.5
430.736	132.5
430.958	139.5
431.18	127.5
431.402	129.5
431.624	130.5
431.846	122.5
432.068	114.5
432.29	106.5
432.512	114.5
432.734	116.5
432.956	128.5
433.178	156.5
433.4	155.5
433.622	154.5
433.844	141.5
434.066	141.5
434.287	105.5
434.509	94.5
434.731	94.5
434.953	117.5
435.175	118.5
435.397	116.5
435.618	120.5
435.84	107.5
436.062	117.5
436.284	118.5
436.505	133.5
436.727	133.5
436.949	139.5
437.17	131.5
437.392	125.5
437.614	127.5
437.835	104.5
438.057	117.5
438.278	122.5
438.5	127.5
438.721	133.5
438.943	139.5
439.165	140.5
439.386	153.5
439.608	149.5
439.829	153.5
440.05	135.5
440.272	139.5
440.493	153.5
440.715	149.5
440.936	161.5
441.158	160.5
441.379	147.5
441.6	131.5
441.822	163.5
442.043	168.5
442.264	139.5
442.486	143.5
442.707	145.5
442.928	140.5
443.149	136.5
443.371	142.5
443.592	141.5
443.813	142.5
444.034	153.5
444.255	161.5
444.476	152.5
444.698	155.5
444.919	144.5
445.14	295.5
445.361	211.5
445.582	167.5
445.803	153.5
446.024	170.5
446.245	153.5
446.466	155.5
446.687	168.5
446.908	177.5
447.129	170.5
447.35	147.5
447.571	155.5
447.792	152.5
448.013	151.5
448.234	147.5
448.455	149.5
448.675	145.5
448.896	154.5
449.117	139.5
449.338	144.5
449.559	139.5
449.779	148.5
450	147.5
450.221	144.5
450.442	157.5
450.662	137.5
450.883	139.5
451.104	143.5
451.324	132.5
451.545	137.5
451.766	116.5
451.986	138.5
452.207	125.5
452.428	141.5
452.648	144.5
452.869	132.5
453.089	118.5
453.31	114.5
453.53	113.5
453.751	96.5
453.971	117.5
454.192	93.5
454.412	102.5
454.633	112.5
454.853	127.5
455.073	124.5
455.294	125.5
455.514	134.5
455.734	121.5
455.955	114.5
456.175	110.5
456.395	112.5
456.616	113.5
456.836	104.5
457.056	123.5
457.276	117.5
457.497	115.5
457.717	123.5
457.937	107.5
458.157	115.5
458.377	101.5
458.598	96.5
458.818	104.5
459.038	94.5
459.258	81.5
459.478	90.5
459.698	83.5
459.918	102.5
460.138	108.5
460.358	133.5
460.578	129.5
460.798	124.5
461.018	111.5
461.238	122.5
461.458	118.5
461.678	137.5
461.898	126.5
462.118	123.5
462.338	115.5
462.558	128.5
462.777	128.5
462.997	126.5
463.217	115.5
463.437	117.5
463.657	116.5
463.876	122.5
464.096	119.5
464.316	108.5
464.536	116.5
464.755	112.5
464.975	127.5
465.195	119.5
465.414	114.5
465.634	115.5
465.854	126.5
466.073	119.5
466.293	123.5
466.512	135.5
466.732	124.5
466.951	117.5
467.171	140.5
467.391	139.5
467.61	136.5
467.829	140.5
468.049	141.5
468.268	153.5
468.488	138.5
468.707	136.5
468.927	142.5
469.146	149.5
469.365	147.5
469.585	142.5
469.804	141.5
470.023	139.5
470.243	147.5
470.462	153.5
470.681	142.5
470.901	148.5
471.12	155.5
471.339	143.5
471.558	148.5
471.777	129.5
471.997	143.5
472.216	129.5
472.435	130.5
472.654	116.5
472.873	115.5
473.092	116.5
473.311	125.5
473.53	136.5
473.749	140.5
473.968	135.5
474.187	133.5
474.406	115.5
474.625	141.5
474.844	141.5
475.063	142.5
475.282	123.5
475.501	134.5
475.72	132.5
475.939	119.5
476.158	131.5
476.377	151.5
476.596	148.5
476.814	132.5
477.033	106.5
477.252	122.5
477.471	131.5
477.69	148.5
477.908	133.5
478.127	148.5
478.346	152.5
478.564	148.5
478.783	133.5
479.002	162.5
479.22	157.5
479.439	149.5
479.658	118.5
479.876	115.5
480.095	115.5
480.313	115.5
480.532	125.5
480.751	95.5
480.969	99.5
481.188	97.5
481.406	87.5
481.624	92.5
481.843	70.5
482.061	93.5
482.28	129.5
482.498	115.5
482.717	113.5
482.935	130.5
483.153	151.5
483.372	169.5
483.59	171.5
483.808	130.5
484.027	141.5
484.245	145.5
484.463	157.5
484.681	162.5
484.9	165.5
485.118	157.5
485.336	135.5
485.554	99.5
485.772	114.5
485.99	105.5
486.209	118.5
486.427	108.5
486.645	139.5
486.863	147.5
487.081	141.5
487.299	153.5
487.517	160.5
487.735	175.5
487.953	188.5
488.171	172.5
488.389	160.5
488.607	168.5
488.825	152.5
489.043	143.5
489.261	154.5
489.479	152.5
489.696	153.5
489.914	150.5
490.132	157.5
490.35	150.5
490.568	171.5
490.786	183.5
491.003	181.5
491.221	191.5
491.439	196.5
491.657	212.5
491.874	220.5
492.092	217.5
492.31	248.5
492.527	228.5
492.745	219.5
492.963	207.5
493.18	191.5
493.398	178.5
493.615	172.5
493.833	195.5
494.05	184.5
494.268	184.5
494.485	186.5
494.703	188.5
494.92	195.5
495.138	183.5
495.355	177.5
495.573	193.5
495.79	165.5
496.008	168.5
496.225	183.5
496.442	182.5
496.66	194.5
496.877	166.5
497.094	170.5
497.312	159.5
497.529	159.5
497.746	177.5
497.963	143.5
498.181	135.5
498.398	127.5
498.615	122.5
498.832	118.5
499.049	128.5
499.267	115.5
499.484	130.5
499.701	146.5
499.918	151.5
500.135	143.5
500.352	157.5
500.569	148.5
500.786	160.5
501.003	159.5
501.22	137.5
501.437	147.5
501.654	141.5
501.871	144.5
502.088	135.5
502.305	148.5
502.522	139.5
502.739	139.5
502.956	131.5
503.172	131.5
503.389	124.5
503.606	134.5
503.823	123.5
504.04	128.5
504.256	128.5
504.473	127.5
504.69	134.5
504.907	135.5
505.123	121.5
505.34	121.5
505.557	134.5
505.773	104.5
505.99	121.5
506.207	117.5
506.423	114.5
506.64	130.5
506.856	131.5
507.073	123.5
507.289	131.5
507.506	134.5
507.722	118.5
507.939	124.5
508.155	118.5
508.372	114.5
508.588	119.5
508.805	109.5
509.021	98.5
509.238	108.5
509.454	93.5
509.67	103.5
509.887	107.5
510.103	103.5
510.319	84.5
510.536	94.5
510.752	91.5
510.968	86.5
511.184	90.5
511.401	86.5
511.617	81.5
511.833	76.5
512.049	87.5
512.265	86.5
512.481	115.5
512.698	88.5
512.914	106.5
513.13	107.5
513.346	108.5
513.562	94.5
513.778	104.5
513.994	75.5
514.21	99.5
514.426	98.5
514.642	97.5
514.858	103.5
515.074	79.5
515.29	90.5
515.506	102.5
515.721	94.5
515.937	97.5
516.153	95.5
516.369	86.5
516.585	85.5
516.801	83.5
517.016	78.5
517.232	111.5
517.448	89.5
517.664	96.5
517.879	94.5
518.095	101.5
518.311	88.5
518.527	96.5
518.742	102.5
518.958	98.5
519.173	112.5
519.389	117.5
519.605	109.5
519.82	102.5
520.036	115.5
520.251	99.5
520.467	115.5
520.682	105.5
520.898	91.5
521.113	83.5
521.329	93.5
521.544	87.5
521.76	90.5
521.975	93.5
522.19	92.5
522.406	102.5
522.621	106.5
522.836	106.5
523.052	100.5
523.267	116.5
523.482	117.5
523.698	107.5
523.913	127.5
524.128	123.5
524.343	117.5
524.559	125.5
524.774	125.5
524.989	132.5
525.204	111.5
525.419	123.5
525.634	126.5
525.849	108.5
526.064	115.5
526.28	116.5
526.495	114.5
526.71	95.5
526.925	78.5
527.14	92.5
527.355	75.5
527.57	99.5
527.785	96.5
527.999	84.5
528.214	105.5
528.429	117.5
528.644	121.5
528.859	129.5
529.074	150.5
529.289	166.5
529.503	172.5
529.718	145.5
529.933	125.5
530.148	100.5
530.363	113.5
530.577	99.5
