Data from Location6.07152019.Energy5.Lamp.07192019.3%Agarose_HRD10591_16-13-03-395.txt Node
Date: Fri Jul 19 16:13:03 EDT 2019
User: cochatt
Spectrometer: HR+D1059
Trigger mode: 1
Integration Time (sec): 1.000000E-1
Scans to average: 1
Electric dark correction enabled: true
Nonlinearity correction enabled: false
Boxcar width: 0
XAxis mode: Wavelengths
Number of Pixels in Spectrum: 2048
>>>>>Begin Spectral Data<<<<<
223.165	-18.5
223.4	-18.5
223.635	-18.5
223.869	-23.5
224.104	-15.5
224.338	-15.5
224.573	-11.5
224.808	-19.5
225.042	-7.5
225.277	10.5
225.511	-11.5
225.746	5.5
225.98	2.5
226.215	11.5
226.449	13.5
226.683	16.5
226.918	26.5
227.152	36.5
227.387	32.5
227.621	34.5
227.856	48.5
228.09	58.5
228.324	37.5
228.559	60.5
228.793	48.5
229.027	60.5
229.262	68.5
229.496	70.5
229.73	70.5
229.964	67.5
230.199	82.5
230.433	71.5
230.667	68.5
230.901	73.5
231.136	64.5
231.37	86.5
231.604	77.5
231.838	83.5
232.072	84.5
232.306	76.5
232.541	94.5
232.775	91.5
233.009	87.5
233.243	85.5
233.477	82.5
233.711	77.5
233.945	89.5
234.179	73.5
234.413	93.5
234.647	98.5
234.881	75.5
235.115	60.5
235.349	77.5
235.583	82.5
235.817	71.5
236.051	76.5
236.285	72.5
236.519	78.5
236.753	70.5
236.987	87.5
237.221	82.5
237.455	71.5
237.689	68.5
237.922	77.5
238.156	75.5
238.39	80.5
238.624	69.5
238.858	77.5
239.091	77.5
239.325	80.5
239.559	88.5
239.793	70.5
240.027	79.5
240.26	64.5
240.494	82.5
240.728	83.5
240.961	79.5
241.195	88.5
241.429	76.5
241.662	74.5
241.896	76.5
242.13	82.5
242.363	80.5
242.597	66.5
242.83	69.5
243.064	68.5
243.298	78.5
243.531	67.5
243.765	80.5
243.998	72.5
244.232	83.5
244.465	74.5
244.699	74.5
244.932	83.5
245.166	70.5
245.399	72.5
245.633	80.5
245.866	87.5
246.099	75.5
246.333	76.5
246.566	84.5
246.8	74.5
247.033	72.5
247.266	81.5
247.5	71.5
247.733	69.5
247.966	72.5
248.2	71.5
248.433	81.5
248.666	80.5
248.899	67.5
249.133	75.5
249.366	96.5
249.599	77.5
249.832	78.5
250.066	83.5
250.299	74.5
250.532	82.5
250.765	96.5
250.998	97.5
251.231	76.5
251.465	73.5
251.698	77.5
251.931	85.5
252.164	83.5
252.397	72.5
252.63	82.5
252.863	83.5
253.096	83.5
253.329	93.5
253.562	87.5
253.795	78.5
254.028	87.5
254.261	82.5
254.494	74.5
254.727	85.5
254.96	77.5
255.193	95.5
255.426	86.5
255.659	84.5
255.892	87.5
256.124	88.5
256.357	85.5
256.59	88.5
256.823	94.5
257.056	89.5
257.289	96.5
257.521	73.5
257.754	88.5
257.987	78.5
258.22	100.5
258.452	88.5
258.685	89.5
258.918	78.5
259.151	74.5
259.383	82.5
259.616	98.5
259.849	80.5
260.081	83.5
260.314	77.5
260.547	78.5
260.779	81.5
261.012	76.5
261.244	86.5
261.477	81.5
261.71	87.5
261.942	88.5
262.175	65.5
262.407	73.5
262.64	82.5
262.872	83.5
263.105	80.5
263.337	78.5
263.57	94.5
263.802	81.5
264.035	76.5
264.267	64.5
264.499	77.5
264.732	80.5
264.964	80.5
265.197	81.5
265.429	83.5
265.661	76.5
265.894	82.5
266.126	80.5
266.358	91.5
266.591	76.5
266.823	88.5
267.055	89.5
267.287	69.5
267.52	78.5
267.752	84.5
267.984	89.5
268.216	69.5
268.448	74.5
268.681	75.5
268.913	94.5
269.145	78.5
269.377	93.5
269.609	75.5
269.841	77.5
270.073	89.5
270.306	68.5
270.538	78.5
270.77	95.5
271.002	86.5
271.234	86.5
271.466	83.5
271.698	77.5
271.93	73.5
272.162	70.5
272.394	84.5
272.626	79.5
272.858	85.5
273.09	95.5
273.322	84.5
273.553	82.5
273.785	76.5
274.017	86.5
274.249	82.5
274.481	83.5
274.713	81.5
274.945	85.5
275.176	88.5
275.408	82.5
275.64	95.5
275.872	74.5
276.104	74.5
276.335	83.5
276.567	77.5
276.799	83.5
277.031	76.5
277.262	83.5
277.494	86.5
277.726	79.5
277.957	79.5
278.189	80.5
278.421	81.5
278.652	82.5
278.884	87.5
279.115	77.5
279.347	79.5
279.579	97.5
279.81	75.5
280.042	87.5
280.273	78.5
280.505	68.5
280.736	88.5
280.968	93.5
281.199	82.5
281.431	85.5
281.662	78.5
281.894	84.5
282.125	84.5
282.356	85.5
282.588	81.5
282.819	79.5
283.051	83.5
283.282	84.5
283.513	80.5
283.745	74.5
283.976	91.5
284.207	84.5
284.439	75.5
284.67	94.5
284.901	89.5
285.132	72.5
285.364	80.5
285.595	89.5
285.826	81.5
286.057	81.5
286.288	92.5
286.52	72.5
286.751	80.5
286.982	76.5
287.213	100.5
287.444	92.5
287.675	81.5
287.906	87.5
288.138	86.5
288.369	78.5
288.6	75.5
288.831	96.5
289.062	89.5
289.293	72.5
289.524	88.5
289.755	75.5
289.986	77.5
290.217	92.5
290.448	80.5
290.679	87.5
290.91	85.5
291.141	86.5
291.371	88.5
291.602	94.5
291.833	90.5
292.064	91.5
292.295	81.5
292.526	97.5
292.757	89.5
292.987	74.5
293.218	105.5
293.449	88.5
293.68	81.5
293.91	92.5
294.141	84.5
294.372	84.5
294.603	85.5
294.833	91.5
295.064	75.5
295.295	88.5
295.525	78.5
295.756	85.5
295.987	80.5
296.217	87.5
296.448	88.5
296.679	75.5
296.909	63.5
297.14	85.5
297.37	87.5
297.601	81.5
297.831	94.5
298.062	82.5
298.292	88.5
298.523	75.5
298.753	84.5
298.984	86.5
299.214	91.5
299.445	102.5
299.675	78.5
299.905	104.5
300.136	96.5
300.366	83.5
300.597	91.5
300.827	84.5
301.057	92.5
301.288	77.5
301.518	89.5
301.748	90.5
301.979	88.5
302.209	83.5
302.439	86.5
302.669	80.5
302.9	84.5
303.13	89.5
303.36	82.5
303.59	84.5
303.82	95.5
304.051	87.5
304.281	82.5
304.511	89.5
304.741	84.5
304.971	102.5
305.201	102.5
305.431	94.5
305.661	87.5
305.891	82.5
306.121	93.5
306.352	103.5
306.582	89.5
306.812	81.5
307.042	75.5
307.272	90.5
307.502	85.5
307.731	83.5
307.961	82.5
308.191	81.5
308.421	86.5
308.651	100.5
308.881	86.5
309.111	88.5
309.341	87.5
309.571	72.5
309.8	82.5
310.03	85.5
310.26	80.5
310.49	82.5
310.72	83.5
310.949	92.5
311.179	97.5
311.409	86.5
311.639	78.5
311.868	79.5
312.098	95.5
312.328	76.5
312.557	84.5
312.787	89.5
313.017	103.5
313.246	90.5
313.476	87.5
313.706	93.5
313.935	88.5
314.165	79.5
314.394	88.5
314.624	89.5
314.853	94.5
315.083	100.5
315.312	86.5
315.542	78.5
315.771	85.5
316.001	71.5
316.23	74.5
316.46	82.5
316.689	74.5
316.919	103.5
317.148	86.5
317.377	91.5
317.607	74.5
317.836	82.5
318.065	88.5
318.295	76.5
318.524	94.5
318.753	87.5
318.983	77.5
319.212	91.5
319.441	82.5
319.67	78.5
319.9	95.5
320.129	75.5
320.358	94.5
320.587	104.5
320.816	73.5
321.046	90.5
321.275	86.5
321.504	89.5
321.733	78.5
321.962	82.5
322.191	95.5
322.42	84.5
322.649	84.5
322.878	78.5
323.108	78.5
323.337	83.5
323.566	88.5
323.795	96.5
324.024	71.5
324.253	83.5
324.482	80.5
324.71	92.5
324.939	87.5
325.168	76.5
325.397	68.5
325.626	86.5
325.855	83.5
326.084	87.5
326.313	92.5
326.542	72.5
326.77	89.5
326.999	89.5
327.228	94.5
327.457	87.5
327.686	83.5
327.914	97.5
328.143	100.5
328.372	82.5
328.6	94.5
328.829	76.5
329.058	93.5
329.287	74.5
329.515	95.5
329.744	89.5
329.972	85.5
330.201	81.5
330.43	90.5
330.658	81.5
330.887	89.5
331.115	93.5
331.344	98.5
331.572	95.5
331.801	76.5
332.03	89.5
332.258	87.5
332.486	85.5
332.715	82.5
332.943	83.5
333.172	90.5
333.4	82.5
333.629	88.5
333.857	89.5
334.085	90.5
334.314	82.5
334.542	76.5
334.771	82.5
334.999	93.5
335.227	90.5
335.455	101.5
335.684	91.5
335.912	77.5
336.14	86.5
336.369	72.5
336.597	84.5
336.825	92.5
337.053	76.5
337.281	89.5
337.51	83.5
337.738	92.5
337.966	84.5
338.194	74.5
338.422	102.5
338.65	88.5
338.878	81.5
339.106	88.5
339.334	101.5
339.562	76.5
339.79	90.5
340.018	105.5
340.246	83.5
340.474	91.5
340.702	98.5
340.93	85.5
341.158	74.5
341.386	94.5
341.614	90.5
341.842	86.5
342.07	89.5
342.298	88.5
342.526	90.5
342.754	76.5
342.981	85.5
343.209	79.5
343.437	77.5
343.665	84.5
343.893	86.5
344.12	101.5
344.348	93.5
344.576	99.5
344.804	84.5
345.031	67.5
345.259	82.5
345.487	87.5
345.714	88.5
345.942	89.5
346.17	73.5
346.397	92.5
346.625	76.5
346.853	72.5
347.08	80.5
347.308	86.5
347.535	93.5
347.763	90.5
347.99	90.5
348.218	95.5
348.445	83.5
348.673	89.5
348.9	87.5
349.128	96.5
349.355	94.5
349.583	88.5
349.81	83.5
350.037	90.5
350.265	82.5
350.492	92.5
350.72	70.5
350.947	88.5
351.174	85.5
351.402	84.5
351.629	68.5
351.856	75.5
352.083	64.5
352.311	79.5
352.538	82.5
352.765	80.5
352.992	86.5
353.22	76.5
353.447	82.5
353.674	92.5
353.901	85.5
354.128	88.5
354.355	82.5
354.583	97.5
354.81	88.5
355.037	89.5
355.264	89.5
355.491	87.5
355.718	102.5
355.945	77.5
356.172	76.5
356.399	85.5
356.626	94.5
356.853	66.5
357.08	93.5
357.307	88.5
357.534	95.5
357.761	83.5
357.988	80.5
358.215	91.5
358.441	88.5
358.668	84.5
358.895	95.5
359.122	92.5
359.349	74.5
359.576	88.5
359.802	73.5
360.029	85.5
360.256	87.5
360.483	89.5
360.709	91.5
360.936	90.5
361.163	85.5
361.39	89.5
361.616	86.5
361.843	82.5
362.07	72.5
362.296	84.5
362.523	79.5
362.749	92.5
362.976	86.5
363.203	68.5
363.429	77.5
363.656	73.5
363.882	79.5
364.109	75.5
364.335	90.5
364.562	87.5
364.788	73.5
365.015	72.5
365.241	81.5
365.468	98.5
365.694	83.5
365.92	82.5
366.147	100.5
366.373	76.5
366.599	91.5
366.826	88.5
367.052	99.5
367.278	89.5
367.505	83.5
367.731	94.5
367.957	94.5
368.184	93.5
368.41	82.5
368.636	87.5
368.862	73.5
369.089	83.5
369.315	89.5
369.541	90.5
369.767	89.5
369.993	100.5
370.219	102.5
370.445	92.5
370.672	88.5
370.898	88.5
371.124	90.5
371.35	84.5
371.576	102.5
371.802	84.5
372.028	95.5
372.254	84.5
372.48	96.5
372.706	93.5
372.932	92.5
373.158	84.5
373.384	99.5
373.61	77.5
373.835	88.5
374.061	93.5
374.287	78.5
374.513	92.5
374.739	74.5
374.965	86.5
375.191	90.5
375.416	79.5
375.642	103.5
375.868	90.5
376.094	91.5
376.319	91.5
376.545	91.5
376.771	88.5
376.997	92.5
377.222	92.5
377.448	80.5
377.674	94.5
377.899	85.5
378.125	97.5
378.35	90.5
378.576	84.5
378.802	91.5
379.027	107.5
379.253	98.5
379.478	92.5
379.704	91.5
379.929	96.5
380.155	95.5
380.38	94.5
380.606	108.5
380.831	87.5
381.057	105.5
381.282	93.5
381.507	99.5
381.733	92.5
381.958	89.5
382.184	98.5
382.409	93.5
382.634	93.5
382.86	88.5
383.085	99.5
383.31	100.5
383.535	97.5
383.761	112.5
383.986	95.5
384.211	113.5
384.436	106.5
384.662	95.5
384.887	105.5
385.112	105.5
385.337	109.5
385.562	123.5
385.787	104.5
386.013	103.5
386.238	81.5
386.463	100.5
386.688	113.5
386.913	108.5
387.138	103.5
387.363	105.5
387.588	121.5
387.813	95.5
388.038	106.5
388.263	105.5
388.488	81.5
388.713	97.5
388.938	99.5
389.163	108.5
389.387	109.5
389.612	104.5
389.837	97.5
390.062	102.5
390.287	101.5
390.512	98.5
390.736	100.5
390.961	112.5
391.186	104.5
391.411	101.5
391.636	97.5
391.86	100.5
392.085	102.5
392.31	112.5
392.534	98.5
392.759	120.5
392.984	104.5
393.208	105.5
393.433	118.5
393.658	92.5
393.882	92.5
394.107	107.5
394.331	110.5
394.556	104.5
394.78	105.5
395.005	104.5
395.229	104.5
395.454	113.5
395.678	114.5
395.903	108.5
396.127	96.5
396.352	106.5
396.576	102.5
396.801	96.5
397.025	104.5
397.249	102.5
397.474	114.5
397.698	109.5
397.922	100.5
398.147	101.5
398.371	111.5
398.595	125.5
398.82	118.5
399.044	108.5
399.268	105.5
399.492	95.5
399.717	114.5
399.941	124.5
400.165	113.5
400.389	119.5
400.613	110.5
400.837	116.5
401.062	101.5
401.286	114.5
401.51	115.5
401.734	106.5
401.958	115.5
402.182	112.5
402.406	115.5
402.63	113.5
402.854	117.5
403.078	122.5
403.302	128.5
403.526	121.5
403.75	120.5
403.974	108.5
404.198	123.5
404.422	112.5
404.645	112.5
404.869	123.5
405.093	122.5
405.317	118.5
405.541	124.5
405.765	125.5
405.988	112.5
406.212	132.5
406.436	130.5
406.66	116.5
406.883	122.5
407.107	123.5
407.331	117.5
407.555	112.5
407.778	118.5
408.002	133.5
408.226	123.5
408.449	105.5
408.673	108.5
408.896	121.5
409.12	123.5
409.344	132.5
409.567	120.5
409.791	114.5
410.014	130.5
410.238	133.5
410.461	129.5
410.685	130.5
410.908	119.5
411.132	125.5
411.355	128.5
411.578	137.5
411.802	121.5
412.025	122.5
412.249	125.5
412.472	116.5
412.695	120.5
412.919	133.5
413.142	132.5
413.365	122.5
413.589	135.5
413.812	132.5
414.035	115.5
414.258	132.5
414.482	126.5
414.705	121.5
414.928	116.5
415.151	122.5
415.374	135.5
415.597	129.5
415.821	124.5
416.044	122.5
416.267	128.5
416.49	121.5
416.713	116.5
416.936	114.5
417.159	124.5
417.382	112.5
417.605	125.5
417.828	141.5
418.051	136.5
418.274	130.5
418.497	134.5
418.72	131.5
418.943	145.5
419.166	148.5
419.389	144.5
419.611	139.5
419.834	157.5
420.057	139.5
420.28	133.5
420.503	136.5
420.726	138.5
420.948	130.5
421.171	125.5
421.394	128.5
421.617	153.5
421.839	143.5
422.062	157.5
422.285	138.5
422.507	134.5
422.73	130.5
422.953	133.5
423.175	132.5
423.398	124.5
423.621	140.5
423.843	129.5
424.066	148.5
424.288	140.5
424.511	144.5
424.733	148.5
424.956	148.5
425.178	152.5
425.401	152.5
425.623	141.5
425.846	124.5
426.068	140.5
426.291	118.5
426.513	130.5
426.735	136.5
426.958	136.5
427.18	134.5
427.402	130.5
427.625	133.5
427.847	131.5
428.069	126.5
428.292	131.5
428.514	129.5
428.736	123.5
428.958	144.5
429.181	139.5
429.403	138.5
429.625	121.5
429.847	128.5
430.069	138.5
430.292	128.5
430.514	131.5
430.736	136.5
430.958	123.5
431.18	141.5
431.402	134.5
431.624	120.5
431.846	109.5
432.068	92.5
432.29	99.5
432.512	112.5
432.734	128.5
432.956	124.5
433.178	135.5
433.4	141.5
433.622	163.5
433.844	139.5
434.066	126.5
434.287	102.5
434.509	98.5
434.731	92.5
434.953	123.5
435.175	116.5
435.397	129.5
435.618	138.5
435.84	114.5
436.062	128.5
436.284	138.5
436.505	129.5
436.727	118.5
436.949	131.5
437.17	134.5
437.392	138.5
437.614	120.5
437.835	100.5
438.057	119.5
438.278	118.5
438.5	125.5
438.721	142.5
438.943	148.5
439.165	138.5
439.386	140.5
439.608	161.5
439.829	154.5
440.05	145.5
440.272	138.5
440.493	146.5
440.715	134.5
440.936	145.5
441.158	151.5
441.379	157.5
441.6	150.5
441.822	156.5
442.043	156.5
442.264	141.5
442.486	146.5
442.707	145.5
442.928	127.5
443.149	127.5
443.371	135.5
443.592	136.5
443.813	129.5
444.034	156.5
444.255	150.5
444.476	154.5
444.698	147.5
444.919	143.5
445.14	290.5
445.361	217.5
445.582	161.5
445.803	161.5
446.024	140.5
446.245	149.5
446.466	140.5
446.687	165.5
446.908	165.5
447.129	162.5
447.35	154.5
447.571	156.5
447.792	144.5
448.013	155.5
448.234	148.5
448.455	132.5
448.675	150.5
448.896	144.5
449.117	136.5
449.338	135.5
449.559	146.5
449.779	146.5
450	132.5
450.221	144.5
450.442	138.5
450.662	140.5
450.883	136.5
451.104	128.5
451.324	131.5
451.545	131.5
451.766	128.5
451.986	129.5
452.207	117.5
452.428	134.5
452.648	122.5
452.869	141.5
453.089	120.5
453.31	124.5
453.53	106.5
453.751	95.5
453.971	113.5
454.192	112.5
454.412	107.5
454.633	116.5
454.853	129.5
455.073	124.5
455.294	143.5
455.514	128.5
455.734	119.5
455.955	120.5
456.175	102.5
456.395	111.5
456.616	104.5
456.836	128.5
457.056	106.5
457.276	120.5
457.497	118.5
457.717	114.5
457.937	124.5
458.157	94.5
458.377	112.5
458.598	100.5
458.818	100.5
459.038	98.5
459.258	85.5
459.478	97.5
459.698	95.5
459.918	97.5
460.138	96.5
460.358	108.5
460.578	131.5
460.798	123.5
461.018	107.5
461.238	120.5
461.458	109.5
461.678	110.5
461.898	119.5
462.118	118.5
462.338	122.5
462.558	101.5
462.777	100.5
462.997	108.5
463.217	96.5
463.437	115.5
463.657	114.5
463.876	119.5
464.096	115.5
464.316	112.5
464.536	113.5
464.755	111.5
464.975	119.5
465.195	118.5
465.414	126.5
465.634	127.5
465.854	138.5
466.073	128.5
466.293	127.5
466.512	141.5
466.732	132.5
466.951	130.5
467.171	149.5
467.391	158.5
467.61	149.5
467.829	129.5
468.049	161.5
468.268	149.5
468.488	139.5
468.707	139.5
468.927	145.5
469.146	146.5
469.365	133.5
469.585	145.5
469.804	158.5
470.023	124.5
470.243	141.5
470.462	144.5
470.681	146.5
470.901	138.5
471.12	141.5
471.339	158.5
471.558	132.5
471.777	142.5
471.997	135.5
472.216	126.5
472.435	108.5
472.654	126.5
472.873	114.5
473.092	124.5
473.311	127.5
473.53	137.5
473.749	126.5
473.968	127.5
474.187	136.5
474.406	130.5
474.625	137.5
474.844	144.5
475.063	121.5
475.282	129.5
475.501	109.5
475.72	120.5
475.939	129.5
476.158	128.5
476.377	137.5
476.596	134.5
476.814	128.5
477.033	120.5
477.252	114.5
477.471	118.5
477.69	146.5
477.908	146.5
478.127	143.5
478.346	122.5
478.564	152.5
478.783	145.5
479.002	154.5
479.22	143.5
479.439	136.5
479.658	120.5
479.876	125.5
480.095	120.5
480.313	121.5
480.532	119.5
480.751	106.5
480.969	93.5
481.188	94.5
481.406	84.5
481.624	78.5
481.843	89.5
482.061	107.5
482.28	109.5
482.498	129.5
482.717	103.5
482.935	124.5
483.153	139.5
483.372	153.5
483.59	148.5
483.808	138.5
484.027	150.5
484.245	149.5
484.463	161.5
484.681	188.5
484.9	162.5
485.118	155.5
485.336	136.5
485.554	114.5
485.772	110.5
485.99	108.5
486.209	116.5
486.427	121.5
486.645	136.5
486.863	144.5
487.081	153.5
487.299	139.5
487.517	150.5
487.735	171.5
487.953	193.5
488.171	212.5
488.389	186.5
488.607	168.5
488.825	145.5
489.043	131.5
489.261	153.5
489.479	156.5
489.696	143.5
489.914	161.5
490.132	157.5
490.35	165.5
490.568	185.5
490.786	181.5
491.003	196.5
491.221	193.5
491.439	193.5
491.657	197.5
491.874	201.5
492.092	235.5
492.31	260.5
492.527	249.5
492.745	206.5
492.963	208.5
493.18	205.5
493.398	187.5
493.615	190.5
493.833	195.5
494.05	201.5
494.268	203.5
494.485	176.5
494.703	185.5
494.92	177.5
495.138	192.5
495.355	174.5
495.573	174.5
495.79	169.5
496.008	186.5
496.225	180.5
496.442	161.5
496.66	172.5
496.877	169.5
497.094	180.5
497.312	176.5
497.529	170.5
497.746	142.5
497.963	142.5
498.181	146.5
498.398	124.5
498.615	117.5
498.832	118.5
499.049	130.5
499.267	118.5
499.484	128.5
499.701	148.5
499.918	153.5
500.135	139.5
500.352	149.5
500.569	136.5
500.786	150.5
501.003	146.5
501.22	149.5
501.437	146.5
501.654	146.5
501.871	149.5
502.088	126.5
502.305	122.5
502.522	130.5
502.739	129.5
502.956	129.5
503.172	124.5
503.389	141.5
503.606	120.5
503.823	129.5
504.04	122.5
504.256	121.5
504.473	127.5
504.69	116.5
504.907	136.5
505.123	126.5
505.34	126.5
505.557	117.5
505.773	134.5
505.99	136.5
506.207	126.5
506.423	121.5
506.64	122.5
506.856	124.5
507.073	129.5
507.289	134.5
507.506	118.5
507.722	128.5
507.939	115.5
508.155	122.5
508.372	115.5
508.588	112.5
508.805	113.5
509.021	115.5
509.238	116.5
509.454	101.5
509.67	108.5
509.887	101.5
510.103	100.5
510.319	96.5
510.536	97.5
510.752	95.5
510.968	86.5
511.184	91.5
511.401	84.5
511.617	85.5
511.833	96.5
512.049	88.5
512.265	101.5
512.481	108.5
512.698	99.5
512.914	104.5
513.13	99.5
513.346	93.5
513.562	94.5
513.778	99.5
513.994	81.5
514.21	108.5
514.426	81.5
514.642	85.5
514.858	81.5
515.074	75.5
515.29	81.5
515.506	98.5
515.721	94.5
515.937	80.5
516.153	86.5
516.369	95.5
516.585	83.5
516.801	86.5
517.016	85.5
517.232	92.5
517.448	106.5
517.664	95.5
517.879	87.5
518.095	109.5
518.311	97.5
518.527	90.5
518.742	108.5
518.958	112.5
519.173	112.5
519.389	117.5
519.605	121.5
519.82	118.5
520.036	100.5
520.251	102.5
520.467	97.5
520.682	89.5
520.898	77.5
521.113	91.5
521.329	89.5
521.544	94.5
521.76	86.5
521.975	96.5
522.19	87.5
522.406	100.5
522.621	97.5
522.836	108.5
523.052	111.5
523.267	107.5
523.482	107.5
523.698	128.5
523.913	117.5
524.128	112.5
524.343	120.5
524.559	131.5
524.774	129.5
524.989	134.5
525.204	128.5
525.419	126.5
525.634	104.5
525.849	98.5
526.064	116.5
526.28	120.5
526.495	109.5
526.71	99.5
526.925	97.5
527.14	99.5
527.355	82.5
527.57	90.5
527.785	76.5
527.999	91.5
528.214	107.5
528.429	118.5
528.644	122.5
528.859	141.5
529.074	153.5
529.289	184.5
529.503	180.5
529.718	143.5
529.933	126.5
530.148	105.5
530.363	97.5
