Data from Location6.07152019.Energy5.Lamp.07192019.3%Agarose_HRD10591_16-13-58-395.txt Node
Date: Fri Jul 19 16:13:58 EDT 2019
User: cochatt
Spectrometer: HR+D1059
Trigger mode: 1
Integration Time (sec): 1.000000E-1
Scans to average: 1
Electric dark correction enabled: true
Nonlinearity correction enabled: false
Boxcar width: 0
XAxis mode: Wavelengths
Number of Pixels in Spectrum: 2048
>>>>>Begin Spectral Data<<<<<
223.165	-11.06
223.4	-11.06
223.635	-11.06
223.869	-21.06
224.104	-19.06
224.338	-5.06
224.573	-13.06
224.808	-27.06
225.042	-10.06
225.277	-0.06
225.511	-2.06
225.746	7.94
225.98	6.94
226.215	11.94
226.449	12.94
226.683	21.94
226.918	16.94
227.152	29.94
227.387	26.94
227.621	31.94
227.856	36.94
228.09	40.94
228.324	44.94
228.559	54.94
228.793	74.94
229.027	57.94
229.262	68.94
229.496	66.94
229.73	77.94
229.964	65.94
230.199	72.94
230.433	80.94
230.667	80.94
230.901	83.94
231.136	72.94
231.37	78.94
231.604	71.94
231.838	90.94
232.072	86.94
232.306	92.94
232.541	78.94
232.775	74.94
233.009	97.94
233.243	94.94
233.477	78.94
233.711	77.94
233.945	77.94
234.179	79.94
234.413	75.94
234.647	83.94
234.881	82.94
235.115	79.94
235.349	98.94
235.583	85.94
235.817	88.94
236.051	83.94
236.285	61.94
236.519	75.94
236.753	74.94
236.987	79.94
237.221	88.94
237.455	67.94
237.689	76.94
237.922	81.94
238.156	81.94
238.39	81.94
238.624	74.94
238.858	67.94
239.091	64.94
239.325	78.94
239.559	81.94
239.793	76.94
240.027	78.94
240.26	83.94
240.494	73.94
240.728	74.94
240.961	75.94
241.195	84.94
241.429	75.94
241.662	84.94
241.896	84.94
242.13	77.94
242.363	78.94
242.597	81.94
242.83	81.94
243.064	93.94
243.298	79.94
243.531	78.94
243.765	86.94
243.998	75.94
244.232	88.94
244.465	86.94
244.699	87.94
244.932	84.94
245.166	79.94
245.399	81.94
245.633	86.94
245.866	86.94
246.099	83.94
246.333	82.94
246.566	94.94
246.8	84.94
247.033	95.94
247.266	85.94
247.5	89.94
247.733	78.94
247.966	88.94
248.2	78.94
248.433	84.94
248.666	87.94
248.899	83.94
249.133	74.94
249.366	81.94
249.599	82.94
249.832	71.94
250.066	79.94
250.299	67.94
250.532	62.94
250.765	81.94
250.998	75.94
251.231	81.94
251.465	71.94
251.698	80.94
251.931	78.94
252.164	71.94
252.397	79.94
252.63	51.94
252.863	92.94
253.096	85.94
253.329	86.94
253.562	80.94
253.795	74.94
254.028	79.94
254.261	87.94
254.494	84.94
254.727	93.94
254.96	72.94
255.193	93.94
255.426	85.94
255.659	70.94
255.892	83.94
256.124	83.94
256.357	95.94
256.59	83.94
256.823	87.94
257.056	94.94
257.289	88.94
257.521	79.94
257.754	71.94
257.987	84.94
258.22	82.94
258.452	68.94
258.685	91.94
258.918	82.94
259.151	81.94
259.383	77.94
259.616	78.94
259.849	80.94
260.081	87.94
260.314	87.94
260.547	83.94
260.779	90.94
261.012	84.94
261.244	86.94
261.477	86.94
261.71	80.94
261.942	78.94
262.175	85.94
262.407	63.94
262.64	94.94
262.872	93.94
263.105	81.94
263.337	87.94
263.57	78.94
263.802	87.94
264.035	94.94
264.267	79.94
264.499	84.94
264.732	87.94
264.964	77.94
265.197	81.94
265.429	96.94
265.661	94.94
265.894	106.94
266.126	91.94
266.358	70.94
266.591	76.94
266.823	93.94
267.055	91.94
267.287	85.94
267.52	91.94
267.752	80.94
267.984	70.94
268.216	79.94
268.448	91.94
268.681	102.94
268.913	87.94
269.145	83.94
269.377	83.94
269.609	89.94
269.841	78.94
270.073	87.94
270.306	75.94
270.538	93.94
270.77	92.94
271.002	87.94
271.234	84.94
271.466	105.94
271.698	88.94
271.93	80.94
272.162	88.94
272.394	97.94
272.626	76.94
272.858	73.94
273.09	79.94
273.322	84.94
273.553	72.94
273.785	82.94
274.017	80.94
274.249	98.94
274.481	85.94
274.713	81.94
274.945	84.94
275.176	90.94
275.408	88.94
275.64	93.94
275.872	75.94
276.104	86.94
276.335	83.94
276.567	83.94
276.799	88.94
277.031	86.94
277.262	89.94
277.494	91.94
277.726	90.94
277.957	88.94
278.189	102.94
278.421	83.94
278.652	104.94
278.884	87.94
279.115	75.94
279.347	84.94
279.579	90.94
279.81	74.94
280.042	91.94
280.273	86.94
280.505	84.94
280.736	87.94
280.968	87.94
281.199	85.94
281.431	77.94
281.662	78.94
281.894	94.94
282.125	103.94
282.356	86.94
282.588	89.94
282.819	97.94
283.051	95.94
283.282	89.94
283.513	100.94
283.745	90.94
283.976	91.94
284.207	83.94
284.439	80.94
284.67	86.94
284.901	92.94
285.132	75.94
285.364	80.94
285.595	95.94
285.826	98.94
286.057	84.94
286.288	83.94
286.52	84.94
286.751	83.94
286.982	77.94
287.213	104.94
287.444	87.94
287.675	73.94
287.906	80.94
288.138	84.94
288.369	76.94
288.6	81.94
288.831	91.94
289.062	84.94
289.293	92.94
289.524	83.94
289.755	87.94
289.986	91.94
290.217	92.94
290.448	87.94
290.679	93.94
290.91	100.94
291.141	80.94
291.371	96.94
291.602	75.94
291.833	97.94
292.064	86.94
292.295	88.94
292.526	89.94
292.757	76.94
292.987	85.94
293.218	91.94
293.449	88.94
293.68	84.94
293.91	78.94
294.141	99.94
294.372	89.94
294.603	101.94
294.833	88.94
295.064	93.94
295.295	84.94
295.525	81.94
295.756	90.94
295.987	78.94
296.217	85.94
296.448	94.94
296.679	87.94
296.909	90.94
297.14	85.94
297.37	90.94
297.601	79.94
297.831	79.94
298.062	86.94
298.292	78.94
298.523	89.94
298.753	78.94
298.984	96.94
299.214	102.94
299.445	79.94
299.675	84.94
299.905	82.94
300.136	83.94
300.366	91.94
300.597	78.94
300.827	71.94
301.057	74.94
301.288	94.94
301.518	80.94
301.748	69.94
301.979	98.94
302.209	86.94
302.439	84.94
302.669	91.94
302.9	83.94
303.13	97.94
303.36	90.94
303.59	78.94
303.82	102.94
304.051	77.94
304.281	91.94
304.511	84.94
304.741	85.94
304.971	84.94
305.201	80.94
305.431	92.94
305.661	87.94
305.891	94.94
306.121	81.94
306.352	94.94
306.582	87.94
306.812	87.94
307.042	91.94
307.272	94.94
307.502	86.94
307.731	82.94
307.961	80.94
308.191	96.94
308.421	94.94
308.651	87.94
308.881	97.94
309.111	93.94
309.341	80.94
309.571	85.94
309.8	84.94
310.03	76.94
310.26	77.94
310.49	78.94
310.72	92.94
310.949	80.94
311.179	93.94
311.409	86.94
311.639	82.94
311.868	79.94
312.098	92.94
312.328	88.94
312.557	90.94
312.787	85.94
313.017	86.94
313.246	85.94
313.476	98.94
313.706	98.94
313.935	91.94
314.165	100.94
314.394	75.94
314.624	90.94
314.853	94.94
315.083	76.94
315.312	93.94
315.542	95.94
315.771	92.94
316.001	86.94
316.23	101.94
316.46	86.94
316.689	92.94
316.919	79.94
317.148	83.94
317.377	88.94
317.607	100.94
317.836	99.94
318.065	85.94
318.295	88.94
318.524	96.94
318.753	100.94
318.983	85.94
319.212	93.94
319.441	97.94
319.67	103.94
319.9	93.94
320.129	76.94
320.358	95.94
320.587	85.94
320.816	90.94
321.046	89.94
321.275	88.94
321.504	77.94
321.733	98.94
321.962	101.94
322.191	83.94
322.42	84.94
322.649	90.94
322.878	90.94
323.108	83.94
323.337	79.94
323.566	95.94
323.795	93.94
324.024	87.94
324.253	86.94
324.482	78.94
324.71	90.94
324.939	94.94
325.168	97.94
325.397	103.94
325.626	87.94
325.855	98.94
326.084	81.94
326.313	85.94
326.542	92.94
326.77	99.94
326.999	97.94
327.228	90.94
327.457	94.94
327.686	82.94
327.914	94.94
328.143	106.94
328.372	96.94
328.6	84.94
328.829	79.94
329.058	100.94
329.287	92.94
329.515	79.94
329.744	91.94
329.972	90.94
330.201	74.94
330.43	84.94
330.658	101.94
330.887	83.94
331.115	90.94
331.344	94.94
331.572	99.94
331.801	80.94
332.03	86.94
332.258	86.94
332.486	85.94
332.715	82.94
332.943	79.94
333.172	86.94
333.4	88.94
333.629	95.94
333.857	77.94
334.085	81.94
334.314	76.94
334.542	81.94
334.771	105.94
334.999	90.94
335.227	86.94
335.455	95.94
335.684	92.94
335.912	91.94
336.14	90.94
336.369	93.94
336.597	73.94
336.825	99.94
337.053	93.94
337.281	97.94
337.51	104.94
337.738	88.94
337.966	78.94
338.194	95.94
338.422	85.94
338.65	97.94
338.878	83.94
339.106	88.94
339.334	88.94
339.562	86.94
339.79	92.94
340.018	95.94
340.246	87.94
340.474	88.94
340.702	106.94
340.93	77.94
341.158	92.94
341.386	91.94
341.614	94.94
341.842	91.94
342.07	84.94
342.298	104.94
342.526	86.94
342.754	84.94
342.981	93.94
343.209	82.94
343.437	86.94
343.665	98.94
343.893	97.94
344.12	102.94
344.348	86.94
344.576	90.94
344.804	95.94
345.031	80.94
345.259	89.94
345.487	95.94
345.714	91.94
345.942	91.94
346.17	78.94
346.397	89.94
346.625	87.94
346.853	98.94
347.08	85.94
347.308	96.94
347.535	93.94
347.763	99.94
347.99	100.94
348.218	78.94
348.445	88.94
348.673	105.94
348.9	102.94
349.128	87.94
349.355	82.94
349.583	83.94
349.81	98.94
350.037	90.94
350.265	86.94
350.492	95.94
350.72	88.94
350.947	83.94
351.174	100.94
351.402	76.94
351.629	89.94
351.856	87.94
352.083	95.94
352.311	78.94
352.538	84.94
352.765	102.94
352.992	90.94
353.22	91.94
353.447	96.94
353.674	88.94
353.901	87.94
354.128	95.94
354.355	104.94
354.583	95.94
354.81	86.94
355.037	104.94
355.264	96.94
355.491	83.94
355.718	99.94
355.945	93.94
356.172	83.94
356.399	85.94
356.626	95.94
356.853	87.94
357.08	77.94
357.307	85.94
357.534	90.94
357.761	74.94
357.988	83.94
358.215	89.94
358.441	88.94
358.668	86.94
358.895	81.94
359.122	82.94
359.349	93.94
359.576	92.94
359.802	84.94
360.029	81.94
360.256	103.94
360.483	94.94
360.709	87.94
360.936	88.94
361.163	101.94
361.39	82.94
361.616	86.94
361.843	93.94
362.07	88.94
362.296	86.94
362.523	91.94
362.749	87.94
362.976	89.94
363.203	93.94
363.429	75.94
363.656	80.94
363.882	83.94
364.109	87.94
364.335	87.94
364.562	85.94
364.788	80.94
365.015	84.94
365.241	87.94
365.468	83.94
365.694	89.94
365.92	82.94
366.147	88.94
366.373	89.94
366.599	101.94
366.826	88.94
367.052	98.94
367.278	92.94
367.505	88.94
367.731	85.94
367.957	98.94
368.184	94.94
368.41	100.94
368.636	88.94
368.862	99.94
369.089	91.94
369.315	91.94
369.541	85.94
369.767	90.94
369.993	87.94
370.219	86.94
370.445	86.94
370.672	98.94
370.898	88.94
371.124	102.94
371.35	89.94
371.576	91.94
371.802	80.94
372.028	110.94
372.254	103.94
372.48	90.94
372.706	85.94
372.932	101.94
373.158	98.94
373.384	95.94
373.61	105.94
373.835	96.94
374.061	90.94
374.287	93.94
374.513	87.94
374.739	81.94
374.965	98.94
375.191	92.94
375.416	99.94
375.642	90.94
375.868	106.94
376.094	91.94
376.319	84.94
376.545	100.94
376.771	110.94
376.997	93.94
377.222	107.94
377.448	102.94
377.674	95.94
377.899	95.94
378.125	97.94
378.35	93.94
378.576	107.94
378.802	104.94
379.027	102.94
379.253	93.94
379.478	83.94
379.704	107.94
379.929	108.94
380.155	105.94
380.38	91.94
380.606	95.94
380.831	90.94
381.057	114.94
381.282	108.94
381.507	98.94
381.733	101.94
381.958	103.94
382.184	104.94
382.409	94.94
382.634	85.94
382.86	107.94
383.085	104.94
383.31	85.94
383.535	89.94
383.761	112.94
383.986	109.94
384.211	101.94
384.436	102.94
384.662	76.94
384.887	91.94
385.112	97.94
385.337	99.94
385.562	113.94
385.787	91.94
386.013	106.94
386.238	111.94
386.463	115.94
386.688	106.94
386.913	104.94
387.138	101.94
387.363	93.94
387.588	102.94
387.813	94.94
388.038	114.94
388.263	102.94
388.488	104.94
388.713	109.94
388.938	84.94
389.163	105.94
389.387	105.94
389.612	104.94
389.837	106.94
390.062	112.94
390.287	96.94
390.512	102.94
390.736	110.94
390.961	105.94
391.186	122.94
391.411	110.94
391.636	123.94
391.86	118.94
392.085	111.94
392.31	107.94
392.534	107.94
392.759	107.94
392.984	124.94
393.208	125.94
393.433	112.94
393.658	112.94
393.882	109.94
394.107	104.94
394.331	101.94
394.556	114.94
394.78	116.94
395.005	116.94
395.229	131.94
395.454	112.94
395.678	114.94
395.903	101.94
396.127	116.94
396.352	100.94
396.576	101.94
396.801	106.94
397.025	124.94
397.249	97.94
397.474	111.94
397.698	110.94
397.922	120.94
398.147	112.94
398.371	130.94
398.595	114.94
398.82	95.94
399.044	111.94
399.268	121.94
399.492	105.94
399.717	125.94
399.941	113.94
400.165	116.94
400.389	120.94
400.613	115.94
400.837	114.94
401.062	120.94
401.286	127.94
401.51	100.94
401.734	116.94
401.958	114.94
402.182	123.94
402.406	111.94
402.63	125.94
402.854	121.94
403.078	128.94
403.302	122.94
403.526	122.94
403.75	122.94
403.974	105.94
404.198	123.94
404.422	105.94
404.645	138.94
404.869	122.94
405.093	116.94
405.317	121.94
405.541	118.94
405.765	132.94
405.988	124.94
406.212	132.94
406.436	114.94
406.66	131.94
406.883	107.94
407.107	118.94
407.331	123.94
407.555	123.94
407.778	126.94
408.002	123.94
408.226	117.94
408.449	109.94
408.673	124.94
408.896	112.94
409.12	125.94
409.344	128.94
409.567	120.94
409.791	122.94
410.014	121.94
410.238	117.94
410.461	139.94
410.685	132.94
410.908	127.94
411.132	133.94
411.355	136.94
411.578	130.94
411.802	128.94
412.025	143.94
412.249	116.94
412.472	124.94
412.695	130.94
412.919	130.94
413.142	132.94
413.365	143.94
413.589	145.94
413.812	127.94
414.035	135.94
414.258	126.94
414.482	123.94
414.705	139.94
414.928	117.94
415.151	128.94
415.374	138.94
415.597	113.94
415.821	138.94
416.044	126.94
416.267	136.94
416.49	136.94
416.713	120.94
416.936	135.94
417.159	131.94
417.382	132.94
417.605	122.94
417.828	135.94
418.051	133.94
418.274	133.94
418.497	142.94
418.72	135.94
418.943	150.94
419.166	135.94
419.389	128.94
419.611	140.94
419.834	132.94
420.057	148.94
420.28	131.94
420.503	135.94
420.726	127.94
420.948	134.94
421.171	120.94
421.394	134.94
421.617	144.94
421.839	142.94
422.062	140.94
422.285	143.94
422.507	138.94
422.73	133.94
422.953	146.94
423.175	138.94
423.398	144.94
423.621	139.94
423.843	147.94
424.066	147.94
424.288	139.94
424.511	146.94
424.733	157.94
424.956	149.94
425.178	157.94
425.401	150.94
425.623	133.94
425.846	133.94
426.068	152.94
426.291	119.94
426.513	123.94
426.735	143.94
426.958	143.94
427.18	131.94
427.402	145.94
427.625	146.94
427.847	123.94
428.069	128.94
428.292	131.94
428.514	123.94
428.736	138.94
428.958	136.94
429.181	127.94
429.403	138.94
429.625	139.94
429.847	139.94
430.069	125.94
430.292	125.94
430.514	127.94
430.736	139.94
430.958	126.94
431.18	142.94
431.402	153.94
431.624	128.94
431.846	115.94
432.068	107.94
432.29	112.94
432.512	123.94
432.734	138.94
432.956	131.94
433.178	127.94
433.4	151.94
433.622	136.94
433.844	145.94
434.066	144.94
434.287	116.94
434.509	86.94
434.731	101.94
434.953	108.94
435.175	131.94
435.397	130.94
435.618	105.94
435.84	116.94
436.062	110.94
436.284	118.94
436.505	144.94
436.727	130.94
436.949	138.94
437.17	133.94
437.392	149.94
437.614	132.94
437.835	121.94
438.057	114.94
438.278	116.94
438.5	124.94
438.721	134.94
438.943	146.94
439.165	142.94
439.386	148.94
439.608	155.94
439.829	140.94
440.05	146.94
440.272	149.94
440.493	152.94
440.715	136.94
440.936	139.94
441.158	146.94
441.379	136.94
441.6	156.94
441.822	149.94
442.043	122.94
442.264	138.94
442.486	151.94
442.707	157.94
442.928	159.94
443.149	134.94
443.371	134.94
443.592	134.94
443.813	143.94
444.034	151.94
444.255	155.94
444.476	159.94
444.698	151.94
444.919	142.94
445.14	269.94
445.361	206.94
445.582	145.94
445.803	144.94
446.024	141.94
446.245	159.94
446.466	155.94
446.687	156.94
446.908	158.94
447.129	159.94
447.35	154.94
447.571	162.94
447.792	151.94
448.013	159.94
448.234	145.94
448.455	155.94
448.675	161.94
448.896	141.94
449.117	134.94
449.338	145.94
449.559	145.94
449.779	121.94
450	132.94
450.221	141.94
450.442	148.94
450.662	146.94
450.883	139.94
451.104	145.94
451.324	124.94
451.545	128.94
451.766	135.94
451.986	132.94
452.207	149.94
452.428	127.94
452.648	149.94
452.869	127.94
453.089	107.94
453.31	105.94
453.53	107.94
453.751	117.94
453.971	121.94
454.192	117.94
454.412	100.94
454.633	122.94
454.853	118.94
455.073	139.94
455.294	124.94
455.514	123.94
455.734	127.94
455.955	121.94
456.175	128.94
456.395	110.94
456.616	100.94
456.836	122.94
457.056	112.94
457.276	110.94
457.497	103.94
457.717	119.94
457.937	120.94
458.157	96.94
458.377	109.94
458.598	112.94
458.818	70.94
459.038	100.94
459.258	76.94
459.478	100.94
459.698	101.94
459.918	108.94
460.138	99.94
460.358	121.94
460.578	132.94
460.798	118.94
461.018	116.94
461.238	124.94
461.458	119.94
461.678	101.94
461.898	123.94
462.118	112.94
462.338	128.94
462.558	100.94
462.777	111.94
462.997	118.94
463.217	104.94
463.437	101.94
463.657	104.94
463.876	108.94
464.096	124.94
464.316	114.94
464.536	122.94
464.755	120.94
464.975	104.94
465.195	109.94
465.414	125.94
465.634	123.94
465.854	123.94
466.073	130.94
466.293	125.94
466.512	122.94
466.732	143.94
466.951	139.94
467.171	129.94
467.391	134.94
467.61	148.94
467.829	137.94
468.049	126.94
468.268	148.94
468.488	134.94
468.707	132.94
468.927	131.94
469.146	141.94
469.365	149.94
469.585	155.94
469.804	141.94
470.023	133.94
470.243	153.94
470.462	145.94
470.681	139.94
470.901	123.94
471.12	140.94
471.339	150.94
471.558	138.94
471.777	134.94
471.997	133.94
472.216	138.94
472.435	126.94
472.654	104.94
472.873	126.94
473.092	127.94
473.311	132.94
473.53	148.94
473.749	118.94
473.968	128.94
474.187	116.94
474.406	126.94
474.625	122.94
474.844	139.94
475.063	127.94
475.282	130.94
475.501	123.94
475.72	119.94
475.939	125.94
476.158	149.94
476.377	134.94
476.596	123.94
476.814	112.94
477.033	118.94
477.252	120.94
477.471	125.94
477.69	136.94
477.908	130.94
478.127	155.94
478.346	140.94
478.564	132.94
478.783	151.94
479.002	142.94
479.22	146.94
479.439	146.94
479.658	132.94
479.876	130.94
480.095	104.94
480.313	107.94
480.532	125.94
480.751	121.94
480.969	104.94
481.188	89.94
481.406	90.94
481.624	96.94
481.843	82.94
482.061	110.94
482.28	111.94
482.498	124.94
482.717	98.94
482.935	126.94
483.153	170.94
483.372	158.94
483.59	157.94
483.808	154.94
484.027	130.94
484.245	141.94
484.463	134.94
484.681	151.94
484.9	153.94
485.118	133.94
485.336	134.94
485.554	117.94
485.772	123.94
485.99	118.94
486.209	120.94
486.427	110.94
486.645	121.94
486.863	139.94
487.081	140.94
487.299	141.94
487.517	145.94
487.735	163.94
487.953	206.94
488.171	181.94
488.389	199.94
488.607	172.94
488.825	152.94
489.043	131.94
489.261	135.94
489.479	144.94
489.696	158.94
489.914	146.94
490.132	150.94
490.35	150.94
490.568	168.94
490.786	189.94
491.003	180.94
491.221	179.94
491.439	202.94
491.657	191.94
491.874	226.94
492.092	246.94
492.31	253.94
492.527	229.94
492.745	218.94
492.963	196.94
493.18	187.94
493.398	192.94
493.615	186.94
493.833	183.94
494.05	182.94
494.268	192.94
494.485	172.94
494.703	173.94
494.92	187.94
495.138	166.94
495.355	174.94
495.573	181.94
495.79	178.94
496.008	163.94
496.225	183.94
496.442	174.94
496.66	175.94
496.877	182.94
497.094	174.94
497.312	175.94
497.529	168.94
497.746	151.94
497.963	138.94
498.181	147.94
498.398	142.94
498.615	134.94
498.832	122.94
499.049	120.94
499.267	121.94
499.484	129.94
499.701	136.94
499.918	133.94
500.135	129.94
500.352	131.94
500.569	137.94
500.786	158.94
501.003	155.94
501.22	133.94
501.437	143.94
501.654	149.94
501.871	136.94
502.088	138.94
502.305	139.94
502.522	127.94
502.739	144.94
502.956	149.94
503.172	141.94
503.389	128.94
503.606	126.94
503.823	120.94
504.04	105.94
504.256	136.94
504.473	130.94
504.69	117.94
504.907	140.94
505.123	124.94
505.34	130.94
505.557	126.94
505.773	125.94
505.99	128.94
506.207	137.94
506.423	107.94
506.64	122.94
506.856	111.94
507.073	131.94
507.289	132.94
507.506	127.94
507.722	116.94
507.939	116.94
508.155	123.94
508.372	105.94
508.588	108.94
508.805	113.94
509.021	120.94
509.238	114.94
509.454	93.94
509.67	100.94
509.887	98.94
510.103	92.94
510.319	89.94
510.536	87.94
510.752	89.94
