Data from Location6.07152019.Energy5.Lamp.07192019.3%Agarose_HRD10591_16-11-36-395.txt Node
Date: Fri Jul 19 16:11:36 EDT 2019
User: cochatt
Spectrometer: HR+D1059
Trigger mode: 1
Integration Time (sec): 1.000000E-1
Scans to average: 1
Electric dark correction enabled: true
Nonlinearity correction enabled: false
Boxcar width: 0
XAxis mode: Wavelengths
Number of Pixels in Spectrum: 2048
>>>>>Begin Spectral Data<<<<<
223.165	-24.31
223.4	-24.31
223.635	-24.31
223.869	-8.31
224.104	-27.31
224.338	-18.31
224.573	0.69
224.808	-12.31
225.042	-4.31
225.277	0.69
225.511	-1.31
225.746	5.69
225.98	13.69
226.215	-6.31
226.449	14.69
226.683	8.69
226.918	28.69
227.152	29.69
227.387	27.69
227.621	33.69
227.856	46.69
228.09	31.69
228.324	35.69
228.559	48.69
228.793	45.69
229.027	64.69
229.262	60.69
229.496	53.69
229.73	53.69
229.964	78.69
230.199	53.69
230.433	67.69
230.667	55.69
230.901	77.69
231.136	78.69
231.37	76.69
231.604	67.69
231.838	94.69
232.072	79.69
232.306	85.69
232.541	64.69
232.775	75.69
233.009	68.69
233.243	73.69
233.477	63.69
233.711	96.69
233.945	76.69
234.179	79.69
234.413	81.69
234.647	78.69
234.881	69.69
235.115	79.69
235.349	71.69
235.583	77.69
235.817	71.69
236.051	69.69
236.285	70.69
236.519	74.69
236.753	66.69
236.987	85.69
237.221	72.69
237.455	76.69
237.689	79.69
237.922	67.69
238.156	81.69
238.39	80.69
238.624	76.69
238.858	75.69
239.091	59.69
239.325	77.69
239.559	78.69
239.793	81.69
240.027	72.69
240.26	68.69
240.494	75.69
240.728	69.69
240.961	79.69
241.195	78.69
241.429	83.69
241.662	60.69
241.896	64.69
242.13	63.69
242.363	77.69
242.597	80.69
242.83	72.69
243.064	80.69
243.298	80.69
243.531	87.69
243.765	73.69
243.998	70.69
244.232	78.69
244.465	82.69
244.699	86.69
244.932	62.69
245.166	71.69
245.399	72.69
245.633	81.69
245.866	76.69
246.099	71.69
246.333	87.69
246.566	73.69
246.8	67.69
247.033	85.69
247.266	79.69
247.5	76.69
247.733	64.69
247.966	70.69
248.2	80.69
248.433	65.69
248.666	73.69
248.899	79.69
249.133	88.69
249.366	64.69
249.599	70.69
249.832	72.69
250.066	72.69
250.299	80.69
250.532	87.69
250.765	72.69
250.998	83.69
251.231	68.69
251.465	85.69
251.698	69.69
251.931	64.69
252.164	77.69
252.397	76.69
252.63	79.69
252.863	83.69
253.096	73.69
253.329	97.69
253.562	76.69
253.795	71.69
254.028	84.69
254.261	72.69
254.494	67.69
254.727	75.69
254.96	81.69
255.193	73.69
255.426	79.69
255.659	88.69
255.892	93.69
256.124	83.69
256.357	68.69
256.59	61.69
256.823	64.69
257.056	73.69
257.289	79.69
257.521	78.69
257.754	55.69
257.987	87.69
258.22	76.69
258.452	74.69
258.685	82.69
258.918	78.69
259.151	77.69
259.383	74.69
259.616	69.69
259.849	86.69
260.081	72.69
260.314	89.69
260.547	87.69
260.779	76.69
261.012	68.69
261.244	67.69
261.477	86.69
261.71	81.69
261.942	66.69
262.175	75.69
262.407	83.69
262.64	73.69
262.872	87.69
263.105	83.69
263.337	83.69
263.57	70.69
263.802	76.69
264.035	83.69
264.267	69.69
264.499	87.69
264.732	86.69
264.964	85.69
265.197	89.69
265.429	85.69
265.661	89.69
265.894	77.69
266.126	73.69
266.358	73.69
266.591	73.69
266.823	71.69
267.055	77.69
267.287	79.69
267.52	74.69
267.752	92.69
267.984	78.69
268.216	64.69
268.448	73.69
268.681	99.69
268.913	91.69
269.145	82.69
269.377	77.69
269.609	69.69
269.841	71.69
270.073	80.69
270.306	63.69
270.538	83.69
270.77	80.69
271.002	77.69
271.234	67.69
271.466	90.69
271.698	90.69
271.93	79.69
272.162	89.69
272.394	68.69
272.626	76.69
272.858	74.69
273.09	87.69
273.322	79.69
273.553	73.69
273.785	72.69
274.017	81.69
274.249	71.69
274.481	90.69
274.713	83.69
274.945	77.69
275.176	82.69
275.408	81.69
275.64	73.69
275.872	76.69
276.104	81.69
276.335	69.69
276.567	81.69
276.799	75.69
277.031	81.69
277.262	84.69
277.494	79.69
277.726	86.69
277.957	86.69
278.189	84.69
278.421	91.69
278.652	73.69
278.884	60.69
279.115	75.69
279.347	87.69
279.579	79.69
279.81	81.69
280.042	86.69
280.273	73.69
280.505	85.69
280.736	76.69
280.968	84.69
281.199	67.69
281.431	72.69
281.662	63.69
281.894	78.69
282.125	79.69
282.356	78.69
282.588	91.69
282.819	83.69
283.051	84.69
283.282	79.69
283.513	90.69
283.745	73.69
283.976	78.69
284.207	82.69
284.439	67.69
284.67	86.69
284.901	86.69
285.132	79.69
285.364	84.69
285.595	83.69
285.826	84.69
286.057	69.69
286.288	78.69
286.52	77.69
286.751	87.69
286.982	72.69
287.213	74.69
287.444	76.69
287.675	90.69
287.906	87.69
288.138	76.69
288.369	70.69
288.6	81.69
288.831	79.69
289.062	82.69
289.293	82.69
289.524	59.69
289.755	75.69
289.986	81.69
290.217	81.69
290.448	84.69
290.679	73.69
290.91	80.69
291.141	83.69
291.371	70.69
291.602	89.69
291.833	78.69
292.064	84.69
292.295	78.69
292.526	77.69
292.757	79.69
292.987	68.69
293.218	76.69
293.449	83.69
293.68	85.69
293.91	88.69
294.141	86.69
294.372	74.69
294.603	81.69
294.833	83.69
295.064	73.69
295.295	80.69
295.525	83.69
295.756	71.69
295.987	89.69
296.217	73.69
296.448	88.69
296.679	91.69
296.909	87.69
297.14	76.69
297.37	85.69
297.601	69.69
297.831	80.69
298.062	73.69
298.292	90.69
298.523	77.69
298.753	78.69
298.984	74.69
299.214	84.69
299.445	76.69
299.675	79.69
299.905	69.69
300.136	79.69
300.366	73.69
300.597	82.69
300.827	84.69
301.057	79.69
301.288	88.69
301.518	80.69
301.748	77.69
301.979	80.69
302.209	80.69
302.439	72.69
302.669	77.69
302.9	84.69
303.13	80.69
303.36	75.69
303.59	79.69
303.82	73.69
304.051	82.69
304.281	69.69
304.511	79.69
304.741	94.69
304.971	79.69
305.201	80.69
305.431	78.69
305.661	79.69
305.891	85.69
306.121	86.69
306.352	79.69
306.582	93.69
306.812	97.69
307.042	88.69
307.272	70.69
307.502	87.69
307.731	87.69
307.961	76.69
308.191	79.69
308.421	88.69
308.651	94.69
308.881	83.69
309.111	79.69
309.341	80.69
309.571	72.69
309.8	84.69
310.03	86.69
310.26	92.69
310.49	95.69
310.72	84.69
310.949	86.69
311.179	94.69
311.409	86.69
311.639	83.69
311.868	84.69
312.098	79.69
312.328	91.69
312.557	79.69
312.787	84.69
313.017	67.69
313.246	63.69
313.476	72.69
313.706	87.69
313.935	72.69
314.165	89.69
314.394	78.69
314.624	75.69
314.853	72.69
315.083	73.69
315.312	84.69
315.542	82.69
315.771	83.69
316.001	74.69
316.23	89.69
316.46	73.69
316.689	86.69
316.919	85.69
317.148	87.69
317.377	73.69
317.607	85.69
317.836	84.69
318.065	79.69
318.295	76.69
318.524	89.69
318.753	92.69
318.983	70.69
319.212	85.69
319.441	94.69
319.67	95.69
319.9	92.69
320.129	90.69
320.358	79.69
320.587	72.69
320.816	81.69
321.046	82.69
321.275	80.69
321.504	75.69
321.733	80.69
321.962	87.69
322.191	78.69
322.42	92.69
322.649	86.69
322.878	84.69
323.108	81.69
323.337	71.69
323.566	75.69
323.795	76.69
324.024	64.69
324.253	62.69
324.482	69.69
324.71	85.69
324.939	91.69
325.168	81.69
325.397	84.69
325.626	78.69
325.855	81.69
326.084	84.69
326.313	83.69
326.542	88.69
326.77	63.69
326.999	83.69
327.228	79.69
327.457	68.69
327.686	77.69
327.914	86.69
328.143	78.69
328.372	93.69
328.6	83.69
328.829	78.69
329.058	92.69
329.287	79.69
329.515	85.69
329.744	70.69
329.972	79.69
330.201	87.69
330.43	82.69
330.658	77.69
330.887	83.69
331.115	84.69
331.344	76.69
331.572	73.69
331.801	75.69
332.03	79.69
332.258	84.69
332.486	83.69
332.715	84.69
332.943	95.69
333.172	79.69
333.4	76.69
333.629	80.69
333.857	92.69
334.085	76.69
334.314	91.69
334.542	77.69
334.771	80.69
334.999	92.69
335.227	82.69
335.455	79.69
335.684	71.69
335.912	76.69
336.14	72.69
336.369	72.69
336.597	77.69
336.825	88.69
337.053	74.69
337.281	86.69
337.51	84.69
337.738	76.69
337.966	79.69
338.194	83.69
338.422	68.69
338.65	101.69
338.878	79.69
339.106	79.69
339.334	65.69
339.562	85.69
339.79	85.69
340.018	83.69
340.246	81.69
340.474	78.69
340.702	85.69
340.93	76.69
341.158	82.69
341.386	69.69
341.614	86.69
341.842	77.69
342.07	75.69
342.298	79.69
342.526	69.69
342.754	66.69
342.981	68.69
343.209	79.69
343.437	80.69
343.665	65.69
343.893	93.69
344.12	77.69
344.348	59.69
344.576	81.69
344.804	62.69
345.031	68.69
345.259	92.69
345.487	70.69
345.714	79.69
345.942	80.69
346.17	84.69
346.397	85.69
346.625	86.69
346.853	83.69
347.08	96.69
347.308	91.69
347.535	62.69
347.763	85.69
347.99	72.69
348.218	94.69
348.445	75.69
348.673	63.69
348.9	84.69
349.128	80.69
349.355	88.69
349.583	82.69
349.81	87.69
350.037	96.69
350.265	75.69
350.492	83.69
350.72	75.69
350.947	86.69
351.174	69.69
351.402	82.69
351.629	67.69
351.856	77.69
352.083	79.69
352.311	88.69
352.538	72.69
352.765	70.69
352.992	85.69
353.22	86.69
353.447	84.69
353.674	87.69
353.901	73.69
354.128	70.69
354.355	82.69
354.583	74.69
354.81	90.69
355.037	90.69
355.264	75.69
355.491	68.69
355.718	76.69
355.945	79.69
356.172	81.69
356.399	88.69
356.626	82.69
356.853	76.69
357.08	82.69
357.307	88.69
357.534	88.69
357.761	77.69
357.988	87.69
358.215	77.69
358.441	88.69
358.668	91.69
358.895	79.69
359.122	68.69
359.349	77.69
359.576	87.69
359.802	79.69
360.029	77.69
360.256	65.69
360.483	77.69
360.709	89.69
360.936	82.69
361.163	61.69
361.39	83.69
361.616	71.69
361.843	83.69
362.07	75.69
362.296	92.69
362.523	72.69
362.749	87.69
362.976	94.69
363.203	79.69
363.429	82.69
363.656	76.69
363.882	86.69
364.109	81.69
364.335	77.69
364.562	73.69
364.788	73.69
365.015	80.69
365.241	89.69
365.468	78.69
365.694	72.69
365.92	69.69
366.147	88.69
366.373	88.69
366.599	97.69
366.826	92.69
367.052	86.69
367.278	90.69
367.505	87.69
367.731	87.69
367.957	76.69
368.184	95.69
368.41	94.69
368.636	84.69
368.862	87.69
369.089	73.69
369.315	88.69
369.541	105.69
369.767	92.69
369.993	73.69
370.219	78.69
370.445	73.69
370.672	91.69
370.898	105.69
371.124	95.69
371.35	88.69
371.576	81.69
371.802	102.69
372.028	78.69
372.254	83.69
372.48	92.69
372.706	81.69
372.932	95.69
373.158	88.69
373.384	94.69
373.61	94.69
373.835	79.69
374.061	89.69
374.287	92.69
374.513	90.69
374.739	79.69
374.965	92.69
375.191	88.69
375.416	96.69
375.642	110.69
375.868	85.69
376.094	90.69
376.319	83.69
376.545	83.69
376.771	79.69
376.997	94.69
377.222	86.69
377.448	95.69
377.674	91.69
377.899	96.69
378.125	79.69
378.35	75.69
378.576	84.69
378.802	85.69
379.027	94.69
379.253	94.69
379.478	92.69
379.704	98.69
379.929	93.69
380.155	94.69
380.38	96.69
380.606	104.69
380.831	93.69
381.057	85.69
381.282	91.69
381.507	83.69
381.733	85.69
381.958	95.69
382.184	101.69
382.409	100.69
382.634	96.69
382.86	97.69
383.085	99.69
383.31	105.69
383.535	101.69
383.761	65.69
383.986	95.69
384.211	94.69
384.436	98.69
384.662	103.69
384.887	99.69
385.112	83.69
385.337	97.69
385.562	93.69
385.787	97.69
386.013	115.69
386.238	97.69
386.463	101.69
386.688	94.69
386.913	97.69
387.138	93.69
387.363	96.69
387.588	100.69
387.813	91.69
388.038	79.69
388.263	88.69
388.488	108.69
388.713	101.69
388.938	118.69
389.163	107.69
389.387	109.69
389.612	99.69
389.837	102.69
390.062	97.69
390.287	90.69
390.512	113.69
390.736	118.69
390.961	109.69
391.186	104.69
391.411	101.69
391.636	121.69
391.86	102.69
392.085	102.69
392.31	85.69
392.534	111.69
392.759	93.69
392.984	100.69
393.208	100.69
393.433	112.69
393.658	115.69
393.882	110.69
394.107	98.69
394.331	101.69
394.556	113.69
394.78	98.69
395.005	107.69
395.229	115.69
395.454	105.69
395.678	120.69
395.903	114.69
396.127	116.69
396.352	105.69
396.576	102.69
396.801	108.69
397.025	96.69
397.249	117.69
397.474	115.69
397.698	110.69
397.922	97.69
398.147	114.69
398.371	100.69
398.595	123.69
398.82	111.69
399.044	100.69
399.268	117.69
399.492	119.69
399.717	106.69
399.941	117.69
400.165	105.69
400.389	102.69
400.613	109.69
400.837	102.69
401.062	117.69
401.286	121.69
401.51	119.69
401.734	119.69
401.958	118.69
402.182	103.69
402.406	110.69
402.63	114.69
402.854	118.69
403.078	103.69
403.302	111.69
403.526	119.69
403.75	112.69
403.974	110.69
404.198	127.69
404.422	113.69
404.645	132.69
404.869	107.69
405.093	100.69
405.317	114.69
405.541	137.69
405.765	126.69
405.988	99.69
406.212	121.69
406.436	119.69
406.66	117.69
406.883	115.69
407.107	116.69
407.331	130.69
407.555	117.69
407.778	110.69
408.002	119.69
408.226	114.69
408.449	117.69
408.673	111.69
408.896	115.69
409.12	119.69
409.344	119.69
409.567	104.69
409.791	113.69
410.014	123.69
410.238	115.69
410.461	114.69
410.685	136.69
410.908	118.69
411.132	123.69
411.355	117.69
411.578	129.69
411.802	129.69
412.025	116.69
412.249	111.69
412.472	117.69
412.695	116.69
412.919	125.69
413.142	121.69
413.365	119.69
413.589	115.69
413.812	103.69
414.035	129.69
414.258	128.69
414.482	114.69
414.705	129.69
414.928	117.69
415.151	135.69
415.374	118.69
415.597	125.69
415.821	125.69
416.044	122.69
416.267	136.69
416.49	129.69
416.713	120.69
416.936	116.69
417.159	126.69
417.382	123.69
417.605	128.69
417.828	135.69
418.051	135.69
418.274	130.69
418.497	127.69
418.72	121.69
418.943	134.69
419.166	133.69
419.389	119.69
419.611	121.69
419.834	130.69
420.057	121.69
420.28	139.69
420.503	137.69
420.726	140.69
420.948	119.69
421.171	149.69
421.394	132.69
421.617	135.69
421.839	142.69
422.062	139.69
422.285	131.69
422.507	120.69
422.73	132.69
422.953	125.69
423.175	121.69
423.398	136.69
423.621	136.69
423.843	138.69
424.066	130.69
424.288	141.69
424.511	157.69
424.733	152.69
424.956	144.69
425.178	135.69
425.401	135.69
425.623	137.69
425.846	114.69
426.068	142.69
426.291	128.69
426.513	127.69
426.735	126.69
426.958	141.69
427.18	141.69
427.402	140.69
427.625	125.69
427.847	122.69
428.069	137.69
428.292	128.69
428.514	143.69
428.736	137.69
428.958	131.69
429.181	119.69
429.403	121.69
429.625	137.69
429.847	145.69
430.069	143.69
430.292	129.69
430.514	129.69
430.736	137.69
430.958	133.69
431.18	135.69
431.402	125.69
431.624	125.69
431.846	107.69
432.068	73.69
432.29	100.69
432.512	127.69
432.734	115.69
432.956	132.69
433.178	143.69
433.4	137.69
433.622	131.69
433.844	125.69
434.066	118.69
434.287	112.69
434.509	101.69
434.731	103.69
434.953	107.69
435.175	123.69
435.397	146.69
435.618	124.69
435.84	116.69
436.062	115.69
436.284	125.69
436.505	116.69
436.727	119.69
436.949	145.69
437.17	125.69
437.392	117.69
437.614	132.69
437.835	99.69
438.057	95.69
438.278	110.69
438.5	128.69
438.721	137.69
438.943	146.69
439.165	157.69
439.386	140.69
439.608	147.69
439.829	143.69
440.05	154.69
440.272	143.69
440.493	131.69
440.715	144.69
440.936	143.69
441.158	164.69
441.379	161.69
441.6	148.69
441.822	141.69
442.043	135.69
442.264	141.69
442.486	148.69
442.707	145.69
442.928	145.69
443.149	147.69
443.371	139.69
443.592	149.69
443.813	127.69
444.034	127.69
444.255	144.69
444.476	151.69
444.698	136.69
444.919	135.69
445.14	288.69
445.361	191.69
445.582	141.69
445.803	159.69
446.024	162.69
446.245	151.69
446.466	164.69
446.687	155.69
446.908	156.69
447.129	160.69
447.35	147.69
447.571	159.69
447.792	157.69
448.013	137.69
448.234	155.69
448.455	145.69
448.675	142.69
448.896	145.69
449.117	139.69
449.338	134.69
449.559	131.69
449.779	136.69
450	147.69
450.221	143.69
450.442	143.69
450.662	127.69
450.883	133.69
451.104	129.69
451.324	127.69
451.545	134.69
451.766	147.69
451.986	136.69
452.207	120.69
452.428	131.69
452.648	136.69
452.869	133.69
453.089	114.69
453.31	115.69
453.53	108.69
453.751	112.69
453.971	113.69
454.192	91.69
454.412	109.69
454.633	119.69
454.853	116.69
455.073	134.69
455.294	149.69
455.514	122.69
455.734	114.69
455.955	119.69
456.175	101.69
456.395	108.69
456.616	109.69
456.836	107.69
457.056	108.69
457.276	103.69
457.497	102.69
457.717	109.69
457.937	107.69
458.157	124.69
458.377	104.69
458.598	107.69
458.818	103.69
459.038	84.69
459.258	96.69
459.478	83.69
459.698	93.69
459.918	103.69
460.138	104.69
460.358	125.69
460.578	116.69
460.798	113.69
461.018	102.69
461.238	122.69
461.458	126.69
461.678	117.69
461.898	116.69
462.118	117.69
462.338	99.69
462.558	119.69
462.777	109.69
462.997	119.69
463.217	107.69
463.437	108.69
463.657	108.69
463.876	116.69
464.096	104.69
464.316	109.69
464.536	119.69
464.755	117.69
464.975	116.69
465.195	120.69
465.414	120.69
465.634	122.69
465.854	112.69
466.073	126.69
466.293	121.69
466.512	120.69
466.732	133.69
466.951	123.69
467.171	131.69
467.391	128.69
467.61	140.69
467.829	139.69
468.049	129.69
468.268	125.69
468.488	140.69
468.707	123.69
468.927	125.69
469.146	131.69
469.365	129.69
469.585	131.69
469.804	137.69
470.023	141.69
470.243	151.69
470.462	131.69
470.681	157.69
470.901	148.69
471.12	128.69
471.339	135.69
471.558	147.69
471.777	137.69
471.997	136.69
472.216	128.69
472.435	131.69
472.654	94.69
472.873	119.69
473.092	110.69
473.311	117.69
473.53	115.69
473.749	127.69
473.968	136.69
474.187	128.69
474.406	116.69
474.625	107.69
474.844	140.69
475.063	121.69
475.282	135.69
475.501	121.69
475.72	121.69
475.939	116.69
476.158	132.69
476.377	120.69
476.596	119.69
476.814	119.69
477.033	90.69
477.252	114.69
477.471	115.69
477.69	122.69
477.908	155.69
478.127	135.69
478.346	144.69
478.564	139.69
478.783	145.69
479.002	143.69
479.22	126.69
479.439	135.69
479.658	129.69
479.876	123.69
480.095	111.69
480.313	116.69
480.532	119.69
480.751	108.69
480.969	86.69
481.188	91.69
481.406	80.69
481.624	99.69
481.843	85.69
482.061	95.69
482.28	105.69
482.498	127.69
482.717	109.69
482.935	121.69
483.153	132.69
483.372	153.69
483.59	167.69
483.808	141.69
484.027	128.69
484.245	137.69
484.463	154.69
484.681	166.69
484.9	148.69
485.118	151.69
485.336	127.69
485.554	118.69
485.772	90.69
485.99	104.69
486.209	104.69
486.427	114.69
486.645	120.69
486.863	138.69
487.081	146.69
487.299	133.69
487.517	145.69
487.735	193.69
487.953	197.69
488.171	180.69
488.389	172.69
488.607	175.69
488.825	151.69
489.043	146.69
489.261	140.69
489.479	135.69
489.696	141.69
489.914	149.69
490.132	147.69
490.35	150.69
490.568	160.69
490.786	174.69
491.003	166.69
491.221	191.69
491.439	191.69
491.657	198.69
491.874	220.69
492.092	228.69
492.31	265.69
492.527	225.69
492.745	212.69
492.963	207.69
493.18	195.69
493.398	201.69
493.615	202.69
493.833	190.69
494.05	189.69
494.268	174.69
494.485	171.69
494.703	178.69
494.92	177.69
495.138	173.69
495.355	184.69
495.573	178.69
495.79	169.69
496.008	183.69
496.225	163.69
496.442	156.69
496.66	174.69
496.877	152.69
497.094	165.69
497.312	163.69
497.529	168.69
497.746	151.69
497.963	139.69
498.181	118.69
498.398	121.69
498.615	140.69
498.832	129.69
499.049	119.69
499.267	131.69
499.484	121.69
499.701	134.69
499.918	135.69
500.135	142.69
500.352	148.69
500.569	157.69
500.786	141.69
501.003	152.69
501.22	145.69
501.437	146.69
501.654	118.69
501.871	125.69
502.088	123.69
502.305	137.69
502.522	130.69
502.739	134.69
502.956	121.69
503.172	120.69
503.389	129.69
503.606	135.69
503.823	113.69
504.04	102.69
504.256	112.69
504.473	103.69
504.69	119.69
504.907	116.69
505.123	125.69
505.34	124.69
505.557	116.69
505.773	107.69
505.99	127.69
506.207	137.69
506.423	111.69
506.64	128.69
506.856	128.69
507.073	127.69
507.289	101.69
507.506	111.69
507.722	113.69
507.939	117.69
508.155	112.69
508.372	110.69
508.588	112.69
508.805	115.69
509.021	111.69
509.238	105.69
509.454	97.69
509.67	100.69
509.887	96.69
510.103	75.69
510.319	86.69
510.536	93.69
510.752	93.69
510.968	105.69
511.184	75.69
511.401	91.69
511.617	79.69
511.833	83.69
