Data from Location6.07152019.Energy5.Lamp.07192019.3%Agarose_HRD10591_16-12-44-395.txt Node
Date: Fri Jul 19 16:12:44 EDT 2019
User: cochatt
Spectrometer: HR+D1059
Trigger mode: 1
Integration Time (sec): 1.000000E-1
Scans to average: 1
Electric dark correction enabled: true
Nonlinearity correction enabled: false
Boxcar width: 0
XAxis mode: Wavelengths
Number of Pixels in Spectrum: 2048
>>>>>Begin Spectral Data<<<<<
223.165	-12.44
223.4	-12.44
223.635	-12.44
223.869	-19.44
224.104	-22.44
224.338	-12.44
224.573	-3.44
224.808	-17.44
225.042	-13.44
225.277	-0.44
225.511	5.56
225.746	1.56
225.98	14.56
226.215	3.56
226.449	21.56
226.683	16.56
226.918	21.56
227.152	16.56
227.387	31.56
227.621	36.56
227.856	52.56
228.09	48.56
228.324	38.56
228.559	56.56
228.793	57.56
229.027	62.56
229.262	65.56
229.496	63.56
229.73	70.56
229.964	60.56
230.199	71.56
230.433	86.56
230.667	67.56
230.901	59.56
231.136	83.56
231.37	74.56
231.604	79.56
231.838	76.56
232.072	88.56
232.306	74.56
232.541	81.56
232.775	75.56
233.009	74.56
233.243	78.56
233.477	81.56
233.711	83.56
233.945	96.56
234.179	89.56
234.413	85.56
234.647	78.56
234.881	66.56
235.115	79.56
235.349	84.56
235.583	87.56
235.817	92.56
236.051	80.56
236.285	91.56
236.519	64.56
236.753	64.56
236.987	73.56
237.221	75.56
237.455	73.56
237.689	73.56
237.922	78.56
238.156	77.56
238.39	82.56
238.624	66.56
238.858	72.56
239.091	80.56
239.325	76.56
239.559	73.56
239.793	72.56
240.027	69.56
240.26	82.56
240.494	77.56
240.728	73.56
240.961	75.56
241.195	91.56
241.429	76.56
241.662	80.56
241.896	66.56
242.13	74.56
242.363	74.56
242.597	73.56
242.83	84.56
243.064	70.56
243.298	81.56
243.531	78.56
243.765	75.56
243.998	80.56
244.232	73.56
244.465	75.56
244.699	76.56
244.932	73.56
245.166	69.56
245.399	73.56
245.633	74.56
245.866	67.56
246.099	74.56
246.333	80.56
246.566	79.56
246.8	75.56
247.033	68.56
247.266	74.56
247.5	71.56
247.733	72.56
247.966	89.56
248.2	78.56
248.433	63.56
248.666	68.56
248.899	84.56
249.133	79.56
249.366	79.56
249.599	80.56
249.832	75.56
250.066	72.56
250.299	66.56
250.532	88.56
250.765	85.56
250.998	79.56
251.231	82.56
251.465	86.56
251.698	75.56
251.931	77.56
252.164	81.56
252.397	76.56
252.63	78.56
252.863	74.56
253.096	81.56
253.329	79.56
253.562	82.56
253.795	75.56
254.028	80.56
254.261	75.56
254.494	91.56
254.727	93.56
254.96	73.56
255.193	68.56
255.426	71.56
255.659	78.56
255.892	85.56
256.124	80.56
256.357	86.56
256.59	73.56
256.823	78.56
257.056	85.56
257.289	74.56
257.521	81.56
257.754	73.56
257.987	82.56
258.22	71.56
258.452	74.56
258.685	75.56
258.918	91.56
259.151	94.56
259.383	103.56
259.616	82.56
259.849	78.56
260.081	83.56
260.314	86.56
260.547	67.56
260.779	64.56
261.012	64.56
261.244	91.56
261.477	80.56
261.71	81.56
261.942	79.56
262.175	74.56
262.407	72.56
262.64	82.56
262.872	90.56
263.105	71.56
263.337	75.56
263.57	75.56
263.802	80.56
264.035	81.56
264.267	71.56
264.499	79.56
264.732	77.56
264.964	93.56
265.197	83.56
265.429	80.56
265.661	84.56
265.894	76.56
266.126	71.56
266.358	63.56
266.591	71.56
266.823	79.56
267.055	71.56
267.287	80.56
267.52	64.56
267.752	70.56
267.984	86.56
268.216	94.56
268.448	85.56
268.681	82.56
268.913	85.56
269.145	79.56
269.377	82.56
269.609	74.56
269.841	82.56
270.073	80.56
270.306	76.56
270.538	87.56
270.77	83.56
271.002	79.56
271.234	77.56
271.466	77.56
271.698	76.56
271.93	83.56
272.162	72.56
272.394	68.56
272.626	82.56
272.858	86.56
273.09	95.56
273.322	76.56
273.553	87.56
273.785	95.56
274.017	89.56
274.249	75.56
274.481	85.56
274.713	91.56
274.945	88.56
275.176	81.56
275.408	78.56
275.64	73.56
275.872	88.56
276.104	90.56
276.335	88.56
276.567	86.56
276.799	77.56
277.031	71.56
277.262	88.56
277.494	86.56
277.726	80.56
277.957	90.56
278.189	88.56
278.421	86.56
278.652	84.56
278.884	90.56
279.115	73.56
279.347	80.56
279.579	77.56
279.81	83.56
280.042	87.56
280.273	82.56
280.505	77.56
280.736	90.56
280.968	83.56
281.199	66.56
281.431	84.56
281.662	77.56
281.894	90.56
282.125	69.56
282.356	87.56
282.588	84.56
282.819	77.56
283.051	79.56
283.282	80.56
283.513	94.56
283.745	89.56
283.976	99.56
284.207	75.56
284.439	80.56
284.67	84.56
284.901	83.56
285.132	88.56
285.364	86.56
285.595	97.56
285.826	83.56
286.057	94.56
286.288	77.56
286.52	87.56
286.751	88.56
286.982	82.56
287.213	98.56
287.444	86.56
287.675	93.56
287.906	92.56
288.138	87.56
288.369	93.56
288.6	91.56
288.831	80.56
289.062	83.56
289.293	91.56
289.524	87.56
289.755	74.56
289.986	94.56
290.217	72.56
290.448	89.56
290.679	75.56
290.91	84.56
291.141	91.56
291.371	65.56
291.602	84.56
291.833	82.56
292.064	95.56
292.295	101.56
292.526	78.56
292.757	93.56
292.987	78.56
293.218	64.56
293.449	77.56
293.68	90.56
293.91	78.56
294.141	86.56
294.372	73.56
294.603	98.56
294.833	99.56
295.064	83.56
295.295	84.56
295.525	90.56
295.756	84.56
295.987	74.56
296.217	78.56
296.448	82.56
296.679	79.56
296.909	78.56
297.14	94.56
297.37	77.56
297.601	59.56
297.831	74.56
298.062	76.56
298.292	83.56
298.523	75.56
298.753	89.56
298.984	80.56
299.214	74.56
299.445	91.56
299.675	74.56
299.905	80.56
300.136	89.56
300.366	92.56
300.597	82.56
300.827	97.56
301.057	81.56
301.288	89.56
301.518	81.56
301.748	80.56
301.979	81.56
302.209	79.56
302.439	83.56
302.669	84.56
302.9	85.56
303.13	86.56
303.36	86.56
303.59	85.56
303.82	91.56
304.051	71.56
304.281	89.56
304.511	80.56
304.741	82.56
304.971	85.56
305.201	103.56
305.431	72.56
305.661	81.56
305.891	87.56
306.121	76.56
306.352	67.56
306.582	61.56
306.812	87.56
307.042	85.56
307.272	81.56
307.502	76.56
307.731	83.56
307.961	95.56
308.191	75.56
308.421	85.56
308.651	88.56
308.881	84.56
309.111	90.56
309.341	81.56
309.571	86.56
309.8	86.56
310.03	76.56
310.26	75.56
310.49	75.56
310.72	80.56
310.949	76.56
311.179	83.56
311.409	73.56
311.639	88.56
311.868	87.56
312.098	92.56
312.328	83.56
312.557	92.56
312.787	87.56
313.017	83.56
313.246	87.56
313.476	86.56
313.706	92.56
313.935	95.56
314.165	95.56
314.394	84.56
314.624	73.56
314.853	88.56
315.083	75.56
315.312	84.56
315.542	91.56
315.771	89.56
316.001	80.56
316.23	74.56
316.46	84.56
316.689	66.56
316.919	80.56
317.148	93.56
317.377	80.56
317.607	76.56
317.836	92.56
318.065	91.56
318.295	87.56
318.524	81.56
318.753	86.56
318.983	89.56
319.212	88.56
319.441	77.56
319.67	82.56
319.9	85.56
320.129	70.56
320.358	76.56
320.587	76.56
320.816	90.56
321.046	82.56
321.275	74.56
321.504	82.56
321.733	85.56
321.962	86.56
322.191	92.56
322.42	68.56
322.649	66.56
322.878	98.56
323.108	87.56
323.337	83.56
323.566	86.56
323.795	90.56
324.024	96.56
324.253	85.56
324.482	88.56
324.71	102.56
324.939	94.56
325.168	79.56
325.397	73.56
325.626	83.56
325.855	87.56
326.084	80.56
326.313	76.56
326.542	75.56
326.77	82.56
326.999	60.56
327.228	86.56
327.457	89.56
327.686	80.56
327.914	76.56
328.143	77.56
328.372	92.56
328.6	91.56
328.829	83.56
329.058	71.56
329.287	89.56
329.515	80.56
329.744	81.56
329.972	72.56
330.201	91.56
330.43	82.56
330.658	91.56
330.887	97.56
331.115	80.56
331.344	85.56
331.572	78.56
331.801	86.56
332.03	78.56
332.258	98.56
332.486	77.56
332.715	98.56
332.943	90.56
333.172	97.56
333.4	81.56
333.629	84.56
333.857	71.56
334.085	81.56
334.314	83.56
334.542	90.56
334.771	90.56
334.999	86.56
335.227	91.56
335.455	87.56
335.684	97.56
335.912	88.56
336.14	75.56
336.369	80.56
336.597	90.56
336.825	79.56
337.053	67.56
337.281	87.56
337.51	83.56
337.738	84.56
337.966	82.56
338.194	88.56
338.422	71.56
338.65	85.56
338.878	94.56
339.106	73.56
339.334	88.56
339.562	79.56
339.79	94.56
340.018	89.56
340.246	78.56
340.474	86.56
340.702	81.56
340.93	76.56
341.158	91.56
341.386	98.56
341.614	91.56
341.842	79.56
342.07	103.56
342.298	76.56
342.526	82.56
342.754	76.56
342.981	91.56
343.209	77.56
343.437	84.56
343.665	84.56
343.893	96.56
344.12	90.56
344.348	86.56
344.576	88.56
344.804	88.56
345.031	80.56
345.259	85.56
345.487	74.56
345.714	88.56
345.942	87.56
346.17	81.56
346.397	83.56
346.625	86.56
346.853	87.56
347.08	85.56
347.308	89.56
347.535	75.56
347.763	84.56
347.99	88.56
348.218	86.56
348.445	79.56
348.673	88.56
348.9	76.56
349.128	60.56
349.355	85.56
349.583	65.56
349.81	80.56
350.037	95.56
350.265	91.56
350.492	80.56
350.72	65.56
350.947	97.56
351.174	86.56
351.402	91.56
351.629	86.56
351.856	88.56
352.083	71.56
352.311	73.56
352.538	72.56
352.765	77.56
352.992	83.56
353.22	84.56
353.447	85.56
353.674	88.56
353.901	83.56
354.128	80.56
354.355	86.56
354.583	83.56
354.81	67.56
355.037	74.56
355.264	101.56
355.491	82.56
355.718	77.56
355.945	86.56
356.172	87.56
356.399	92.56
356.626	65.56
356.853	74.56
357.08	85.56
357.307	79.56
357.534	88.56
357.761	80.56
357.988	84.56
358.215	83.56
358.441	84.56
358.668	92.56
358.895	82.56
359.122	83.56
359.349	88.56
359.576	89.56
359.802	84.56
360.029	80.56
360.256	89.56
360.483	93.56
360.709	97.56
360.936	83.56
361.163	88.56
361.39	74.56
361.616	88.56
361.843	94.56
362.07	83.56
362.296	81.56
362.523	94.56
362.749	84.56
362.976	76.56
363.203	74.56
363.429	81.56
363.656	80.56
363.882	91.56
364.109	72.56
364.335	73.56
364.562	87.56
364.788	77.56
365.015	83.56
365.241	88.56
365.468	85.56
365.694	81.56
365.92	90.56
366.147	90.56
366.373	92.56
366.599	80.56
366.826	83.56
367.052	85.56
367.278	84.56
367.505	86.56
367.731	94.56
367.957	81.56
368.184	88.56
368.41	83.56
368.636	90.56
368.862	86.56
369.089	83.56
369.315	94.56
369.541	97.56
369.767	98.56
369.993	81.56
370.219	88.56
370.445	90.56
370.672	91.56
370.898	90.56
371.124	91.56
371.35	97.56
371.576	97.56
371.802	98.56
372.028	82.56
372.254	87.56
372.48	89.56
372.706	102.56
372.932	87.56
373.158	102.56
373.384	94.56
373.61	98.56
373.835	97.56
374.061	105.56
374.287	91.56
374.513	108.56
374.739	94.56
374.965	86.56
375.191	95.56
375.416	97.56
375.642	92.56
375.868	105.56
376.094	91.56
376.319	84.56
376.545	84.56
376.771	105.56
376.997	93.56
377.222	97.56
377.448	95.56
377.674	85.56
377.899	96.56
378.125	102.56
378.35	101.56
378.576	95.56
378.802	84.56
379.027	89.56
379.253	99.56
379.478	100.56
379.704	114.56
379.929	100.56
380.155	99.56
380.38	84.56
380.606	95.56
380.831	98.56
381.057	94.56
381.282	96.56
381.507	88.56
381.733	96.56
381.958	89.56
382.184	105.56
382.409	119.56
382.634	76.56
382.86	75.56
383.085	103.56
383.31	109.56
383.535	110.56
383.761	104.56
383.986	104.56
384.211	99.56
384.436	99.56
384.662	103.56
384.887	111.56
385.112	89.56
385.337	98.56
385.562	102.56
385.787	92.56
386.013	115.56
386.238	90.56
386.463	95.56
386.688	86.56
386.913	94.56
387.138	114.56
387.363	113.56
387.588	105.56
387.813	87.56
388.038	102.56
388.263	95.56
388.488	86.56
388.713	103.56
388.938	104.56
389.163	97.56
389.387	103.56
389.612	116.56
389.837	98.56
390.062	110.56
390.287	108.56
390.512	110.56
390.736	108.56
390.961	107.56
391.186	107.56
391.411	92.56
391.636	112.56
391.86	101.56
392.085	120.56
392.31	103.56
392.534	127.56
392.759	112.56
392.984	88.56
393.208	92.56
393.433	86.56
393.658	106.56
393.882	116.56
394.107	108.56
394.331	120.56
394.556	114.56
394.78	105.56
395.005	117.56
395.229	105.56
395.454	113.56
395.678	96.56
395.903	104.56
396.127	113.56
396.352	108.56
396.576	99.56
396.801	106.56
397.025	120.56
397.249	114.56
397.474	103.56
397.698	114.56
397.922	117.56
398.147	101.56
398.371	113.56
398.595	109.56
398.82	102.56
399.044	124.56
399.268	120.56
399.492	106.56
399.717	122.56
399.941	118.56
400.165	126.56
400.389	113.56
400.613	103.56
400.837	118.56
401.062	110.56
401.286	110.56
401.51	119.56
401.734	111.56
401.958	129.56
402.182	122.56
402.406	117.56
402.63	111.56
402.854	119.56
403.078	97.56
403.302	103.56
403.526	112.56
403.75	103.56
403.974	122.56
404.198	117.56
404.422	124.56
404.645	130.56
404.869	128.56
405.093	99.56
405.317	122.56
405.541	115.56
405.765	101.56
405.988	115.56
406.212	116.56
406.436	122.56
406.66	122.56
406.883	131.56
407.107	132.56
407.331	121.56
407.555	118.56
407.778	122.56
408.002	119.56
408.226	119.56
408.449	121.56
408.673	120.56
408.896	127.56
409.12	120.56
409.344	127.56
409.567	123.56
409.791	130.56
410.014	126.56
410.238	123.56
410.461	132.56
410.685	128.56
410.908	132.56
411.132	125.56
411.355	110.56
411.578	120.56
411.802	142.56
412.025	114.56
412.249	120.56
412.472	123.56
412.695	106.56
412.919	126.56
413.142	122.56
413.365	132.56
413.589	129.56
413.812	136.56
414.035	137.56
414.258	128.56
414.482	111.56
414.705	124.56
414.928	131.56
415.151	136.56
415.374	132.56
415.597	122.56
415.821	124.56
416.044	129.56
416.267	121.56
416.49	126.56
416.713	121.56
416.936	123.56
417.159	134.56
417.382	118.56
417.605	112.56
417.828	139.56
418.051	140.56
418.274	147.56
418.497	138.56
418.72	134.56
418.943	131.56
419.166	151.56
419.389	148.56
419.611	131.56
419.834	137.56
420.057	125.56
420.28	133.56
420.503	139.56
420.726	147.56
420.948	143.56
421.171	137.56
421.394	143.56
421.617	146.56
421.839	149.56
422.062	146.56
422.285	139.56
422.507	134.56
422.73	145.56
422.953	123.56
423.175	124.56
423.398	126.56
423.621	132.56
423.843	136.56
424.066	154.56
424.288	144.56
424.511	143.56
424.733	152.56
424.956	145.56
425.178	139.56
425.401	140.56
425.623	148.56
425.846	143.56
426.068	135.56
426.291	127.56
426.513	133.56
426.735	133.56
426.958	134.56
427.18	126.56
427.402	114.56
427.625	113.56
427.847	141.56
428.069	135.56
428.292	127.56
428.514	130.56
428.736	131.56
428.958	116.56
429.181	134.56
429.403	140.56
429.625	129.56
429.847	141.56
430.069	139.56
430.292	123.56
430.514	114.56
430.736	126.56
430.958	128.56
431.18	140.56
431.402	131.56
431.624	115.56
431.846	116.56
432.068	100.56
432.29	76.56
432.512	118.56
432.734	122.56
432.956	146.56
433.178	137.56
433.4	148.56
433.622	153.56
433.844	132.56
434.066	128.56
434.287	115.56
434.509	107.56
434.731	100.56
434.953	101.56
435.175	128.56
435.397	133.56
435.618	121.56
435.84	118.56
436.062	116.56
436.284	134.56
436.505	137.56
436.727	146.56
436.949	127.56
437.17	132.56
437.392	131.56
437.614	141.56
437.835	117.56
438.057	116.56
438.278	119.56
438.5	136.56
438.721	129.56
438.943	136.56
439.165	143.56
439.386	145.56
439.608	147.56
439.829	156.56
440.05	147.56
440.272	139.56
440.493	151.56
440.715	140.56
440.936	138.56
441.158	137.56
441.379	146.56
441.6	154.56
441.822	151.56
442.043	155.56
442.264	155.56
442.486	140.56
442.707	129.56
442.928	147.56
443.149	137.56
443.371	151.56
443.592	146.56
443.813	149.56
444.034	164.56
444.255	141.56
444.476	151.56
444.698	138.56
444.919	137.56
445.14	256.56
445.361	197.56
445.582	150.56
445.803	146.56
446.024	178.56
446.245	159.56
446.466	170.56
446.687	167.56
446.908	183.56
447.129	150.56
447.35	156.56
447.571	149.56
447.792	155.56
448.013	156.56
448.234	150.56
448.455	151.56
448.675	150.56
448.896	138.56
449.117	142.56
449.338	134.56
449.559	141.56
449.779	143.56
450	150.56
450.221	160.56
450.442	146.56
450.662	147.56
450.883	134.56
451.104	152.56
451.324	136.56
451.545	141.56
451.766	127.56
451.986	131.56
452.207	126.56
452.428	128.56
452.648	135.56
452.869	138.56
453.089	115.56
453.31	118.56
453.53	119.56
453.751	116.56
453.971	113.56
454.192	130.56
454.412	107.56
454.633	124.56
454.853	126.56
455.073	122.56
455.294	123.56
455.514	133.56
455.734	118.56
455.955	119.56
456.175	107.56
456.395	106.56
456.616	118.56
456.836	104.56
457.056	116.56
457.276	112.56
457.497	121.56
457.717	118.56
457.937	114.56
458.157	100.56
458.377	107.56
458.598	82.56
458.818	107.56
459.038	91.56
459.258	101.56
459.478	92.56
459.698	92.56
459.918	102.56
460.138	107.56
460.358	116.56
460.578	114.56
460.798	131.56
461.018	112.56
461.238	118.56
461.458	120.56
461.678	118.56
461.898	111.56
462.118	119.56
462.338	118.56
462.558	119.56
462.777	126.56
462.997	125.56
463.217	116.56
463.437	122.56
463.657	100.56
463.876	118.56
464.096	106.56
464.316	118.56
464.536	117.56
464.755	119.56
464.975	120.56
465.195	120.56
465.414	120.56
465.634	121.56
465.854	130.56
466.073	127.56
466.293	119.56
466.512	151.56
466.732	121.56
466.951	138.56
467.171	136.56
467.391	130.56
467.61	128.56
467.829	144.56
468.049	128.56
468.268	134.56
468.488	153.56
468.707	145.56
468.927	139.56
469.146	132.56
469.365	138.56
469.585	136.56
469.804	126.56
470.023	140.56
470.243	139.56
470.462	151.56
470.681	162.56
470.901	152.56
471.12	140.56
471.339	152.56
471.558	148.56
471.777	144.56
471.997	150.56
472.216	140.56
472.435	133.56
472.654	121.56
472.873	115.56
473.092	106.56
473.311	118.56
473.53	144.56
473.749	146.56
473.968	134.56
474.187	140.56
474.406	110.56
474.625	124.56
474.844	138.56
475.063	143.56
475.282	134.56
475.501	122.56
475.72	119.56
475.939	122.56
476.158	137.56
476.377	129.56
476.596	125.56
476.814	130.56
477.033	118.56
477.252	117.56
477.471	134.56
477.69	141.56
477.908	150.56
478.127	156.56
478.346	136.56
478.564	138.56
478.783	135.56
479.002	144.56
479.22	147.56
479.439	137.56
479.658	128.56
479.876	118.56
480.095	113.56
480.313	124.56
480.532	127.56
480.751	120.56
480.969	105.56
481.188	90.56
481.406	96.56
481.624	90.56
481.843	85.56
482.061	97.56
482.28	119.56
482.498	108.56
482.717	104.56
482.935	125.56
483.153	129.56
483.372	159.56
483.59	165.56
483.808	153.56
484.027	140.56
484.245	141.56
484.463	169.56
484.681	175.56
484.9	155.56
485.118	150.56
485.336	133.56
485.554	118.56
485.772	105.56
485.99	110.56
486.209	113.56
486.427	121.56
486.645	131.56
486.863	130.56
487.081	139.56
487.299	142.56
487.517	150.56
487.735	170.56
487.953	183.56
488.171	186.56
488.389	161.56
488.607	161.56
488.825	143.56
489.043	149.56
489.261	141.56
489.479	143.56
489.696	151.56
489.914	141.56
490.132	146.56
490.35	159.56
490.568	168.56
490.786	164.56
491.003	184.56
491.221	198.56
491.439	193.56
491.657	205.56
491.874	213.56
492.092	228.56
492.31	262.56
492.527	232.56
492.745	205.56
492.963	204.56
493.18	198.56
493.398	195.56
493.615	201.56
493.833	193.56
494.05	185.56
494.268	177.56
494.485	164.56
494.703	178.56
494.92	180.56
495.138	175.56
495.355	166.56
495.573	173.56
495.79	184.56
496.008	183.56
496.225	184.56
496.442	164.56
496.66	163.56
496.877	179.56
497.094	165.56
497.312	166.56
497.529	180.56
497.746	154.56
497.963	150.56
498.181	138.56
498.398	134.56
498.615	115.56
498.832	116.56
499.049	121.56
499.267	120.56
499.484	119.56
499.701	143.56
499.918	140.56
500.135	158.56
500.352	143.56
500.569	158.56
500.786	136.56
501.003	144.56
501.22	135.56
501.437	142.56
501.654	149.56
501.871	142.56
502.088	132.56
502.305	128.56
502.522	135.56
502.739	141.56
502.956	142.56
503.172	135.56
503.389	121.56
503.606	114.56
503.823	127.56
504.04	116.56
504.256	129.56
504.473	118.56
504.69	119.56
504.907	131.56
505.123	126.56
505.34	127.56
505.557	127.56
505.773	138.56
505.99	124.56
506.207	137.56
506.423	131.56
506.64	120.56
506.856	122.56
507.073	110.56
507.289	120.56
507.506	119.56
507.722	125.56
507.939	128.56
508.155	123.56
508.372	122.56
508.588	117.56
508.805	107.56
509.021	120.56
509.238	110.56
509.454	114.56
509.67	102.56
509.887	102.56
510.103	107.56
510.319	98.56
510.536	86.56
510.752	87.56
510.968	90.56
511.184	80.56
511.401	95.56
