Data from Location6.07152019.Energy5.Lamp.07192019.3%Agarose_HRD10591_16-11-23-400.txt Node
Date: Fri Jul 19 16:11:23 EDT 2019
User: cochatt
Spectrometer: HR+D1059
Trigger mode: 1
Integration Time (sec): 1.000000E-1
Scans to average: 1
Electric dark correction enabled: true
Nonlinearity correction enabled: false
Boxcar width: 0
XAxis mode: Wavelengths
Number of Pixels in Spectrum: 2048
>>>>>Begin Spectral Data<<<<<
223.165	-5.5
223.4	-5.5
223.635	-5.5
223.869	-20.5
224.104	-15.5
224.338	-19.5
224.573	-25.5
224.808	-4.5
225.042	-15.5
225.277	-13.5
225.511	1.5
225.746	8.5
225.98	10.5
226.215	7.5
226.449	18.5
226.683	4.5
226.918	36.5
227.152	32.5
227.387	30.5
227.621	30.5
227.856	41.5
228.09	42.5
228.324	42.5
228.559	60.5
228.793	69.5
229.027	59.5
229.262	77.5
229.496	76.5
229.73	74.5
229.964	62.5
230.199	69.5
230.433	77.5
230.667	73.5
230.901	91.5
231.136	83.5
231.37	82.5
231.604	67.5
231.838	92.5
232.072	83.5
232.306	79.5
232.541	84.5
232.775	74.5
233.009	89.5
233.243	86.5
233.477	88.5
233.711	72.5
233.945	81.5
234.179	83.5
234.413	77.5
234.647	83.5
234.881	73.5
235.115	88.5
235.349	78.5
235.583	84.5
235.817	77.5
236.051	83.5
236.285	77.5
236.519	73.5
236.753	73.5
236.987	82.5
237.221	69.5
237.455	75.5
237.689	84.5
237.922	81.5
238.156	76.5
238.39	78.5
238.624	69.5
238.858	76.5
239.091	81.5
239.325	81.5
239.559	88.5
239.793	67.5
240.027	80.5
240.26	82.5
240.494	73.5
240.728	60.5
240.961	74.5
241.195	78.5
241.429	71.5
241.662	74.5
241.896	90.5
242.13	87.5
242.363	73.5
242.597	73.5
242.83	80.5
243.064	79.5
243.298	83.5
243.531	69.5
243.765	84.5
243.998	89.5
244.232	97.5
244.465	83.5
244.699	81.5
244.932	75.5
245.166	83.5
245.399	66.5
245.633	72.5
245.866	71.5
246.099	81.5
246.333	86.5
246.566	90.5
246.8	92.5
247.033	85.5
247.266	89.5
247.5	69.5
247.733	74.5
247.966	63.5
248.2	93.5
248.433	74.5
248.666	86.5
248.899	90.5
249.133	69.5
249.366	79.5
249.599	82.5
249.832	77.5
250.066	77.5
250.299	76.5
250.532	89.5
250.765	81.5
250.998	84.5
251.231	86.5
251.465	87.5
251.698	66.5
251.931	92.5
252.164	82.5
252.397	78.5
252.63	77.5
252.863	80.5
253.096	89.5
253.329	69.5
253.562	83.5
253.795	74.5
254.028	87.5
254.261	87.5
254.494	69.5
254.727	95.5
254.96	64.5
255.193	91.5
255.426	65.5
255.659	75.5
255.892	57.5
256.124	78.5
256.357	76.5
256.59	77.5
256.823	72.5
257.056	83.5
257.289	82.5
257.521	72.5
257.754	96.5
257.987	83.5
258.22	79.5
258.452	85.5
258.685	82.5
258.918	86.5
259.151	84.5
259.383	96.5
259.616	72.5
259.849	79.5
260.081	79.5
260.314	87.5
260.547	81.5
260.779	82.5
261.012	77.5
261.244	77.5
261.477	86.5
261.71	71.5
261.942	87.5
262.175	78.5
262.407	78.5
262.64	78.5
262.872	82.5
263.105	86.5
263.337	72.5
263.57	66.5
263.802	91.5
264.035	70.5
264.267	81.5
264.499	92.5
264.732	80.5
264.964	87.5
265.197	77.5
265.429	86.5
265.661	66.5
265.894	81.5
266.126	93.5
266.358	95.5
266.591	77.5
266.823	85.5
267.055	77.5
267.287	83.5
267.52	88.5
267.752	92.5
267.984	97.5
268.216	83.5
268.448	89.5
268.681	73.5
268.913	80.5
269.145	80.5
269.377	90.5
269.609	85.5
269.841	75.5
270.073	90.5
270.306	79.5
270.538	80.5
270.77	80.5
271.002	82.5
271.234	84.5
271.466	80.5
271.698	81.5
271.93	95.5
272.162	93.5
272.394	97.5
272.626	84.5
272.858	86.5
273.09	87.5
273.322	84.5
273.553	82.5
273.785	89.5
274.017	84.5
274.249	92.5
274.481	92.5
274.713	87.5
274.945	78.5
275.176	101.5
275.408	95.5
275.64	80.5
275.872	79.5
276.104	67.5
276.335	80.5
276.567	71.5
276.799	70.5
277.031	82.5
277.262	98.5
277.494	99.5
277.726	96.5
277.957	84.5
278.189	80.5
278.421	80.5
278.652	79.5
278.884	78.5
279.115	83.5
279.347	83.5
279.579	78.5
279.81	80.5
280.042	76.5
280.273	81.5
280.505	78.5
280.736	104.5
280.968	80.5
281.199	95.5
281.431	82.5
281.662	81.5
281.894	95.5
282.125	84.5
282.356	88.5
282.588	76.5
282.819	77.5
283.051	81.5
283.282	83.5
283.513	64.5
283.745	80.5
283.976	92.5
284.207	93.5
284.439	85.5
284.67	76.5
284.901	80.5
285.132	88.5
285.364	83.5
285.595	91.5
285.826	81.5
286.057	86.5
286.288	88.5
286.52	81.5
286.751	75.5
286.982	88.5
287.213	76.5
287.444	81.5
287.675	89.5
287.906	64.5
288.138	95.5
288.369	96.5
288.6	87.5
288.831	87.5
289.062	77.5
289.293	91.5
289.524	85.5
289.755	84.5
289.986	73.5
290.217	94.5
290.448	82.5
290.679	78.5
290.91	92.5
291.141	76.5
291.371	96.5
291.602	80.5
291.833	87.5
292.064	108.5
292.295	98.5
292.526	99.5
292.757	84.5
292.987	74.5
293.218	86.5
293.449	91.5
293.68	77.5
293.91	82.5
294.141	84.5
294.372	74.5
294.603	87.5
294.833	63.5
295.064	94.5
295.295	83.5
295.525	71.5
295.756	77.5
295.987	77.5
296.217	88.5
296.448	83.5
296.679	84.5
296.909	76.5
297.14	89.5
297.37	86.5
297.601	88.5
297.831	106.5
298.062	80.5
298.292	80.5
298.523	91.5
298.753	92.5
298.984	85.5
299.214	90.5
299.445	83.5
299.675	84.5
299.905	95.5
300.136	86.5
300.366	93.5
300.597	86.5
300.827	88.5
301.057	68.5
301.288	85.5
301.518	87.5
301.748	83.5
301.979	75.5
302.209	80.5
302.439	74.5
302.669	77.5
302.9	84.5
303.13	100.5
303.36	88.5
303.59	80.5
303.82	87.5
304.051	92.5
304.281	89.5
304.511	99.5
304.741	91.5
304.971	76.5
305.201	97.5
305.431	73.5
305.661	78.5
305.891	100.5
306.121	102.5
306.352	71.5
306.582	83.5
306.812	69.5
307.042	93.5
307.272	90.5
307.502	89.5
307.731	84.5
307.961	94.5
308.191	85.5
308.421	86.5
308.651	85.5
308.881	91.5
309.111	83.5
309.341	82.5
309.571	74.5
309.8	79.5
310.03	79.5
310.26	83.5
310.49	81.5
310.72	83.5
310.949	79.5
311.179	72.5
311.409	87.5
311.639	79.5
311.868	87.5
312.098	73.5
312.328	81.5
312.557	74.5
312.787	86.5
313.017	102.5
313.246	85.5
313.476	89.5
313.706	91.5
313.935	85.5
314.165	70.5
314.394	87.5
314.624	89.5
314.853	85.5
315.083	83.5
315.312	84.5
315.542	88.5
315.771	97.5
316.001	96.5
316.23	83.5
316.46	81.5
316.689	85.5
316.919	77.5
317.148	86.5
317.377	100.5
317.607	88.5
317.836	83.5
318.065	86.5
318.295	81.5
318.524	86.5
318.753	84.5
318.983	78.5
319.212	79.5
319.441	89.5
319.67	82.5
319.9	85.5
320.129	91.5
320.358	72.5
320.587	84.5
320.816	84.5
321.046	86.5
321.275	81.5
321.504	77.5
321.733	99.5
321.962	103.5
322.191	89.5
322.42	87.5
322.649	85.5
322.878	85.5
323.108	82.5
323.337	61.5
323.566	85.5
323.795	93.5
324.024	85.5
324.253	90.5
324.482	89.5
324.71	84.5
324.939	76.5
325.168	87.5
325.397	97.5
325.626	86.5
325.855	84.5
326.084	92.5
326.313	83.5
326.542	95.5
326.77	81.5
326.999	84.5
327.228	85.5
327.457	70.5
327.686	84.5
327.914	83.5
328.143	85.5
328.372	84.5
328.6	89.5
328.829	80.5
329.058	69.5
329.287	90.5
329.515	75.5
329.744	96.5
329.972	79.5
330.201	79.5
330.43	83.5
330.658	92.5
330.887	95.5
331.115	76.5
331.344	85.5
331.572	74.5
331.801	76.5
332.03	71.5
332.258	84.5
332.486	80.5
332.715	81.5
332.943	82.5
333.172	75.5
333.4	82.5
333.629	95.5
333.857	85.5
334.085	81.5
334.314	89.5
334.542	84.5
334.771	80.5
334.999	80.5
335.227	81.5
335.455	88.5
335.684	93.5
335.912	94.5
336.14	106.5
336.369	87.5
336.597	77.5
336.825	80.5
337.053	85.5
337.281	85.5
337.51	82.5
337.738	89.5
337.966	84.5
338.194	83.5
338.422	92.5
338.65	83.5
338.878	97.5
339.106	70.5
339.334	87.5
339.562	68.5
339.79	89.5
340.018	85.5
340.246	81.5
340.474	73.5
340.702	91.5
340.93	96.5
341.158	89.5
341.386	92.5
341.614	84.5
341.842	87.5
342.07	87.5
342.298	86.5
342.526	87.5
342.754	100.5
342.981	73.5
343.209	88.5
343.437	88.5
343.665	72.5
343.893	81.5
344.12	106.5
344.348	98.5
344.576	96.5
344.804	83.5
345.031	85.5
345.259	93.5
345.487	86.5
345.714	86.5
345.942	92.5
346.17	83.5
346.397	83.5
346.625	85.5
346.853	84.5
347.08	77.5
347.308	90.5
347.535	92.5
347.763	91.5
347.99	85.5
348.218	77.5
348.445	77.5
348.673	88.5
348.9	69.5
349.128	95.5
349.355	96.5
349.583	82.5
349.81	89.5
350.037	99.5
350.265	91.5
350.492	93.5
350.72	66.5
350.947	71.5
351.174	84.5
351.402	82.5
351.629	84.5
351.856	80.5
352.083	84.5
352.311	104.5
352.538	92.5
352.765	88.5
352.992	97.5
353.22	89.5
353.447	93.5
353.674	69.5
353.901	87.5
354.128	95.5
354.355	77.5
354.583	90.5
354.81	87.5
355.037	83.5
355.264	87.5
355.491	86.5
355.718	86.5
355.945	83.5
356.172	79.5
356.399	74.5
356.626	67.5
356.853	98.5
357.08	88.5
357.307	88.5
357.534	82.5
357.761	100.5
357.988	100.5
358.215	93.5
358.441	71.5
358.668	86.5
358.895	93.5
359.122	93.5
359.349	85.5
359.576	91.5
359.802	80.5
360.029	68.5
360.256	91.5
360.483	89.5
360.709	98.5
360.936	85.5
361.163	91.5
361.39	75.5
361.616	74.5
361.843	80.5
362.07	96.5
362.296	88.5
362.523	94.5
362.749	78.5
362.976	89.5
363.203	83.5
363.429	90.5
363.656	86.5
363.882	73.5
364.109	91.5
364.335	86.5
364.562	98.5
364.788	102.5
365.015	99.5
365.241	71.5
365.468	82.5
365.694	81.5
365.92	86.5
366.147	78.5
366.373	76.5
366.599	94.5
366.826	89.5
367.052	83.5
367.278	98.5
367.505	91.5
367.731	86.5
367.957	77.5
368.184	84.5
368.41	100.5
368.636	82.5
368.862	77.5
369.089	93.5
369.315	91.5
369.541	100.5
369.767	91.5
369.993	105.5
370.219	80.5
370.445	81.5
370.672	102.5
370.898	104.5
371.124	98.5
371.35	102.5
371.576	89.5
371.802	93.5
372.028	96.5
372.254	93.5
372.48	90.5
372.706	93.5
372.932	81.5
373.158	95.5
373.384	89.5
373.61	99.5
373.835	94.5
374.061	83.5
374.287	86.5
374.513	99.5
374.739	92.5
374.965	92.5
375.191	96.5
375.416	87.5
375.642	83.5
375.868	95.5
376.094	102.5
376.319	103.5
376.545	105.5
376.771	87.5
376.997	95.5
377.222	89.5
377.448	84.5
377.674	111.5
377.899	85.5
378.125	91.5
378.35	97.5
378.576	95.5
378.802	88.5
379.027	106.5
379.253	103.5
379.478	92.5
379.704	101.5
379.929	97.5
380.155	89.5
380.38	106.5
380.606	95.5
380.831	106.5
381.057	107.5
381.282	83.5
381.507	89.5
381.733	93.5
381.958	85.5
382.184	112.5
382.409	94.5
382.634	98.5
382.86	109.5
383.085	104.5
383.31	105.5
383.535	104.5
383.761	104.5
383.986	99.5
384.211	97.5
384.436	90.5
384.662	92.5
384.887	95.5
385.112	93.5
385.337	101.5
385.562	102.5
385.787	97.5
386.013	103.5
386.238	100.5
386.463	100.5
386.688	94.5
386.913	106.5
387.138	97.5
387.363	97.5
387.588	108.5
387.813	111.5
388.038	101.5
388.263	100.5
388.488	102.5
388.713	93.5
388.938	98.5
389.163	111.5
389.387	103.5
389.612	95.5
389.837	91.5
390.062	100.5
390.287	103.5
390.512	98.5
390.736	119.5
390.961	114.5
391.186	103.5
391.411	115.5
391.636	105.5
391.86	103.5
392.085	115.5
392.31	111.5
392.534	104.5
392.759	97.5
392.984	101.5
393.208	99.5
393.433	112.5
393.658	100.5
393.882	115.5
394.107	112.5
394.331	113.5
394.556	121.5
394.78	108.5
395.005	100.5
395.229	103.5
395.454	108.5
395.678	119.5
395.903	116.5
396.127	102.5
396.352	112.5
396.576	112.5
396.801	105.5
397.025	113.5
397.249	117.5
397.474	115.5
397.698	114.5
397.922	112.5
398.147	122.5
398.371	106.5
398.595	122.5
398.82	127.5
399.044	119.5
399.268	109.5
399.492	115.5
399.717	129.5
399.941	96.5
400.165	116.5
400.389	107.5
400.613	109.5
400.837	128.5
401.062	113.5
401.286	103.5
401.51	114.5
401.734	121.5
401.958	116.5
402.182	116.5
402.406	112.5
402.63	113.5
402.854	121.5
403.078	110.5
403.302	112.5
403.526	123.5
403.75	126.5
403.974	107.5
404.198	123.5
404.422	119.5
404.645	111.5
404.869	136.5
405.093	118.5
405.317	112.5
405.541	127.5
405.765	118.5
405.988	117.5
406.212	122.5
406.436	130.5
406.66	103.5
406.883	123.5
407.107	135.5
407.331	123.5
407.555	121.5
407.778	122.5
408.002	115.5
408.226	123.5
408.449	111.5
408.673	121.5
408.896	114.5
409.12	127.5
409.344	123.5
409.567	127.5
409.791	135.5
410.014	139.5
410.238	124.5
410.461	117.5
410.685	137.5
410.908	122.5
411.132	133.5
411.355	121.5
411.578	126.5
411.802	118.5
412.025	118.5
412.249	122.5
412.472	123.5
412.695	127.5
412.919	118.5
413.142	137.5
413.365	131.5
413.589	125.5
413.812	127.5
414.035	134.5
414.258	121.5
414.482	136.5
414.705	122.5
414.928	114.5
415.151	122.5
415.374	125.5
415.597	118.5
415.821	108.5
416.044	121.5
416.267	119.5
416.49	126.5
416.713	133.5
416.936	134.5
417.159	119.5
417.382	117.5
417.605	128.5
417.828	127.5
418.051	120.5
418.274	123.5
418.497	133.5
418.72	133.5
418.943	135.5
419.166	138.5
419.389	135.5
419.611	137.5
419.834	146.5
420.057	131.5
420.28	139.5
420.503	134.5
420.726	129.5
420.948	151.5
421.171	133.5
421.394	152.5
421.617	145.5
421.839	149.5
422.062	141.5
422.285	124.5
422.507	138.5
422.73	133.5
422.953	120.5
423.175	122.5
423.398	127.5
423.621	133.5
423.843	132.5
424.066	141.5
424.288	143.5
424.511	148.5
424.733	158.5
424.956	162.5
425.178	149.5
425.401	139.5
425.623	137.5
425.846	133.5
426.068	138.5
426.291	147.5
426.513	124.5
426.735	148.5
426.958	136.5
427.18	137.5
427.402	127.5
427.625	138.5
427.847	135.5
428.069	127.5
428.292	121.5
428.514	132.5
428.736	131.5
428.958	139.5
429.181	131.5
429.403	127.5
429.625	127.5
429.847	124.5
430.069	124.5
430.292	120.5
430.514	139.5
430.736	132.5
430.958	122.5
431.18	129.5
431.402	125.5
431.624	132.5
431.846	122.5
432.068	93.5
432.29	105.5
432.512	119.5
432.734	123.5
432.956	143.5
433.178	140.5
433.4	150.5
433.622	148.5
433.844	147.5
434.066	132.5
434.287	113.5
434.509	120.5
434.731	117.5
434.953	123.5
435.175	128.5
435.397	126.5
435.618	120.5
435.84	112.5
436.062	108.5
436.284	118.5
436.505	145.5
436.727	144.5
436.949	141.5
437.17	145.5
437.392	129.5
437.614	124.5
437.835	125.5
438.057	123.5
438.278	113.5
438.5	140.5
438.721	145.5
438.943	127.5
439.165	145.5
439.386	139.5
439.608	152.5
439.829	151.5
440.05	156.5
440.272	145.5
440.493	151.5
440.715	157.5
440.936	134.5
441.158	153.5
441.379	150.5
441.6	149.5
441.822	145.5
442.043	161.5
442.264	151.5
442.486	142.5
442.707	151.5
442.928	138.5
443.149	131.5
443.371	156.5
443.592	147.5
443.813	162.5
444.034	159.5
444.255	133.5
444.476	155.5
444.698	158.5
444.919	159.5
445.14	277.5
445.361	212.5
445.582	157.5
445.803	166.5
446.024	145.5
446.245	150.5
446.466	159.5
446.687	146.5
446.908	162.5
447.129	163.5
447.35	157.5
447.571	146.5
447.792	141.5
448.013	151.5
448.234	139.5
448.455	149.5
448.675	147.5
448.896	151.5
449.117	155.5
449.338	144.5
449.559	151.5
449.779	141.5
450	137.5
450.221	147.5
450.442	146.5
450.662	145.5
450.883	150.5
451.104	141.5
451.324	123.5
451.545	143.5
451.766	117.5
451.986	127.5
452.207	127.5
452.428	117.5
452.648	129.5
452.869	124.5
453.089	121.5
453.31	108.5
453.53	118.5
453.751	110.5
453.971	96.5
454.192	115.5
454.412	116.5
454.633	118.5
454.853	125.5
455.073	125.5
455.294	133.5
455.514	124.5
455.734	122.5
455.955	118.5
456.175	121.5
456.395	113.5
456.616	120.5
456.836	118.5
457.056	112.5
457.276	115.5
457.497	104.5
457.717	111.5
457.937	103.5
458.157	132.5
458.377	109.5
458.598	111.5
458.818	96.5
459.038	97.5
459.258	93.5
459.478	90.5
459.698	97.5
459.918	81.5
460.138	113.5
460.358	123.5
460.578	123.5
460.798	123.5
461.018	121.5
461.238	123.5
461.458	125.5
461.678	116.5
461.898	125.5
462.118	129.5
462.338	117.5
462.558	107.5
462.777	109.5
462.997	125.5
463.217	110.5
463.437	102.5
463.657	104.5
463.876	114.5
464.096	119.5
464.316	125.5
464.536	116.5
464.755	123.5
464.975	125.5
465.195	122.5
465.414	126.5
465.634	127.5
465.854	123.5
466.073	115.5
466.293	103.5
466.512	127.5
466.732	120.5
466.951	149.5
467.171	131.5
467.391	119.5
467.61	145.5
467.829	137.5
468.049	142.5
468.268	125.5
468.488	141.5
468.707	141.5
468.927	149.5
469.146	140.5
469.365	135.5
469.585	137.5
469.804	146.5
470.023	133.5
470.243	152.5
470.462	160.5
470.681	157.5
470.901	139.5
471.12	144.5
471.339	145.5
471.558	144.5
471.777	144.5
471.997	129.5
472.216	133.5
472.435	127.5
472.654	105.5
472.873	114.5
473.092	130.5
473.311	125.5
473.53	129.5
473.749	136.5
473.968	126.5
474.187	135.5
474.406	108.5
474.625	135.5
474.844	131.5
475.063	119.5
475.282	144.5
475.501	120.5
475.72	103.5
475.939	132.5
476.158	127.5
476.377	117.5
476.596	131.5
476.814	132.5
477.033	121.5
477.252	120.5
477.471	133.5
477.69	151.5
477.908	139.5
478.127	129.5
478.346	161.5
478.564	147.5
478.783	139.5
479.002	136.5
479.22	140.5
479.439	134.5
479.658	128.5
479.876	120.5
480.095	119.5
480.313	124.5
480.532	114.5
480.751	116.5
480.969	82.5
481.188	89.5
481.406	92.5
481.624	88.5
481.843	95.5
482.061	107.5
482.28	122.5
482.498	117.5
482.717	99.5
482.935	137.5
483.153	138.5
483.372	140.5
483.59	158.5
483.808	145.5
484.027	148.5
484.245	133.5
484.463	159.5
484.681	175.5
484.9	155.5
485.118	142.5
485.336	132.5
485.554	118.5
485.772	104.5
485.99	97.5
486.209	117.5
486.427	94.5
486.645	132.5
486.863	145.5
487.081	149.5
487.299	131.5
487.517	151.5
487.735	167.5
487.953	203.5
488.171	205.5
488.389	184.5
488.607	177.5
488.825	138.5
489.043	137.5
489.261	131.5
489.479	136.5
489.696	151.5
489.914	153.5
490.132	141.5
490.35	155.5
490.568	162.5
490.786	177.5
491.003	191.5
491.221	187.5
491.439	176.5
491.657	207.5
491.874	219.5
492.092	248.5
492.31	267.5
492.527	250.5
492.745	216.5
492.963	204.5
493.18	215.5
493.398	194.5
493.615	181.5
493.833	185.5
494.05	184.5
494.268	177.5
494.485	187.5
494.703	187.5
494.92	172.5
495.138	163.5
495.355	188.5
495.573	187.5
495.79	187.5
496.008	175.5
496.225	178.5
496.442	180.5
496.66	186.5
496.877	173.5
497.094	183.5
497.312	180.5
497.529	165.5
497.746	151.5
497.963	133.5
498.181	125.5
498.398	124.5
498.615	127.5
498.832	122.5
499.049	129.5
499.267	117.5
499.484	132.5
499.701	142.5
499.918	148.5
500.135	139.5
500.352	147.5
500.569	154.5
500.786	146.5
501.003	145.5
501.22	168.5
501.437	150.5
501.654	150.5
501.871	150.5
502.088	135.5
502.305	137.5
502.522	133.5
502.739	124.5
502.956	131.5
503.172	125.5
503.389	128.5
503.606	124.5
503.823	117.5
504.04	116.5
504.256	135.5
504.473	120.5
504.69	125.5
504.907	124.5
505.123	132.5
505.34	126.5
505.557	122.5
505.773	130.5
505.99	115.5
506.207	121.5
506.423	132.5
506.64	117.5
506.856	135.5
507.073	120.5
507.289	113.5
507.506	117.5
507.722	131.5
507.939	114.5
508.155	111.5
508.372	121.5
508.588	114.5
508.805	124.5
509.021	91.5
509.238	120.5
509.454	106.5
509.67	114.5
509.887	105.5
510.103	95.5
510.319	98.5
510.536	90.5
510.752	87.5
510.968	104.5
511.184	87.5
511.401	80.5
511.617	99.5
511.833	87.5
512.049	83.5
512.265	81.5
512.481	88.5
512.698	99.5
512.914	106.5
513.13	91.5
513.346	96.5
513.562	100.5
513.778	102.5
513.994	91.5
514.21	102.5
514.426	108.5
514.642	96.5
514.858	80.5
515.074	73.5
515.29	99.5
515.506	98.5
515.721	109.5
515.937	100.5
516.153	99.5
516.369	94.5
516.585	89.5
516.801	89.5
517.016	74.5
517.232	88.5
517.448	89.5
517.664	101.5
517.879	95.5
518.095	103.5
518.311	96.5
518.527	96.5
518.742	93.5
518.958	117.5
519.173	121.5
519.389	105.5
519.605	122.5
519.82	117.5
520.036	116.5
520.251	109.5
520.467	119.5
520.682	103.5
520.898	99.5
521.113	85.5
521.329	90.5
521.544	81.5
521.76	80.5
521.975	106.5
522.19	100.5
522.406	92.5
522.621	92.5
522.836	116.5
523.052	118.5
523.267	105.5
523.482	117.5
523.698	125.5
523.913	117.5
524.128	115.5
524.343	132.5
524.559	124.5
524.774	121.5
524.989	120.5
525.204	122.5
525.419	142.5
525.634	111.5
525.849	115.5
526.064	115.5
526.28	105.5
526.495	102.5
526.71	98.5
526.925	83.5
527.14	103.5
527.355	96.5
527.57	84.5
527.785	98.5
527.999	111.5
528.214	113.5
528.429	126.5
528.644	113.5
528.859	145.5
529.074	153.5
529.289	188.5
529.503	168.5
529.718	146.5
529.933	130.5
530.148	111.5
530.363	102.5
