Data from Location6.07152019.Energy5.Lamp.07192019.3%Agarose_HRD10591_16-12-57-395.txt Node
Date: Fri Jul 19 16:12:57 EDT 2019
User: cochatt
Spectrometer: HR+D1059
Trigger mode: 1
Integration Time (sec): 1.000000E-1
Scans to average: 1
Electric dark correction enabled: true
Nonlinearity correction enabled: false
Boxcar width: 0
XAxis mode: Wavelengths
Number of Pixels in Spectrum: 2048
>>>>>Begin Spectral Data<<<<<
223.165	-6.44
223.4	-6.44
223.635	-6.44
223.869	-20.44
224.104	-6.44
224.338	-14.44
224.573	-17.44
224.808	-14.44
225.042	4.56
225.277	-24.44
225.511	-11.44
225.746	11.56
225.98	2.56
226.215	8.56
226.449	18.56
226.683	16.56
226.918	21.56
227.152	31.56
227.387	24.56
227.621	39.56
227.856	56.56
228.09	42.56
228.324	52.56
228.559	50.56
228.793	59.56
229.027	56.56
229.262	50.56
229.496	70.56
229.73	70.56
229.964	70.56
230.199	78.56
230.433	86.56
230.667	63.56
230.901	79.56
231.136	72.56
231.37	66.56
231.604	71.56
231.838	96.56
232.072	85.56
232.306	91.56
232.541	76.56
232.775	82.56
233.009	75.56
233.243	96.56
233.477	83.56
233.711	94.56
233.945	70.56
234.179	78.56
234.413	86.56
234.647	73.56
234.881	66.56
235.115	93.56
235.349	59.56
235.583	79.56
235.817	79.56
236.051	76.56
236.285	80.56
236.519	86.56
236.753	81.56
236.987	73.56
237.221	76.56
237.455	64.56
237.689	68.56
237.922	86.56
238.156	70.56
238.39	76.56
238.624	62.56
238.858	78.56
239.091	70.56
239.325	80.56
239.559	87.56
239.793	86.56
240.027	73.56
240.26	85.56
240.494	85.56
240.728	94.56
240.961	73.56
241.195	74.56
241.429	73.56
241.662	70.56
241.896	70.56
242.13	94.56
242.363	75.56
242.597	86.56
242.83	78.56
243.064	68.56
243.298	70.56
243.531	63.56
243.765	74.56
243.998	72.56
244.232	82.56
244.465	76.56
244.699	88.56
244.932	85.56
245.166	77.56
245.399	76.56
245.633	82.56
245.866	65.56
246.099	77.56
246.333	64.56
246.566	89.56
246.8	80.56
247.033	82.56
247.266	82.56
247.5	83.56
247.733	69.56
247.966	84.56
248.2	86.56
248.433	84.56
248.666	79.56
248.899	76.56
249.133	82.56
249.366	75.56
249.599	83.56
249.832	77.56
250.066	66.56
250.299	77.56
250.532	75.56
250.765	70.56
250.998	91.56
251.231	65.56
251.465	82.56
251.698	80.56
251.931	81.56
252.164	87.56
252.397	83.56
252.63	73.56
252.863	67.56
253.096	83.56
253.329	81.56
253.562	79.56
253.795	85.56
254.028	90.56
254.261	70.56
254.494	86.56
254.727	80.56
254.96	66.56
255.193	88.56
255.426	72.56
255.659	74.56
255.892	76.56
256.124	96.56
256.357	78.56
256.59	82.56
256.823	72.56
257.056	75.56
257.289	83.56
257.521	87.56
257.754	99.56
257.987	80.56
258.22	67.56
258.452	89.56
258.685	97.56
258.918	91.56
259.151	77.56
259.383	66.56
259.616	72.56
259.849	70.56
260.081	84.56
260.314	77.56
260.547	73.56
260.779	88.56
261.012	70.56
261.244	82.56
261.477	95.56
261.71	72.56
261.942	73.56
262.175	77.56
262.407	74.56
262.64	81.56
262.872	88.56
263.105	71.56
263.337	80.56
263.57	73.56
263.802	93.56
264.035	90.56
264.267	69.56
264.499	85.56
264.732	98.56
264.964	78.56
265.197	77.56
265.429	79.56
265.661	86.56
265.894	84.56
266.126	86.56
266.358	78.56
266.591	87.56
266.823	82.56
267.055	73.56
267.287	74.56
267.52	73.56
267.752	83.56
267.984	93.56
268.216	66.56
268.448	73.56
268.681	82.56
268.913	84.56
269.145	65.56
269.377	78.56
269.609	90.56
269.841	94.56
270.073	69.56
270.306	80.56
270.538	89.56
270.77	70.56
271.002	78.56
271.234	86.56
271.466	78.56
271.698	80.56
271.93	86.56
272.162	64.56
272.394	83.56
272.626	85.56
272.858	88.56
273.09	78.56
273.322	78.56
273.553	79.56
273.785	77.56
274.017	86.56
274.249	59.56
274.481	82.56
274.713	88.56
274.945	81.56
275.176	86.56
275.408	84.56
275.64	69.56
275.872	85.56
276.104	75.56
276.335	76.56
276.567	75.56
276.799	82.56
277.031	82.56
277.262	75.56
277.494	88.56
277.726	81.56
277.957	78.56
278.189	61.56
278.421	82.56
278.652	86.56
278.884	91.56
279.115	90.56
279.347	83.56
279.579	76.56
279.81	89.56
280.042	92.56
280.273	91.56
280.505	75.56
280.736	79.56
280.968	79.56
281.199	72.56
281.431	77.56
281.662	67.56
281.894	89.56
282.125	82.56
282.356	73.56
282.588	83.56
282.819	101.56
283.051	93.56
283.282	82.56
283.513	92.56
283.745	77.56
283.976	73.56
284.207	86.56
284.439	81.56
284.67	84.56
284.901	88.56
285.132	102.56
285.364	80.56
285.595	80.56
285.826	92.56
286.057	94.56
286.288	87.56
286.52	88.56
286.751	74.56
286.982	80.56
287.213	86.56
287.444	75.56
287.675	90.56
287.906	89.56
288.138	80.56
288.369	87.56
288.6	83.56
288.831	70.56
289.062	79.56
289.293	80.56
289.524	69.56
289.755	74.56
289.986	82.56
290.217	74.56
290.448	71.56
290.679	79.56
290.91	69.56
291.141	95.56
291.371	78.56
291.602	84.56
291.833	82.56
292.064	82.56
292.295	76.56
292.526	88.56
292.757	89.56
292.987	82.56
293.218	67.56
293.449	86.56
293.68	87.56
293.91	88.56
294.141	64.56
294.372	94.56
294.603	97.56
294.833	70.56
295.064	87.56
295.295	76.56
295.525	85.56
295.756	80.56
295.987	92.56
296.217	87.56
296.448	82.56
296.679	80.56
296.909	93.56
297.14	90.56
297.37	76.56
297.601	75.56
297.831	87.56
298.062	76.56
298.292	76.56
298.523	70.56
298.753	82.56
298.984	76.56
299.214	88.56
299.445	88.56
299.675	85.56
299.905	84.56
300.136	80.56
300.366	76.56
300.597	82.56
300.827	88.56
301.057	76.56
301.288	73.56
301.518	90.56
301.748	75.56
301.979	82.56
302.209	86.56
302.439	97.56
302.669	83.56
302.9	96.56
303.13	69.56
303.36	83.56
303.59	83.56
303.82	69.56
304.051	76.56
304.281	79.56
304.511	84.56
304.741	91.56
304.971	83.56
305.201	73.56
305.431	94.56
305.661	76.56
305.891	84.56
306.121	88.56
306.352	80.56
306.582	81.56
306.812	83.56
307.042	93.56
307.272	84.56
307.502	73.56
307.731	81.56
307.961	82.56
308.191	106.56
308.421	88.56
308.651	86.56
308.881	83.56
309.111	81.56
309.341	88.56
309.571	78.56
309.8	84.56
310.03	81.56
310.26	74.56
310.49	87.56
310.72	73.56
310.949	72.56
311.179	70.56
311.409	64.56
311.639	98.56
311.868	84.56
312.098	93.56
312.328	101.56
312.557	76.56
312.787	92.56
313.017	78.56
313.246	82.56
313.476	92.56
313.706	87.56
313.935	81.56
314.165	84.56
314.394	70.56
314.624	92.56
314.853	88.56
315.083	95.56
315.312	74.56
315.542	73.56
315.771	80.56
316.001	84.56
316.23	94.56
316.46	87.56
316.689	71.56
316.919	76.56
317.148	83.56
317.377	82.56
317.607	83.56
317.836	82.56
318.065	83.56
318.295	85.56
318.524	80.56
318.753	75.56
318.983	90.56
319.212	68.56
319.441	78.56
319.67	65.56
319.9	70.56
320.129	83.56
320.358	65.56
320.587	69.56
320.816	84.56
321.046	74.56
321.275	75.56
321.504	88.56
321.733	74.56
321.962	71.56
322.191	68.56
322.42	91.56
322.649	92.56
322.878	87.56
323.108	87.56
323.337	66.56
323.566	80.56
323.795	76.56
324.024	79.56
324.253	89.56
324.482	80.56
324.71	75.56
324.939	76.56
325.168	90.56
325.397	84.56
325.626	83.56
325.855	84.56
326.084	86.56
326.313	91.56
326.542	80.56
326.77	87.56
326.999	90.56
327.228	77.56
327.457	77.56
327.686	95.56
327.914	82.56
328.143	85.56
328.372	81.56
328.6	82.56
328.829	78.56
329.058	76.56
329.287	81.56
329.515	87.56
329.744	85.56
329.972	81.56
330.201	85.56
330.43	75.56
330.658	79.56
330.887	78.56
331.115	76.56
331.344	75.56
331.572	88.56
331.801	85.56
332.03	91.56
332.258	74.56
332.486	71.56
332.715	82.56
332.943	84.56
333.172	75.56
333.4	79.56
333.629	87.56
333.857	88.56
334.085	80.56
334.314	87.56
334.542	84.56
334.771	78.56
334.999	60.56
335.227	85.56
335.455	99.56
335.684	101.56
335.912	82.56
336.14	84.56
336.369	95.56
336.597	83.56
336.825	87.56
337.053	86.56
337.281	78.56
337.51	74.56
337.738	82.56
337.966	90.56
338.194	99.56
338.422	92.56
338.65	89.56
338.878	83.56
339.106	79.56
339.334	85.56
339.562	81.56
339.79	78.56
340.018	84.56
340.246	88.56
340.474	86.56
340.702	83.56
340.93	82.56
341.158	98.56
341.386	84.56
341.614	87.56
341.842	86.56
342.07	83.56
342.298	91.56
342.526	97.56
342.754	72.56
342.981	88.56
343.209	87.56
343.437	82.56
343.665	81.56
343.893	93.56
344.12	79.56
344.348	76.56
344.576	86.56
344.804	87.56
345.031	87.56
345.259	83.56
345.487	75.56
345.714	88.56
345.942	83.56
346.17	84.56
346.397	75.56
346.625	82.56
346.853	83.56
347.08	73.56
347.308	94.56
347.535	81.56
347.763	94.56
347.99	79.56
348.218	89.56
348.445	86.56
348.673	93.56
348.9	94.56
349.128	86.56
349.355	86.56
349.583	76.56
349.81	80.56
350.037	90.56
350.265	92.56
350.492	84.56
350.72	93.56
350.947	80.56
351.174	76.56
351.402	85.56
351.629	82.56
351.856	77.56
352.083	87.56
352.311	93.56
352.538	79.56
352.765	83.56
352.992	84.56
353.22	79.56
353.447	94.56
353.674	97.56
353.901	94.56
354.128	79.56
354.355	88.56
354.583	87.56
354.81	91.56
355.037	86.56
355.264	84.56
355.491	106.56
355.718	72.56
355.945	75.56
356.172	76.56
356.399	78.56
356.626	88.56
356.853	86.56
357.08	74.56
357.307	76.56
357.534	98.56
357.761	85.56
357.988	96.56
358.215	97.56
358.441	70.56
358.668	81.56
358.895	81.56
359.122	80.56
359.349	91.56
359.576	92.56
359.802	80.56
360.029	82.56
360.256	89.56
360.483	76.56
360.709	81.56
360.936	95.56
361.163	87.56
361.39	82.56
361.616	82.56
361.843	88.56
362.07	83.56
362.296	95.56
362.523	91.56
362.749	80.56
362.976	87.56
363.203	88.56
363.429	96.56
363.656	79.56
363.882	78.56
364.109	81.56
364.335	70.56
364.562	80.56
364.788	80.56
365.015	80.56
365.241	95.56
365.468	91.56
365.694	89.56
365.92	75.56
366.147	83.56
366.373	74.56
366.599	80.56
366.826	78.56
367.052	105.56
367.278	88.56
367.505	87.56
367.731	82.56
367.957	88.56
368.184	69.56
368.41	84.56
368.636	81.56
368.862	84.56
369.089	85.56
369.315	89.56
369.541	84.56
369.767	101.56
369.993	81.56
370.219	80.56
370.445	83.56
370.672	90.56
370.898	85.56
371.124	83.56
371.35	99.56
371.576	97.56
371.802	82.56
372.028	95.56
372.254	88.56
372.48	96.56
372.706	88.56
372.932	100.56
373.158	104.56
373.384	104.56
373.61	76.56
373.835	100.56
374.061	106.56
374.287	76.56
374.513	92.56
374.739	98.56
374.965	105.56
375.191	89.56
375.416	98.56
375.642	100.56
375.868	101.56
376.094	88.56
376.319	103.56
376.545	98.56
376.771	80.56
376.997	92.56
377.222	100.56
377.448	92.56
377.674	93.56
377.899	80.56
378.125	90.56
378.35	89.56
378.576	99.56
378.802	91.56
379.027	87.56
379.253	95.56
379.478	94.56
379.704	104.56
379.929	94.56
380.155	105.56
380.38	93.56
380.606	91.56
380.831	113.56
381.057	88.56
381.282	97.56
381.507	91.56
381.733	87.56
381.958	95.56
382.184	100.56
382.409	91.56
382.634	86.56
382.86	95.56
383.085	94.56
383.31	86.56
383.535	104.56
383.761	113.56
383.986	90.56
384.211	95.56
384.436	84.56
384.662	95.56
384.887	88.56
385.112	87.56
385.337	92.56
385.562	91.56
385.787	113.56
386.013	103.56
386.238	94.56
386.463	103.56
386.688	98.56
386.913	99.56
387.138	98.56
387.363	110.56
387.588	104.56
387.813	102.56
388.038	117.56
388.263	100.56
388.488	97.56
388.713	91.56
388.938	96.56
389.163	99.56
389.387	112.56
389.612	98.56
389.837	104.56
390.062	116.56
390.287	103.56
390.512	102.56
390.736	82.56
390.961	105.56
391.186	107.56
391.411	115.56
391.636	112.56
391.86	102.56
392.085	112.56
392.31	110.56
392.534	100.56
392.759	112.56
392.984	108.56
393.208	110.56
393.433	112.56
393.658	103.56
393.882	97.56
394.107	103.56
394.331	113.56
394.556	100.56
394.78	106.56
395.005	107.56
395.229	120.56
395.454	103.56
395.678	94.56
395.903	112.56
396.127	105.56
396.352	118.56
396.576	108.56
396.801	120.56
397.025	119.56
397.249	113.56
397.474	96.56
397.698	100.56
397.922	117.56
398.147	102.56
398.371	98.56
398.595	110.56
398.82	112.56
399.044	114.56
399.268	133.56
399.492	111.56
399.717	107.56
399.941	102.56
400.165	126.56
400.389	112.56
400.613	127.56
400.837	130.56
401.062	121.56
401.286	115.56
401.51	101.56
401.734	103.56
401.958	111.56
402.182	111.56
402.406	103.56
402.63	101.56
402.854	117.56
403.078	112.56
403.302	112.56
403.526	129.56
403.75	116.56
403.974	119.56
404.198	114.56
404.422	114.56
404.645	127.56
404.869	121.56
405.093	118.56
405.317	128.56
405.541	130.56
405.765	122.56
405.988	118.56
406.212	113.56
406.436	115.56
406.66	116.56
406.883	127.56
407.107	114.56
407.331	116.56
407.555	121.56
407.778	107.56
408.002	115.56
408.226	114.56
408.449	103.56
408.673	110.56
408.896	118.56
409.12	117.56
409.344	122.56
409.567	114.56
409.791	119.56
410.014	119.56
410.238	121.56
410.461	115.56
410.685	134.56
410.908	134.56
411.132	145.56
411.355	128.56
411.578	136.56
411.802	125.56
412.025	121.56
412.249	126.56
412.472	125.56
412.695	123.56
412.919	120.56
413.142	132.56
413.365	127.56
413.589	137.56
413.812	126.56
414.035	120.56
414.258	121.56
414.482	119.56
414.705	121.56
414.928	122.56
415.151	127.56
415.374	130.56
415.597	130.56
415.821	120.56
416.044	128.56
416.267	123.56
416.49	129.56
416.713	134.56
416.936	126.56
417.159	138.56
417.382	128.56
417.605	119.56
417.828	123.56
418.051	124.56
418.274	138.56
418.497	135.56
418.72	123.56
418.943	150.56
419.166	124.56
419.389	134.56
419.611	139.56
419.834	137.56
420.057	116.56
420.28	131.56
420.503	120.56
420.726	134.56
420.948	143.56
421.171	143.56
421.394	139.56
421.617	123.56
421.839	131.56
422.062	147.56
422.285	132.56
422.507	136.56
422.73	150.56
422.953	126.56
423.175	134.56
423.398	126.56
423.621	144.56
423.843	136.56
424.066	128.56
424.288	153.56
424.511	142.56
424.733	144.56
424.956	149.56
425.178	147.56
425.401	133.56
425.623	143.56
425.846	138.56
426.068	140.56
426.291	128.56
426.513	147.56
426.735	147.56
426.958	129.56
427.18	121.56
427.402	130.56
427.625	139.56
427.847	137.56
428.069	137.56
428.292	145.56
428.514	149.56
428.736	117.56
428.958	143.56
429.181	122.56
429.403	135.56
429.625	134.56
429.847	127.56
430.069	126.56
430.292	138.56
430.514	134.56
430.736	130.56
430.958	132.56
431.18	131.56
431.402	140.56
431.624	124.56
431.846	111.56
432.068	87.56
432.29	90.56
432.512	124.56
432.734	131.56
432.956	141.56
433.178	137.56
433.4	136.56
433.622	144.56
433.844	135.56
434.066	126.56
434.287	120.56
434.509	102.56
434.731	104.56
434.953	101.56
435.175	128.56
435.397	117.56
435.618	112.56
435.84	113.56
436.062	116.56
436.284	117.56
436.505	124.56
436.727	131.56
436.949	132.56
437.17	112.56
437.392	131.56
437.614	123.56
437.835	115.56
438.057	112.56
438.278	118.56
438.5	120.56
438.721	138.56
438.943	151.56
439.165	141.56
439.386	147.56
439.608	149.56
439.829	147.56
440.05	139.56
440.272	147.56
440.493	164.56
440.715	168.56
440.936	145.56
441.158	146.56
441.379	149.56
441.6	143.56
441.822	154.56
442.043	138.56
442.264	147.56
442.486	134.56
442.707	140.56
442.928	152.56
443.149	162.56
443.371	138.56
443.592	139.56
443.813	149.56
444.034	137.56
444.255	155.56
444.476	142.56
444.698	141.56
444.919	153.56
445.14	294.56
445.361	208.56
445.582	154.56
445.803	146.56
446.024	160.56
446.245	157.56
446.466	160.56
446.687	149.56
446.908	150.56
447.129	159.56
447.35	165.56
447.571	151.56
447.792	147.56
448.013	132.56
448.234	163.56
448.455	134.56
448.675	148.56
448.896	143.56
449.117	137.56
449.338	137.56
449.559	154.56
449.779	153.56
450	133.56
450.221	141.56
450.442	136.56
450.662	126.56
450.883	131.56
451.104	130.56
451.324	136.56
451.545	137.56
451.766	147.56
451.986	128.56
452.207	135.56
452.428	131.56
452.648	131.56
452.869	102.56
453.089	120.56
453.31	121.56
453.53	107.56
453.751	101.56
453.971	94.56
454.192	107.56
454.412	121.56
454.633	117.56
454.853	131.56
455.073	104.56
455.294	120.56
455.514	111.56
455.734	112.56
455.955	115.56
456.175	112.56
456.395	127.56
456.616	124.56
456.836	124.56
457.056	127.56
457.276	95.56
457.497	110.56
457.717	110.56
457.937	112.56
458.157	114.56
458.377	109.56
458.598	104.56
458.818	105.56
459.038	86.56
459.258	94.56
459.478	83.56
459.698	94.56
459.918	93.56
460.138	116.56
460.358	130.56
460.578	123.56
460.798	119.56
461.018	124.56
461.238	113.56
461.458	118.56
461.678	106.56
461.898	114.56
462.118	104.56
462.338	103.56
462.558	113.56
462.777	114.56
462.997	112.56
463.217	118.56
463.437	114.56
463.657	94.56
463.876	97.56
464.096	112.56
464.316	102.56
464.536	114.56
464.755	124.56
464.975	113.56
465.195	107.56
465.414	115.56
465.634	112.56
465.854	124.56
466.073	125.56
466.293	126.56
466.512	146.56
466.732	129.56
466.951	140.56
467.171	135.56
467.391	131.56
467.61	148.56
467.829	142.56
468.049	146.56
468.268	139.56
468.488	130.56
468.707	137.56
468.927	159.56
469.146	135.56
469.365	140.56
469.585	141.56
469.804	137.56
470.023	148.56
470.243	141.56
470.462	139.56
470.681	146.56
470.901	146.56
471.12	158.56
471.339	136.56
471.558	150.56
471.777	150.56
471.997	142.56
472.216	121.56
472.435	108.56
472.654	116.56
472.873	112.56
473.092	120.56
473.311	123.56
473.53	132.56
473.749	140.56
473.968	135.56
474.187	134.56
474.406	132.56
474.625	133.56
474.844	130.56
475.063	127.56
475.282	124.56
475.501	120.56
475.72	115.56
475.939	131.56
476.158	122.56
476.377	120.56
476.596	121.56
476.814	121.56
477.033	116.56
477.252	128.56
477.471	124.56
477.69	116.56
477.908	138.56
478.127	137.56
478.346	135.56
478.564	135.56
478.783	140.56
479.002	138.56
479.22	130.56
479.439	128.56
479.658	117.56
479.876	117.56
480.095	110.56
480.313	117.56
480.532	132.56
480.751	128.56
480.969	99.56
481.188	86.56
481.406	86.56
481.624	88.56
481.843	98.56
482.061	124.56
482.28	104.56
482.498	114.56
482.717	120.56
482.935	126.56
483.153	141.56
483.372	151.56
483.59	133.56
483.808	147.56
484.027	128.56
484.245	160.56
484.463	166.56
484.681	171.56
484.9	153.56
485.118	147.56
485.336	121.56
485.554	111.56
485.772	110.56
485.99	91.56
486.209	105.56
486.427	135.56
486.645	122.56
486.863	137.56
487.081	147.56
487.299	150.56
487.517	126.56
487.735	159.56
487.953	176.56
488.171	180.56
488.389	182.56
488.607	176.56
488.825	155.56
489.043	146.56
489.261	130.56
489.479	133.56
489.696	151.56
489.914	136.56
490.132	147.56
490.35	146.56
490.568	164.56
490.786	158.56
491.003	201.56
491.221	169.56
491.439	198.56
491.657	206.56
491.874	218.56
492.092	242.56
492.31	265.56
492.527	258.56
492.745	220.56
492.963	188.56
493.18	199.56
493.398	208.56
493.615	178.56
493.833	188.56
494.05	191.56
494.268	184.56
494.485	193.56
494.703	188.56
494.92	189.56
495.138	179.56
495.355	185.56
495.573	176.56
495.79	178.56
496.008	182.56
496.225	169.56
496.442	162.56
496.66	175.56
496.877	182.56
497.094	168.56
497.312	168.56
497.529	172.56
497.746	142.56
497.963	143.56
498.181	136.56
498.398	131.56
498.615	123.56
498.832	116.56
499.049	131.56
499.267	124.56
499.484	127.56
499.701	147.56
499.918	136.56
500.135	135.56
500.352	146.56
500.569	132.56
500.786	152.56
501.003	150.56
501.22	145.56
501.437	164.56
501.654	136.56
501.871	134.56
502.088	136.56
502.305	136.56
502.522	125.56
502.739	135.56
502.956	121.56
503.172	135.56
503.389	122.56
503.606	119.56
503.823	129.56
504.04	125.56
504.256	123.56
504.473	121.56
504.69	110.56
504.907	121.56
505.123	120.56
505.34	121.56
505.557	132.56
505.773	126.56
505.99	118.56
506.207	119.56
506.423	121.56
506.64	123.56
506.856	135.56
507.073	113.56
507.289	120.56
507.506	118.56
507.722	122.56
507.939	116.56
508.155	127.56
508.372	105.56
508.588	119.56
508.805	115.56
509.021	116.56
509.238	101.56
509.454	119.56
509.67	108.56
509.887	96.56
510.103	99.56
510.319	107.56
510.536	93.56
510.752	94.56
510.968	88.56
511.184	83.56
511.401	81.56
511.617	96.56
