Data from Location6.07152019.Energy5.Lamp.07192019.3%Agarose_HRD10591_16-13-52-395.txt Node
Date: Fri Jul 19 16:13:52 EDT 2019
User: cochatt
Spectrometer: HR+D1059
Trigger mode: 1
Integration Time (sec): 1.000000E-1
Scans to average: 1
Electric dark correction enabled: true
Nonlinearity correction enabled: false
Boxcar width: 0
XAxis mode: Wavelengths
Number of Pixels in Spectrum: 2048
>>>>>Begin Spectral Data<<<<<
223.165	-6.81
223.4	-6.81
223.635	-6.81
223.869	-27.81
224.104	-22.81
224.338	-30.81
224.573	-11.81
224.808	-12.81
225.042	-26.81
225.277	-2.81
225.511	0.19
225.746	14.19
225.98	25.19
226.215	8.19
226.449	21.19
226.683	26.19
226.918	15.19
227.152	32.19
227.387	34.19
227.621	25.19
227.856	45.19
228.09	50.19
228.324	39.19
228.559	60.19
228.793	50.19
229.027	56.19
229.262	61.19
229.496	68.19
229.73	79.19
229.964	64.19
230.199	71.19
230.433	64.19
230.667	71.19
230.901	71.19
231.136	90.19
231.37	69.19
231.604	77.19
231.838	87.19
232.072	71.19
232.306	73.19
232.541	70.19
232.775	69.19
233.009	77.19
233.243	73.19
233.477	74.19
233.711	79.19
233.945	76.19
234.179	89.19
234.413	83.19
234.647	79.19
234.881	87.19
235.115	72.19
235.349	87.19
235.583	74.19
235.817	78.19
236.051	65.19
236.285	70.19
236.519	78.19
236.753	84.19
236.987	81.19
237.221	62.19
237.455	74.19
237.689	65.19
237.922	79.19
238.156	57.19
238.39	60.19
238.624	64.19
238.858	60.19
239.091	74.19
239.325	65.19
239.559	82.19
239.793	66.19
240.027	78.19
240.26	73.19
240.494	63.19
240.728	69.19
240.961	61.19
241.195	66.19
241.429	67.19
241.662	70.19
241.896	65.19
242.13	54.19
242.363	61.19
242.597	70.19
242.83	66.19
243.064	75.19
243.298	60.19
243.531	68.19
243.765	62.19
243.998	97.19
244.232	68.19
244.465	70.19
244.699	75.19
244.932	80.19
245.166	65.19
245.399	85.19
245.633	74.19
245.866	78.19
246.099	65.19
246.333	71.19
246.566	62.19
246.8	69.19
247.033	73.19
247.266	62.19
247.5	74.19
247.733	77.19
247.966	71.19
248.2	79.19
248.433	77.19
248.666	84.19
248.899	74.19
249.133	68.19
249.366	79.19
249.599	70.19
249.832	70.19
250.066	72.19
250.299	70.19
250.532	77.19
250.765	69.19
250.998	87.19
251.231	76.19
251.465	83.19
251.698	82.19
251.931	62.19
252.164	81.19
252.397	73.19
252.63	90.19
252.863	73.19
253.096	65.19
253.329	74.19
253.562	75.19
253.795	73.19
254.028	77.19
254.261	83.19
254.494	75.19
254.727	82.19
254.96	74.19
255.193	80.19
255.426	61.19
255.659	69.19
255.892	81.19
256.124	66.19
256.357	79.19
256.59	73.19
256.823	88.19
257.056	76.19
257.289	74.19
257.521	68.19
257.754	61.19
257.987	92.19
258.22	86.19
258.452	87.19
258.685	74.19
258.918	76.19
259.151	72.19
259.383	83.19
259.616	75.19
259.849	83.19
260.081	76.19
260.314	88.19
260.547	77.19
260.779	69.19
261.012	79.19
261.244	73.19
261.477	68.19
261.71	82.19
261.942	76.19
262.175	67.19
262.407	69.19
262.64	70.19
262.872	71.19
263.105	68.19
263.337	77.19
263.57	73.19
263.802	69.19
264.035	74.19
264.267	79.19
264.499	87.19
264.732	78.19
264.964	86.19
265.197	75.19
265.429	84.19
265.661	65.19
265.894	59.19
266.126	81.19
266.358	76.19
266.591	80.19
266.823	65.19
267.055	88.19
267.287	77.19
267.52	75.19
267.752	75.19
267.984	71.19
268.216	68.19
268.448	70.19
268.681	68.19
268.913	86.19
269.145	83.19
269.377	80.19
269.609	66.19
269.841	80.19
270.073	59.19
270.306	78.19
270.538	65.19
270.77	75.19
271.002	77.19
271.234	70.19
271.466	90.19
271.698	81.19
271.93	59.19
272.162	81.19
272.394	94.19
272.626	79.19
272.858	79.19
273.09	89.19
273.322	87.19
273.553	94.19
273.785	85.19
274.017	81.19
274.249	87.19
274.481	89.19
274.713	76.19
274.945	83.19
275.176	82.19
275.408	89.19
275.64	75.19
275.872	80.19
276.104	64.19
276.335	69.19
276.567	90.19
276.799	74.19
277.031	76.19
277.262	72.19
277.494	73.19
277.726	71.19
277.957	93.19
278.189	88.19
278.421	69.19
278.652	71.19
278.884	81.19
279.115	79.19
279.347	81.19
279.579	85.19
279.81	75.19
280.042	67.19
280.273	83.19
280.505	82.19
280.736	82.19
280.968	69.19
281.199	70.19
281.431	81.19
281.662	85.19
281.894	84.19
282.125	78.19
282.356	82.19
282.588	80.19
282.819	70.19
283.051	84.19
283.282	69.19
283.513	75.19
283.745	67.19
283.976	65.19
284.207	74.19
284.439	78.19
284.67	73.19
284.901	79.19
285.132	79.19
285.364	81.19
285.595	81.19
285.826	63.19
286.057	87.19
286.288	79.19
286.52	85.19
286.751	74.19
286.982	75.19
287.213	81.19
287.444	82.19
287.675	75.19
287.906	69.19
288.138	69.19
288.369	83.19
288.6	72.19
288.831	69.19
289.062	91.19
289.293	73.19
289.524	71.19
289.755	88.19
289.986	68.19
290.217	86.19
290.448	89.19
290.679	77.19
290.91	83.19
291.141	70.19
291.371	77.19
291.602	75.19
291.833	74.19
292.064	72.19
292.295	59.19
292.526	78.19
292.757	74.19
292.987	90.19
293.218	83.19
293.449	70.19
293.68	86.19
293.91	75.19
294.141	67.19
294.372	77.19
294.603	93.19
294.833	76.19
295.064	77.19
295.295	76.19
295.525	81.19
295.756	87.19
295.987	75.19
296.217	86.19
296.448	86.19
296.679	82.19
296.909	73.19
297.14	76.19
297.37	76.19
297.601	63.19
297.831	75.19
298.062	96.19
298.292	77.19
298.523	80.19
298.753	91.19
298.984	70.19
299.214	73.19
299.445	75.19
299.675	74.19
299.905	80.19
300.136	79.19
300.366	67.19
300.597	77.19
300.827	59.19
301.057	72.19
301.288	76.19
301.518	79.19
301.748	87.19
301.979	83.19
302.209	87.19
302.439	82.19
302.669	92.19
302.9	81.19
303.13	87.19
303.36	74.19
303.59	84.19
303.82	76.19
304.051	78.19
304.281	86.19
304.511	95.19
304.741	77.19
304.971	82.19
305.201	75.19
305.431	79.19
305.661	69.19
305.891	82.19
306.121	75.19
306.352	91.19
306.582	76.19
306.812	68.19
307.042	83.19
307.272	92.19
307.502	89.19
307.731	82.19
307.961	92.19
308.191	80.19
308.421	72.19
308.651	71.19
308.881	86.19
309.111	84.19
309.341	83.19
309.571	85.19
309.8	75.19
310.03	69.19
310.26	75.19
310.49	66.19
310.72	77.19
310.949	71.19
311.179	80.19
311.409	73.19
311.639	87.19
311.868	80.19
312.098	86.19
312.328	78.19
312.557	85.19
312.787	71.19
313.017	74.19
313.246	81.19
313.476	86.19
313.706	83.19
313.935	69.19
314.165	81.19
314.394	69.19
314.624	78.19
314.853	87.19
315.083	78.19
315.312	88.19
315.542	89.19
315.771	80.19
316.001	77.19
316.23	90.19
316.46	83.19
316.689	78.19
316.919	81.19
317.148	72.19
317.377	77.19
317.607	75.19
317.836	73.19
318.065	86.19
318.295	95.19
318.524	85.19
318.753	83.19
318.983	88.19
319.212	69.19
319.441	87.19
319.67	67.19
319.9	81.19
320.129	76.19
320.358	72.19
320.587	74.19
320.816	84.19
321.046	93.19
321.275	76.19
321.504	80.19
321.733	85.19
321.962	82.19
322.191	85.19
322.42	89.19
322.649	82.19
322.878	77.19
323.108	76.19
323.337	82.19
323.566	91.19
323.795	75.19
324.024	81.19
324.253	78.19
324.482	78.19
324.71	95.19
324.939	81.19
325.168	93.19
325.397	74.19
325.626	82.19
325.855	82.19
326.084	74.19
326.313	77.19
326.542	83.19
326.77	77.19
326.999	86.19
327.228	78.19
327.457	89.19
327.686	78.19
327.914	75.19
328.143	78.19
328.372	68.19
328.6	82.19
328.829	62.19
329.058	87.19
329.287	81.19
329.515	79.19
329.744	82.19
329.972	76.19
330.201	93.19
330.43	76.19
330.658	69.19
330.887	73.19
331.115	82.19
331.344	65.19
331.572	75.19
331.801	86.19
332.03	78.19
332.258	88.19
332.486	67.19
332.715	73.19
332.943	87.19
333.172	77.19
333.4	93.19
333.629	78.19
333.857	67.19
334.085	77.19
334.314	65.19
334.542	79.19
334.771	78.19
334.999	74.19
335.227	68.19
335.455	81.19
335.684	75.19
335.912	89.19
336.14	60.19
336.369	80.19
336.597	68.19
336.825	71.19
337.053	86.19
337.281	77.19
337.51	69.19
337.738	99.19
337.966	81.19
338.194	81.19
338.422	67.19
338.65	75.19
338.878	90.19
339.106	74.19
339.334	78.19
339.562	69.19
339.79	75.19
340.018	80.19
340.246	96.19
340.474	71.19
340.702	78.19
340.93	81.19
341.158	80.19
341.386	89.19
341.614	78.19
341.842	75.19
342.07	66.19
342.298	75.19
342.526	87.19
342.754	75.19
342.981	65.19
343.209	93.19
343.437	81.19
343.665	70.19
343.893	83.19
344.12	75.19
344.348	87.19
344.576	67.19
344.804	79.19
345.031	65.19
345.259	82.19
345.487	80.19
345.714	81.19
345.942	78.19
346.17	88.19
346.397	80.19
346.625	81.19
346.853	87.19
347.08	77.19
347.308	77.19
347.535	69.19
347.763	79.19
347.99	73.19
348.218	83.19
348.445	78.19
348.673	80.19
348.9	86.19
349.128	89.19
349.355	74.19
349.583	74.19
349.81	74.19
350.037	71.19
350.265	79.19
350.492	69.19
350.72	94.19
350.947	88.19
351.174	77.19
351.402	79.19
351.629	75.19
351.856	74.19
352.083	83.19
352.311	73.19
352.538	72.19
352.765	80.19
352.992	76.19
353.22	100.19
353.447	85.19
353.674	75.19
353.901	86.19
354.128	74.19
354.355	89.19
354.583	85.19
354.81	70.19
355.037	78.19
355.264	85.19
355.491	75.19
355.718	83.19
355.945	82.19
356.172	81.19
356.399	77.19
356.626	73.19
356.853	87.19
357.08	95.19
357.307	82.19
357.534	77.19
357.761	78.19
357.988	90.19
358.215	73.19
358.441	81.19
358.668	79.19
358.895	66.19
359.122	67.19
359.349	86.19
359.576	78.19
359.802	75.19
360.029	68.19
360.256	80.19
360.483	81.19
360.709	74.19
360.936	84.19
361.163	83.19
361.39	84.19
361.616	82.19
361.843	68.19
362.07	65.19
362.296	86.19
362.523	78.19
362.749	74.19
362.976	76.19
363.203	83.19
363.429	75.19
363.656	80.19
363.882	78.19
364.109	71.19
364.335	84.19
364.562	78.19
364.788	70.19
365.015	86.19
365.241	85.19
365.468	70.19
365.694	98.19
365.92	90.19
366.147	93.19
366.373	71.19
366.599	80.19
366.826	80.19
367.052	101.19
367.278	78.19
367.505	61.19
367.731	79.19
367.957	90.19
368.184	73.19
368.41	80.19
368.636	93.19
368.862	94.19
369.089	82.19
369.315	64.19
369.541	91.19
369.767	75.19
369.993	96.19
370.219	94.19
370.445	83.19
370.672	93.19
370.898	95.19
371.124	89.19
371.35	80.19
371.576	96.19
371.802	85.19
372.028	78.19
372.254	83.19
372.48	93.19
372.706	89.19
372.932	85.19
373.158	99.19
373.384	85.19
373.61	95.19
373.835	90.19
374.061	90.19
374.287	83.19
374.513	79.19
374.739	96.19
374.965	98.19
375.191	88.19
375.416	93.19
375.642	80.19
375.868	85.19
376.094	81.19
376.319	77.19
376.545	84.19
376.771	76.19
376.997	95.19
377.222	94.19
377.448	83.19
377.674	89.19
377.899	91.19
378.125	102.19
378.35	91.19
378.576	91.19
378.802	85.19
379.027	96.19
379.253	92.19
379.478	94.19
379.704	86.19
379.929	102.19
380.155	74.19
380.38	93.19
380.606	78.19
380.831	90.19
381.057	92.19
381.282	90.19
381.507	94.19
381.733	77.19
381.958	77.19
382.184	84.19
382.409	87.19
382.634	91.19
382.86	101.19
383.085	74.19
383.31	92.19
383.535	86.19
383.761	97.19
383.986	93.19
384.211	102.19
384.436	96.19
384.662	101.19
384.887	90.19
385.112	85.19
385.337	85.19
385.562	103.19
385.787	99.19
386.013	99.19
386.238	97.19
386.463	84.19
386.688	94.19
386.913	106.19
387.138	98.19
387.363	87.19
387.588	99.19
387.813	77.19
388.038	93.19
388.263	93.19
388.488	91.19
388.713	97.19
388.938	88.19
389.163	89.19
389.387	99.19
389.612	109.19
389.837	96.19
390.062	98.19
390.287	100.19
390.512	106.19
390.736	100.19
390.961	107.19
391.186	92.19
391.411	103.19
391.636	95.19
391.86	104.19
392.085	99.19
392.31	101.19
392.534	86.19
392.759	113.19
392.984	98.19
393.208	86.19
393.433	109.19
393.658	100.19
393.882	100.19
394.107	102.19
394.331	92.19
394.556	97.19
394.78	114.19
395.005	108.19
395.229	95.19
395.454	109.19
395.678	93.19
395.903	107.19
396.127	97.19
396.352	105.19
396.576	82.19
396.801	109.19
397.025	90.19
397.249	88.19
397.474	95.19
397.698	106.19
397.922	109.19
398.147	97.19
398.371	100.19
398.595	96.19
398.82	109.19
399.044	110.19
399.268	105.19
399.492	96.19
399.717	97.19
399.941	97.19
400.165	96.19
400.389	102.19
400.613	105.19
400.837	101.19
401.062	96.19
401.286	112.19
401.51	95.19
401.734	109.19
401.958	100.19
402.182	99.19
402.406	123.19
402.63	119.19
402.854	100.19
403.078	99.19
403.302	108.19
403.526	118.19
403.75	97.19
403.974	104.19
404.198	121.19
404.422	117.19
404.645	109.19
404.869	107.19
405.093	113.19
405.317	92.19
405.541	108.19
405.765	118.19
405.988	103.19
406.212	123.19
406.436	111.19
406.66	134.19
406.883	105.19
407.107	107.19
407.331	107.19
407.555	114.19
407.778	124.19
408.002	113.19
408.226	113.19
408.449	116.19
408.673	126.19
408.896	119.19
409.12	119.19
409.344	122.19
409.567	117.19
409.791	113.19
410.014	115.19
410.238	111.19
410.461	118.19
410.685	124.19
410.908	118.19
411.132	126.19
411.355	117.19
411.578	133.19
411.802	100.19
412.025	117.19
412.249	110.19
412.472	122.19
412.695	134.19
412.919	118.19
413.142	117.19
413.365	112.19
413.589	117.19
413.812	107.19
414.035	121.19
414.258	122.19
414.482	105.19
414.705	127.19
414.928	130.19
415.151	115.19
415.374	116.19
415.597	122.19
415.821	107.19
416.044	127.19
416.267	128.19
416.49	121.19
416.713	130.19
416.936	115.19
417.159	105.19
417.382	117.19
417.605	128.19
417.828	124.19
418.051	127.19
418.274	118.19
418.497	129.19
418.72	117.19
418.943	154.19
419.166	131.19
419.389	135.19
419.611	128.19
419.834	134.19
420.057	116.19
420.28	107.19
420.503	131.19
420.726	131.19
420.948	131.19
421.171	133.19
421.394	136.19
421.617	142.19
421.839	136.19
422.062	128.19
422.285	128.19
422.507	122.19
422.73	117.19
422.953	125.19
423.175	125.19
423.398	124.19
423.621	145.19
423.843	144.19
424.066	139.19
424.288	135.19
424.511	134.19
424.733	144.19
424.956	139.19
425.178	150.19
425.401	131.19
425.623	119.19
425.846	114.19
426.068	129.19
426.291	123.19
426.513	126.19
426.735	117.19
426.958	130.19
427.18	126.19
427.402	121.19
427.625	115.19
427.847	121.19
428.069	126.19
428.292	111.19
428.514	119.19
428.736	128.19
428.958	122.19
429.181	118.19
429.403	115.19
429.625	130.19
429.847	145.19
430.069	149.19
430.292	117.19
430.514	130.19
430.736	129.19
430.958	123.19
431.18	117.19
431.402	114.19
431.624	107.19
431.846	116.19
432.068	94.19
432.29	102.19
432.512	106.19
432.734	121.19
432.956	128.19
433.178	128.19
433.4	146.19
433.622	133.19
433.844	131.19
434.066	109.19
434.287	92.19
434.509	94.19
434.731	90.19
434.953	101.19
435.175	119.19
435.397	117.19
435.618	118.19
435.84	107.19
436.062	101.19
436.284	117.19
436.505	122.19
436.727	115.19
436.949	120.19
437.17	131.19
437.392	113.19
437.614	129.19
437.835	87.19
438.057	95.19
438.278	107.19
438.5	131.19
438.721	134.19
438.943	144.19
439.165	143.19
439.386	131.19
439.608	143.19
439.829	136.19
440.05	130.19
440.272	145.19
440.493	132.19
440.715	143.19
440.936	136.19
441.158	143.19
441.379	126.19
441.6	139.19
441.822	139.19
442.043	151.19
442.264	134.19
442.486	133.19
442.707	139.19
442.928	133.19
443.149	129.19
443.371	145.19
443.592	132.19
443.813	125.19
444.034	133.19
444.255	138.19
444.476	146.19
444.698	152.19
444.919	141.19
445.14	270.19
445.361	204.19
445.582	159.19
445.803	145.19
446.024	150.19
446.245	157.19
446.466	155.19
446.687	159.19
446.908	152.19
447.129	153.19
447.35	150.19
447.571	151.19
447.792	129.19
448.013	136.19
448.234	141.19
448.455	138.19
448.675	163.19
448.896	134.19
449.117	125.19
449.338	141.19
449.559	126.19
449.779	130.19
450	143.19
450.221	145.19
450.442	133.19
450.662	128.19
450.883	120.19
451.104	128.19
451.324	128.19
451.545	103.19
451.766	110.19
451.986	113.19
452.207	133.19
452.428	123.19
452.648	120.19
452.869	111.19
453.089	118.19
453.31	114.19
453.53	109.19
453.751	100.19
453.971	99.19
454.192	108.19
454.412	103.19
454.633	101.19
454.853	114.19
455.073	111.19
455.294	125.19
455.514	109.19
455.734	100.19
455.955	117.19
456.175	100.19
456.395	100.19
456.616	115.19
456.836	114.19
457.056	120.19
457.276	106.19
457.497	93.19
457.717	99.19
457.937	94.19
458.157	111.19
458.377	94.19
458.598	101.19
458.818	95.19
459.038	90.19
459.258	91.19
459.478	90.19
459.698	89.19
459.918	108.19
460.138	99.19
460.358	101.19
460.578	122.19
460.798	110.19
461.018	121.19
461.238	127.19
461.458	106.19
461.678	121.19
461.898	90.19
462.118	100.19
462.338	121.19
462.558	113.19
462.777	115.19
462.997	100.19
463.217	99.19
463.437	110.19
463.657	91.19
463.876	102.19
464.096	113.19
464.316	114.19
464.536	117.19
464.755	99.19
464.975	118.19
465.195	107.19
465.414	125.19
465.634	113.19
465.854	132.19
466.073	114.19
466.293	106.19
466.512	108.19
466.732	132.19
466.951	117.19
467.171	130.19
467.391	118.19
467.61	128.19
467.829	121.19
468.049	125.19
468.268	122.19
468.488	116.19
468.707	126.19
468.927	133.19
469.146	126.19
469.365	139.19
469.585	133.19
469.804	128.19
470.023	144.19
470.243	136.19
470.462	130.19
470.681	152.19
470.901	138.19
471.12	150.19
471.339	123.19
471.558	133.19
471.777	147.19
471.997	134.19
472.216	129.19
472.435	111.19
472.654	113.19
472.873	102.19
473.092	109.19
473.311	130.19
473.53	110.19
473.749	129.19
473.968	103.19
474.187	112.19
474.406	116.19
474.625	125.19
474.844	133.19
475.063	133.19
475.282	95.19
475.501	113.19
475.72	117.19
475.939	109.19
476.158	143.19
476.377	125.19
476.596	115.19
476.814	121.19
477.033	95.19
477.252	100.19
477.471	110.19
477.69	115.19
477.908	138.19
478.127	143.19
478.346	138.19
478.564	131.19
478.783	135.19
479.002	153.19
479.22	142.19
479.439	121.19
479.658	117.19
479.876	110.19
480.095	115.19
480.313	123.19
480.532	119.19
480.751	112.19
480.969	76.19
481.188	89.19
481.406	77.19
481.624	74.19
481.843	73.19
482.061	96.19
482.28	123.19
482.498	118.19
482.717	117.19
482.935	114.19
483.153	137.19
483.372	150.19
483.59	155.19
483.808	141.19
484.027	129.19
484.245	145.19
484.463	166.19
484.681	167.19
484.9	148.19
485.118	150.19
485.336	122.19
485.554	95.19
485.772	100.19
485.99	96.19
486.209	115.19
486.427	113.19
486.645	116.19
486.863	126.19
487.081	143.19
487.299	139.19
487.517	128.19
487.735	158.19
487.953	185.19
488.171	177.19
488.389	159.19
488.607	147.19
488.825	136.19
489.043	134.19
489.261	121.19
489.479	137.19
489.696	154.19
489.914	149.19
490.132	154.19
490.35	137.19
490.568	151.19
490.786	151.19
491.003	177.19
491.221	170.19
491.439	190.19
491.657	189.19
491.874	194.19
492.092	215.19
492.31	251.19
492.527	239.19
492.745	233.19
492.963	208.19
493.18	187.19
493.398	181.19
493.615	161.19
493.833	175.19
494.05	175.19
494.268	156.19
494.485	164.19
494.703	153.19
494.92	158.19
495.138	153.19
495.355	185.19
495.573	175.19
495.79	153.19
496.008	152.19
496.225	162.19
496.442	181.19
496.66	173.19
496.877	172.19
497.094	156.19
497.312	157.19
497.529	156.19
497.746	150.19
497.963	137.19
498.181	140.19
498.398	132.19
498.615	113.19
498.832	123.19
499.049	103.19
499.267	103.19
499.484	132.19
499.701	141.19
499.918	135.19
500.135	129.19
500.352	146.19
500.569	140.19
500.786	127.19
501.003	142.19
501.22	130.19
501.437	134.19
501.654	130.19
501.871	135.19
502.088	134.19
502.305	122.19
502.522	121.19
502.739	143.19
502.956	132.19
503.172	121.19
503.389	122.19
503.606	115.19
503.823	128.19
504.04	122.19
504.256	121.19
504.473	127.19
504.69	122.19
504.907	118.19
505.123	109.19
505.34	127.19
505.557	119.19
505.773	109.19
505.99	121.19
506.207	111.19
506.423	133.19
506.64	123.19
506.856	119.19
507.073	113.19
507.289	110.19
507.506	120.19
507.722	107.19
507.939	111.19
508.155	127.19
508.372	111.19
508.588	102.19
508.805	120.19
509.021	111.19
509.238	101.19
509.454	108.19
509.67	101.19
509.887	92.19
510.103	109.19
510.319	80.19
510.536	80.19
510.752	76.19
510.968	84.19
511.184	81.19
511.401	75.19
511.617	75.19
511.833	83.19
512.049	90.19
512.265	90.19
512.481	95.19
