Data from Location6.07152019.Energy5.Lamp.07192019.3%Agarose_HRD10591_16-13-23-395.txt Node
Date: Fri Jul 19 16:13:23 EDT 2019
User: cochatt
Spectrometer: HR+D1059
Trigger mode: 1
Integration Time (sec): 1.000000E-1
Scans to average: 1
Electric dark correction enabled: true
Nonlinearity correction enabled: false
Boxcar width: 0
XAxis mode: Wavelengths
Number of Pixels in Spectrum: 2048
>>>>>Begin Spectral Data<<<<<
223.165	-18.5
223.4	-18.5
223.635	-18.5
223.869	-25.5
224.104	-27.5
224.338	1.5
224.573	-12.5
224.808	-8.5
225.042	-12.5
225.277	-7.5
225.511	-9.5
225.746	9.5
225.98	5.5
226.215	19.5
226.449	9.5
226.683	26.5
226.918	25.5
227.152	24.5
227.387	45.5
227.621	38.5
227.856	51.5
228.09	56.5
228.324	60.5
228.559	49.5
228.793	55.5
229.027	46.5
229.262	54.5
229.496	68.5
229.73	68.5
229.964	82.5
230.199	75.5
230.433	77.5
230.667	74.5
230.901	90.5
231.136	84.5
231.37	78.5
231.604	68.5
231.838	76.5
232.072	95.5
232.306	99.5
232.541	84.5
232.775	102.5
233.009	82.5
233.243	92.5
233.477	90.5
233.711	75.5
233.945	73.5
234.179	75.5
234.413	89.5
234.647	91.5
234.881	83.5
235.115	90.5
235.349	83.5
235.583	87.5
235.817	88.5
236.051	77.5
236.285	76.5
236.519	75.5
236.753	76.5
236.987	74.5
237.221	82.5
237.455	81.5
237.689	82.5
237.922	78.5
238.156	80.5
238.39	71.5
238.624	87.5
238.858	76.5
239.091	77.5
239.325	69.5
239.559	78.5
239.793	83.5
240.027	85.5
240.26	85.5
240.494	87.5
240.728	85.5
240.961	75.5
241.195	69.5
241.429	81.5
241.662	66.5
241.896	87.5
242.13	61.5
242.363	69.5
242.597	80.5
242.83	77.5
243.064	85.5
243.298	70.5
243.531	79.5
243.765	98.5
243.998	77.5
244.232	79.5
244.465	59.5
244.699	89.5
244.932	84.5
245.166	79.5
245.399	83.5
245.633	84.5
245.866	83.5
246.099	82.5
246.333	71.5
246.566	75.5
246.8	86.5
247.033	79.5
247.266	81.5
247.5	78.5
247.733	85.5
247.966	93.5
248.2	76.5
248.433	87.5
248.666	92.5
248.899	80.5
249.133	82.5
249.366	93.5
249.599	90.5
249.832	81.5
250.066	82.5
250.299	57.5
250.532	76.5
250.765	86.5
250.998	85.5
251.231	82.5
251.465	80.5
251.698	78.5
251.931	83.5
252.164	84.5
252.397	83.5
252.63	78.5
252.863	91.5
253.096	75.5
253.329	83.5
253.562	77.5
253.795	79.5
254.028	74.5
254.261	79.5
254.494	76.5
254.727	75.5
254.96	83.5
255.193	87.5
255.426	94.5
255.659	69.5
255.892	81.5
256.124	94.5
256.357	95.5
256.59	83.5
256.823	76.5
257.056	85.5
257.289	91.5
257.521	80.5
257.754	79.5
257.987	86.5
258.22	91.5
258.452	82.5
258.685	76.5
258.918	79.5
259.151	77.5
259.383	73.5
259.616	88.5
259.849	82.5
260.081	82.5
260.314	84.5
260.547	83.5
260.779	83.5
261.012	84.5
261.244	92.5
261.477	92.5
261.71	86.5
261.942	89.5
262.175	79.5
262.407	69.5
262.64	76.5
262.872	90.5
263.105	72.5
263.337	91.5
263.57	82.5
263.802	91.5
264.035	81.5
264.267	82.5
264.499	85.5
264.732	83.5
264.964	91.5
265.197	78.5
265.429	93.5
265.661	104.5
265.894	102.5
266.126	83.5
266.358	79.5
266.591	84.5
266.823	78.5
267.055	91.5
267.287	89.5
267.52	83.5
267.752	86.5
267.984	92.5
268.216	84.5
268.448	78.5
268.681	79.5
268.913	82.5
269.145	88.5
269.377	91.5
269.609	98.5
269.841	90.5
270.073	103.5
270.306	91.5
270.538	87.5
270.77	86.5
271.002	96.5
271.234	69.5
271.466	77.5
271.698	76.5
271.93	85.5
272.162	85.5
272.394	93.5
272.626	70.5
272.858	87.5
273.09	78.5
273.322	84.5
273.553	93.5
273.785	89.5
274.017	82.5
274.249	88.5
274.481	80.5
274.713	80.5
274.945	85.5
275.176	85.5
275.408	88.5
275.64	84.5
275.872	83.5
276.104	93.5
276.335	92.5
276.567	85.5
276.799	75.5
277.031	81.5
277.262	73.5
277.494	83.5
277.726	77.5
277.957	61.5
278.189	90.5
278.421	101.5
278.652	91.5
278.884	94.5
279.115	82.5
279.347	79.5
279.579	77.5
279.81	78.5
280.042	80.5
280.273	86.5
280.505	107.5
280.736	110.5
280.968	83.5
281.199	106.5
281.431	89.5
281.662	96.5
281.894	89.5
282.125	75.5
282.356	81.5
282.588	90.5
282.819	88.5
283.051	82.5
283.282	86.5
283.513	92.5
283.745	99.5
283.976	91.5
284.207	86.5
284.439	86.5
284.67	78.5
284.901	78.5
285.132	94.5
285.364	84.5
285.595	77.5
285.826	74.5
286.057	90.5
286.288	82.5
286.52	95.5
286.751	91.5
286.982	83.5
287.213	85.5
287.444	84.5
287.675	89.5
287.906	83.5
288.138	101.5
288.369	93.5
288.6	88.5
288.831	82.5
289.062	80.5
289.293	101.5
289.524	86.5
289.755	79.5
289.986	87.5
290.217	84.5
290.448	85.5
290.679	101.5
290.91	83.5
291.141	92.5
291.371	91.5
291.602	79.5
291.833	82.5
292.064	78.5
292.295	73.5
292.526	88.5
292.757	94.5
292.987	84.5
293.218	84.5
293.449	87.5
293.68	97.5
293.91	82.5
294.141	93.5
294.372	73.5
294.603	79.5
294.833	89.5
295.064	97.5
295.295	77.5
295.525	74.5
295.756	90.5
295.987	85.5
296.217	83.5
296.448	81.5
296.679	87.5
296.909	78.5
297.14	93.5
297.37	83.5
297.601	90.5
297.831	91.5
298.062	82.5
298.292	97.5
298.523	88.5
298.753	82.5
298.984	82.5
299.214	89.5
299.445	89.5
299.675	91.5
299.905	100.5
300.136	91.5
300.366	76.5
300.597	85.5
300.827	85.5
301.057	88.5
301.288	77.5
301.518	111.5
301.748	88.5
301.979	80.5
302.209	86.5
302.439	81.5
302.669	83.5
302.9	103.5
303.13	85.5
303.36	88.5
303.59	90.5
303.82	87.5
304.051	94.5
304.281	81.5
304.511	96.5
304.741	96.5
304.971	102.5
305.201	90.5
305.431	85.5
305.661	78.5
305.891	79.5
306.121	98.5
306.352	90.5
306.582	97.5
306.812	79.5
307.042	92.5
307.272	80.5
307.502	97.5
307.731	86.5
307.961	94.5
308.191	101.5
308.421	97.5
308.651	79.5
308.881	99.5
309.111	89.5
309.341	92.5
309.571	93.5
309.8	72.5
310.03	85.5
310.26	86.5
310.49	93.5
310.72	85.5
310.949	82.5
311.179	89.5
311.409	91.5
311.639	83.5
311.868	92.5
312.098	96.5
312.328	102.5
312.557	98.5
312.787	92.5
313.017	92.5
313.246	98.5
313.476	87.5
313.706	74.5
313.935	80.5
314.165	91.5
314.394	79.5
314.624	76.5
314.853	102.5
315.083	97.5
315.312	94.5
315.542	91.5
315.771	84.5
316.001	86.5
316.23	91.5
316.46	75.5
316.689	76.5
316.919	71.5
317.148	71.5
317.377	94.5
317.607	105.5
317.836	70.5
318.065	78.5
318.295	94.5
318.524	78.5
318.753	96.5
318.983	84.5
319.212	70.5
319.441	79.5
319.67	100.5
319.9	112.5
320.129	78.5
320.358	101.5
320.587	99.5
320.816	90.5
321.046	74.5
321.275	92.5
321.504	93.5
321.733	87.5
321.962	87.5
322.191	85.5
322.42	94.5
322.649	83.5
322.878	94.5
323.108	91.5
323.337	89.5
323.566	70.5
323.795	85.5
324.024	95.5
324.253	92.5
324.482	108.5
324.71	94.5
324.939	92.5
325.168	87.5
325.397	80.5
325.626	79.5
325.855	104.5
326.084	97.5
326.313	86.5
326.542	75.5
326.77	86.5
326.999	79.5
327.228	80.5
327.457	96.5
327.686	94.5
327.914	97.5
328.143	78.5
328.372	77.5
328.6	78.5
328.829	78.5
329.058	89.5
329.287	75.5
329.515	74.5
329.744	92.5
329.972	101.5
330.201	85.5
330.43	94.5
330.658	88.5
330.887	83.5
331.115	75.5
331.344	83.5
331.572	78.5
331.801	90.5
332.03	81.5
332.258	73.5
332.486	71.5
332.715	90.5
332.943	85.5
333.172	101.5
333.4	82.5
333.629	90.5
333.857	76.5
334.085	73.5
334.314	87.5
334.542	70.5
334.771	69.5
334.999	91.5
335.227	83.5
335.455	88.5
335.684	86.5
335.912	102.5
336.14	68.5
336.369	78.5
336.597	89.5
336.825	92.5
337.053	89.5
337.281	96.5
337.51	78.5
337.738	110.5
337.966	88.5
338.194	91.5
338.422	88.5
338.65	92.5
338.878	94.5
339.106	71.5
339.334	84.5
339.562	98.5
339.79	84.5
340.018	80.5
340.246	83.5
340.474	87.5
340.702	91.5
340.93	92.5
341.158	102.5
341.386	81.5
341.614	86.5
341.842	79.5
342.07	91.5
342.298	93.5
342.526	96.5
342.754	87.5
342.981	79.5
343.209	97.5
343.437	87.5
343.665	83.5
343.893	90.5
344.12	82.5
344.348	79.5
344.576	82.5
344.804	75.5
345.031	90.5
345.259	87.5
345.487	95.5
345.714	73.5
345.942	75.5
346.17	77.5
346.397	87.5
346.625	97.5
346.853	97.5
347.08	88.5
347.308	78.5
347.535	97.5
347.763	87.5
347.99	95.5
348.218	89.5
348.445	88.5
348.673	93.5
348.9	85.5
349.128	84.5
349.355	87.5
349.583	102.5
349.81	79.5
350.037	77.5
350.265	92.5
350.492	90.5
350.72	89.5
350.947	84.5
351.174	82.5
351.402	84.5
351.629	91.5
351.856	93.5
352.083	85.5
352.311	94.5
352.538	94.5
352.765	77.5
352.992	100.5
353.22	85.5
353.447	92.5
353.674	85.5
353.901	85.5
354.128	85.5
354.355	90.5
354.583	77.5
354.81	86.5
355.037	93.5
355.264	87.5
355.491	83.5
355.718	84.5
355.945	87.5
356.172	89.5
356.399	85.5
356.626	80.5
356.853	83.5
357.08	98.5
357.307	74.5
357.534	78.5
357.761	104.5
357.988	92.5
358.215	78.5
358.441	93.5
358.668	90.5
358.895	88.5
359.122	91.5
359.349	88.5
359.576	78.5
359.802	74.5
360.029	83.5
360.256	92.5
360.483	82.5
360.709	89.5
360.936	77.5
361.163	79.5
361.39	96.5
361.616	86.5
361.843	82.5
362.07	94.5
362.296	89.5
362.523	80.5
362.749	84.5
362.976	86.5
363.203	86.5
363.429	93.5
363.656	80.5
363.882	70.5
364.109	81.5
364.335	79.5
364.562	91.5
364.788	93.5
365.015	90.5
365.241	84.5
365.468	96.5
365.694	85.5
365.92	80.5
366.147	80.5
366.373	89.5
366.599	82.5
366.826	92.5
367.052	82.5
367.278	99.5
367.505	106.5
367.731	92.5
367.957	93.5
368.184	90.5
368.41	86.5
368.636	98.5
368.862	87.5
369.089	83.5
369.315	86.5
369.541	103.5
369.767	86.5
369.993	97.5
370.219	101.5
370.445	94.5
370.672	81.5
370.898	90.5
371.124	88.5
371.35	100.5
371.576	93.5
371.802	91.5
372.028	95.5
372.254	88.5
372.48	86.5
372.706	93.5
372.932	90.5
373.158	89.5
373.384	82.5
373.61	94.5
373.835	104.5
374.061	91.5
374.287	92.5
374.513	95.5
374.739	87.5
374.965	90.5
375.191	95.5
375.416	91.5
375.642	92.5
375.868	120.5
376.094	97.5
376.319	98.5
376.545	103.5
376.771	86.5
376.997	85.5
377.222	86.5
377.448	91.5
377.674	87.5
377.899	92.5
378.125	109.5
378.35	121.5
378.576	97.5
378.802	98.5
379.027	89.5
379.253	115.5
379.478	101.5
379.704	101.5
379.929	100.5
380.155	106.5
380.38	95.5
380.606	93.5
380.831	96.5
381.057	100.5
381.282	102.5
381.507	98.5
381.733	85.5
381.958	85.5
382.184	101.5
382.409	80.5
382.634	99.5
382.86	101.5
383.085	109.5
383.31	96.5
383.535	100.5
383.761	96.5
383.986	108.5
384.211	102.5
384.436	88.5
384.662	113.5
384.887	108.5
385.112	97.5
385.337	107.5
385.562	106.5
385.787	108.5
386.013	102.5
386.238	106.5
386.463	101.5
386.688	110.5
386.913	107.5
387.138	94.5
387.363	99.5
387.588	93.5
387.813	106.5
388.038	103.5
388.263	105.5
388.488	113.5
388.713	101.5
388.938	94.5
389.163	109.5
389.387	97.5
389.612	107.5
389.837	117.5
390.062	115.5
390.287	92.5
390.512	99.5
390.736	105.5
390.961	94.5
391.186	105.5
391.411	95.5
391.636	98.5
391.86	117.5
392.085	115.5
392.31	114.5
392.534	104.5
392.759	107.5
392.984	107.5
393.208	114.5
393.433	117.5
393.658	113.5
393.882	113.5
394.107	109.5
394.331	110.5
394.556	114.5
394.78	116.5
395.005	101.5
395.229	107.5
395.454	122.5
395.678	118.5
395.903	114.5
396.127	103.5
396.352	110.5
396.576	109.5
396.801	99.5
397.025	107.5
397.249	109.5
397.474	117.5
397.698	102.5
397.922	114.5
398.147	103.5
398.371	110.5
398.595	114.5
398.82	120.5
399.044	108.5
399.268	107.5
399.492	121.5
399.717	114.5
399.941	104.5
400.165	113.5
400.389	109.5
400.613	115.5
400.837	106.5
401.062	113.5
401.286	113.5
401.51	115.5
401.734	112.5
401.958	127.5
402.182	98.5
402.406	117.5
402.63	119.5
402.854	118.5
403.078	105.5
403.302	123.5
403.526	120.5
403.75	119.5
403.974	121.5
404.198	106.5
404.422	117.5
404.645	118.5
404.869	124.5
405.093	133.5
405.317	128.5
405.541	121.5
405.765	122.5
405.988	124.5
406.212	115.5
406.436	103.5
406.66	113.5
406.883	121.5
407.107	122.5
407.331	113.5
407.555	112.5
407.778	120.5
408.002	119.5
408.226	134.5
408.449	117.5
408.673	120.5
408.896	119.5
409.12	132.5
409.344	121.5
409.567	124.5
409.791	117.5
410.014	123.5
410.238	113.5
410.461	104.5
410.685	116.5
410.908	130.5
411.132	141.5
411.355	120.5
411.578	143.5
411.802	133.5
412.025	129.5
412.249	115.5
412.472	123.5
412.695	134.5
412.919	109.5
413.142	123.5
413.365	131.5
413.589	121.5
413.812	121.5
414.035	138.5
414.258	144.5
414.482	117.5
414.705	129.5
414.928	119.5
415.151	133.5
415.374	125.5
415.597	138.5
415.821	120.5
416.044	141.5
416.267	144.5
416.49	127.5
416.713	136.5
416.936	133.5
417.159	119.5
417.382	131.5
417.605	127.5
417.828	115.5
418.051	129.5
418.274	140.5
418.497	133.5
418.72	153.5
418.943	145.5
419.166	113.5
419.389	131.5
419.611	138.5
419.834	153.5
420.057	147.5
420.28	125.5
420.503	136.5
420.726	143.5
420.948	131.5
421.171	156.5
421.394	137.5
421.617	135.5
421.839	147.5
422.062	143.5
422.285	143.5
422.507	144.5
422.73	119.5
422.953	151.5
423.175	144.5
423.398	151.5
423.621	143.5
423.843	147.5
424.066	137.5
424.288	132.5
424.511	150.5
424.733	169.5
424.956	139.5
425.178	146.5
425.401	151.5
425.623	141.5
425.846	154.5
426.068	133.5
426.291	141.5
426.513	134.5
426.735	150.5
426.958	143.5
427.18	129.5
427.402	130.5
427.625	143.5
427.847	129.5
428.069	133.5
428.292	132.5
428.514	131.5
428.736	125.5
428.958	129.5
429.181	142.5
429.403	124.5
429.625	134.5
429.847	135.5
430.069	131.5
430.292	125.5
430.514	120.5
430.736	134.5
430.958	141.5
431.18	139.5
431.402	132.5
431.624	122.5
431.846	99.5
432.068	101.5
432.29	107.5
432.512	112.5
432.734	118.5
432.956	134.5
433.178	151.5
433.4	137.5
433.622	136.5
433.844	140.5
434.066	139.5
434.287	117.5
434.509	89.5
434.731	97.5
434.953	119.5
435.175	131.5
435.397	139.5
435.618	130.5
435.84	116.5
436.062	116.5
436.284	127.5
436.505	139.5
436.727	138.5
436.949	137.5
437.17	151.5
437.392	141.5
437.614	132.5
437.835	127.5
438.057	113.5
438.278	121.5
438.5	116.5
438.721	134.5
438.943	139.5
439.165	137.5
439.386	140.5
439.608	133.5
439.829	149.5
440.05	154.5
440.272	149.5
440.493	159.5
440.715	156.5
440.936	141.5
441.158	163.5
441.379	143.5
441.6	154.5
441.822	151.5
442.043	156.5
442.264	141.5
442.486	141.5
442.707	164.5
442.928	147.5
443.149	145.5
443.371	141.5
443.592	145.5
443.813	139.5
444.034	149.5
444.255	153.5
444.476	143.5
444.698	147.5
444.919	161.5
445.14	293.5
445.361	215.5
445.582	145.5
445.803	146.5
446.024	143.5
446.245	151.5
446.466	143.5
446.687	160.5
446.908	174.5
447.129	160.5
447.35	163.5
447.571	145.5
447.792	172.5
448.013	151.5
448.234	150.5
448.455	154.5
448.675	143.5
448.896	145.5
449.117	141.5
449.338	147.5
449.559	159.5
449.779	139.5
450	132.5
450.221	147.5
450.442	129.5
450.662	147.5
450.883	149.5
451.104	136.5
451.324	142.5
451.545	147.5
451.766	139.5
451.986	132.5
452.207	137.5
452.428	127.5
452.648	126.5
452.869	129.5
453.089	110.5
453.31	111.5
453.53	117.5
453.751	117.5
453.971	116.5
454.192	101.5
454.412	110.5
454.633	123.5
454.853	125.5
455.073	137.5
455.294	148.5
455.514	133.5
455.734	131.5
455.955	126.5
456.175	121.5
456.395	115.5
456.616	115.5
456.836	124.5
457.056	118.5
457.276	117.5
457.497	105.5
457.717	104.5
457.937	115.5
458.157	125.5
458.377	119.5
458.598	110.5
458.818	110.5
459.038	92.5
459.258	100.5
459.478	86.5
459.698	100.5
459.918	113.5
460.138	109.5
460.358	102.5
460.578	127.5
460.798	127.5
461.018	126.5
461.238	115.5
461.458	117.5
461.678	131.5
461.898	132.5
462.118	130.5
462.338	127.5
462.558	119.5
462.777	130.5
462.997	108.5
463.217	111.5
463.437	111.5
463.657	104.5
463.876	118.5
464.096	109.5
464.316	116.5
464.536	111.5
464.755	121.5
464.975	124.5
465.195	122.5
465.414	122.5
465.634	118.5
465.854	124.5
466.073	123.5
466.293	124.5
466.512	127.5
466.732	128.5
466.951	139.5
467.171	138.5
467.391	121.5
467.61	141.5
467.829	136.5
468.049	157.5
468.268	144.5
468.488	136.5
468.707	141.5
468.927	134.5
469.146	140.5
469.365	139.5
469.585	150.5
469.804	144.5
470.023	152.5
470.243	144.5
470.462	161.5
470.681	151.5
470.901	149.5
471.12	125.5
471.339	134.5
471.558	156.5
471.777	131.5
471.997	143.5
472.216	131.5
472.435	115.5
472.654	121.5
472.873	119.5
473.092	136.5
473.311	129.5
473.53	139.5
473.749	133.5
473.968	144.5
474.187	130.5
474.406	121.5
474.625	135.5
474.844	136.5
475.063	133.5
475.282	133.5
475.501	133.5
475.72	128.5
475.939	136.5
476.158	141.5
476.377	136.5
476.596	128.5
476.814	129.5
477.033	109.5
477.252	114.5
477.471	133.5
477.69	138.5
477.908	141.5
478.127	149.5
478.346	145.5
478.564	140.5
478.783	148.5
479.002	152.5
479.22	135.5
479.439	142.5
479.658	134.5
479.876	101.5
480.095	122.5
480.313	121.5
480.532	126.5
480.751	117.5
480.969	99.5
481.188	84.5
481.406	96.5
481.624	93.5
481.843	99.5
482.061	120.5
482.28	108.5
482.498	113.5
482.717	117.5
482.935	133.5
483.153	170.5
483.372	158.5
483.59	149.5
483.808	142.5
484.027	138.5
484.245	135.5
484.463	166.5
484.681	192.5
484.9	174.5
485.118	140.5
485.336	127.5
485.554	107.5
485.772	105.5
485.99	105.5
486.209	107.5
486.427	104.5
486.645	116.5
486.863	151.5
487.081	146.5
487.299	156.5
487.517	157.5
487.735	170.5
487.953	195.5
488.171	205.5
488.389	191.5
488.607	172.5
488.825	155.5
489.043	137.5
489.261	146.5
489.479	148.5
489.696	149.5
489.914	151.5
490.132	159.5
490.35	157.5
490.568	166.5
490.786	160.5
491.003	194.5
491.221	204.5
491.439	205.5
491.657	209.5
491.874	217.5
492.092	247.5
492.31	255.5
492.527	264.5
492.745	237.5
492.963	195.5
493.18	192.5
493.398	187.5
493.615	185.5
493.833	183.5
494.05	200.5
494.268	183.5
494.485	187.5
494.703	167.5
494.92	183.5
495.138	161.5
495.355	171.5
495.573	169.5
495.79	193.5
496.008	181.5
496.225	177.5
496.442	168.5
496.66	180.5
496.877	170.5
497.094	172.5
497.312	166.5
497.529	180.5
497.746	161.5
497.963	139.5
498.181	146.5
498.398	141.5
498.615	121.5
498.832	129.5
499.049	134.5
499.267	124.5
499.484	126.5
499.701	143.5
499.918	133.5
500.135	140.5
500.352	152.5
500.569	150.5
500.786	152.5
501.003	165.5
501.22	145.5
501.437	149.5
501.654	154.5
501.871	134.5
502.088	147.5
502.305	151.5
502.522	138.5
502.739	139.5
502.956	128.5
503.172	130.5
503.389	118.5
503.606	124.5
503.823	115.5
504.04	142.5
504.256	125.5
504.473	131.5
504.69	133.5
504.907	154.5
505.123	120.5
505.34	150.5
505.557	118.5
505.773	129.5
505.99	131.5
506.207	128.5
506.423	126.5
506.64	122.5
506.856	133.5
507.073	123.5
507.289	129.5
507.506	122.5
507.722	118.5
507.939	116.5
508.155	136.5
508.372	125.5
508.588	115.5
508.805	121.5
509.021	114.5
509.238	104.5
509.454	106.5
509.67	109.5
509.887	99.5
510.103	90.5
510.319	99.5
510.536	109.5
510.752	97.5
510.968	88.5
511.184	85.5
511.401	88.5
511.617	95.5
511.833	87.5
512.049	100.5
512.265	99.5
512.481	95.5
512.698	100.5
512.914	116.5
513.13	101.5
513.346	110.5
513.562	99.5
513.778	101.5
513.994	91.5
514.21	92.5
514.426	92.5
514.642	105.5
514.858	100.5
515.074	81.5
515.29	105.5
515.506	104.5
515.721	92.5
515.937	103.5
516.153	99.5
516.369	92.5
516.585	94.5
516.801	90.5
517.016	100.5
517.232	97.5
517.448	95.5
517.664	101.5
517.879	102.5
518.095	101.5
518.311	100.5
518.527	82.5
518.742	94.5
518.958	106.5
519.173	99.5
519.389	125.5
519.605	119.5
519.82	119.5
520.036	101.5
520.251	115.5
520.467	111.5
520.682	103.5
520.898	80.5
521.113	86.5
521.329	86.5
521.544	98.5
521.76	87.5
521.975	102.5
522.19	99.5
522.406	114.5
522.621	97.5
522.836	103.5
523.052	113.5
523.267	108.5
523.482	129.5
523.698	123.5
523.913	125.5
524.128	123.5
524.343	130.5
524.559	125.5
524.774	124.5
524.989	125.5
525.204	126.5
525.419	111.5
525.634	117.5
525.849	115.5
526.064	114.5
526.28	107.5
526.495	100.5
526.71	102.5
526.925	101.5
527.14	90.5
527.355	73.5
527.57	98.5
527.785	98.5
527.999	95.5
528.214	117.5
528.429	113.5
528.644	118.5
528.859	147.5
529.074	164.5
529.289	157.5
529.503	152.5
529.718	156.5
529.933	125.5
