Data from Location6.07152019.Energy5.Lamp.07192019.3%Agarose_HRD10591_16-13-55-396.txt Node
Date: Fri Jul 19 16:13:55 EDT 2019
User: cochatt
Spectrometer: HR+D1059
Trigger mode: 1
Integration Time (sec): 1.000000E-1
Scans to average: 1
Electric dark correction enabled: true
Nonlinearity correction enabled: false
Boxcar width: 0
XAxis mode: Wavelengths
Number of Pixels in Spectrum: 2048
>>>>>Begin Spectral Data<<<<<
223.165	-14.94
223.4	-14.94
223.635	-14.94
223.869	-19.94
224.104	-21.94
224.338	-23.94
224.573	-16.94
224.808	-14.94
225.042	3.06
225.277	-8.94
225.511	2.06
225.746	-0.94
225.98	8.06
226.215	13.06
226.449	7.06
226.683	32.06
226.918	28.06
227.152	29.06
227.387	32.06
227.621	30.06
227.856	46.06
228.09	42.06
228.324	58.06
228.559	45.06
228.793	62.06
229.027	62.06
229.262	54.06
229.496	53.06
229.73	66.06
229.964	86.06
230.199	73.06
230.433	72.06
230.667	79.06
230.901	77.06
231.136	78.06
231.37	69.06
231.604	85.06
231.838	89.06
232.072	83.06
232.306	80.06
232.541	98.06
232.775	84.06
233.009	83.06
233.243	72.06
233.477	83.06
233.711	77.06
233.945	77.06
234.179	79.06
234.413	91.06
234.647	85.06
234.881	78.06
235.115	71.06
235.349	91.06
235.583	78.06
235.817	81.06
236.051	57.06
236.285	94.06
236.519	72.06
236.753	77.06
236.987	78.06
237.221	79.06
237.455	73.06
237.689	83.06
237.922	73.06
238.156	75.06
238.39	78.06
238.624	77.06
238.858	83.06
239.091	72.06
239.325	79.06
239.559	90.06
239.793	77.06
240.027	66.06
240.26	68.06
240.494	56.06
240.728	79.06
240.961	91.06
241.195	78.06
241.429	84.06
241.662	79.06
241.896	75.06
242.13	77.06
242.363	83.06
242.597	80.06
242.83	83.06
243.064	79.06
243.298	69.06
243.531	83.06
243.765	74.06
243.998	82.06
244.232	85.06
244.465	77.06
244.699	73.06
244.932	83.06
245.166	79.06
245.399	73.06
245.633	75.06
245.866	75.06
246.099	83.06
246.333	88.06
246.566	70.06
246.8	94.06
247.033	93.06
247.266	75.06
247.5	94.06
247.733	81.06
247.966	89.06
248.2	76.06
248.433	74.06
248.666	76.06
248.899	82.06
249.133	87.06
249.366	84.06
249.599	78.06
249.832	84.06
250.066	85.06
250.299	89.06
250.532	95.06
250.765	71.06
250.998	72.06
251.231	73.06
251.465	83.06
251.698	85.06
251.931	87.06
252.164	73.06
252.397	75.06
252.63	75.06
252.863	76.06
253.096	79.06
253.329	81.06
253.562	87.06
253.795	61.06
254.028	74.06
254.261	89.06
254.494	95.06
254.727	94.06
254.96	81.06
255.193	92.06
255.426	84.06
255.659	93.06
255.892	83.06
256.124	87.06
256.357	98.06
256.59	86.06
256.823	77.06
257.056	81.06
257.289	83.06
257.521	96.06
257.754	84.06
257.987	64.06
258.22	93.06
258.452	73.06
258.685	89.06
258.918	85.06
259.151	78.06
259.383	93.06
259.616	73.06
259.849	89.06
260.081	106.06
260.314	90.06
260.547	75.06
260.779	62.06
261.012	86.06
261.244	85.06
261.477	101.06
261.71	89.06
261.942	62.06
262.175	73.06
262.407	73.06
262.64	67.06
262.872	87.06
263.105	100.06
263.337	75.06
263.57	93.06
263.802	75.06
264.035	95.06
264.267	92.06
264.499	85.06
264.732	79.06
264.964	87.06
265.197	81.06
265.429	80.06
265.661	86.06
265.894	88.06
266.126	82.06
266.358	77.06
266.591	74.06
266.823	76.06
267.055	78.06
267.287	89.06
267.52	79.06
267.752	83.06
267.984	95.06
268.216	90.06
268.448	88.06
268.681	93.06
268.913	84.06
269.145	85.06
269.377	85.06
269.609	85.06
269.841	78.06
270.073	76.06
270.306	79.06
270.538	85.06
270.77	78.06
271.002	84.06
271.234	79.06
271.466	81.06
271.698	94.06
271.93	92.06
272.162	80.06
272.394	88.06
272.626	88.06
272.858	93.06
273.09	93.06
273.322	91.06
273.553	81.06
273.785	79.06
274.017	66.06
274.249	76.06
274.481	84.06
274.713	92.06
274.945	98.06
275.176	83.06
275.408	89.06
275.64	85.06
275.872	91.06
276.104	78.06
276.335	87.06
276.567	78.06
276.799	91.06
277.031	90.06
277.262	80.06
277.494	92.06
277.726	83.06
277.957	89.06
278.189	99.06
278.421	98.06
278.652	90.06
278.884	94.06
279.115	86.06
279.347	87.06
279.579	74.06
279.81	91.06
280.042	89.06
280.273	75.06
280.505	76.06
280.736	82.06
280.968	77.06
281.199	84.06
281.431	94.06
281.662	88.06
281.894	97.06
282.125	70.06
282.356	78.06
282.588	95.06
282.819	78.06
283.051	74.06
283.282	87.06
283.513	91.06
283.745	97.06
283.976	88.06
284.207	87.06
284.439	75.06
284.67	80.06
284.901	86.06
285.132	78.06
285.364	89.06
285.595	84.06
285.826	78.06
286.057	95.06
286.288	92.06
286.52	94.06
286.751	69.06
286.982	90.06
287.213	65.06
287.444	99.06
287.675	84.06
287.906	74.06
288.138	102.06
288.369	82.06
288.6	83.06
288.831	74.06
289.062	81.06
289.293	97.06
289.524	73.06
289.755	72.06
289.986	86.06
290.217	73.06
290.448	97.06
290.679	74.06
290.91	88.06
291.141	79.06
291.371	84.06
291.602	88.06
291.833	78.06
292.064	85.06
292.295	85.06
292.526	93.06
292.757	91.06
292.987	84.06
293.218	81.06
293.449	95.06
293.68	95.06
293.91	82.06
294.141	87.06
294.372	83.06
294.603	86.06
294.833	77.06
295.064	85.06
295.295	92.06
295.525	88.06
295.756	92.06
295.987	86.06
296.217	94.06
296.448	80.06
296.679	81.06
296.909	93.06
297.14	88.06
297.37	86.06
297.601	97.06
297.831	94.06
298.062	80.06
298.292	83.06
298.523	82.06
298.753	90.06
298.984	94.06
299.214	77.06
299.445	86.06
299.675	95.06
299.905	96.06
300.136	83.06
300.366	80.06
300.597	85.06
300.827	87.06
301.057	76.06
301.288	83.06
301.518	86.06
301.748	88.06
301.979	72.06
302.209	90.06
302.439	100.06
302.669	101.06
302.9	82.06
303.13	78.06
303.36	84.06
303.59	92.06
303.82	99.06
304.051	90.06
304.281	90.06
304.511	88.06
304.741	97.06
304.971	89.06
305.201	73.06
305.431	91.06
305.661	83.06
305.891	82.06
306.121	88.06
306.352	77.06
306.582	90.06
306.812	85.06
307.042	83.06
307.272	100.06
307.502	90.06
307.731	92.06
307.961	81.06
308.191	87.06
308.421	92.06
308.651	93.06
308.881	104.06
309.111	81.06
309.341	105.06
309.571	88.06
309.8	91.06
310.03	82.06
310.26	73.06
310.49	79.06
310.72	86.06
310.949	83.06
311.179	81.06
311.409	81.06
311.639	100.06
311.868	85.06
312.098	84.06
312.328	77.06
312.557	84.06
312.787	84.06
313.017	90.06
313.246	94.06
313.476	93.06
313.706	83.06
313.935	76.06
314.165	82.06
314.394	85.06
314.624	85.06
314.853	91.06
315.083	85.06
315.312	93.06
315.542	90.06
315.771	90.06
316.001	93.06
316.23	82.06
316.46	82.06
316.689	91.06
316.919	82.06
317.148	95.06
317.377	77.06
317.607	81.06
317.836	88.06
318.065	87.06
318.295	90.06
318.524	71.06
318.753	87.06
318.983	80.06
319.212	86.06
319.441	92.06
319.67	97.06
319.9	85.06
320.129	88.06
320.358	94.06
320.587	74.06
320.816	91.06
321.046	84.06
321.275	89.06
321.504	83.06
321.733	81.06
321.962	91.06
322.191	82.06
322.42	105.06
322.649	90.06
322.878	77.06
323.108	85.06
323.337	87.06
323.566	103.06
323.795	84.06
324.024	85.06
324.253	71.06
324.482	96.06
324.71	77.06
324.939	96.06
325.168	72.06
325.397	100.06
325.626	70.06
325.855	91.06
326.084	78.06
326.313	84.06
326.542	82.06
326.77	93.06
326.999	93.06
327.228	65.06
327.457	79.06
327.686	103.06
327.914	88.06
328.143	79.06
328.372	96.06
328.6	75.06
328.829	94.06
329.058	91.06
329.287	79.06
329.515	83.06
329.744	74.06
329.972	80.06
330.201	74.06
330.43	93.06
330.658	98.06
330.887	80.06
331.115	86.06
331.344	72.06
331.572	108.06
331.801	85.06
332.03	92.06
332.258	97.06
332.486	95.06
332.715	94.06
332.943	81.06
333.172	97.06
333.4	85.06
333.629	88.06
333.857	102.06
334.085	84.06
334.314	100.06
334.542	85.06
334.771	80.06
334.999	79.06
335.227	94.06
335.455	72.06
335.684	79.06
335.912	92.06
336.14	86.06
336.369	88.06
336.597	90.06
336.825	101.06
337.053	89.06
337.281	89.06
337.51	77.06
337.738	101.06
337.966	98.06
338.194	93.06
338.422	94.06
338.65	92.06
338.878	93.06
339.106	83.06
339.334	91.06
339.562	78.06
339.79	78.06
340.018	98.06
340.246	74.06
340.474	80.06
340.702	83.06
340.93	90.06
341.158	95.06
341.386	92.06
341.614	80.06
341.842	90.06
342.07	83.06
342.298	100.06
342.526	97.06
342.754	80.06
342.981	90.06
343.209	90.06
343.437	99.06
343.665	75.06
343.893	67.06
344.12	88.06
344.348	85.06
344.576	80.06
344.804	87.06
345.031	84.06
345.259	82.06
345.487	84.06
345.714	83.06
345.942	84.06
346.17	84.06
346.397	73.06
346.625	88.06
346.853	93.06
347.08	97.06
347.308	89.06
347.535	97.06
347.763	93.06
347.99	77.06
348.218	86.06
348.445	82.06
348.673	84.06
348.9	78.06
349.128	96.06
349.355	96.06
349.583	88.06
349.81	88.06
350.037	91.06
350.265	85.06
350.492	87.06
350.72	93.06
350.947	74.06
351.174	79.06
351.402	93.06
351.629	102.06
351.856	72.06
352.083	83.06
352.311	90.06
352.538	82.06
352.765	79.06
352.992	93.06
353.22	83.06
353.447	90.06
353.674	91.06
353.901	85.06
354.128	79.06
354.355	91.06
354.583	95.06
354.81	95.06
355.037	97.06
355.264	85.06
355.491	90.06
355.718	74.06
355.945	90.06
356.172	86.06
356.399	93.06
356.626	87.06
356.853	82.06
357.08	101.06
357.307	82.06
357.534	81.06
357.761	88.06
357.988	84.06
358.215	79.06
358.441	92.06
358.668	79.06
358.895	95.06
359.122	92.06
359.349	100.06
359.576	86.06
359.802	86.06
360.029	78.06
360.256	103.06
360.483	107.06
360.709	94.06
360.936	92.06
361.163	85.06
361.39	76.06
361.616	82.06
361.843	76.06
362.07	59.06
362.296	87.06
362.523	76.06
362.749	101.06
362.976	97.06
363.203	80.06
363.429	84.06
363.656	91.06
363.882	83.06
364.109	80.06
364.335	98.06
364.562	78.06
364.788	82.06
365.015	90.06
365.241	80.06
365.468	74.06
365.694	92.06
365.92	71.06
366.147	77.06
366.373	96.06
366.599	91.06
366.826	78.06
367.052	93.06
367.278	83.06
367.505	97.06
367.731	98.06
367.957	81.06
368.184	92.06
368.41	92.06
368.636	80.06
368.862	89.06
369.089	80.06
369.315	93.06
369.541	93.06
369.767	107.06
369.993	86.06
370.219	91.06
370.445	89.06
370.672	105.06
370.898	99.06
371.124	85.06
371.35	95.06
371.576	99.06
371.802	88.06
372.028	89.06
372.254	93.06
372.48	85.06
372.706	87.06
372.932	102.06
373.158	83.06
373.384	96.06
373.61	87.06
373.835	98.06
374.061	109.06
374.287	102.06
374.513	92.06
374.739	98.06
374.965	85.06
375.191	81.06
375.416	90.06
375.642	84.06
375.868	93.06
376.094	94.06
376.319	100.06
376.545	96.06
376.771	91.06
376.997	89.06
377.222	93.06
377.448	96.06
377.674	93.06
377.899	102.06
378.125	88.06
378.35	95.06
378.576	99.06
378.802	100.06
379.027	89.06
379.253	104.06
379.478	92.06
379.704	93.06
379.929	110.06
380.155	91.06
380.38	101.06
380.606	102.06
380.831	89.06
381.057	104.06
381.282	109.06
381.507	100.06
381.733	109.06
381.958	87.06
382.184	91.06
382.409	94.06
382.634	113.06
382.86	104.06
383.085	110.06
383.31	85.06
383.535	97.06
383.761	98.06
383.986	102.06
384.211	106.06
384.436	110.06
384.662	102.06
384.887	96.06
385.112	90.06
385.337	94.06
385.562	97.06
385.787	100.06
386.013	109.06
386.238	87.06
386.463	105.06
386.688	79.06
386.913	106.06
387.138	91.06
387.363	106.06
387.588	111.06
387.813	110.06
388.038	109.06
388.263	107.06
388.488	105.06
388.713	94.06
388.938	103.06
389.163	100.06
389.387	119.06
389.612	99.06
389.837	94.06
390.062	104.06
390.287	106.06
390.512	114.06
390.736	95.06
390.961	95.06
391.186	112.06
391.411	106.06
391.636	102.06
391.86	110.06
392.085	97.06
392.31	110.06
392.534	112.06
392.759	107.06
392.984	117.06
393.208	95.06
393.433	103.06
393.658	94.06
393.882	105.06
394.107	100.06
394.331	104.06
394.556	111.06
394.78	102.06
395.005	102.06
395.229	116.06
395.454	117.06
395.678	108.06
395.903	92.06
396.127	110.06
396.352	110.06
396.576	93.06
396.801	96.06
397.025	110.06
397.249	119.06
397.474	107.06
397.698	113.06
397.922	110.06
398.147	106.06
398.371	92.06
398.595	109.06
398.82	123.06
399.044	126.06
399.268	123.06
399.492	105.06
399.717	115.06
399.941	107.06
400.165	105.06
400.389	122.06
400.613	110.06
400.837	124.06
401.062	117.06
401.286	91.06
401.51	118.06
401.734	109.06
401.958	121.06
402.182	112.06
402.406	118.06
402.63	122.06
402.854	125.06
403.078	113.06
403.302	115.06
403.526	108.06
403.75	113.06
403.974	123.06
404.198	127.06
404.422	116.06
404.645	125.06
404.869	131.06
405.093	108.06
405.317	120.06
405.541	136.06
405.765	122.06
405.988	132.06
406.212	109.06
406.436	121.06
406.66	118.06
406.883	120.06
407.107	136.06
407.331	125.06
407.555	105.06
407.778	119.06
408.002	116.06
408.226	127.06
408.449	133.06
408.673	144.06
408.896	122.06
409.12	117.06
409.344	120.06
409.567	133.06
409.791	131.06
410.014	128.06
410.238	118.06
410.461	128.06
410.685	115.06
410.908	131.06
411.132	119.06
411.355	121.06
411.578	131.06
411.802	122.06
412.025	119.06
412.249	135.06
412.472	118.06
412.695	123.06
412.919	123.06
413.142	126.06
413.365	138.06
413.589	121.06
413.812	130.06
414.035	137.06
414.258	126.06
414.482	123.06
414.705	123.06
414.928	134.06
415.151	137.06
415.374	117.06
415.597	149.06
415.821	123.06
416.044	129.06
416.267	134.06
416.49	112.06
416.713	122.06
416.936	136.06
417.159	137.06
417.382	131.06
417.605	118.06
417.828	135.06
418.051	133.06
418.274	135.06
418.497	133.06
418.72	132.06
418.943	128.06
419.166	138.06
419.389	142.06
419.611	127.06
419.834	125.06
420.057	140.06
420.28	129.06
420.503	120.06
420.726	125.06
420.948	128.06
421.171	134.06
421.394	137.06
421.617	139.06
421.839	159.06
422.062	146.06
422.285	146.06
422.507	135.06
422.73	125.06
422.953	126.06
423.175	139.06
423.398	136.06
423.621	147.06
423.843	119.06
424.066	149.06
424.288	151.06
424.511	141.06
424.733	158.06
424.956	144.06
425.178	143.06
425.401	157.06
425.623	141.06
425.846	133.06
426.068	138.06
426.291	140.06
426.513	133.06
426.735	136.06
426.958	134.06
427.18	149.06
427.402	125.06
427.625	124.06
427.847	146.06
428.069	129.06
428.292	143.06
428.514	139.06
428.736	131.06
428.958	125.06
429.181	136.06
429.403	137.06
429.625	125.06
429.847	131.06
430.069	128.06
430.292	134.06
430.514	113.06
430.736	122.06
430.958	116.06
431.18	125.06
431.402	130.06
431.624	121.06
431.846	110.06
432.068	106.06
432.29	106.06
432.512	115.06
432.734	123.06
432.956	138.06
433.178	139.06
433.4	133.06
433.622	141.06
433.844	128.06
434.066	142.06
434.287	115.06
434.509	110.06
434.731	115.06
434.953	96.06
435.175	133.06
435.397	134.06
435.618	117.06
435.84	113.06
436.062	114.06
436.284	132.06
436.505	122.06
436.727	136.06
436.949	130.06
437.17	136.06
437.392	131.06
437.614	119.06
437.835	105.06
438.057	119.06
438.278	121.06
438.5	133.06
438.721	132.06
438.943	148.06
439.165	140.06
439.386	153.06
439.608	158.06
439.829	161.06
440.05	147.06
440.272	149.06
440.493	144.06
440.715	135.06
440.936	139.06
441.158	151.06
441.379	146.06
441.6	156.06
441.822	157.06
442.043	146.06
442.264	133.06
442.486	141.06
442.707	154.06
442.928	136.06
443.149	137.06
443.371	143.06
443.592	150.06
443.813	137.06
444.034	153.06
444.255	142.06
444.476	149.06
444.698	142.06
444.919	149.06
445.14	294.06
445.361	221.06
445.582	147.06
445.803	149.06
446.024	158.06
446.245	154.06
446.466	172.06
446.687	157.06
446.908	182.06
447.129	145.06
447.35	155.06
447.571	159.06
447.792	156.06
448.013	143.06
448.234	150.06
448.455	144.06
448.675	147.06
448.896	136.06
449.117	137.06
449.338	122.06
449.559	119.06
449.779	146.06
450	152.06
450.221	131.06
450.442	140.06
450.662	135.06
450.883	129.06
451.104	135.06
451.324	129.06
451.545	133.06
451.766	123.06
451.986	128.06
452.207	141.06
452.428	132.06
452.648	126.06
452.869	122.06
453.089	137.06
453.31	113.06
453.53	115.06
453.751	123.06
453.971	101.06
454.192	95.06
454.412	120.06
454.633	125.06
454.853	127.06
455.073	129.06
455.294	129.06
455.514	121.06
455.734	134.06
455.955	123.06
456.175	123.06
456.395	119.06
456.616	110.06
456.836	122.06
457.056	106.06
457.276	111.06
457.497	116.06
457.717	109.06
457.937	110.06
458.157	107.06
458.377	99.06
458.598	112.06
458.818	101.06
459.038	83.06
459.258	84.06
459.478	96.06
459.698	88.06
459.918	98.06
460.138	103.06
460.358	117.06
460.578	123.06
460.798	114.06
461.018	122.06
461.238	131.06
461.458	120.06
461.678	116.06
461.898	119.06
462.118	113.06
462.338	113.06
462.558	113.06
462.777	112.06
462.997	117.06
463.217	108.06
463.437	106.06
463.657	108.06
463.876	112.06
464.096	110.06
464.316	106.06
464.536	113.06
464.755	131.06
464.975	121.06
465.195	124.06
465.414	113.06
465.634	119.06
465.854	122.06
466.073	129.06
466.293	127.06
466.512	130.06
466.732	147.06
466.951	137.06
467.171	144.06
467.391	147.06
467.61	130.06
467.829	137.06
468.049	125.06
468.268	155.06
468.488	149.06
468.707	145.06
468.927	137.06
469.146	133.06
469.365	147.06
469.585	151.06
469.804	141.06
470.023	140.06
470.243	142.06
470.462	161.06
470.681	154.06
470.901	138.06
471.12	147.06
471.339	133.06
471.558	140.06
471.777	162.06
471.997	147.06
472.216	130.06
472.435	105.06
472.654	120.06
472.873	100.06
473.092	120.06
473.311	130.06
473.53	125.06
473.749	141.06
473.968	136.06
474.187	122.06
474.406	128.06
474.625	115.06
474.844	131.06
475.063	130.06
475.282	135.06
475.501	124.06
475.72	125.06
475.939	131.06
476.158	140.06
476.377	133.06
476.596	118.06
476.814	127.06
477.033	106.06
477.252	121.06
477.471	131.06
477.69	146.06
477.908	146.06
478.127	142.06
478.346	117.06
478.564	141.06
478.783	134.06
479.002	161.06
479.22	142.06
479.439	134.06
479.658	124.06
479.876	108.06
480.095	119.06
480.313	117.06
480.532	122.06
480.751	125.06
480.969	84.06
481.188	77.06
481.406	86.06
481.624	91.06
481.843	92.06
482.061	105.06
482.28	117.06
482.498	108.06
482.717	100.06
482.935	126.06
483.153	153.06
483.372	157.06
483.59	161.06
483.808	143.06
484.027	135.06
484.245	137.06
484.463	169.06
484.681	169.06
484.9	146.06
485.118	159.06
485.336	124.06
485.554	127.06
485.772	98.06
485.99	103.06
486.209	114.06
486.427	122.06
486.645	117.06
486.863	144.06
487.081	160.06
487.299	137.06
487.517	144.06
487.735	166.06
487.953	189.06
488.171	177.06
488.389	164.06
488.607	178.06
488.825	146.06
489.043	144.06
489.261	140.06
489.479	162.06
489.696	149.06
489.914	142.06
490.132	145.06
490.35	155.06
490.568	157.06
490.786	195.06
491.003	163.06
491.221	170.06
491.439	189.06
491.657	211.06
491.874	218.06
492.092	241.06
492.31	271.06
492.527	265.06
492.745	222.06
492.963	213.06
493.18	187.06
493.398	182.06
493.615	189.06
493.833	179.06
494.05	180.06
494.268	190.06
494.485	174.06
494.703	189.06
494.92	179.06
495.138	181.06
495.355	171.06
495.573	163.06
495.79	167.06
496.008	169.06
496.225	154.06
496.442	174.06
496.66	164.06
496.877	186.06
497.094	160.06
497.312	180.06
497.529	156.06
497.746	162.06
497.963	135.06
498.181	144.06
498.398	128.06
498.615	136.06
498.832	122.06
499.049	128.06
499.267	121.06
499.484	131.06
499.701	121.06
499.918	145.06
500.135	142.06
500.352	143.06
500.569	151.06
500.786	169.06
501.003	158.06
501.22	147.06
501.437	138.06
501.654	126.06
501.871	144.06
502.088	122.06
502.305	133.06
502.522	155.06
502.739	139.06
502.956	165.06
503.172	125.06
503.389	123.06
503.606	116.06
503.823	131.06
504.04	118.06
504.256	125.06
504.473	103.06
504.69	121.06
504.907	135.06
505.123	121.06
505.34	137.06
505.557	120.06
505.773	141.06
505.99	138.06
506.207	130.06
506.423	130.06
506.64	122.06
506.856	144.06
507.073	118.06
507.289	136.06
507.506	123.06
507.722	124.06
507.939	117.06
508.155	130.06
508.372	126.06
508.588	114.06
508.805	118.06
509.021	106.06
509.238	115.06
509.454	122.06
509.67	100.06
509.887	113.06
510.103	110.06
510.319	98.06
510.536	104.06
510.752	109.06
510.968	72.06
511.184	72.06
