Data from Location6.07152019.Energy5.Lamp.07192019.3%Agarose_HRD10591_16-13-22-395.txt Node
Date: Fri Jul 19 16:13:22 EDT 2019
User: cochatt
Spectrometer: HR+D1059
Trigger mode: 1
Integration Time (sec): 1.000000E-1
Scans to average: 1
Electric dark correction enabled: true
Nonlinearity correction enabled: false
Boxcar width: 0
XAxis mode: Wavelengths
Number of Pixels in Spectrum: 2048
>>>>>Begin Spectral Data<<<<<
223.165	-0.25
223.4	-0.25
223.635	-0.25
223.869	-24.25
224.104	-22.25
224.338	-15.25
224.573	-8.25
224.808	-2.25
225.042	-9.25
225.277	-19.25
225.511	-16.25
225.746	9.75
225.98	-7.25
226.215	20.75
226.449	28.75
226.683	17.75
226.918	22.75
227.152	24.75
227.387	31.75
227.621	31.75
227.856	41.75
228.09	26.75
228.324	38.75
228.559	52.75
228.793	57.75
229.027	57.75
229.262	71.75
229.496	60.75
229.73	71.75
229.964	65.75
230.199	68.75
230.433	75.75
230.667	83.75
230.901	69.75
231.136	67.75
231.37	78.75
231.604	89.75
231.838	89.75
232.072	80.75
232.306	77.75
232.541	76.75
232.775	88.75
233.009	92.75
233.243	70.75
233.477	83.75
233.711	80.75
233.945	90.75
234.179	79.75
234.413	81.75
234.647	90.75
234.881	94.75
235.115	72.75
235.349	79.75
235.583	84.75
235.817	91.75
236.051	75.75
236.285	87.75
236.519	69.75
236.753	91.75
236.987	73.75
237.221	67.75
237.455	75.75
237.689	84.75
237.922	83.75
238.156	86.75
238.39	77.75
238.624	84.75
238.858	72.75
239.091	74.75
239.325	92.75
239.559	81.75
239.793	85.75
240.027	90.75
240.26	58.75
240.494	81.75
240.728	66.75
240.961	71.75
241.195	83.75
241.429	77.75
241.662	75.75
241.896	74.75
242.13	89.75
242.363	70.75
242.597	73.75
242.83	80.75
243.064	76.75
243.298	72.75
243.531	89.75
243.765	69.75
243.998	93.75
244.232	63.75
244.465	83.75
244.699	77.75
244.932	74.75
245.166	76.75
245.399	82.75
245.633	94.75
245.866	77.75
246.099	66.75
246.333	80.75
246.566	73.75
246.8	92.75
247.033	73.75
247.266	82.75
247.5	74.75
247.733	72.75
247.966	90.75
248.2	83.75
248.433	81.75
248.666	84.75
248.899	75.75
249.133	76.75
249.366	82.75
249.599	76.75
249.832	77.75
250.066	82.75
250.299	75.75
250.532	70.75
250.765	70.75
250.998	65.75
251.231	84.75
251.465	85.75
251.698	78.75
251.931	90.75
252.164	82.75
252.397	84.75
252.63	73.75
252.863	72.75
253.096	70.75
253.329	79.75
253.562	82.75
253.795	65.75
254.028	94.75
254.261	88.75
254.494	90.75
254.727	82.75
254.96	80.75
255.193	90.75
255.426	70.75
255.659	88.75
255.892	89.75
256.124	76.75
256.357	81.75
256.59	85.75
256.823	78.75
257.056	64.75
257.289	75.75
257.521	89.75
257.754	63.75
257.987	67.75
258.22	81.75
258.452	74.75
258.685	75.75
258.918	85.75
259.151	77.75
259.383	76.75
259.616	100.75
259.849	86.75
260.081	83.75
260.314	78.75
260.547	86.75
260.779	77.75
261.012	85.75
261.244	87.75
261.477	90.75
261.71	66.75
261.942	84.75
262.175	82.75
262.407	67.75
262.64	71.75
262.872	91.75
263.105	74.75
263.337	92.75
263.57	85.75
263.802	80.75
264.035	80.75
264.267	89.75
264.499	77.75
264.732	80.75
264.964	68.75
265.197	79.75
265.429	71.75
265.661	84.75
265.894	93.75
266.126	85.75
266.358	81.75
266.591	90.75
266.823	79.75
267.055	83.75
267.287	103.75
267.52	67.75
267.752	84.75
267.984	69.75
268.216	70.75
268.448	83.75
268.681	75.75
268.913	90.75
269.145	90.75
269.377	87.75
269.609	88.75
269.841	80.75
270.073	73.75
270.306	71.75
270.538	93.75
270.77	77.75
271.002	90.75
271.234	89.75
271.466	86.75
271.698	90.75
271.93	84.75
272.162	70.75
272.394	83.75
272.626	82.75
272.858	77.75
273.09	76.75
273.322	80.75
273.553	92.75
273.785	79.75
274.017	87.75
274.249	83.75
274.481	82.75
274.713	72.75
274.945	87.75
275.176	56.75
275.408	76.75
275.64	94.75
275.872	88.75
276.104	89.75
276.335	84.75
276.567	97.75
276.799	90.75
277.031	72.75
277.262	83.75
277.494	77.75
277.726	87.75
277.957	77.75
278.189	91.75
278.421	81.75
278.652	77.75
278.884	75.75
279.115	85.75
279.347	90.75
279.579	84.75
279.81	70.75
280.042	87.75
280.273	75.75
280.505	73.75
280.736	78.75
280.968	79.75
281.199	96.75
281.431	73.75
281.662	77.75
281.894	86.75
282.125	79.75
282.356	92.75
282.588	83.75
282.819	80.75
283.051	82.75
283.282	92.75
283.513	73.75
283.745	88.75
283.976	89.75
284.207	92.75
284.439	89.75
284.67	82.75
284.901	69.75
285.132	82.75
285.364	83.75
285.595	83.75
285.826	88.75
286.057	81.75
286.288	72.75
286.52	91.75
286.751	82.75
286.982	84.75
287.213	76.75
287.444	80.75
287.675	91.75
287.906	87.75
288.138	84.75
288.369	89.75
288.6	83.75
288.831	73.75
289.062	84.75
289.293	93.75
289.524	91.75
289.755	77.75
289.986	96.75
290.217	86.75
290.448	81.75
290.679	91.75
290.91	89.75
291.141	81.75
291.371	100.75
291.602	75.75
291.833	72.75
292.064	87.75
292.295	75.75
292.526	90.75
292.757	90.75
292.987	88.75
293.218	71.75
293.449	81.75
293.68	90.75
293.91	85.75
294.141	85.75
294.372	85.75
294.603	85.75
294.833	73.75
295.064	85.75
295.295	73.75
295.525	77.75
295.756	79.75
295.987	92.75
296.217	80.75
296.448	87.75
296.679	86.75
296.909	91.75
297.14	90.75
297.37	96.75
297.601	72.75
297.831	90.75
298.062	93.75
298.292	72.75
298.523	77.75
298.753	88.75
298.984	87.75
299.214	77.75
299.445	79.75
299.675	92.75
299.905	76.75
300.136	80.75
300.366	77.75
300.597	93.75
300.827	69.75
301.057	84.75
301.288	90.75
301.518	90.75
301.748	98.75
301.979	83.75
302.209	75.75
302.439	81.75
302.669	72.75
302.9	77.75
303.13	91.75
303.36	93.75
303.59	81.75
303.82	78.75
304.051	95.75
304.281	85.75
304.511	85.75
304.741	77.75
304.971	78.75
305.201	77.75
305.431	80.75
305.661	72.75
305.891	78.75
306.121	72.75
306.352	79.75
306.582	91.75
306.812	73.75
307.042	88.75
307.272	83.75
307.502	76.75
307.731	101.75
307.961	89.75
308.191	97.75
308.421	91.75
308.651	84.75
308.881	95.75
309.111	84.75
309.341	93.75
309.571	81.75
309.8	86.75
310.03	96.75
310.26	99.75
310.49	93.75
310.72	71.75
310.949	79.75
311.179	76.75
311.409	100.75
311.639	85.75
311.868	75.75
312.098	100.75
312.328	86.75
312.557	97.75
312.787	93.75
313.017	82.75
313.246	89.75
313.476	93.75
313.706	82.75
313.935	74.75
314.165	101.75
314.394	109.75
314.624	98.75
314.853	68.75
315.083	82.75
315.312	80.75
315.542	89.75
315.771	82.75
316.001	90.75
316.23	80.75
316.46	82.75
316.689	66.75
316.919	100.75
317.148	85.75
317.377	85.75
317.607	78.75
317.836	73.75
318.065	88.75
318.295	81.75
318.524	86.75
318.753	82.75
318.983	85.75
319.212	97.75
319.441	81.75
319.67	81.75
319.9	94.75
320.129	80.75
320.358	91.75
320.587	73.75
320.816	76.75
321.046	88.75
321.275	83.75
321.504	89.75
321.733	77.75
321.962	102.75
322.191	88.75
322.42	83.75
322.649	91.75
322.878	78.75
323.108	92.75
323.337	101.75
323.566	78.75
323.795	81.75
324.024	98.75
324.253	82.75
324.482	87.75
324.71	86.75
324.939	82.75
325.168	77.75
325.397	78.75
325.626	89.75
325.855	89.75
326.084	98.75
326.313	94.75
326.542	75.75
326.77	74.75
326.999	79.75
327.228	88.75
327.457	83.75
327.686	87.75
327.914	82.75
328.143	106.75
328.372	88.75
328.6	95.75
328.829	92.75
329.058	84.75
329.287	88.75
329.515	76.75
329.744	94.75
329.972	84.75
330.201	80.75
330.43	88.75
330.658	86.75
330.887	84.75
331.115	78.75
331.344	102.75
331.572	75.75
331.801	78.75
332.03	72.75
332.258	83.75
332.486	92.75
332.715	89.75
332.943	93.75
333.172	87.75
333.4	97.75
333.629	68.75
333.857	86.75
334.085	111.75
334.314	65.75
334.542	69.75
334.771	81.75
334.999	77.75
335.227	102.75
335.455	84.75
335.684	77.75
335.912	92.75
336.14	94.75
336.369	84.75
336.597	78.75
336.825	80.75
337.053	75.75
337.281	71.75
337.51	73.75
337.738	99.75
337.966	95.75
338.194	83.75
338.422	86.75
338.65	86.75
338.878	77.75
339.106	76.75
339.334	91.75
339.562	85.75
339.79	84.75
340.018	83.75
340.246	82.75
340.474	80.75
340.702	81.75
340.93	84.75
341.158	77.75
341.386	96.75
341.614	96.75
341.842	94.75
342.07	95.75
342.298	67.75
342.526	76.75
342.754	90.75
342.981	88.75
343.209	90.75
343.437	85.75
343.665	91.75
343.893	90.75
344.12	85.75
344.348	81.75
344.576	105.75
344.804	78.75
345.031	79.75
345.259	85.75
345.487	90.75
345.714	99.75
345.942	77.75
346.17	83.75
346.397	83.75
346.625	96.75
346.853	86.75
347.08	77.75
347.308	81.75
347.535	88.75
347.763	85.75
347.99	85.75
348.218	88.75
348.445	81.75
348.673	94.75
348.9	91.75
349.128	91.75
349.355	88.75
349.583	88.75
349.81	94.75
350.037	88.75
350.265	78.75
350.492	88.75
350.72	100.75
350.947	89.75
351.174	94.75
351.402	81.75
351.629	85.75
351.856	79.75
352.083	73.75
352.311	88.75
352.538	80.75
352.765	76.75
352.992	75.75
353.22	89.75
353.447	93.75
353.674	81.75
353.901	83.75
354.128	86.75
354.355	83.75
354.583	86.75
354.81	81.75
355.037	91.75
355.264	80.75
355.491	85.75
355.718	88.75
355.945	77.75
356.172	101.75
356.399	93.75
356.626	82.75
356.853	83.75
357.08	84.75
357.307	95.75
357.534	92.75
357.761	85.75
357.988	99.75
358.215	87.75
358.441	74.75
358.668	75.75
358.895	73.75
359.122	89.75
359.349	71.75
359.576	76.75
359.802	93.75
360.029	82.75
360.256	83.75
360.483	79.75
360.709	75.75
360.936	83.75
361.163	79.75
361.39	83.75
361.616	97.75
361.843	76.75
362.07	87.75
362.296	78.75
362.523	77.75
362.749	87.75
362.976	72.75
363.203	84.75
363.429	85.75
363.656	85.75
363.882	91.75
364.109	77.75
364.335	76.75
364.562	84.75
364.788	92.75
365.015	96.75
365.241	83.75
365.468	87.75
365.694	87.75
365.92	75.75
366.147	84.75
366.373	100.75
366.599	88.75
366.826	77.75
367.052	85.75
367.278	81.75
367.505	90.75
367.731	95.75
367.957	89.75
368.184	89.75
368.41	86.75
368.636	81.75
368.862	87.75
369.089	91.75
369.315	88.75
369.541	91.75
369.767	77.75
369.993	91.75
370.219	90.75
370.445	95.75
370.672	92.75
370.898	74.75
371.124	88.75
371.35	87.75
371.576	88.75
371.802	108.75
372.028	88.75
372.254	100.75
372.48	84.75
372.706	98.75
372.932	93.75
373.158	93.75
373.384	98.75
373.61	83.75
373.835	102.75
374.061	91.75
374.287	77.75
374.513	82.75
374.739	86.75
374.965	99.75
375.191	96.75
375.416	96.75
375.642	91.75
375.868	109.75
376.094	80.75
376.319	109.75
376.545	81.75
376.771	90.75
376.997	75.75
377.222	93.75
377.448	95.75
377.674	95.75
377.899	93.75
378.125	99.75
378.35	103.75
378.576	96.75
378.802	90.75
379.027	78.75
379.253	103.75
379.478	85.75
379.704	92.75
379.929	86.75
380.155	100.75
380.38	86.75
380.606	91.75
380.831	99.75
381.057	93.75
381.282	96.75
381.507	100.75
381.733	105.75
381.958	99.75
382.184	106.75
382.409	107.75
382.634	106.75
382.86	108.75
383.085	96.75
383.31	91.75
383.535	103.75
383.761	100.75
383.986	100.75
384.211	105.75
384.436	109.75
384.662	100.75
384.887	106.75
385.112	95.75
385.337	84.75
385.562	96.75
385.787	103.75
386.013	118.75
386.238	106.75
386.463	91.75
386.688	103.75
386.913	101.75
387.138	88.75
387.363	109.75
387.588	106.75
387.813	106.75
388.038	112.75
388.263	108.75
388.488	98.75
388.713	117.75
388.938	104.75
389.163	105.75
389.387	107.75
389.612	113.75
389.837	111.75
390.062	113.75
390.287	90.75
390.512	103.75
390.736	104.75
390.961	121.75
391.186	103.75
391.411	102.75
391.636	99.75
391.86	106.75
392.085	107.75
392.31	109.75
392.534	111.75
392.759	103.75
392.984	111.75
393.208	94.75
393.433	102.75
393.658	98.75
393.882	112.75
394.107	107.75
394.331	97.75
394.556	104.75
394.78	114.75
395.005	97.75
395.229	109.75
395.454	117.75
395.678	108.75
395.903	108.75
396.127	110.75
396.352	105.75
396.576	115.75
396.801	112.75
397.025	124.75
397.249	91.75
397.474	123.75
397.698	98.75
397.922	105.75
398.147	98.75
398.371	104.75
398.595	121.75
398.82	92.75
399.044	102.75
399.268	123.75
399.492	106.75
399.717	127.75
399.941	109.75
400.165	113.75
400.389	108.75
400.613	114.75
400.837	116.75
401.062	107.75
401.286	100.75
401.51	128.75
401.734	121.75
401.958	132.75
402.182	108.75
402.406	110.75
402.63	119.75
402.854	123.75
403.078	127.75
403.302	117.75
403.526	131.75
403.75	123.75
403.974	121.75
404.198	117.75
404.422	116.75
404.645	113.75
404.869	122.75
405.093	108.75
405.317	127.75
405.541	125.75
405.765	112.75
405.988	121.75
406.212	124.75
406.436	121.75
406.66	139.75
406.883	139.75
407.107	105.75
407.331	119.75
407.555	127.75
407.778	121.75
408.002	120.75
408.226	113.75
408.449	118.75
408.673	135.75
408.896	128.75
409.12	143.75
409.344	113.75
409.567	123.75
409.791	125.75
410.014	124.75
410.238	139.75
410.461	136.75
410.685	145.75
410.908	134.75
411.132	131.75
411.355	125.75
411.578	122.75
411.802	132.75
412.025	114.75
412.249	114.75
412.472	134.75
412.695	144.75
412.919	120.75
413.142	122.75
413.365	119.75
413.589	136.75
413.812	153.75
414.035	132.75
414.258	124.75
414.482	107.75
414.705	137.75
414.928	133.75
415.151	125.75
415.374	131.75
415.597	127.75
415.821	130.75
416.044	123.75
416.267	129.75
416.49	118.75
416.713	127.75
416.936	141.75
417.159	139.75
417.382	129.75
417.605	122.75
417.828	126.75
418.051	129.75
418.274	127.75
418.497	139.75
418.72	146.75
418.943	132.75
419.166	142.75
419.389	139.75
419.611	134.75
419.834	137.75
420.057	140.75
420.28	130.75
420.503	143.75
420.726	137.75
420.948	137.75
421.171	140.75
421.394	137.75
421.617	146.75
421.839	152.75
422.062	155.75
422.285	128.75
422.507	137.75
422.73	135.75
422.953	124.75
423.175	124.75
423.398	137.75
423.621	135.75
423.843	136.75
424.066	139.75
424.288	153.75
424.511	157.75
424.733	149.75
424.956	152.75
425.178	143.75
425.401	147.75
425.623	141.75
425.846	140.75
426.068	135.75
426.291	129.75
426.513	129.75
426.735	123.75
426.958	136.75
427.18	141.75
427.402	141.75
427.625	140.75
427.847	148.75
428.069	134.75
428.292	139.75
428.514	128.75
428.736	125.75
428.958	134.75
429.181	135.75
429.403	133.75
429.625	132.75
429.847	137.75
430.069	122.75
430.292	130.75
430.514	119.75
430.736	137.75
430.958	140.75
431.18	124.75
431.402	104.75
431.624	117.75
431.846	112.75
432.068	93.75
432.29	81.75
432.512	116.75
432.734	126.75
432.956	135.75
433.178	147.75
433.4	144.75
433.622	153.75
433.844	136.75
434.066	130.75
434.287	111.75
434.509	119.75
434.731	118.75
434.953	121.75
435.175	126.75
435.397	123.75
435.618	118.75
435.84	101.75
436.062	115.75
436.284	115.75
436.505	119.75
436.727	127.75
436.949	133.75
437.17	128.75
437.392	127.75
437.614	119.75
437.835	101.75
438.057	119.75
438.278	116.75
438.5	128.75
438.721	136.75
438.943	149.75
439.165	136.75
439.386	141.75
439.608	153.75
439.829	151.75
440.05	151.75
440.272	149.75
440.493	147.75
440.715	156.75
440.936	147.75
441.158	148.75
441.379	154.75
441.6	153.75
441.822	148.75
442.043	150.75
442.264	153.75
442.486	146.75
442.707	160.75
442.928	140.75
443.149	142.75
443.371	147.75
443.592	149.75
443.813	145.75
444.034	139.75
444.255	141.75
444.476	145.75
444.698	138.75
444.919	145.75
445.14	275.75
445.361	207.75
445.582	153.75
445.803	163.75
446.024	155.75
446.245	141.75
446.466	155.75
446.687	157.75
446.908	170.75
447.129	175.75
447.35	159.75
447.571	157.75
447.792	156.75
448.013	139.75
448.234	147.75
448.455	149.75
448.675	166.75
448.896	140.75
449.117	152.75
449.338	142.75
449.559	145.75
449.779	137.75
450	145.75
450.221	148.75
450.442	137.75
450.662	137.75
450.883	141.75
451.104	138.75
451.324	126.75
451.545	140.75
451.766	141.75
451.986	130.75
452.207	151.75
452.428	129.75
452.648	124.75
452.869	123.75
453.089	128.75
453.31	108.75
453.53	101.75
453.751	107.75
453.971	106.75
454.192	114.75
454.412	113.75
454.633	128.75
454.853	130.75
455.073	131.75
455.294	123.75
455.514	145.75
455.734	127.75
455.955	107.75
456.175	119.75
456.395	127.75
456.616	105.75
456.836	107.75
457.056	118.75
457.276	118.75
457.497	98.75
457.717	104.75
457.937	110.75
458.157	103.75
458.377	111.75
458.598	120.75
458.818	94.75
459.038	96.75
459.258	102.75
459.478	80.75
459.698	104.75
459.918	113.75
460.138	98.75
460.358	115.75
460.578	116.75
460.798	127.75
461.018	124.75
461.238	118.75
461.458	117.75
461.678	112.75
461.898	116.75
462.118	113.75
462.338	130.75
462.558	132.75
462.777	129.75
462.997	118.75
463.217	114.75
463.437	124.75
463.657	118.75
463.876	117.75
464.096	112.75
464.316	107.75
464.536	121.75
464.755	135.75
464.975	136.75
465.195	129.75
465.414	126.75
465.634	109.75
465.854	139.75
466.073	126.75
466.293	125.75
466.512	129.75
466.732	136.75
466.951	137.75
467.171	146.75
467.391	139.75
467.61	127.75
467.829	142.75
468.049	134.75
468.268	130.75
468.488	140.75
468.707	142.75
468.927	146.75
469.146	132.75
469.365	128.75
469.585	137.75
469.804	140.75
470.023	139.75
470.243	138.75
470.462	166.75
470.681	139.75
470.901	145.75
471.12	139.75
471.339	152.75
471.558	152.75
471.777	161.75
471.997	151.75
472.216	139.75
472.435	129.75
472.654	128.75
472.873	115.75
473.092	120.75
473.311	124.75
473.53	132.75
473.749	141.75
473.968	139.75
474.187	117.75
474.406	123.75
474.625	127.75
474.844	131.75
475.063	146.75
475.282	137.75
475.501	109.75
475.72	115.75
475.939	130.75
476.158	119.75
476.377	121.75
476.596	137.75
476.814	109.75
477.033	104.75
477.252	120.75
477.471	134.75
477.69	139.75
477.908	140.75
478.127	141.75
478.346	144.75
478.564	141.75
478.783	138.75
479.002	155.75
479.22	139.75
479.439	148.75
479.658	133.75
479.876	120.75
480.095	115.75
480.313	113.75
480.532	126.75
480.751	112.75
480.969	103.75
481.188	106.75
481.406	101.75
481.624	99.75
481.843	87.75
482.061	98.75
482.28	118.75
482.498	121.75
482.717	117.75
482.935	139.75
483.153	152.75
483.372	145.75
483.59	164.75
483.808	146.75
484.027	140.75
484.245	146.75
484.463	151.75
484.681	188.75
484.9	161.75
485.118	151.75
485.336	141.75
485.554	120.75
485.772	89.75
485.99	103.75
486.209	93.75
486.427	118.75
486.645	141.75
486.863	151.75
487.081	139.75
487.299	131.75
487.517	140.75
487.735	180.75
487.953	211.75
488.171	193.75
488.389	193.75
488.607	174.75
488.825	140.75
489.043	125.75
489.261	145.75
489.479	146.75
489.696	132.75
489.914	153.75
490.132	167.75
490.35	151.75
490.568	155.75
490.786	177.75
491.003	184.75
491.221	190.75
491.439	199.75
491.657	214.75
491.874	208.75
492.092	225.75
492.31	255.75
492.527	243.75
492.745	209.75
492.963	198.75
493.18	196.75
493.398	189.75
493.615	183.75
493.833	193.75
494.05	177.75
494.268	178.75
494.485	178.75
494.703	168.75
494.92	193.75
495.138	186.75
495.355	184.75
495.573	183.75
495.79	189.75
496.008	180.75
496.225	179.75
496.442	162.75
496.66	168.75
496.877	191.75
497.094	186.75
497.312	181.75
497.529	186.75
497.746	168.75
497.963	154.75
498.181	137.75
498.398	113.75
498.615	124.75
498.832	122.75
499.049	115.75
499.267	124.75
499.484	116.75
499.701	139.75
499.918	134.75
500.135	141.75
500.352	163.75
500.569	155.75
500.786	152.75
501.003	160.75
501.22	142.75
501.437	153.75
501.654	138.75
501.871	130.75
502.088	129.75
502.305	134.75
502.522	153.75
502.739	145.75
502.956	133.75
503.172	123.75
503.389	116.75
503.606	124.75
503.823	138.75
504.04	127.75
504.256	121.75
504.473	117.75
504.69	119.75
504.907	119.75
505.123	123.75
505.34	123.75
505.557	129.75
505.773	113.75
505.99	133.75
506.207	116.75
506.423	119.75
506.64	121.75
506.856	109.75
507.073	117.75
507.289	136.75
507.506	111.75
507.722	131.75
507.939	130.75
508.155	122.75
508.372	121.75
508.588	117.75
508.805	108.75
509.021	116.75
509.238	119.75
509.454	115.75
509.67	97.75
509.887	105.75
510.103	89.75
510.319	107.75
510.536	93.75
510.752	95.75
510.968	90.75
511.184	93.75
