Data from Location6.07152019.Energy5.Lamp.07192019.3%Agarose_HRD10591_16-12-11-394.txt Node
Date: Fri Jul 19 16:12:11 EDT 2019
User: cochatt
Spectrometer: HR+D1059
Trigger mode: 1
Integration Time (sec): 1.000000E-1
Scans to average: 1
Electric dark correction enabled: true
Nonlinearity correction enabled: false
Boxcar width: 0
XAxis mode: Wavelengths
Number of Pixels in Spectrum: 2048
>>>>>Begin Spectral Data<<<<<
223.165	-27.69
223.4	-27.69
223.635	-27.69
223.869	-16.69
224.104	-32.69
224.338	-0.69
224.573	-18.69
224.808	-13.69
225.042	-2.69
225.277	8.31
225.511	-8.69
225.746	15.31
225.98	8.31
226.215	7.31
226.449	6.31
226.683	17.31
226.918	25.31
227.152	33.31
227.387	42.31
227.621	36.31
227.856	50.31
228.09	46.31
228.324	45.31
228.559	60.31
228.793	56.31
229.027	50.31
229.262	82.31
229.496	69.31
229.73	63.31
229.964	66.31
230.199	74.31
230.433	62.31
230.667	77.31
230.901	73.31
231.136	74.31
231.37	91.31
231.604	88.31
231.838	82.31
232.072	81.31
232.306	78.31
232.541	60.31
232.775	85.31
233.009	69.31
233.243	76.31
233.477	75.31
233.711	80.31
233.945	77.31
234.179	81.31
234.413	86.31
234.647	87.31
234.881	88.31
235.115	83.31
235.349	82.31
235.583	67.31
235.817	65.31
236.051	77.31
236.285	81.31
236.519	79.31
236.753	87.31
236.987	66.31
237.221	70.31
237.455	84.31
237.689	83.31
237.922	84.31
238.156	87.31
238.39	76.31
238.624	75.31
238.858	77.31
239.091	77.31
239.325	93.31
239.559	66.31
239.793	87.31
240.027	85.31
240.26	81.31
240.494	88.31
240.728	70.31
240.961	67.31
241.195	76.31
241.429	78.31
241.662	79.31
241.896	76.31
242.13	74.31
242.363	62.31
242.597	85.31
242.83	78.31
243.064	73.31
243.298	74.31
243.531	70.31
243.765	82.31
243.998	87.31
244.232	74.31
244.465	74.31
244.699	67.31
244.932	75.31
245.166	86.31
245.399	88.31
245.633	71.31
245.866	79.31
246.099	59.31
246.333	75.31
246.566	69.31
246.8	70.31
247.033	90.31
247.266	83.31
247.5	75.31
247.733	78.31
247.966	80.31
248.2	70.31
248.433	84.31
248.666	83.31
248.899	70.31
249.133	84.31
249.366	73.31
249.599	68.31
249.832	86.31
250.066	74.31
250.299	81.31
250.532	79.31
250.765	79.31
250.998	94.31
251.231	86.31
251.465	74.31
251.698	78.31
251.931	67.31
252.164	77.31
252.397	80.31
252.63	82.31
252.863	70.31
253.096	91.31
253.329	72.31
253.562	86.31
253.795	74.31
254.028	83.31
254.261	85.31
254.494	84.31
254.727	88.31
254.96	79.31
255.193	82.31
255.426	79.31
255.659	81.31
255.892	89.31
256.124	72.31
256.357	81.31
256.59	81.31
256.823	87.31
257.056	89.31
257.289	69.31
257.521	85.31
257.754	82.31
257.987	82.31
258.22	80.31
258.452	72.31
258.685	73.31
258.918	80.31
259.151	90.31
259.383	93.31
259.616	79.31
259.849	79.31
260.081	89.31
260.314	79.31
260.547	78.31
260.779	88.31
261.012	78.31
261.244	82.31
261.477	78.31
261.71	71.31
261.942	71.31
262.175	92.31
262.407	84.31
262.64	85.31
262.872	70.31
263.105	81.31
263.337	87.31
263.57	80.31
263.802	81.31
264.035	74.31
264.267	86.31
264.499	83.31
264.732	88.31
264.964	97.31
265.197	77.31
265.429	67.31
265.661	79.31
265.894	79.31
266.126	84.31
266.358	81.31
266.591	83.31
266.823	87.31
267.055	88.31
267.287	101.31
267.52	78.31
267.752	89.31
267.984	74.31
268.216	95.31
268.448	75.31
268.681	82.31
268.913	74.31
269.145	77.31
269.377	88.31
269.609	77.31
269.841	82.31
270.073	98.31
270.306	87.31
270.538	73.31
270.77	90.31
271.002	81.31
271.234	75.31
271.466	93.31
271.698	75.31
271.93	81.31
272.162	79.31
272.394	86.31
272.626	82.31
272.858	83.31
273.09	82.31
273.322	88.31
273.553	73.31
273.785	98.31
274.017	80.31
274.249	75.31
274.481	76.31
274.713	73.31
274.945	75.31
275.176	73.31
275.408	69.31
275.64	86.31
275.872	81.31
276.104	87.31
276.335	79.31
276.567	80.31
276.799	104.31
277.031	87.31
277.262	84.31
277.494	84.31
277.726	78.31
277.957	82.31
278.189	73.31
278.421	81.31
278.652	75.31
278.884	98.31
279.115	88.31
279.347	84.31
279.579	85.31
279.81	80.31
280.042	65.31
280.273	88.31
280.505	77.31
280.736	86.31
280.968	87.31
281.199	84.31
281.431	79.31
281.662	74.31
281.894	84.31
282.125	88.31
282.356	88.31
282.588	77.31
282.819	77.31
283.051	84.31
283.282	79.31
283.513	75.31
283.745	90.31
283.976	92.31
284.207	96.31
284.439	81.31
284.67	78.31
284.901	77.31
285.132	75.31
285.364	82.31
285.595	90.31
285.826	89.31
286.057	79.31
286.288	94.31
286.52	91.31
286.751	88.31
286.982	95.31
287.213	86.31
287.444	80.31
287.675	86.31
287.906	90.31
288.138	90.31
288.369	81.31
288.6	80.31
288.831	83.31
289.062	97.31
289.293	97.31
289.524	67.31
289.755	88.31
289.986	88.31
290.217	74.31
290.448	75.31
290.679	77.31
290.91	102.31
291.141	81.31
291.371	84.31
291.602	91.31
291.833	74.31
292.064	80.31
292.295	88.31
292.526	72.31
292.757	83.31
292.987	93.31
293.218	90.31
293.449	78.31
293.68	81.31
293.91	93.31
294.141	87.31
294.372	91.31
294.603	86.31
294.833	78.31
295.064	98.31
295.295	87.31
295.525	69.31
295.756	90.31
295.987	77.31
296.217	79.31
296.448	81.31
296.679	85.31
296.909	96.31
297.14	93.31
297.37	75.31
297.601	98.31
297.831	82.31
298.062	79.31
298.292	94.31
298.523	90.31
298.753	79.31
298.984	99.31
299.214	87.31
299.445	94.31
299.675	95.31
299.905	91.31
300.136	77.31
300.366	81.31
300.597	83.31
300.827	81.31
301.057	92.31
301.288	79.31
301.518	82.31
301.748	82.31
301.979	83.31
302.209	85.31
302.439	87.31
302.669	95.31
302.9	74.31
303.13	77.31
303.36	85.31
303.59	88.31
303.82	85.31
304.051	81.31
304.281	89.31
304.511	81.31
304.741	81.31
304.971	83.31
305.201	93.31
305.431	86.31
305.661	79.31
305.891	96.31
306.121	76.31
306.352	84.31
306.582	83.31
306.812	76.31
307.042	83.31
307.272	85.31
307.502	79.31
307.731	90.31
307.961	92.31
308.191	75.31
308.421	74.31
308.651	78.31
308.881	91.31
309.111	76.31
309.341	90.31
309.571	94.31
309.8	79.31
310.03	88.31
310.26	68.31
310.49	94.31
310.72	81.31
310.949	80.31
311.179	80.31
311.409	96.31
311.639	70.31
311.868	91.31
312.098	90.31
312.328	87.31
312.557	74.31
312.787	73.31
313.017	82.31
313.246	80.31
313.476	90.31
313.706	69.31
313.935	73.31
314.165	76.31
314.394	79.31
314.624	80.31
314.853	94.31
315.083	82.31
315.312	86.31
315.542	87.31
315.771	78.31
316.001	76.31
316.23	88.31
316.46	66.31
316.689	80.31
316.919	85.31
317.148	96.31
317.377	70.31
317.607	77.31
317.836	78.31
318.065	82.31
318.295	89.31
318.524	77.31
318.753	87.31
318.983	82.31
319.212	89.31
319.441	83.31
319.67	89.31
319.9	81.31
320.129	94.31
320.358	74.31
320.587	83.31
320.816	87.31
321.046	100.31
321.275	82.31
321.504	104.31
321.733	78.31
321.962	84.31
322.191	84.31
322.42	80.31
322.649	84.31
322.878	82.31
323.108	90.31
323.337	88.31
323.566	70.31
323.795	97.31
324.024	84.31
324.253	87.31
324.482	80.31
324.71	86.31
324.939	82.31
325.168	84.31
325.397	81.31
325.626	85.31
325.855	85.31
326.084	75.31
326.313	87.31
326.542	99.31
326.77	75.31
326.999	74.31
327.228	82.31
327.457	81.31
327.686	77.31
327.914	75.31
328.143	86.31
328.372	82.31
328.6	89.31
328.829	83.31
329.058	100.31
329.287	93.31
329.515	82.31
329.744	90.31
329.972	72.31
330.201	75.31
330.43	78.31
330.658	81.31
330.887	80.31
331.115	81.31
331.344	90.31
331.572	66.31
331.801	79.31
332.03	94.31
332.258	74.31
332.486	86.31
332.715	91.31
332.943	94.31
333.172	75.31
333.4	83.31
333.629	79.31
333.857	73.31
334.085	86.31
334.314	97.31
334.542	90.31
334.771	90.31
334.999	81.31
335.227	94.31
335.455	75.31
335.684	95.31
335.912	82.31
336.14	86.31
336.369	94.31
336.597	89.31
336.825	95.31
337.053	74.31
337.281	77.31
337.51	88.31
337.738	90.31
337.966	75.31
338.194	82.31
338.422	82.31
338.65	78.31
338.878	81.31
339.106	77.31
339.334	85.31
339.562	82.31
339.79	77.31
340.018	86.31
340.246	90.31
340.474	84.31
340.702	92.31
340.93	90.31
341.158	86.31
341.386	79.31
341.614	86.31
341.842	81.31
342.07	81.31
342.298	83.31
342.526	77.31
342.754	72.31
342.981	75.31
343.209	81.31
343.437	74.31
343.665	84.31
343.893	83.31
344.12	89.31
344.348	75.31
344.576	73.31
344.804	88.31
345.031	77.31
345.259	91.31
345.487	85.31
345.714	79.31
345.942	79.31
346.17	65.31
346.397	91.31
346.625	93.31
346.853	101.31
347.08	96.31
347.308	96.31
347.535	90.31
347.763	106.31
347.99	75.31
348.218	86.31
348.445	95.31
348.673	88.31
348.9	81.31
349.128	90.31
349.355	77.31
349.583	82.31
349.81	84.31
350.037	88.31
350.265	111.31
350.492	90.31
350.72	81.31
350.947	85.31
351.174	98.31
351.402	88.31
351.629	77.31
351.856	81.31
352.083	82.31
352.311	73.31
352.538	75.31
352.765	94.31
352.992	91.31
353.22	76.31
353.447	78.31
353.674	93.31
353.901	84.31
354.128	91.31
354.355	79.31
354.583	80.31
354.81	73.31
355.037	86.31
355.264	95.31
355.491	89.31
355.718	90.31
355.945	78.31
356.172	76.31
356.399	90.31
356.626	86.31
356.853	93.31
357.08	86.31
357.307	79.31
357.534	74.31
357.761	89.31
357.988	86.31
358.215	77.31
358.441	87.31
358.668	88.31
358.895	82.31
359.122	75.31
359.349	73.31
359.576	82.31
359.802	81.31
360.029	91.31
360.256	70.31
360.483	73.31
360.709	90.31
360.936	87.31
361.163	77.31
361.39	79.31
361.616	89.31
361.843	75.31
362.07	75.31
362.296	82.31
362.523	86.31
362.749	81.31
362.976	85.31
363.203	91.31
363.429	72.31
363.656	85.31
363.882	74.31
364.109	78.31
364.335	80.31
364.562	84.31
364.788	90.31
365.015	81.31
365.241	87.31
365.468	99.31
365.694	84.31
365.92	87.31
366.147	87.31
366.373	97.31
366.599	94.31
366.826	90.31
367.052	106.31
367.278	96.31
367.505	78.31
367.731	91.31
367.957	88.31
368.184	83.31
368.41	101.31
368.636	66.31
368.862	86.31
369.089	88.31
369.315	86.31
369.541	88.31
369.767	85.31
369.993	79.31
370.219	99.31
370.445	89.31
370.672	85.31
370.898	82.31
371.124	99.31
371.35	90.31
371.576	101.31
371.802	90.31
372.028	78.31
372.254	96.31
372.48	81.31
372.706	86.31
372.932	85.31
373.158	90.31
373.384	106.31
373.61	95.31
373.835	81.31
374.061	77.31
374.287	95.31
374.513	99.31
374.739	92.31
374.965	90.31
375.191	103.31
375.416	108.31
375.642	99.31
375.868	101.31
376.094	93.31
376.319	95.31
376.545	102.31
376.771	107.31
376.997	94.31
377.222	79.31
377.448	79.31
377.674	91.31
377.899	94.31
378.125	95.31
378.35	98.31
378.576	82.31
378.802	96.31
379.027	85.31
379.253	104.31
379.478	106.31
379.704	98.31
379.929	98.31
380.155	94.31
380.38	95.31
380.606	99.31
380.831	106.31
381.057	102.31
381.282	95.31
381.507	94.31
381.733	87.31
381.958	96.31
382.184	89.31
382.409	96.31
382.634	87.31
382.86	91.31
383.085	96.31
383.31	95.31
383.535	84.31
383.761	95.31
383.986	89.31
384.211	96.31
384.436	104.31
384.662	106.31
384.887	96.31
385.112	100.31
385.337	106.31
385.562	102.31
385.787	90.31
386.013	95.31
386.238	101.31
386.463	100.31
386.688	96.31
386.913	105.31
387.138	93.31
387.363	86.31
387.588	104.31
387.813	119.31
388.038	93.31
388.263	102.31
388.488	101.31
388.713	107.31
388.938	84.31
389.163	99.31
389.387	98.31
389.612	97.31
389.837	83.31
390.062	122.31
390.287	102.31
390.512	111.31
390.736	103.31
390.961	106.31
391.186	100.31
391.411	112.31
391.636	113.31
391.86	95.31
392.085	93.31
392.31	113.31
392.534	106.31
392.759	119.31
392.984	105.31
393.208	109.31
393.433	102.31
393.658	112.31
393.882	113.31
394.107	118.31
394.331	117.31
394.556	88.31
394.78	107.31
395.005	103.31
395.229	101.31
395.454	99.31
395.678	94.31
395.903	106.31
396.127	117.31
396.352	111.31
396.576	106.31
396.801	91.31
397.025	99.31
397.249	111.31
397.474	94.31
397.698	115.31
397.922	109.31
398.147	117.31
398.371	100.31
398.595	117.31
398.82	114.31
399.044	116.31
399.268	101.31
399.492	103.31
399.717	124.31
399.941	126.31
400.165	114.31
400.389	103.31
400.613	114.31
400.837	116.31
401.062	101.31
401.286	110.31
401.51	102.31
401.734	119.31
401.958	121.31
402.182	114.31
402.406	118.31
402.63	111.31
402.854	105.31
403.078	115.31
403.302	119.31
403.526	110.31
403.75	112.31
403.974	133.31
404.198	111.31
404.422	103.31
404.645	110.31
404.869	119.31
405.093	117.31
405.317	117.31
405.541	115.31
405.765	131.31
405.988	127.31
406.212	122.31
406.436	120.31
406.66	118.31
406.883	112.31
407.107	127.31
407.331	115.31
407.555	121.31
407.778	118.31
408.002	110.31
408.226	112.31
408.449	114.31
408.673	112.31
408.896	129.31
409.12	116.31
409.344	133.31
409.567	126.31
409.791	131.31
410.014	114.31
410.238	115.31
410.461	122.31
410.685	126.31
410.908	133.31
411.132	143.31
411.355	120.31
411.578	139.31
411.802	125.31
412.025	114.31
412.249	113.31
412.472	112.31
412.695	113.31
412.919	121.31
413.142	141.31
413.365	119.31
413.589	131.31
413.812	131.31
414.035	126.31
414.258	115.31
414.482	118.31
414.705	114.31
414.928	120.31
415.151	122.31
415.374	131.31
415.597	125.31
415.821	128.31
416.044	143.31
416.267	139.31
416.49	124.31
416.713	131.31
416.936	122.31
417.159	118.31
417.382	127.31
417.605	134.31
417.828	123.31
418.051	122.31
418.274	132.31
418.497	132.31
418.72	125.31
418.943	119.31
419.166	134.31
419.389	125.31
419.611	148.31
419.834	135.31
420.057	150.31
420.28	140.31
420.503	136.31
420.726	132.31
420.948	139.31
421.171	146.31
421.394	135.31
421.617	137.31
421.839	150.31
422.062	160.31
422.285	143.31
422.507	135.31
422.73	133.31
422.953	138.31
423.175	130.31
423.398	127.31
423.621	135.31
423.843	143.31
424.066	135.31
424.288	151.31
424.511	155.31
424.733	146.31
424.956	135.31
425.178	145.31
425.401	135.31
425.623	138.31
425.846	133.31
426.068	133.31
426.291	131.31
426.513	121.31
426.735	117.31
426.958	133.31
427.18	140.31
427.402	135.31
427.625	134.31
427.847	139.31
428.069	146.31
428.292	127.31
428.514	133.31
428.736	132.31
428.958	146.31
429.181	134.31
429.403	117.31
429.625	130.31
429.847	125.31
430.069	130.31
430.292	124.31
430.514	134.31
430.736	133.31
430.958	131.31
431.18	128.31
431.402	137.31
431.624	123.31
431.846	110.31
432.068	87.31
432.29	95.31
432.512	120.31
432.734	129.31
432.956	145.31
433.178	135.31
433.4	127.31
433.622	135.31
433.844	131.31
434.066	130.31
434.287	102.31
434.509	94.31
434.731	111.31
434.953	118.31
435.175	121.31
435.397	128.31
435.618	115.31
435.84	103.31
436.062	122.31
436.284	139.31
436.505	122.31
436.727	135.31
436.949	149.31
437.17	134.31
437.392	139.31
437.614	127.31
437.835	125.31
438.057	119.31
438.278	118.31
438.5	109.31
438.721	130.31
438.943	134.31
439.165	145.31
439.386	141.31
439.608	146.31
439.829	149.31
440.05	146.31
440.272	143.31
440.493	145.31
440.715	161.31
440.936	154.31
441.158	146.31
441.379	153.31
441.6	167.31
441.822	152.31
442.043	150.31
442.264	152.31
442.486	147.31
442.707	141.31
442.928	145.31
443.149	141.31
443.371	135.31
443.592	138.31
443.813	157.31
444.034	152.31
444.255	125.31
444.476	138.31
444.698	150.31
444.919	153.31
445.14	268.31
445.361	215.31
445.582	159.31
445.803	158.31
446.024	152.31
446.245	163.31
446.466	149.31
446.687	163.31
446.908	161.31
447.129	178.31
447.35	160.31
447.571	143.31
447.792	156.31
448.013	152.31
448.234	159.31
448.455	135.31
448.675	161.31
448.896	149.31
449.117	125.31
449.338	146.31
449.559	143.31
449.779	144.31
450	163.31
450.221	145.31
450.442	144.31
450.662	134.31
450.883	133.31
451.104	138.31
451.324	143.31
451.545	139.31
451.766	152.31
451.986	132.31
452.207	123.31
452.428	154.31
452.648	128.31
452.869	129.31
453.089	122.31
453.31	113.31
453.53	105.31
453.751	96.31
453.971	109.31
454.192	112.31
454.412	121.31
454.633	111.31
454.853	123.31
455.073	117.31
455.294	127.31
455.514	119.31
455.734	115.31
455.955	114.31
456.175	130.31
456.395	110.31
456.616	123.31
456.836	113.31
457.056	118.31
457.276	109.31
457.497	103.31
457.717	107.31
457.937	124.31
458.157	97.31
458.377	101.31
458.598	109.31
458.818	110.31
459.038	101.31
459.258	94.31
459.478	93.31
459.698	96.31
459.918	92.31
460.138	120.31
460.358	112.31
460.578	122.31
460.798	106.31
461.018	121.31
461.238	117.31
461.458	114.31
461.678	109.31
461.898	111.31
462.118	111.31
462.338	105.31
462.558	127.31
462.777	115.31
462.997	114.31
463.217	105.31
463.437	101.31
463.657	116.31
463.876	119.31
464.096	120.31
464.316	118.31
464.536	110.31
464.755	125.31
464.975	123.31
465.195	110.31
465.414	106.31
465.634	119.31
465.854	101.31
466.073	111.31
466.293	104.31
466.512	133.31
466.732	145.31
466.951	142.31
467.171	133.31
467.391	126.31
467.61	135.31
467.829	133.31
468.049	140.31
468.268	152.31
468.488	137.31
468.707	138.31
468.927	150.31
469.146	144.31
469.365	162.31
469.585	155.31
469.804	153.31
470.023	152.31
470.243	160.31
470.462	164.31
470.681	134.31
470.901	135.31
471.12	139.31
471.339	155.31
471.558	157.31
471.777	133.31
471.997	151.31
472.216	126.31
472.435	108.31
472.654	113.31
472.873	130.31
473.092	126.31
473.311	123.31
473.53	115.31
473.749	122.31
473.968	129.31
474.187	138.31
474.406	121.31
474.625	138.31
474.844	137.31
475.063	131.31
475.282	129.31
475.501	109.31
475.72	125.31
475.939	128.31
476.158	134.31
476.377	121.31
476.596	134.31
476.814	124.31
477.033	120.31
477.252	118.31
477.471	125.31
477.69	141.31
477.908	158.31
478.127	157.31
478.346	146.31
478.564	139.31
478.783	136.31
479.002	145.31
479.22	133.31
479.439	141.31
479.658	141.31
479.876	94.31
480.095	118.31
480.313	120.31
480.532	118.31
480.751	103.31
480.969	101.31
481.188	85.31
481.406	93.31
481.624	108.31
481.843	90.31
482.061	101.31
482.28	112.31
482.498	127.31
482.717	127.31
482.935	137.31
483.153	149.31
483.372	164.31
483.59	162.31
483.808	151.31
484.027	146.31
484.245	136.31
484.463	159.31
484.681	169.31
484.9	152.31
485.118	141.31
485.336	130.31
485.554	114.31
485.772	114.31
485.99	110.31
486.209	105.31
486.427	109.31
486.645	121.31
486.863	137.31
487.081	134.31
487.299	143.31
487.517	136.31
487.735	179.31
487.953	184.31
488.171	191.31
488.389	184.31
488.607	165.31
488.825	133.31
489.043	133.31
489.261	135.31
489.479	148.31
489.696	154.31
489.914	157.31
490.132	159.31
490.35	171.31
490.568	167.31
490.786	177.31
491.003	181.31
491.221	181.31
491.439	175.31
491.657	197.31
491.874	216.31
492.092	238.31
492.31	261.31
492.527	232.31
492.745	219.31
492.963	194.31
493.18	211.31
493.398	194.31
493.615	198.31
493.833	192.31
494.05	194.31
494.268	171.31
494.485	178.31
494.703	173.31
494.92	166.31
495.138	176.31
495.355	169.31
495.573	170.31
495.79	172.31
496.008	174.31
496.225	166.31
496.442	189.31
496.66	189.31
496.877	183.31
497.094	177.31
497.312	142.31
497.529	168.31
497.746	157.31
497.963	151.31
498.181	125.31
498.398	139.31
498.615	101.31
498.832	117.31
499.049	135.31
499.267	129.31
499.484	124.31
499.701	139.31
499.918	133.31
500.135	131.31
500.352	152.31
500.569	150.31
500.786	143.31
501.003	149.31
501.22	146.31
501.437	145.31
501.654	158.31
501.871	129.31
502.088	125.31
502.305	137.31
502.522	122.31
502.739	138.31
502.956	147.31
503.172	128.31
503.389	113.31
503.606	126.31
503.823	120.31
504.04	113.31
504.256	130.31
504.473	111.31
504.69	122.31
504.907	123.31
505.123	118.31
505.34	119.31
505.557	119.31
505.773	133.31
505.99	130.31
506.207	114.31
506.423	126.31
506.64	122.31
506.856	123.31
507.073	127.31
507.289	117.31
507.506	122.31
507.722	121.31
507.939	117.31
508.155	129.31
508.372	116.31
508.588	110.31
508.805	104.31
509.021	106.31
509.238	113.31
509.454	109.31
509.67	100.31
509.887	94.31
510.103	91.31
510.319	96.31
510.536	92.31
510.752	85.31
510.968	90.31
511.184	86.31
511.401	92.31
511.617	94.31
