Data from Location6.07152019.Energy5.Lamp.07192019.3%Agarose_HRD10591_16-12-56-395.txt Node
Date: Fri Jul 19 16:12:56 EDT 2019
User: cochatt
Spectrometer: HR+D1059
Trigger mode: 1
Integration Time (sec): 1.000000E-1
Scans to average: 1
Electric dark correction enabled: true
Nonlinearity correction enabled: false
Boxcar width: 0
XAxis mode: Wavelengths
Number of Pixels in Spectrum: 2048
>>>>>Begin Spectral Data<<<<<
223.165	-32.88
223.4	-32.88
223.635	-32.88
223.869	-8.88
224.104	-22.88
224.338	-11.88
224.573	-23.88
224.808	-17.88
225.042	4.12
225.277	0.12
225.511	-4.88
225.746	12.12
225.98	6.12
226.215	21.12
226.449	11.12
226.683	27.12
226.918	19.12
227.152	22.12
227.387	21.12
227.621	37.12
227.856	35.12
228.09	36.12
228.324	28.12
228.559	54.12
228.793	61.12
229.027	53.12
229.262	59.12
229.496	55.12
229.73	59.12
229.964	77.12
230.199	57.12
230.433	72.12
230.667	60.12
230.901	66.12
231.136	92.12
231.37	87.12
231.604	71.12
231.838	75.12
232.072	71.12
232.306	74.12
232.541	90.12
232.775	65.12
233.009	68.12
233.243	67.12
233.477	69.12
233.711	76.12
233.945	86.12
234.179	72.12
234.413	73.12
234.647	69.12
234.881	78.12
235.115	74.12
235.349	85.12
235.583	86.12
235.817	75.12
236.051	87.12
236.285	84.12
236.519	79.12
236.753	72.12
236.987	62.12
237.221	79.12
237.455	74.12
237.689	79.12
237.922	87.12
238.156	76.12
238.39	60.12
238.624	72.12
238.858	72.12
239.091	66.12
239.325	69.12
239.559	74.12
239.793	61.12
240.027	75.12
240.26	70.12
240.494	72.12
240.728	65.12
240.961	57.12
241.195	81.12
241.429	72.12
241.662	61.12
241.896	57.12
242.13	73.12
242.363	61.12
242.597	70.12
242.83	71.12
243.064	80.12
243.298	75.12
243.531	65.12
243.765	53.12
243.998	78.12
244.232	67.12
244.465	71.12
244.699	67.12
244.932	61.12
245.166	60.12
245.399	59.12
245.633	70.12
245.866	70.12
246.099	75.12
246.333	67.12
246.566	61.12
246.8	65.12
247.033	72.12
247.266	78.12
247.5	84.12
247.733	60.12
247.966	77.12
248.2	77.12
248.433	68.12
248.666	78.12
248.899	79.12
249.133	69.12
249.366	71.12
249.599	61.12
249.832	83.12
250.066	79.12
250.299	74.12
250.532	71.12
250.765	79.12
250.998	76.12
251.231	73.12
251.465	69.12
251.698	75.12
251.931	71.12
252.164	79.12
252.397	75.12
252.63	69.12
252.863	69.12
253.096	66.12
253.329	72.12
253.562	63.12
253.795	78.12
254.028	79.12
254.261	74.12
254.494	68.12
254.727	75.12
254.96	73.12
255.193	86.12
255.426	65.12
255.659	74.12
255.892	84.12
256.124	81.12
256.357	87.12
256.59	89.12
256.823	71.12
257.056	71.12
257.289	84.12
257.521	78.12
257.754	79.12
257.987	67.12
258.22	83.12
258.452	64.12
258.685	81.12
258.918	66.12
259.151	67.12
259.383	75.12
259.616	69.12
259.849	76.12
260.081	62.12
260.314	74.12
260.547	73.12
260.779	73.12
261.012	81.12
261.244	66.12
261.477	77.12
261.71	88.12
261.942	77.12
262.175	78.12
262.407	72.12
262.64	71.12
262.872	78.12
263.105	64.12
263.337	72.12
263.57	61.12
263.802	73.12
264.035	78.12
264.267	74.12
264.499	79.12
264.732	81.12
264.964	78.12
265.197	83.12
265.429	93.12
265.661	96.12
265.894	79.12
266.126	80.12
266.358	72.12
266.591	79.12
266.823	76.12
267.055	84.12
267.287	65.12
267.52	93.12
267.752	71.12
267.984	75.12
268.216	80.12
268.448	74.12
268.681	67.12
268.913	73.12
269.145	73.12
269.377	87.12
269.609	83.12
269.841	79.12
270.073	96.12
270.306	88.12
270.538	80.12
270.77	68.12
271.002	71.12
271.234	91.12
271.466	91.12
271.698	72.12
271.93	79.12
272.162	64.12
272.394	77.12
272.626	79.12
272.858	79.12
273.09	75.12
273.322	74.12
273.553	79.12
273.785	79.12
274.017	77.12
274.249	83.12
274.481	63.12
274.713	72.12
274.945	97.12
275.176	66.12
275.408	89.12
275.64	91.12
275.872	74.12
276.104	80.12
276.335	69.12
276.567	84.12
276.799	79.12
277.031	75.12
277.262	81.12
277.494	73.12
277.726	90.12
277.957	72.12
278.189	64.12
278.421	85.12
278.652	87.12
278.884	70.12
279.115	87.12
279.347	79.12
279.579	82.12
279.81	83.12
280.042	82.12
280.273	87.12
280.505	80.12
280.736	76.12
280.968	67.12
281.199	79.12
281.431	73.12
281.662	88.12
281.894	85.12
282.125	67.12
282.356	86.12
282.588	82.12
282.819	86.12
283.051	64.12
283.282	64.12
283.513	69.12
283.745	72.12
283.976	88.12
284.207	77.12
284.439	79.12
284.67	76.12
284.901	73.12
285.132	79.12
285.364	73.12
285.595	87.12
285.826	68.12
286.057	72.12
286.288	75.12
286.52	73.12
286.751	84.12
286.982	81.12
287.213	71.12
287.444	92.12
287.675	60.12
287.906	76.12
288.138	98.12
288.369	71.12
288.6	73.12
288.831	77.12
289.062	87.12
289.293	92.12
289.524	75.12
289.755	88.12
289.986	70.12
290.217	87.12
290.448	79.12
290.679	96.12
290.91	73.12
291.141	75.12
291.371	82.12
291.602	72.12
291.833	91.12
292.064	90.12
292.295	81.12
292.526	75.12
292.757	77.12
292.987	72.12
293.218	75.12
293.449	86.12
293.68	91.12
293.91	79.12
294.141	87.12
294.372	74.12
294.603	80.12
294.833	97.12
295.064	87.12
295.295	77.12
295.525	92.12
295.756	71.12
295.987	78.12
296.217	92.12
296.448	72.12
296.679	87.12
296.909	75.12
297.14	76.12
297.37	83.12
297.601	81.12
297.831	80.12
298.062	94.12
298.292	65.12
298.523	81.12
298.753	67.12
298.984	65.12
299.214	83.12
299.445	76.12
299.675	85.12
299.905	79.12
300.136	79.12
300.366	74.12
300.597	75.12
300.827	64.12
301.057	77.12
301.288	86.12
301.518	72.12
301.748	88.12
301.979	81.12
302.209	84.12
302.439	86.12
302.669	70.12
302.9	84.12
303.13	84.12
303.36	81.12
303.59	67.12
303.82	71.12
304.051	80.12
304.281	94.12
304.511	80.12
304.741	89.12
304.971	82.12
305.201	86.12
305.431	86.12
305.661	77.12
305.891	82.12
306.121	85.12
306.352	86.12
306.582	74.12
306.812	86.12
307.042	81.12
307.272	90.12
307.502	77.12
307.731	83.12
307.961	73.12
308.191	68.12
308.421	85.12
308.651	83.12
308.881	71.12
309.111	76.12
309.341	84.12
309.571	83.12
309.8	91.12
310.03	72.12
310.26	87.12
310.49	83.12
310.72	81.12
310.949	72.12
311.179	83.12
311.409	85.12
311.639	74.12
311.868	66.12
312.098	72.12
312.328	85.12
312.557	82.12
312.787	83.12
313.017	85.12
313.246	81.12
313.476	96.12
313.706	73.12
313.935	77.12
314.165	92.12
314.394	86.12
314.624	92.12
314.853	65.12
315.083	78.12
315.312	92.12
315.542	66.12
315.771	80.12
316.001	88.12
316.23	92.12
316.46	84.12
316.689	73.12
316.919	79.12
317.148	72.12
317.377	79.12
317.607	82.12
317.836	71.12
318.065	65.12
318.295	83.12
318.524	85.12
318.753	85.12
318.983	77.12
319.212	81.12
319.441	82.12
319.67	84.12
319.9	71.12
320.129	84.12
320.358	74.12
320.587	69.12
320.816	81.12
321.046	90.12
321.275	87.12
321.504	84.12
321.733	63.12
321.962	65.12
322.191	78.12
322.42	86.12
322.649	83.12
322.878	86.12
323.108	94.12
323.337	73.12
323.566	65.12
323.795	79.12
324.024	75.12
324.253	90.12
324.482	78.12
324.71	62.12
324.939	99.12
325.168	82.12
325.397	79.12
325.626	84.12
325.855	86.12
326.084	92.12
326.313	73.12
326.542	73.12
326.77	76.12
326.999	70.12
327.228	85.12
327.457	91.12
327.686	75.12
327.914	84.12
328.143	85.12
328.372	77.12
328.6	70.12
328.829	87.12
329.058	76.12
329.287	80.12
329.515	76.12
329.744	76.12
329.972	69.12
330.201	78.12
330.43	83.12
330.658	67.12
330.887	67.12
331.115	85.12
331.344	68.12
331.572	72.12
331.801	85.12
332.03	93.12
332.258	88.12
332.486	75.12
332.715	78.12
332.943	81.12
333.172	76.12
333.4	81.12
333.629	84.12
333.857	101.12
334.085	94.12
334.314	75.12
334.542	93.12
334.771	83.12
334.999	84.12
335.227	80.12
335.455	85.12
335.684	88.12
335.912	84.12
336.14	83.12
336.369	83.12
336.597	71.12
336.825	76.12
337.053	74.12
337.281	75.12
337.51	93.12
337.738	83.12
337.966	78.12
338.194	88.12
338.422	87.12
338.65	86.12
338.878	71.12
339.106	71.12
339.334	81.12
339.562	87.12
339.79	78.12
340.018	90.12
340.246	77.12
340.474	72.12
340.702	90.12
340.93	83.12
341.158	82.12
341.386	78.12
341.614	80.12
341.842	70.12
342.07	96.12
342.298	88.12
342.526	74.12
342.754	77.12
342.981	87.12
343.209	93.12
343.437	87.12
343.665	81.12
343.893	78.12
344.12	71.12
344.348	69.12
344.576	82.12
344.804	77.12
345.031	74.12
345.259	88.12
345.487	69.12
345.714	64.12
345.942	84.12
346.17	80.12
346.397	69.12
346.625	81.12
346.853	82.12
347.08	88.12
347.308	106.12
347.535	86.12
347.763	75.12
347.99	75.12
348.218	80.12
348.445	78.12
348.673	78.12
348.9	80.12
349.128	84.12
349.355	84.12
349.583	70.12
349.81	81.12
350.037	90.12
350.265	89.12
350.492	90.12
350.72	77.12
350.947	62.12
351.174	97.12
351.402	79.12
351.629	80.12
351.856	80.12
352.083	71.12
352.311	75.12
352.538	75.12
352.765	91.12
352.992	80.12
353.22	86.12
353.447	57.12
353.674	87.12
353.901	65.12
354.128	91.12
354.355	74.12
354.583	75.12
354.81	91.12
355.037	93.12
355.264	96.12
355.491	82.12
355.718	67.12
355.945	68.12
356.172	63.12
356.399	89.12
356.626	77.12
356.853	69.12
357.08	77.12
357.307	92.12
357.534	82.12
357.761	86.12
357.988	84.12
358.215	80.12
358.441	87.12
358.668	85.12
358.895	80.12
359.122	72.12
359.349	76.12
359.576	78.12
359.802	82.12
360.029	71.12
360.256	93.12
360.483	84.12
360.709	85.12
360.936	76.12
361.163	66.12
361.39	79.12
361.616	77.12
361.843	83.12
362.07	87.12
362.296	75.12
362.523	87.12
362.749	64.12
362.976	67.12
363.203	79.12
363.429	77.12
363.656	77.12
363.882	79.12
364.109	70.12
364.335	84.12
364.562	71.12
364.788	66.12
365.015	97.12
365.241	76.12
365.468	71.12
365.694	79.12
365.92	70.12
366.147	89.12
366.373	78.12
366.599	91.12
366.826	81.12
367.052	83.12
367.278	85.12
367.505	98.12
367.731	89.12
367.957	79.12
368.184	79.12
368.41	86.12
368.636	87.12
368.862	73.12
369.089	91.12
369.315	87.12
369.541	78.12
369.767	77.12
369.993	81.12
370.219	85.12
370.445	87.12
370.672	81.12
370.898	80.12
371.124	92.12
371.35	87.12
371.576	91.12
371.802	80.12
372.028	95.12
372.254	78.12
372.48	89.12
372.706	95.12
372.932	85.12
373.158	93.12
373.384	80.12
373.61	87.12
373.835	80.12
374.061	87.12
374.287	86.12
374.513	87.12
374.739	97.12
374.965	92.12
375.191	86.12
375.416	92.12
375.642	87.12
375.868	85.12
376.094	96.12
376.319	84.12
376.545	89.12
376.771	91.12
376.997	96.12
377.222	93.12
377.448	100.12
377.674	79.12
377.899	81.12
378.125	92.12
378.35	100.12
378.576	85.12
378.802	90.12
379.027	96.12
379.253	80.12
379.478	79.12
379.704	86.12
379.929	104.12
380.155	96.12
380.38	93.12
380.606	84.12
380.831	88.12
381.057	99.12
381.282	93.12
381.507	84.12
381.733	83.12
381.958	99.12
382.184	87.12
382.409	94.12
382.634	103.12
382.86	98.12
383.085	88.12
383.31	91.12
383.535	94.12
383.761	106.12
383.986	97.12
384.211	95.12
384.436	104.12
384.662	88.12
384.887	93.12
385.112	91.12
385.337	92.12
385.562	93.12
385.787	92.12
386.013	94.12
386.238	88.12
386.463	97.12
386.688	92.12
386.913	96.12
387.138	93.12
387.363	99.12
387.588	104.12
387.813	97.12
388.038	96.12
388.263	99.12
388.488	95.12
388.713	80.12
388.938	100.12
389.163	97.12
389.387	99.12
389.612	102.12
389.837	92.12
390.062	102.12
390.287	91.12
390.512	103.12
390.736	107.12
390.961	96.12
391.186	115.12
391.411	118.12
391.636	107.12
391.86	93.12
392.085	121.12
392.31	107.12
392.534	83.12
392.759	101.12
392.984	97.12
393.208	108.12
393.433	97.12
393.658	96.12
393.882	104.12
394.107	99.12
394.331	116.12
394.556	111.12
394.78	90.12
395.005	97.12
395.229	93.12
395.454	104.12
395.678	101.12
395.903	116.12
396.127	101.12
396.352	111.12
396.576	109.12
396.801	118.12
397.025	118.12
397.249	109.12
397.474	104.12
397.698	107.12
397.922	115.12
398.147	110.12
398.371	90.12
398.595	107.12
398.82	118.12
399.044	96.12
399.268	104.12
399.492	115.12
399.717	95.12
399.941	110.12
400.165	88.12
400.389	122.12
400.613	114.12
400.837	119.12
401.062	115.12
401.286	112.12
401.51	109.12
401.734	99.12
401.958	109.12
402.182	111.12
402.406	101.12
402.63	100.12
402.854	116.12
403.078	116.12
403.302	116.12
403.526	117.12
403.75	116.12
403.974	122.12
404.198	119.12
404.422	120.12
404.645	102.12
404.869	108.12
405.093	126.12
405.317	109.12
405.541	110.12
405.765	127.12
405.988	126.12
406.212	115.12
406.436	116.12
406.66	134.12
406.883	108.12
407.107	124.12
407.331	114.12
407.555	118.12
407.778	121.12
408.002	126.12
408.226	127.12
408.449	127.12
408.673	123.12
408.896	135.12
409.12	119.12
409.344	124.12
409.567	114.12
409.791	120.12
410.014	116.12
410.238	121.12
410.461	117.12
410.685	137.12
410.908	126.12
411.132	130.12
411.355	116.12
411.578	119.12
411.802	114.12
412.025	115.12
412.249	118.12
412.472	123.12
412.695	129.12
412.919	121.12
413.142	118.12
413.365	113.12
413.589	120.12
413.812	115.12
414.035	113.12
414.258	119.12
414.482	119.12
414.705	138.12
414.928	120.12
415.151	121.12
415.374	118.12
415.597	118.12
415.821	133.12
416.044	121.12
416.267	122.12
416.49	141.12
416.713	132.12
416.936	125.12
417.159	127.12
417.382	135.12
417.605	130.12
417.828	122.12
418.051	112.12
418.274	133.12
418.497	145.12
418.72	141.12
418.943	138.12
419.166	131.12
419.389	147.12
419.611	133.12
419.834	147.12
420.057	115.12
420.28	143.12
420.503	131.12
420.726	131.12
420.948	122.12
421.171	139.12
421.394	126.12
421.617	143.12
421.839	142.12
422.062	151.12
422.285	146.12
422.507	123.12
422.73	133.12
422.953	123.12
423.175	141.12
423.398	129.12
423.621	140.12
423.843	128.12
424.066	144.12
424.288	138.12
424.511	138.12
424.733	141.12
424.956	148.12
425.178	128.12
425.401	147.12
425.623	138.12
425.846	122.12
426.068	135.12
426.291	143.12
426.513	120.12
426.735	120.12
426.958	141.12
427.18	120.12
427.402	119.12
427.625	128.12
427.847	130.12
428.069	135.12
428.292	133.12
428.514	140.12
428.736	138.12
428.958	129.12
429.181	141.12
429.403	129.12
429.625	128.12
429.847	126.12
430.069	140.12
430.292	138.12
430.514	120.12
430.736	117.12
430.958	125.12
431.18	137.12
431.402	118.12
431.624	128.12
431.846	108.12
432.068	95.12
432.29	95.12
432.512	117.12
432.734	129.12
432.956	137.12
433.178	139.12
433.4	132.12
433.622	136.12
433.844	132.12
434.066	128.12
434.287	111.12
434.509	92.12
434.731	101.12
434.953	121.12
435.175	116.12
435.397	125.12
435.618	108.12
435.84	117.12
436.062	103.12
436.284	123.12
436.505	121.12
436.727	140.12
436.949	126.12
437.17	135.12
437.392	118.12
437.614	130.12
437.835	116.12
438.057	109.12
438.278	110.12
438.5	132.12
438.721	153.12
438.943	143.12
439.165	144.12
439.386	142.12
439.608	144.12
439.829	153.12
440.05	142.12
440.272	157.12
440.493	141.12
440.715	148.12
440.936	141.12
441.158	138.12
441.379	151.12
441.6	145.12
441.822	138.12
442.043	150.12
442.264	144.12
442.486	141.12
442.707	156.12
442.928	153.12
443.149	153.12
443.371	151.12
443.592	139.12
443.813	120.12
444.034	147.12
444.255	141.12
444.476	155.12
444.698	151.12
444.919	151.12
445.14	288.12
445.361	231.12
445.582	136.12
445.803	145.12
446.024	152.12
446.245	161.12
446.466	165.12
446.687	156.12
446.908	158.12
447.129	153.12
447.35	162.12
447.571	167.12
447.792	133.12
448.013	137.12
448.234	135.12
448.455	144.12
448.675	147.12
448.896	145.12
449.117	133.12
449.338	150.12
449.559	131.12
449.779	143.12
450	131.12
450.221	129.12
450.442	144.12
450.662	146.12
450.883	123.12
451.104	125.12
451.324	128.12
451.545	158.12
451.766	127.12
451.986	145.12
452.207	136.12
452.428	123.12
452.648	149.12
452.869	126.12
453.089	109.12
453.31	115.12
453.53	103.12
453.751	109.12
453.971	114.12
454.192	115.12
454.412	118.12
454.633	128.12
454.853	126.12
455.073	119.12
455.294	114.12
455.514	115.12
455.734	110.12
455.955	125.12
456.175	114.12
456.395	120.12
456.616	101.12
456.836	107.12
457.056	104.12
457.276	94.12
457.497	127.12
457.717	117.12
457.937	111.12
458.157	97.12
458.377	111.12
458.598	102.12
458.818	88.12
459.038	90.12
459.258	87.12
459.478	96.12
459.698	72.12
459.918	95.12
460.138	105.12
460.358	100.12
460.578	115.12
460.798	110.12
461.018	111.12
461.238	117.12
461.458	113.12
461.678	118.12
461.898	119.12
462.118	125.12
462.338	124.12
462.558	104.12
462.777	118.12
462.997	111.12
463.217	128.12
463.437	116.12
463.657	102.12
463.876	118.12
464.096	101.12
464.316	105.12
464.536	107.12
464.755	115.12
464.975	109.12
465.195	107.12
465.414	118.12
465.634	111.12
465.854	122.12
466.073	119.12
466.293	111.12
466.512	120.12
466.732	132.12
466.951	148.12
467.171	130.12
467.391	128.12
467.61	135.12
467.829	141.12
468.049	127.12
468.268	135.12
468.488	128.12
468.707	132.12
468.927	140.12
469.146	132.12
469.365	139.12
469.585	139.12
469.804	144.12
470.023	135.12
470.243	137.12
470.462	140.12
470.681	147.12
470.901	145.12
471.12	127.12
471.339	140.12
471.558	130.12
471.777	147.12
471.997	134.12
472.216	129.12
472.435	114.12
472.654	104.12
472.873	119.12
473.092	128.12
473.311	113.12
473.53	133.12
473.749	127.12
473.968	131.12
474.187	120.12
474.406	118.12
474.625	118.12
474.844	147.12
475.063	123.12
475.282	132.12
475.501	127.12
475.72	123.12
475.939	124.12
476.158	118.12
476.377	126.12
476.596	120.12
476.814	117.12
477.033	113.12
477.252	128.12
477.471	122.12
477.69	134.12
477.908	146.12
478.127	148.12
478.346	148.12
478.564	152.12
478.783	125.12
479.002	127.12
479.22	154.12
479.439	131.12
479.658	120.12
479.876	121.12
480.095	104.12
480.313	125.12
480.532	129.12
480.751	123.12
480.969	104.12
481.188	102.12
481.406	69.12
481.624	83.12
481.843	93.12
482.061	95.12
482.28	100.12
482.498	119.12
482.717	89.12
482.935	119.12
483.153	139.12
483.372	160.12
483.59	160.12
483.808	136.12
484.027	142.12
484.245	139.12
484.463	149.12
484.681	163.12
484.9	148.12
485.118	135.12
485.336	120.12
485.554	101.12
485.772	99.12
485.99	96.12
486.209	104.12
486.427	115.12
486.645	113.12
486.863	158.12
487.081	143.12
487.299	146.12
487.517	150.12
487.735	181.12
487.953	197.12
488.171	181.12
488.389	183.12
488.607	178.12
488.825	151.12
489.043	134.12
489.261	150.12
489.479	164.12
489.696	144.12
489.914	127.12
490.132	139.12
490.35	176.12
490.568	163.12
490.786	183.12
491.003	179.12
491.221	201.12
491.439	199.12
491.657	209.12
491.874	220.12
492.092	249.12
492.31	237.12
492.527	241.12
492.745	220.12
492.963	191.12
493.18	181.12
493.398	169.12
493.615	177.12
493.833	195.12
494.05	192.12
494.268	185.12
494.485	168.12
494.703	182.12
494.92	186.12
495.138	156.12
495.355	167.12
495.573	161.12
495.79	168.12
496.008	179.12
496.225	172.12
496.442	165.12
496.66	181.12
496.877	159.12
497.094	174.12
497.312	151.12
497.529	160.12
497.746	161.12
497.963	138.12
498.181	128.12
498.398	129.12
498.615	122.12
498.832	109.12
499.049	125.12
499.267	111.12
499.484	125.12
499.701	129.12
499.918	144.12
500.135	146.12
500.352	130.12
500.569	155.12
500.786	149.12
501.003	146.12
501.22	147.12
501.437	134.12
501.654	139.12
501.871	142.12
502.088	133.12
502.305	141.12
502.522	129.12
502.739	130.12
502.956	119.12
503.172	121.12
503.389	131.12
503.606	118.12
503.823	132.12
504.04	125.12
504.256	121.12
504.473	123.12
504.69	128.12
504.907	112.12
505.123	111.12
505.34	129.12
505.557	129.12
505.773	118.12
505.99	117.12
506.207	103.12
506.423	127.12
506.64	136.12
506.856	119.12
507.073	123.12
507.289	121.12
507.506	119.12
507.722	111.12
507.939	119.12
508.155	115.12
508.372	117.12
508.588	117.12
508.805	118.12
509.021	114.12
509.238	119.12
509.454	97.12
509.67	94.12
509.887	83.12
510.103	105.12
510.319	109.12
510.536	99.12
510.752	74.12
510.968	92.12
511.184	80.12
511.401	79.12
511.617	92.12
511.833	98.12
512.049	95.12
