Data from Location6.07152019.Energy5.Lamp.07192019.3%Agarose_HRD10591_16-10-59-395.txt Node
Date: Fri Jul 19 16:10:59 EDT 2019
User: cochatt
Spectrometer: HR+D1059
Trigger mode: 1
Integration Time (sec): 1.000000E-1
Scans to average: 1
Electric dark correction enabled: true
Nonlinearity correction enabled: false
Boxcar width: 0
XAxis mode: Wavelengths
Number of Pixels in Spectrum: 2048
>>>>>Begin Spectral Data<<<<<
223.165	-5.19
223.4	-5.19
223.635	-5.19
223.869	-14.19
224.104	-10.19
224.338	4.81
224.573	-24.19
224.808	-11.19
225.042	-10.19
225.277	-10.19
225.511	-4.19
225.746	10.81
225.98	4.81
226.215	7.81
226.449	7.81
226.683	7.81
226.918	22.81
227.152	22.81
227.387	28.81
227.621	38.81
227.856	48.81
228.09	58.81
228.324	45.81
228.559	65.81
228.793	68.81
229.027	66.81
229.262	48.81
229.496	80.81
229.73	78.81
229.964	80.81
230.199	74.81
230.433	81.81
230.667	82.81
230.901	85.81
231.136	81.81
231.37	78.81
231.604	76.81
231.838	83.81
232.072	75.81
232.306	69.81
232.541	88.81
232.775	81.81
233.009	94.81
233.243	88.81
233.477	72.81
233.711	96.81
233.945	75.81
234.179	84.81
234.413	89.81
234.647	88.81
234.881	77.81
235.115	79.81
235.349	78.81
235.583	76.81
235.817	81.81
236.051	80.81
236.285	87.81
236.519	77.81
236.753	66.81
236.987	81.81
237.221	83.81
237.455	82.81
237.689	81.81
237.922	84.81
238.156	86.81
238.39	75.81
238.624	74.81
238.858	96.81
239.091	85.81
239.325	85.81
239.559	78.81
239.793	74.81
240.027	67.81
240.26	82.81
240.494	85.81
240.728	72.81
240.961	85.81
241.195	99.81
241.429	78.81
241.662	75.81
241.896	79.81
242.13	79.81
242.363	63.81
242.597	91.81
242.83	70.81
243.064	73.81
243.298	83.81
243.531	82.81
243.765	82.81
243.998	83.81
244.232	93.81
244.465	86.81
244.699	84.81
244.932	83.81
245.166	88.81
245.399	72.81
245.633	68.81
245.866	89.81
246.099	77.81
246.333	84.81
246.566	85.81
246.8	81.81
247.033	82.81
247.266	78.81
247.5	69.81
247.733	89.81
247.966	81.81
248.2	77.81
248.433	91.81
248.666	76.81
248.899	77.81
249.133	95.81
249.366	77.81
249.599	77.81
249.832	87.81
250.066	85.81
250.299	81.81
250.532	71.81
250.765	76.81
250.998	74.81
251.231	82.81
251.465	84.81
251.698	70.81
251.931	83.81
252.164	83.81
252.397	68.81
252.63	85.81
252.863	79.81
253.096	79.81
253.329	97.81
253.562	99.81
253.795	85.81
254.028	78.81
254.261	59.81
254.494	83.81
254.727	81.81
254.96	92.81
255.193	73.81
255.426	82.81
255.659	76.81
255.892	75.81
256.124	69.81
256.357	74.81
256.59	73.81
256.823	62.81
257.056	74.81
257.289	80.81
257.521	87.81
257.754	74.81
257.987	85.81
258.22	72.81
258.452	79.81
258.685	85.81
258.918	77.81
259.151	99.81
259.383	81.81
259.616	81.81
259.849	90.81
260.081	85.81
260.314	91.81
260.547	70.81
260.779	86.81
261.012	69.81
261.244	77.81
261.477	93.81
261.71	84.81
261.942	90.81
262.175	93.81
262.407	84.81
262.64	79.81
262.872	77.81
263.105	78.81
263.337	78.81
263.57	77.81
263.802	90.81
264.035	73.81
264.267	76.81
264.499	83.81
264.732	84.81
264.964	94.81
265.197	79.81
265.429	92.81
265.661	83.81
265.894	89.81
266.126	82.81
266.358	93.81
266.591	88.81
266.823	66.81
267.055	91.81
267.287	72.81
267.52	83.81
267.752	80.81
267.984	86.81
268.216	92.81
268.448	86.81
268.681	86.81
268.913	84.81
269.145	83.81
269.377	75.81
269.609	80.81
269.841	87.81
270.073	77.81
270.306	81.81
270.538	83.81
270.77	76.81
271.002	83.81
271.234	77.81
271.466	84.81
271.698	86.81
271.93	88.81
272.162	87.81
272.394	77.81
272.626	82.81
272.858	88.81
273.09	85.81
273.322	86.81
273.553	96.81
273.785	91.81
274.017	98.81
274.249	84.81
274.481	83.81
274.713	88.81
274.945	84.81
275.176	88.81
275.408	78.81
275.64	91.81
275.872	101.81
276.104	85.81
276.335	89.81
276.567	83.81
276.799	73.81
277.031	81.81
277.262	80.81
277.494	77.81
277.726	97.81
277.957	97.81
278.189	99.81
278.421	71.81
278.652	85.81
278.884	83.81
279.115	76.81
279.347	83.81
279.579	75.81
279.81	75.81
280.042	78.81
280.273	86.81
280.505	80.81
280.736	91.81
280.968	98.81
281.199	87.81
281.431	82.81
281.662	87.81
281.894	104.81
282.125	83.81
282.356	96.81
282.588	94.81
282.819	80.81
283.051	82.81
283.282	88.81
283.513	75.81
283.745	86.81
283.976	104.81
284.207	77.81
284.439	84.81
284.67	94.81
284.901	80.81
285.132	72.81
285.364	80.81
285.595	82.81
285.826	84.81
286.057	81.81
286.288	82.81
286.52	90.81
286.751	83.81
286.982	75.81
287.213	95.81
287.444	102.81
287.675	80.81
287.906	86.81
288.138	93.81
288.369	92.81
288.6	89.81
288.831	68.81
289.062	106.81
289.293	91.81
289.524	74.81
289.755	81.81
289.986	93.81
290.217	95.81
290.448	90.81
290.679	90.81
290.91	81.81
291.141	101.81
291.371	86.81
291.602	85.81
291.833	78.81
292.064	92.81
292.295	83.81
292.526	88.81
292.757	83.81
292.987	78.81
293.218	89.81
293.449	97.81
293.68	91.81
293.91	95.81
294.141	85.81
294.372	77.81
294.603	88.81
294.833	92.81
295.064	93.81
295.295	83.81
295.525	86.81
295.756	88.81
295.987	79.81
296.217	101.81
296.448	74.81
296.679	79.81
296.909	74.81
297.14	91.81
297.37	88.81
297.601	93.81
297.831	76.81
298.062	84.81
298.292	84.81
298.523	77.81
298.753	83.81
298.984	94.81
299.214	77.81
299.445	83.81
299.675	80.81
299.905	91.81
300.136	97.81
300.366	91.81
300.597	78.81
300.827	87.81
301.057	84.81
301.288	67.81
301.518	87.81
301.748	91.81
301.979	91.81
302.209	86.81
302.439	78.81
302.669	79.81
302.9	92.81
303.13	97.81
303.36	87.81
303.59	71.81
303.82	77.81
304.051	84.81
304.281	97.81
304.511	96.81
304.741	77.81
304.971	82.81
305.201	85.81
305.431	73.81
305.661	106.81
305.891	89.81
306.121	85.81
306.352	78.81
306.582	84.81
306.812	89.81
307.042	99.81
307.272	87.81
307.502	90.81
307.731	93.81
307.961	79.81
308.191	80.81
308.421	92.81
308.651	81.81
308.881	97.81
309.111	87.81
309.341	76.81
309.571	84.81
309.8	75.81
310.03	85.81
310.26	90.81
310.49	81.81
310.72	85.81
310.949	83.81
311.179	88.81
311.409	96.81
311.639	85.81
311.868	96.81
312.098	84.81
312.328	101.81
312.557	83.81
312.787	69.81
313.017	81.81
313.246	84.81
313.476	76.81
313.706	82.81
313.935	80.81
314.165	84.81
314.394	80.81
314.624	82.81
314.853	84.81
315.083	79.81
315.312	84.81
315.542	82.81
315.771	88.81
316.001	75.81
316.23	79.81
316.46	80.81
316.689	83.81
316.919	89.81
317.148	79.81
317.377	92.81
317.607	87.81
317.836	85.81
318.065	93.81
318.295	77.81
318.524	77.81
318.753	89.81
318.983	79.81
319.212	83.81
319.441	67.81
319.67	95.81
319.9	82.81
320.129	77.81
320.358	86.81
320.587	82.81
320.816	86.81
321.046	97.81
321.275	97.81
321.504	85.81
321.733	88.81
321.962	81.81
322.191	84.81
322.42	81.81
322.649	79.81
322.878	84.81
323.108	67.81
323.337	95.81
323.566	91.81
323.795	77.81
324.024	77.81
324.253	82.81
324.482	83.81
324.71	89.81
324.939	89.81
325.168	68.81
325.397	81.81
325.626	88.81
325.855	74.81
326.084	80.81
326.313	85.81
326.542	90.81
326.77	99.81
326.999	92.81
327.228	89.81
327.457	89.81
327.686	93.81
327.914	70.81
328.143	88.81
328.372	88.81
328.6	88.81
328.829	94.81
329.058	79.81
329.287	80.81
329.515	85.81
329.744	81.81
329.972	88.81
330.201	92.81
330.43	74.81
330.658	81.81
330.887	87.81
331.115	75.81
331.344	89.81
331.572	96.81
331.801	89.81
332.03	104.81
332.258	85.81
332.486	94.81
332.715	88.81
332.943	88.81
333.172	92.81
333.4	95.81
333.629	75.81
333.857	90.81
334.085	81.81
334.314	90.81
334.542	83.81
334.771	88.81
334.999	78.81
335.227	82.81
335.455	102.81
335.684	95.81
335.912	82.81
336.14	88.81
336.369	66.81
336.597	77.81
336.825	83.81
337.053	75.81
337.281	76.81
337.51	83.81
337.738	78.81
337.966	92.81
338.194	78.81
338.422	73.81
338.65	91.81
338.878	80.81
339.106	81.81
339.334	87.81
339.562	77.81
339.79	84.81
340.018	76.81
340.246	83.81
340.474	67.81
340.702	96.81
340.93	98.81
341.158	84.81
341.386	73.81
341.614	80.81
341.842	91.81
342.07	90.81
342.298	87.81
342.526	88.81
342.754	73.81
342.981	93.81
343.209	82.81
343.437	70.81
343.665	87.81
343.893	100.81
344.12	86.81
344.348	71.81
344.576	88.81
344.804	86.81
345.031	79.81
345.259	80.81
345.487	71.81
345.714	84.81
345.942	73.81
346.17	72.81
346.397	80.81
346.625	79.81
346.853	79.81
347.08	93.81
347.308	83.81
347.535	94.81
347.763	92.81
347.99	80.81
348.218	83.81
348.445	88.81
348.673	77.81
348.9	93.81
349.128	89.81
349.355	79.81
349.583	82.81
349.81	92.81
350.037	78.81
350.265	98.81
350.492	93.81
350.72	79.81
350.947	84.81
351.174	92.81
351.402	84.81
351.629	84.81
351.856	75.81
352.083	74.81
352.311	87.81
352.538	87.81
352.765	95.81
352.992	72.81
353.22	79.81
353.447	76.81
353.674	82.81
353.901	84.81
354.128	84.81
354.355	84.81
354.583	86.81
354.81	84.81
355.037	84.81
355.264	92.81
355.491	97.81
355.718	92.81
355.945	79.81
356.172	92.81
356.399	87.81
356.626	89.81
356.853	61.81
357.08	80.81
357.307	85.81
357.534	84.81
357.761	81.81
357.988	99.81
358.215	98.81
358.441	76.81
358.668	94.81
358.895	85.81
359.122	86.81
359.349	90.81
359.576	87.81
359.802	89.81
360.029	80.81
360.256	72.81
360.483	96.81
360.709	88.81
360.936	88.81
361.163	72.81
361.39	79.81
361.616	81.81
361.843	85.81
362.07	85.81
362.296	83.81
362.523	92.81
362.749	88.81
362.976	75.81
363.203	92.81
363.429	81.81
363.656	87.81
363.882	83.81
364.109	74.81
364.335	79.81
364.562	81.81
364.788	97.81
365.015	92.81
365.241	74.81
365.468	93.81
365.694	75.81
365.92	93.81
366.147	82.81
366.373	78.81
366.599	84.81
366.826	101.81
367.052	84.81
367.278	96.81
367.505	94.81
367.731	85.81
367.957	88.81
368.184	92.81
368.41	98.81
368.636	102.81
368.862	88.81
369.089	95.81
369.315	104.81
369.541	90.81
369.767	91.81
369.993	89.81
370.219	75.81
370.445	86.81
370.672	93.81
370.898	96.81
371.124	91.81
371.35	100.81
371.576	98.81
371.802	95.81
372.028	84.81
372.254	89.81
372.48	85.81
372.706	89.81
372.932	81.81
373.158	94.81
373.384	100.81
373.61	99.81
373.835	93.81
374.061	89.81
374.287	91.81
374.513	96.81
374.739	90.81
374.965	93.81
375.191	92.81
375.416	82.81
375.642	88.81
375.868	114.81
376.094	107.81
376.319	106.81
376.545	80.81
376.771	75.81
376.997	87.81
377.222	85.81
377.448	88.81
377.674	104.81
377.899	92.81
378.125	98.81
378.35	105.81
378.576	83.81
378.802	100.81
379.027	92.81
379.253	92.81
379.478	104.81
379.704	100.81
379.929	87.81
380.155	82.81
380.38	106.81
380.606	91.81
380.831	103.81
381.057	100.81
381.282	108.81
381.507	98.81
381.733	106.81
381.958	95.81
382.184	107.81
382.409	112.81
382.634	98.81
382.86	97.81
383.085	96.81
383.31	107.81
383.535	91.81
383.761	98.81
383.986	89.81
384.211	95.81
384.436	105.81
384.662	102.81
384.887	99.81
385.112	113.81
385.337	91.81
385.562	113.81
385.787	99.81
386.013	123.81
386.238	94.81
386.463	104.81
386.688	100.81
386.913	109.81
387.138	107.81
387.363	93.81
387.588	115.81
387.813	96.81
388.038	105.81
388.263	97.81
388.488	100.81
388.713	107.81
388.938	110.81
389.163	102.81
389.387	94.81
389.612	90.81
389.837	115.81
390.062	111.81
390.287	101.81
390.512	107.81
390.736	87.81
390.961	96.81
391.186	103.81
391.411	107.81
391.636	92.81
391.86	117.81
392.085	106.81
392.31	104.81
392.534	97.81
392.759	85.81
392.984	129.81
393.208	103.81
393.433	107.81
393.658	91.81
393.882	98.81
394.107	111.81
394.331	99.81
394.556	109.81
394.78	115.81
395.005	104.81
395.229	105.81
395.454	119.81
395.678	112.81
395.903	114.81
396.127	116.81
396.352	107.81
396.576	125.81
396.801	108.81
397.025	120.81
397.249	122.81
397.474	122.81
397.698	129.81
397.922	110.81
398.147	105.81
398.371	125.81
398.595	120.81
398.82	116.81
399.044	111.81
399.268	111.81
399.492	109.81
399.717	111.81
399.941	123.81
400.165	107.81
400.389	121.81
400.613	109.81
400.837	111.81
401.062	114.81
401.286	120.81
401.51	103.81
401.734	106.81
401.958	111.81
402.182	101.81
402.406	109.81
402.63	112.81
402.854	109.81
403.078	119.81
403.302	113.81
403.526	114.81
403.75	135.81
403.974	127.81
404.198	132.81
404.422	123.81
404.645	121.81
404.869	124.81
405.093	118.81
405.317	120.81
405.541	121.81
405.765	104.81
405.988	119.81
406.212	120.81
406.436	121.81
406.66	123.81
406.883	120.81
407.107	120.81
407.331	130.81
407.555	124.81
407.778	131.81
408.002	123.81
408.226	116.81
408.449	125.81
408.673	126.81
408.896	127.81
409.12	124.81
409.344	132.81
409.567	121.81
409.791	125.81
410.014	117.81
410.238	106.81
410.461	125.81
410.685	111.81
410.908	117.81
411.132	114.81
411.355	115.81
411.578	119.81
411.802	121.81
412.025	94.81
412.249	113.81
412.472	122.81
412.695	123.81
412.919	118.81
413.142	128.81
413.365	129.81
413.589	124.81
413.812	133.81
414.035	123.81
414.258	123.81
414.482	131.81
414.705	134.81
414.928	137.81
415.151	114.81
415.374	123.81
415.597	125.81
415.821	123.81
416.044	135.81
416.267	136.81
416.49	130.81
416.713	124.81
416.936	126.81
417.159	133.81
417.382	125.81
417.605	134.81
417.828	130.81
418.051	137.81
418.274	139.81
418.497	133.81
418.72	146.81
418.943	144.81
419.166	139.81
419.389	153.81
419.611	132.81
419.834	140.81
420.057	126.81
420.28	150.81
420.503	132.81
420.726	145.81
420.948	135.81
421.171	125.81
421.394	146.81
421.617	153.81
421.839	167.81
422.062	155.81
422.285	132.81
422.507	151.81
422.73	135.81
422.953	133.81
423.175	132.81
423.398	136.81
423.621	140.81
423.843	132.81
424.066	141.81
424.288	135.81
424.511	125.81
424.733	145.81
424.956	141.81
425.178	140.81
425.401	146.81
425.623	128.81
425.846	133.81
426.068	139.81
426.291	140.81
426.513	132.81
426.735	147.81
426.958	135.81
427.18	127.81
427.402	141.81
427.625	127.81
427.847	129.81
428.069	133.81
428.292	130.81
428.514	145.81
428.736	112.81
428.958	136.81
429.181	139.81
429.403	129.81
429.625	131.81
429.847	119.81
430.069	134.81
430.292	133.81
430.514	127.81
430.736	123.81
430.958	126.81
431.18	145.81
431.402	132.81
431.624	122.81
431.846	111.81
432.068	108.81
432.29	87.81
432.512	97.81
432.734	109.81
432.956	125.81
433.178	151.81
433.4	137.81
433.622	156.81
433.844	141.81
434.066	124.81
434.287	124.81
434.509	89.81
434.731	103.81
434.953	119.81
435.175	125.81
435.397	149.81
435.618	133.81
435.84	111.81
436.062	121.81
436.284	117.81
436.505	130.81
436.727	137.81
436.949	151.81
437.17	140.81
437.392	128.81
437.614	125.81
437.835	116.81
438.057	99.81
438.278	119.81
438.5	122.81
438.721	145.81
438.943	147.81
439.165	129.81
439.386	149.81
439.608	147.81
439.829	146.81
440.05	164.81
440.272	156.81
440.493	154.81
440.715	149.81
440.936	155.81
441.158	159.81
441.379	146.81
441.6	153.81
441.822	147.81
442.043	158.81
442.264	151.81
442.486	142.81
442.707	149.81
442.928	152.81
443.149	141.81
443.371	137.81
443.592	133.81
443.813	142.81
444.034	149.81
444.255	148.81
444.476	155.81
444.698	146.81
444.919	163.81
445.14	277.81
445.361	190.81
445.582	167.81
445.803	145.81
446.024	158.81
446.245	163.81
446.466	149.81
446.687	169.81
446.908	158.81
447.129	172.81
447.35	166.81
447.571	163.81
447.792	158.81
448.013	151.81
448.234	149.81
448.455	162.81
448.675	135.81
448.896	147.81
449.117	144.81
449.338	134.81
449.559	137.81
449.779	132.81
450	131.81
450.221	137.81
450.442	131.81
450.662	133.81
450.883	138.81
451.104	124.81
451.324	147.81
451.545	128.81
451.766	137.81
451.986	131.81
452.207	134.81
452.428	138.81
452.648	129.81
452.869	134.81
453.089	122.81
453.31	120.81
453.53	105.81
453.751	108.81
453.971	95.81
454.192	99.81
454.412	120.81
454.633	125.81
454.853	129.81
455.073	125.81
455.294	143.81
455.514	129.81
455.734	128.81
455.955	122.81
456.175	111.81
456.395	101.81
456.616	115.81
456.836	114.81
457.056	107.81
457.276	115.81
457.497	106.81
457.717	123.81
457.937	105.81
458.157	92.81
458.377	118.81
458.598	86.81
458.818	95.81
459.038	96.81
459.258	100.81
459.478	97.81
459.698	102.81
459.918	87.81
460.138	93.81
460.358	125.81
460.578	124.81
460.798	119.81
461.018	119.81
461.238	119.81
461.458	125.81
461.678	126.81
461.898	106.81
462.118	130.81
462.338	107.81
462.558	119.81
462.777	121.81
462.997	105.81
463.217	97.81
463.437	122.81
463.657	113.81
463.876	102.81
464.096	104.81
464.316	108.81
464.536	117.81
464.755	117.81
464.975	105.81
465.195	121.81
465.414	130.81
465.634	125.81
465.854	126.81
466.073	120.81
466.293	101.81
466.512	131.81
466.732	135.81
466.951	139.81
467.171	143.81
467.391	140.81
467.61	119.81
467.829	142.81
468.049	152.81
468.268	143.81
468.488	160.81
468.707	147.81
468.927	141.81
469.146	139.81
469.365	150.81
469.585	145.81
469.804	144.81
470.023	141.81
470.243	150.81
470.462	159.81
470.681	149.81
470.901	155.81
471.12	131.81
471.339	139.81
471.558	153.81
471.777	151.81
471.997	151.81
472.216	124.81
472.435	125.81
472.654	102.81
472.873	95.81
473.092	108.81
473.311	134.81
473.53	133.81
473.749	129.81
473.968	132.81
474.187	132.81
474.406	123.81
474.625	137.81
474.844	138.81
475.063	128.81
475.282	129.81
475.501	133.81
475.72	132.81
475.939	128.81
476.158	136.81
476.377	131.81
476.596	128.81
476.814	108.81
477.033	131.81
477.252	114.81
477.471	123.81
477.69	148.81
477.908	146.81
478.127	139.81
478.346	138.81
478.564	152.81
478.783	143.81
479.002	140.81
479.22	142.81
479.439	138.81
479.658	132.81
479.876	127.81
480.095	107.81
480.313	127.81
480.532	123.81
480.751	122.81
480.969	103.81
481.188	108.81
481.406	94.81
481.624	100.81
481.843	98.81
482.061	116.81
482.28	115.81
482.498	104.81
482.717	124.81
482.935	126.81
483.153	135.81
483.372	150.81
483.59	160.81
483.808	152.81
484.027	153.81
484.245	129.81
484.463	145.81
484.681	165.81
484.9	146.81
485.118	140.81
485.336	139.81
485.554	123.81
485.772	105.81
485.99	107.81
486.209	116.81
486.427	103.81
486.645	133.81
486.863	153.81
487.081	153.81
487.299	151.81
487.517	146.81
487.735	187.81
487.953	212.81
488.171	191.81
488.389	176.81
488.607	162.81
488.825	154.81
489.043	139.81
489.261	131.81
489.479	126.81
489.696	162.81
489.914	150.81
490.132	169.81
490.35	165.81
490.568	173.81
490.786	187.81
491.003	197.81
491.221	195.81
491.439	192.81
491.657	205.81
491.874	241.81
492.092	226.81
492.31	261.81
492.527	243.81
492.745	221.81
492.963	214.81
493.18	176.81
493.398	194.81
493.615	189.81
493.833	172.81
494.05	196.81
494.268	191.81
494.485	206.81
494.703	168.81
494.92	183.81
495.138	179.81
495.355	177.81
495.573	176.81
495.79	161.81
496.008	175.81
496.225	163.81
496.442	166.81
496.66	179.81
496.877	163.81
497.094	164.81
497.312	161.81
497.529	156.81
497.746	162.81
497.963	148.81
498.181	142.81
498.398	138.81
498.615	126.81
498.832	115.81
499.049	113.81
499.267	117.81
499.484	131.81
499.701	126.81
499.918	157.81
500.135	150.81
500.352	146.81
500.569	166.81
500.786	164.81
501.003	150.81
501.22	173.81
501.437	155.81
501.654	146.81
501.871	135.81
502.088	136.81
502.305	132.81
502.522	132.81
502.739	124.81
502.956	131.81
503.172	133.81
503.389	133.81
503.606	128.81
503.823	123.81
504.04	116.81
504.256	131.81
504.473	127.81
504.69	124.81
504.907	136.81
505.123	122.81
505.34	145.81
505.557	131.81
505.773	137.81
505.99	127.81
506.207	114.81
506.423	134.81
506.64	124.81
506.856	131.81
507.073	123.81
507.289	147.81
507.506	126.81
507.722	132.81
507.939	110.81
508.155	124.81
508.372	121.81
508.588	128.81
508.805	100.81
509.021	117.81
509.238	107.81
509.454	117.81
509.67	99.81
509.887	103.81
510.103	92.81
510.319	87.81
510.536	94.81
510.752	96.81
510.968	82.81
511.184	89.81
511.401	93.81
