Data from Location6.07152019.Energy5.Lamp.07192019.3%Agarose_HRD10591_16-11-37-394.txt Node
Date: Fri Jul 19 16:11:37 EDT 2019
User: cochatt
Spectrometer: HR+D1059
Trigger mode: 1
Integration Time (sec): 1.000000E-1
Scans to average: 1
Electric dark correction enabled: true
Nonlinearity correction enabled: false
Boxcar width: 0
XAxis mode: Wavelengths
Number of Pixels in Spectrum: 2048
>>>>>Begin Spectral Data<<<<<
223.165	-5.62
223.4	-5.62
223.635	-5.62
223.869	-25.62
224.104	-15.62
224.338	-18.62
224.573	-15.62
224.808	-17.62
225.042	-14.62
225.277	-3.62
225.511	-7.62
225.746	-3.62
225.98	9.38
226.215	24.38
226.449	22.38
226.683	17.38
226.918	22.38
227.152	32.38
227.387	32.38
227.621	30.38
227.856	34.38
228.09	49.38
228.324	39.38
228.559	63.38
228.793	56.38
229.027	61.38
229.262	74.38
229.496	52.38
229.73	81.38
229.964	78.38
230.199	69.38
230.433	87.38
230.667	79.38
230.901	77.38
231.136	76.38
231.37	79.38
231.604	79.38
231.838	85.38
232.072	73.38
232.306	87.38
232.541	75.38
232.775	84.38
233.009	86.38
233.243	72.38
233.477	89.38
233.711	58.38
233.945	85.38
234.179	92.38
234.413	85.38
234.647	82.38
234.881	81.38
235.115	86.38
235.349	88.38
235.583	90.38
235.817	78.38
236.051	80.38
236.285	73.38
236.519	78.38
236.753	82.38
236.987	80.38
237.221	77.38
237.455	79.38
237.689	70.38
237.922	85.38
238.156	67.38
238.39	79.38
238.624	92.38
238.858	86.38
239.091	82.38
239.325	74.38
239.559	73.38
239.793	74.38
240.027	74.38
240.26	69.38
240.494	81.38
240.728	71.38
240.961	67.38
241.195	77.38
241.429	77.38
241.662	74.38
241.896	68.38
242.13	95.38
242.363	72.38
242.597	80.38
242.83	85.38
243.064	85.38
243.298	81.38
243.531	80.38
243.765	73.38
243.998	87.38
244.232	72.38
244.465	71.38
244.699	77.38
244.932	83.38
245.166	60.38
245.399	76.38
245.633	83.38
245.866	69.38
246.099	69.38
246.333	82.38
246.566	82.38
246.8	80.38
247.033	88.38
247.266	70.38
247.5	87.38
247.733	86.38
247.966	77.38
248.2	84.38
248.433	75.38
248.666	85.38
248.899	83.38
249.133	77.38
249.366	94.38
249.599	75.38
249.832	77.38
250.066	74.38
250.299	81.38
250.532	83.38
250.765	85.38
250.998	103.38
251.231	79.38
251.465	89.38
251.698	83.38
251.931	84.38
252.164	81.38
252.397	76.38
252.63	77.38
252.863	83.38
253.096	83.38
253.329	80.38
253.562	73.38
253.795	75.38
254.028	84.38
254.261	85.38
254.494	80.38
254.727	72.38
254.96	93.38
255.193	75.38
255.426	73.38
255.659	76.38
255.892	72.38
256.124	75.38
256.357	82.38
256.59	71.38
256.823	97.38
257.056	85.38
257.289	77.38
257.521	78.38
257.754	78.38
257.987	77.38
258.22	100.38
258.452	93.38
258.685	82.38
258.918	82.38
259.151	82.38
259.383	67.38
259.616	70.38
259.849	81.38
260.081	83.38
260.314	81.38
260.547	91.38
260.779	104.38
261.012	68.38
261.244	97.38
261.477	95.38
261.71	109.38
261.942	81.38
262.175	79.38
262.407	83.38
262.64	88.38
262.872	85.38
263.105	78.38
263.337	91.38
263.57	89.38
263.802	84.38
264.035	97.38
264.267	85.38
264.499	69.38
264.732	88.38
264.964	88.38
265.197	92.38
265.429	91.38
265.661	80.38
265.894	83.38
266.126	86.38
266.358	77.38
266.591	71.38
266.823	90.38
267.055	101.38
267.287	79.38
267.52	87.38
267.752	81.38
267.984	79.38
268.216	96.38
268.448	90.38
268.681	100.38
268.913	77.38
269.145	92.38
269.377	78.38
269.609	69.38
269.841	90.38
270.073	82.38
270.306	70.38
270.538	94.38
270.77	80.38
271.002	85.38
271.234	68.38
271.466	82.38
271.698	92.38
271.93	88.38
272.162	91.38
272.394	85.38
272.626	78.38
272.858	76.38
273.09	81.38
273.322	75.38
273.553	82.38
273.785	85.38
274.017	69.38
274.249	86.38
274.481	70.38
274.713	94.38
274.945	73.38
275.176	77.38
275.408	87.38
275.64	91.38
275.872	70.38
276.104	93.38
276.335	99.38
276.567	82.38
276.799	87.38
277.031	86.38
277.262	89.38
277.494	88.38
277.726	76.38
277.957	84.38
278.189	79.38
278.421	88.38
278.652	99.38
278.884	76.38
279.115	80.38
279.347	84.38
279.579	77.38
279.81	72.38
280.042	86.38
280.273	84.38
280.505	94.38
280.736	81.38
280.968	81.38
281.199	87.38
281.431	66.38
281.662	85.38
281.894	74.38
282.125	86.38
282.356	90.38
282.588	89.38
282.819	75.38
283.051	71.38
283.282	57.38
283.513	84.38
283.745	92.38
283.976	76.38
284.207	93.38
284.439	82.38
284.67	84.38
284.901	92.38
285.132	84.38
285.364	90.38
285.595	83.38
285.826	62.38
286.057	70.38
286.288	85.38
286.52	104.38
286.751	82.38
286.982	87.38
287.213	67.38
287.444	83.38
287.675	100.38
287.906	89.38
288.138	88.38
288.369	88.38
288.6	82.38
288.831	97.38
289.062	83.38
289.293	89.38
289.524	96.38
289.755	81.38
289.986	78.38
290.217	101.38
290.448	90.38
290.679	86.38
290.91	97.38
291.141	94.38
291.371	89.38
291.602	84.38
291.833	85.38
292.064	96.38
292.295	84.38
292.526	78.38
292.757	89.38
292.987	90.38
293.218	85.38
293.449	83.38
293.68	85.38
293.91	89.38
294.141	74.38
294.372	76.38
294.603	67.38
294.833	87.38
295.064	86.38
295.295	81.38
295.525	94.38
295.756	84.38
295.987	82.38
296.217	89.38
296.448	81.38
296.679	84.38
296.909	81.38
297.14	82.38
297.37	96.38
297.601	88.38
297.831	93.38
298.062	79.38
298.292	78.38
298.523	86.38
298.753	85.38
298.984	90.38
299.214	77.38
299.445	76.38
299.675	98.38
299.905	90.38
300.136	86.38
300.366	92.38
300.597	86.38
300.827	78.38
301.057	82.38
301.288	94.38
301.518	77.38
301.748	89.38
301.979	83.38
302.209	78.38
302.439	74.38
302.669	103.38
302.9	84.38
303.13	70.38
303.36	77.38
303.59	85.38
303.82	86.38
304.051	85.38
304.281	90.38
304.511	84.38
304.741	90.38
304.971	95.38
305.201	93.38
305.431	89.38
305.661	90.38
305.891	74.38
306.121	91.38
306.352	86.38
306.582	84.38
306.812	84.38
307.042	88.38
307.272	85.38
307.502	82.38
307.731	77.38
307.961	82.38
308.191	69.38
308.421	94.38
308.651	91.38
308.881	83.38
309.111	94.38
309.341	90.38
309.571	101.38
309.8	86.38
310.03	88.38
310.26	90.38
310.49	82.38
310.72	87.38
310.949	92.38
311.179	82.38
311.409	78.38
311.639	85.38
311.868	78.38
312.098	79.38
312.328	92.38
312.557	76.38
312.787	83.38
313.017	92.38
313.246	89.38
313.476	88.38
313.706	91.38
313.935	86.38
314.165	88.38
314.394	70.38
314.624	78.38
314.853	86.38
315.083	90.38
315.312	81.38
315.542	81.38
315.771	83.38
316.001	73.38
316.23	74.38
316.46	69.38
316.689	91.38
316.919	87.38
317.148	78.38
317.377	101.38
317.607	85.38
317.836	86.38
318.065	90.38
318.295	81.38
318.524	93.38
318.753	76.38
318.983	69.38
319.212	89.38
319.441	86.38
319.67	84.38
319.9	81.38
320.129	89.38
320.358	77.38
320.587	98.38
320.816	85.38
321.046	80.38
321.275	88.38
321.504	90.38
321.733	99.38
321.962	93.38
322.191	91.38
322.42	91.38
322.649	78.38
322.878	73.38
323.108	94.38
323.337	82.38
323.566	86.38
323.795	86.38
324.024	85.38
324.253	90.38
324.482	101.38
324.71	79.38
324.939	89.38
325.168	97.38
325.397	87.38
325.626	81.38
325.855	84.38
326.084	88.38
326.313	94.38
326.542	69.38
326.77	76.38
326.999	82.38
327.228	80.38
327.457	80.38
327.686	90.38
327.914	97.38
328.143	85.38
328.372	80.38
328.6	88.38
328.829	93.38
329.058	87.38
329.287	91.38
329.515	85.38
329.744	85.38
329.972	92.38
330.201	83.38
330.43	81.38
330.658	93.38
330.887	84.38
331.115	97.38
331.344	89.38
331.572	100.38
331.801	83.38
332.03	82.38
332.258	84.38
332.486	65.38
332.715	76.38
332.943	86.38
333.172	88.38
333.4	86.38
333.629	96.38
333.857	75.38
334.085	85.38
334.314	84.38
334.542	98.38
334.771	81.38
334.999	78.38
335.227	79.38
335.455	93.38
335.684	83.38
335.912	89.38
336.14	75.38
336.369	93.38
336.597	92.38
336.825	98.38
337.053	71.38
337.281	96.38
337.51	98.38
337.738	93.38
337.966	75.38
338.194	87.38
338.422	78.38
338.65	86.38
338.878	90.38
339.106	80.38
339.334	99.38
339.562	82.38
339.79	70.38
340.018	79.38
340.246	84.38
340.474	89.38
340.702	98.38
340.93	89.38
341.158	85.38
341.386	78.38
341.614	87.38
341.842	83.38
342.07	83.38
342.298	100.38
342.526	93.38
342.754	83.38
342.981	97.38
343.209	86.38
343.437	87.38
343.665	89.38
343.893	87.38
344.12	83.38
344.348	72.38
344.576	94.38
344.804	89.38
345.031	101.38
345.259	89.38
345.487	88.38
345.714	76.38
345.942	86.38
346.17	83.38
346.397	90.38
346.625	83.38
346.853	88.38
347.08	94.38
347.308	92.38
347.535	78.38
347.763	87.38
347.99	97.38
348.218	97.38
348.445	89.38
348.673	82.38
348.9	93.38
349.128	88.38
349.355	82.38
349.583	104.38
349.81	90.38
350.037	82.38
350.265	82.38
350.492	92.38
350.72	86.38
350.947	73.38
351.174	80.38
351.402	89.38
351.629	85.38
351.856	84.38
352.083	74.38
352.311	80.38
352.538	83.38
352.765	97.38
352.992	68.38
353.22	77.38
353.447	95.38
353.674	83.38
353.901	91.38
354.128	90.38
354.355	89.38
354.583	74.38
354.81	88.38
355.037	85.38
355.264	84.38
355.491	92.38
355.718	82.38
355.945	76.38
356.172	100.38
356.399	98.38
356.626	96.38
356.853	81.38
357.08	92.38
357.307	85.38
357.534	79.38
357.761	84.38
357.988	84.38
358.215	98.38
358.441	87.38
358.668	87.38
358.895	84.38
359.122	87.38
359.349	71.38
359.576	73.38
359.802	79.38
360.029	80.38
360.256	93.38
360.483	109.38
360.709	89.38
360.936	93.38
361.163	86.38
361.39	78.38
361.616	73.38
361.843	82.38
362.07	68.38
362.296	91.38
362.523	75.38
362.749	74.38
362.976	78.38
363.203	88.38
363.429	83.38
363.656	95.38
363.882	85.38
364.109	90.38
364.335	92.38
364.562	86.38
364.788	82.38
365.015	92.38
365.241	85.38
365.468	93.38
365.694	86.38
365.92	85.38
366.147	88.38
366.373	85.38
366.599	75.38
366.826	80.38
367.052	101.38
367.278	96.38
367.505	87.38
367.731	103.38
367.957	91.38
368.184	93.38
368.41	89.38
368.636	89.38
368.862	87.38
369.089	87.38
369.315	88.38
369.541	91.38
369.767	95.38
369.993	85.38
370.219	90.38
370.445	93.38
370.672	88.38
370.898	94.38
371.124	100.38
371.35	100.38
371.576	94.38
371.802	95.38
372.028	98.38
372.254	89.38
372.48	92.38
372.706	97.38
372.932	99.38
373.158	95.38
373.384	97.38
373.61	89.38
373.835	84.38
374.061	104.38
374.287	100.38
374.513	95.38
374.739	103.38
374.965	104.38
375.191	91.38
375.416	89.38
375.642	96.38
375.868	99.38
376.094	92.38
376.319	80.38
376.545	83.38
376.771	88.38
376.997	95.38
377.222	104.38
377.448	103.38
377.674	97.38
377.899	88.38
378.125	97.38
378.35	101.38
378.576	93.38
378.802	94.38
379.027	103.38
379.253	105.38
379.478	100.38
379.704	99.38
379.929	90.38
380.155	92.38
380.38	90.38
380.606	85.38
380.831	92.38
381.057	109.38
381.282	96.38
381.507	101.38
381.733	97.38
381.958	116.38
382.184	101.38
382.409	98.38
382.634	98.38
382.86	96.38
383.085	101.38
383.31	100.38
383.535	81.38
383.761	86.38
383.986	96.38
384.211	103.38
384.436	87.38
384.662	93.38
384.887	93.38
385.112	106.38
385.337	94.38
385.562	95.38
385.787	99.38
386.013	108.38
386.238	105.38
386.463	102.38
386.688	105.38
386.913	101.38
387.138	107.38
387.363	100.38
387.588	116.38
387.813	109.38
388.038	117.38
388.263	103.38
388.488	109.38
388.713	117.38
388.938	108.38
389.163	105.38
389.387	96.38
389.612	107.38
389.837	94.38
390.062	103.38
390.287	114.38
390.512	99.38
390.736	116.38
390.961	103.38
391.186	94.38
391.411	103.38
391.636	106.38
391.86	105.38
392.085	108.38
392.31	112.38
392.534	100.38
392.759	118.38
392.984	114.38
393.208	103.38
393.433	101.38
393.658	109.38
393.882	109.38
394.107	84.38
394.331	107.38
394.556	112.38
394.78	94.38
395.005	100.38
395.229	121.38
395.454	110.38
395.678	105.38
395.903	115.38
396.127	117.38
396.352	119.38
396.576	109.38
396.801	121.38
397.025	106.38
397.249	101.38
397.474	126.38
397.698	118.38
397.922	99.38
398.147	104.38
398.371	108.38
398.595	123.38
398.82	123.38
399.044	106.38
399.268	112.38
399.492	126.38
399.717	108.38
399.941	107.38
400.165	114.38
400.389	114.38
400.613	107.38
400.837	121.38
401.062	109.38
401.286	114.38
401.51	107.38
401.734	125.38
401.958	124.38
402.182	124.38
402.406	114.38
402.63	116.38
402.854	120.38
403.078	122.38
403.302	103.38
403.526	112.38
403.75	118.38
403.974	119.38
404.198	117.38
404.422	123.38
404.645	118.38
404.869	113.38
405.093	124.38
405.317	116.38
405.541	118.38
405.765	125.38
405.988	112.38
406.212	126.38
406.436	106.38
406.66	112.38
406.883	126.38
407.107	125.38
407.331	117.38
407.555	122.38
407.778	118.38
408.002	124.38
408.226	109.38
408.449	118.38
408.673	104.38
408.896	114.38
409.12	124.38
409.344	136.38
409.567	141.38
409.791	133.38
410.014	133.38
410.238	115.38
410.461	118.38
410.685	134.38
410.908	125.38
411.132	125.38
411.355	124.38
411.578	119.38
411.802	120.38
412.025	143.38
412.249	125.38
412.472	124.38
412.695	110.38
412.919	126.38
413.142	127.38
413.365	128.38
413.589	133.38
413.812	122.38
414.035	128.38
414.258	132.38
414.482	116.38
414.705	133.38
414.928	132.38
415.151	117.38
415.374	130.38
415.597	127.38
415.821	134.38
416.044	139.38
416.267	135.38
416.49	118.38
416.713	130.38
416.936	135.38
417.159	125.38
417.382	128.38
417.605	112.38
417.828	130.38
418.051	128.38
418.274	140.38
418.497	128.38
418.72	147.38
418.943	132.38
419.166	143.38
419.389	142.38
419.611	147.38
419.834	139.38
420.057	141.38
420.28	146.38
420.503	147.38
420.726	153.38
420.948	149.38
421.171	138.38
421.394	132.38
421.617	148.38
421.839	150.38
422.062	143.38
422.285	140.38
422.507	122.38
422.73	132.38
422.953	132.38
423.175	138.38
423.398	155.38
423.621	142.38
423.843	131.38
424.066	129.38
424.288	156.38
424.511	150.38
424.733	137.38
424.956	143.38
425.178	147.38
425.401	149.38
425.623	141.38
425.846	128.38
426.068	133.38
426.291	142.38
426.513	146.38
426.735	139.38
426.958	137.38
427.18	133.38
427.402	137.38
427.625	133.38
427.847	136.38
428.069	135.38
428.292	142.38
428.514	134.38
428.736	141.38
428.958	128.38
429.181	134.38
429.403	137.38
429.625	138.38
429.847	138.38
430.069	140.38
430.292	150.38
430.514	121.38
430.736	125.38
430.958	129.38
431.18	138.38
431.402	135.38
431.624	132.38
431.846	107.38
432.068	100.38
432.29	95.38
432.512	105.38
432.734	124.38
432.956	127.38
433.178	141.38
433.4	132.38
433.622	147.38
433.844	140.38
434.066	133.38
434.287	124.38
434.509	91.38
434.731	94.38
434.953	140.38
435.175	142.38
435.397	129.38
435.618	123.38
435.84	123.38
436.062	122.38
436.284	142.38
436.505	118.38
436.727	146.38
436.949	143.38
437.17	127.38
437.392	141.38
437.614	122.38
437.835	116.38
438.057	102.38
438.278	119.38
438.5	148.38
438.721	143.38
438.943	150.38
439.165	148.38
439.386	128.38
439.608	146.38
439.829	151.38
440.05	150.38
440.272	153.38
440.493	139.38
440.715	148.38
440.936	157.38
441.158	148.38
441.379	154.38
441.6	157.38
441.822	150.38
442.043	152.38
442.264	138.38
442.486	137.38
442.707	143.38
442.928	159.38
443.149	149.38
443.371	143.38
443.592	140.38
443.813	146.38
444.034	132.38
444.255	149.38
444.476	158.38
444.698	140.38
444.919	151.38
445.14	288.38
445.361	210.38
445.582	161.38
445.803	144.38
446.024	153.38
446.245	161.38
446.466	142.38
446.687	165.38
446.908	152.38
447.129	164.38
447.35	158.38
447.571	150.38
447.792	160.38
448.013	142.38
448.234	148.38
448.455	146.38
448.675	157.38
448.896	161.38
449.117	142.38
449.338	140.38
449.559	149.38
449.779	120.38
450	152.38
450.221	141.38
450.442	140.38
450.662	132.38
450.883	140.38
451.104	157.38
451.324	155.38
451.545	136.38
451.766	127.38
451.986	132.38
452.207	142.38
452.428	132.38
452.648	121.38
452.869	138.38
453.089	122.38
453.31	114.38
453.53	110.38
453.751	106.38
453.971	110.38
454.192	114.38
454.412	124.38
454.633	118.38
454.853	128.38
455.073	126.38
455.294	138.38
455.514	123.38
455.734	132.38
455.955	112.38
456.175	125.38
456.395	118.38
456.616	122.38
456.836	120.38
457.056	124.38
457.276	125.38
457.497	120.38
457.717	116.38
457.937	113.38
458.157	96.38
458.377	107.38
458.598	114.38
458.818	109.38
459.038	105.38
459.258	114.38
459.478	92.38
459.698	108.38
459.918	93.38
460.138	102.38
460.358	110.38
460.578	118.38
460.798	132.38
461.018	121.38
461.238	133.38
461.458	130.38
461.678	131.38
461.898	122.38
462.118	116.38
462.338	124.38
462.558	127.38
462.777	112.38
462.997	109.38
463.217	120.38
463.437	109.38
463.657	105.38
463.876	109.38
464.096	108.38
464.316	99.38
464.536	104.38
464.755	104.38
464.975	124.38
465.195	117.38
465.414	115.38
465.634	121.38
465.854	124.38
466.073	123.38
466.293	129.38
466.512	129.38
466.732	147.38
466.951	144.38
467.171	146.38
467.391	131.38
467.61	142.38
467.829	138.38
468.049	140.38
468.268	152.38
468.488	131.38
468.707	134.38
468.927	152.38
469.146	133.38
469.365	151.38
469.585	148.38
469.804	143.38
470.023	146.38
470.243	132.38
470.462	148.38
470.681	148.38
470.901	141.38
471.12	137.38
471.339	157.38
471.558	154.38
471.777	146.38
471.997	137.38
472.216	139.38
472.435	109.38
472.654	112.38
472.873	122.38
473.092	124.38
473.311	128.38
473.53	138.38
473.749	143.38
473.968	133.38
474.187	116.38
474.406	132.38
474.625	142.38
474.844	133.38
475.063	131.38
475.282	127.38
475.501	123.38
475.72	132.38
475.939	150.38
476.158	140.38
476.377	122.38
476.596	125.38
476.814	122.38
477.033	118.38
477.252	123.38
477.471	135.38
477.69	138.38
477.908	142.38
478.127	157.38
478.346	141.38
478.564	149.38
478.783	150.38
479.002	138.38
479.22	148.38
479.439	156.38
479.658	138.38
479.876	119.38
480.095	128.38
480.313	115.38
480.532	120.38
480.751	104.38
480.969	86.38
481.188	81.38
481.406	94.38
481.624	82.38
481.843	101.38
482.061	106.38
482.28	125.38
482.498	121.38
482.717	116.38
482.935	117.38
483.153	141.38
483.372	157.38
483.59	162.38
483.808	147.38
484.027	146.38
484.245	144.38
484.463	167.38
484.681	178.38
484.9	150.38
485.118	147.38
485.336	130.38
485.554	112.38
485.772	110.38
485.99	112.38
486.209	108.38
486.427	118.38
486.645	109.38
486.863	144.38
487.081	152.38
487.299	132.38
487.517	137.38
487.735	179.38
487.953	217.38
488.171	200.38
488.389	186.38
488.607	178.38
488.825	174.38
489.043	146.38
489.261	136.38
489.479	145.38
489.696	136.38
489.914	132.38
490.132	156.38
490.35	158.38
490.568	163.38
490.786	186.38
491.003	184.38
491.221	203.38
491.439	192.38
491.657	197.38
491.874	216.38
492.092	235.38
492.31	258.38
492.527	250.38
492.745	236.38
492.963	215.38
493.18	206.38
493.398	200.38
493.615	204.38
493.833	191.38
494.05	179.38
494.268	189.38
494.485	177.38
494.703	185.38
494.92	171.38
495.138	184.38
495.355	192.38
495.573	181.38
495.79	182.38
496.008	167.38
496.225	176.38
496.442	171.38
496.66	173.38
496.877	176.38
497.094	171.38
497.312	190.38
497.529	165.38
497.746	173.38
497.963	150.38
498.181	138.38
498.398	126.38
498.615	123.38
498.832	128.38
499.049	125.38
499.267	128.38
499.484	134.38
499.701	140.38
499.918	142.38
500.135	148.38
500.352	148.38
500.569	149.38
500.786	146.38
501.003	136.38
501.22	138.38
501.437	145.38
501.654	132.38
501.871	128.38
502.088	143.38
502.305	120.38
502.522	141.38
502.739	131.38
502.956	123.38
503.172	126.38
503.389	127.38
503.606	120.38
503.823	130.38
504.04	120.38
504.256	130.38
504.473	127.38
504.69	113.38
504.907	141.38
505.123	131.38
505.34	122.38
505.557	133.38
505.773	124.38
505.99	130.38
506.207	129.38
506.423	127.38
506.64	118.38
506.856	109.38
507.073	127.38
507.289	125.38
507.506	135.38
507.722	134.38
507.939	113.38
508.155	125.38
508.372	114.38
508.588	108.38
508.805	116.38
509.021	124.38
509.238	119.38
509.454	106.38
509.67	91.38
509.887	102.38
510.103	98.38
510.319	93.38
510.536	105.38
510.752	91.38
510.968	77.38
511.184	89.38
