Data from Location4.07152019.Energy5.Lamp.07192019.3%Agarose_HRD10591_15-25-39-578.txt Node
Date: Fri Jul 19 15:25:39 EDT 2019
User: cochatt
Spectrometer: HR+D1059
Trigger mode: 1
Integration Time (sec): 1.000000E-1
Scans to average: 1
Electric dark correction enabled: true
Nonlinearity correction enabled: false
Boxcar width: 0
XAxis mode: Wavelengths
Number of Pixels in Spectrum: 2048
>>>>>Begin Spectral Data<<<<<
223.165	-10.19
223.4	-10.19
223.635	-10.19
223.869	-20.19
224.104	-19.19
224.338	-21.19
224.573	-13.19
224.808	-27.19
225.042	-10.19
225.277	6.81
225.511	-4.19
225.746	3.81
225.98	8.81
226.215	20.81
226.449	12.81
226.683	13.81
226.918	22.81
227.152	35.81
227.387	33.81
227.621	38.81
227.856	49.81
228.09	44.81
228.324	36.81
228.559	44.81
228.793	72.81
229.027	67.81
229.262	74.81
229.496	69.81
229.73	60.81
229.964	65.81
230.199	78.81
230.433	65.81
230.667	86.81
230.901	89.81
231.136	83.81
231.37	77.81
231.604	76.81
231.838	89.81
232.072	93.81
232.306	83.81
232.541	93.81
232.775	92.81
233.009	96.81
233.243	77.81
233.477	86.81
233.711	82.81
233.945	86.81
234.179	85.81
234.413	75.81
234.647	90.81
234.881	72.81
235.115	81.81
235.349	85.81
235.583	71.81
235.817	82.81
236.051	81.81
236.285	70.81
236.519	79.81
236.753	73.81
236.987	68.81
237.221	64.81
237.455	73.81
237.689	80.81
237.922	73.81
238.156	68.81
238.39	76.81
238.624	92.81
238.858	82.81
239.091	72.81
239.325	93.81
239.559	91.81
239.793	88.81
240.027	89.81
240.26	74.81
240.494	79.81
240.728	89.81
240.961	84.81
241.195	72.81
241.429	76.81
241.662	85.81
241.896	79.81
242.13	90.81
242.363	81.81
242.597	84.81
242.83	79.81
243.064	78.81
243.298	87.81
243.531	85.81
243.765	78.81
243.998	94.81
244.232	84.81
244.465	66.81
244.699	82.81
244.932	83.81
245.166	73.81
245.399	84.81
245.633	80.81
245.866	86.81
246.099	77.81
246.333	73.81
246.566	75.81
246.8	88.81
247.033	77.81
247.266	72.81
247.5	73.81
247.733	85.81
247.966	77.81
248.2	72.81
248.433	83.81
248.666	72.81
248.899	94.81
249.133	84.81
249.366	94.81
249.599	76.81
249.832	58.81
250.066	81.81
250.299	80.81
250.532	92.81
250.765	86.81
250.998	81.81
251.231	77.81
251.465	71.81
251.698	88.81
251.931	89.81
252.164	87.81
252.397	88.81
252.63	70.81
252.863	93.81
253.096	79.81
253.329	89.81
253.562	97.81
253.795	85.81
254.028	82.81
254.261	80.81
254.494	93.81
254.727	92.81
254.96	82.81
255.193	106.81
255.426	82.81
255.659	82.81
255.892	88.81
256.124	89.81
256.357	89.81
256.59	79.81
256.823	79.81
257.056	91.81
257.289	84.81
257.521	83.81
257.754	89.81
257.987	92.81
258.22	87.81
258.452	82.81
258.685	85.81
258.918	79.81
259.151	90.81
259.383	95.81
259.616	89.81
259.849	72.81
260.081	90.81
260.314	79.81
260.547	84.81
260.779	77.81
261.012	97.81
261.244	86.81
261.477	83.81
261.71	91.81
261.942	86.81
262.175	87.81
262.407	90.81
262.64	71.81
262.872	72.81
263.105	69.81
263.337	92.81
263.57	72.81
263.802	77.81
264.035	94.81
264.267	89.81
264.499	65.81
264.732	89.81
264.964	88.81
265.197	97.81
265.429	89.81
265.661	78.81
265.894	82.81
266.126	98.81
266.358	68.81
266.591	90.81
266.823	92.81
267.055	81.81
267.287	85.81
267.52	87.81
267.752	84.81
267.984	71.81
268.216	80.81
268.448	88.81
268.681	81.81
268.913	80.81
269.145	81.81
269.377	85.81
269.609	91.81
269.841	96.81
270.073	90.81
270.306	73.81
270.538	81.81
270.77	94.81
271.002	82.81
271.234	89.81
271.466	93.81
271.698	78.81
271.93	90.81
272.162	88.81
272.394	87.81
272.626	87.81
272.858	94.81
273.09	74.81
273.322	83.81
273.553	72.81
273.785	80.81
274.017	93.81
274.249	91.81
274.481	98.81
274.713	64.81
274.945	91.81
275.176	87.81
275.408	93.81
275.64	91.81
275.872	74.81
276.104	70.81
276.335	82.81
276.567	83.81
276.799	76.81
277.031	72.81
277.262	88.81
277.494	89.81
277.726	78.81
277.957	80.81
278.189	96.81
278.421	87.81
278.652	84.81
278.884	86.81
279.115	80.81
279.347	76.81
279.579	72.81
279.81	83.81
280.042	84.81
280.273	88.81
280.505	75.81
280.736	89.81
280.968	90.81
281.199	74.81
281.431	98.81
281.662	86.81
281.894	91.81
282.125	84.81
282.356	82.81
282.588	84.81
282.819	82.81
283.051	83.81
283.282	80.81
283.513	93.81
283.745	86.81
283.976	85.81
284.207	92.81
284.439	94.81
284.67	96.81
284.901	82.81
285.132	108.81
285.364	86.81
285.595	91.81
285.826	94.81
286.057	79.81
286.288	106.81
286.52	90.81
286.751	82.81
286.982	74.81
287.213	85.81
287.444	84.81
287.675	98.81
287.906	96.81
288.138	93.81
288.369	84.81
288.6	81.81
288.831	97.81
289.062	77.81
289.293	86.81
289.524	89.81
289.755	88.81
289.986	77.81
290.217	89.81
290.448	88.81
290.679	82.81
290.91	90.81
291.141	81.81
291.371	94.81
291.602	76.81
291.833	69.81
292.064	78.81
292.295	83.81
292.526	90.81
292.757	94.81
292.987	88.81
293.218	77.81
293.449	89.81
293.68	86.81
293.91	81.81
294.141	93.81
294.372	88.81
294.603	78.81
294.833	86.81
295.064	104.81
295.295	94.81
295.525	95.81
295.756	76.81
295.987	89.81
296.217	82.81
296.448	98.81
296.679	83.81
296.909	86.81
297.14	92.81
297.37	82.81
297.601	80.81
297.831	78.81
298.062	76.81
298.292	80.81
298.523	84.81
298.753	88.81
298.984	88.81
299.214	84.81
299.445	68.81
299.675	79.81
299.905	82.81
300.136	89.81
300.366	97.81
300.597	93.81
300.827	87.81
301.057	77.81
301.288	76.81
301.518	82.81
301.748	69.81
301.979	88.81
302.209	89.81
302.439	76.81
302.669	97.81
302.9	98.81
303.13	103.81
303.36	97.81
303.59	87.81
303.82	77.81
304.051	96.81
304.281	79.81
304.511	92.81
304.741	89.81
304.971	88.81
305.201	75.81
305.431	75.81
305.661	91.81
305.891	92.81
306.121	99.81
306.352	82.81
306.582	85.81
306.812	90.81
307.042	71.81
307.272	95.81
307.502	87.81
307.731	84.81
307.961	86.81
308.191	76.81
308.421	87.81
308.651	93.81
308.881	82.81
309.111	76.81
309.341	85.81
309.571	90.81
309.8	84.81
310.03	85.81
310.26	78.81
310.49	81.81
310.72	93.81
310.949	78.81
311.179	97.81
311.409	93.81
311.639	96.81
311.868	88.81
312.098	93.81
312.328	107.81
312.557	94.81
312.787	102.81
313.017	96.81
313.246	78.81
313.476	91.81
313.706	85.81
313.935	99.81
314.165	91.81
314.394	85.81
314.624	89.81
314.853	101.81
315.083	77.81
315.312	89.81
315.542	89.81
315.771	86.81
316.001	84.81
316.23	91.81
316.46	92.81
316.689	80.81
316.919	90.81
317.148	85.81
317.377	102.81
317.607	85.81
317.836	83.81
318.065	99.81
318.295	71.81
318.524	88.81
318.753	80.81
318.983	73.81
319.212	86.81
319.441	96.81
319.67	84.81
319.9	93.81
320.129	99.81
320.358	83.81
320.587	85.81
320.816	85.81
321.046	83.81
321.275	86.81
321.504	84.81
321.733	89.81
321.962	90.81
322.191	84.81
322.42	94.81
322.649	81.81
322.878	81.81
323.108	96.81
323.337	91.81
323.566	80.81
323.795	90.81
324.024	87.81
324.253	91.81
324.482	82.81
324.71	98.81
324.939	79.81
325.168	86.81
325.397	85.81
325.626	104.81
325.855	87.81
326.084	77.81
326.313	89.81
326.542	85.81
326.77	88.81
326.999	95.81
327.228	85.81
327.457	79.81
327.686	93.81
327.914	87.81
328.143	86.81
328.372	80.81
328.6	88.81
328.829	83.81
329.058	83.81
329.287	87.81
329.515	81.81
329.744	93.81
329.972	79.81
330.201	86.81
330.43	101.81
330.658	69.81
330.887	86.81
331.115	93.81
331.344	81.81
331.572	88.81
331.801	99.81
332.03	81.81
332.258	89.81
332.486	90.81
332.715	83.81
332.943	74.81
333.172	97.81
333.4	86.81
333.629	86.81
333.857	82.81
334.085	81.81
334.314	84.81
334.542	90.81
334.771	94.81
334.999	94.81
335.227	97.81
335.455	90.81
335.684	96.81
335.912	97.81
336.14	95.81
336.369	101.81
336.597	97.81
336.825	103.81
337.053	76.81
337.281	84.81
337.51	81.81
337.738	89.81
337.966	97.81
338.194	74.81
338.422	77.81
338.65	86.81
338.878	88.81
339.106	84.81
339.334	91.81
339.562	77.81
339.79	88.81
340.018	89.81
340.246	102.81
340.474	84.81
340.702	98.81
340.93	91.81
341.158	88.81
341.386	93.81
341.614	79.81
341.842	88.81
342.07	88.81
342.298	101.81
342.526	89.81
342.754	95.81
342.981	79.81
343.209	78.81
343.437	74.81
343.665	92.81
343.893	93.81
344.12	87.81
344.348	87.81
344.576	78.81
344.804	82.81
345.031	85.81
345.259	86.81
345.487	90.81
345.714	85.81
345.942	93.81
346.17	81.81
346.397	85.81
346.625	86.81
346.853	92.81
347.08	97.81
347.308	95.81
347.535	80.81
347.763	95.81
347.99	75.81
348.218	88.81
348.445	105.81
348.673	77.81
348.9	83.81
349.128	88.81
349.355	89.81
349.583	84.81
349.81	74.81
350.037	87.81
350.265	84.81
350.492	85.81
350.72	86.81
350.947	87.81
351.174	77.81
351.402	90.81
351.629	88.81
351.856	90.81
352.083	74.81
352.311	92.81
352.538	88.81
352.765	74.81
352.992	91.81
353.22	77.81
353.447	88.81
353.674	77.81
353.901	101.81
354.128	92.81
354.355	71.81
354.583	73.81
354.81	81.81
355.037	92.81
355.264	101.81
355.491	101.81
355.718	83.81
355.945	88.81
356.172	83.81
356.399	81.81
356.626	89.81
356.853	82.81
357.08	80.81
357.307	84.81
357.534	88.81
357.761	90.81
357.988	96.81
358.215	79.81
358.441	81.81
358.668	89.81
358.895	84.81
359.122	86.81
359.349	93.81
359.576	102.81
359.802	88.81
360.029	91.81
360.256	94.81
360.483	88.81
360.709	92.81
360.936	86.81
361.163	85.81
361.39	76.81
361.616	83.81
361.843	77.81
362.07	89.81
362.296	90.81
362.523	96.81
362.749	74.81
362.976	76.81
363.203	81.81
363.429	78.81
363.656	97.81
363.882	90.81
364.109	84.81
364.335	106.81
364.562	96.81
364.788	89.81
365.015	86.81
365.241	94.81
365.468	86.81
365.694	89.81
365.92	92.81
366.147	69.81
366.373	100.81
366.599	95.81
366.826	81.81
367.052	82.81
367.278	100.81
367.505	85.81
367.731	85.81
367.957	91.81
368.184	91.81
368.41	94.81
368.636	91.81
368.862	93.81
369.089	87.81
369.315	88.81
369.541	76.81
369.767	86.81
369.993	79.81
370.219	89.81
370.445	83.81
370.672	82.81
370.898	91.81
371.124	92.81
371.35	82.81
371.576	88.81
371.802	83.81
372.028	80.81
372.254	83.81
372.48	89.81
372.706	69.81
372.932	89.81
373.158	78.81
373.384	88.81
373.61	93.81
373.835	72.81
374.061	82.81
374.287	86.81
374.513	88.81
374.739	98.81
374.965	94.81
375.191	88.81
375.416	79.81
375.642	98.81
375.868	92.81
376.094	87.81
376.319	87.81
376.545	85.81
376.771	76.81
376.997	89.81
377.222	94.81
377.448	92.81
377.674	88.81
377.899	87.81
378.125	94.81
378.35	92.81
378.576	98.81
378.802	89.81
379.027	87.81
379.253	88.81
379.478	88.81
379.704	89.81
379.929	96.81
380.155	79.81
380.38	85.81
380.606	83.81
380.831	76.81
381.057	91.81
381.282	93.81
381.507	105.81
381.733	91.81
381.958	109.81
382.184	99.81
382.409	90.81
382.634	82.81
382.86	85.81
383.085	81.81
383.31	85.81
383.535	82.81
383.761	109.81
383.986	87.81
384.211	94.81
384.436	80.81
384.662	83.81
384.887	101.81
385.112	97.81
385.337	81.81
385.562	76.81
385.787	86.81
386.013	94.81
386.238	78.81
386.463	96.81
386.688	93.81
386.913	98.81
387.138	86.81
387.363	77.81
387.588	93.81
387.813	99.81
388.038	94.81
388.263	94.81
388.488	81.81
388.713	93.81
388.938	90.81
389.163	88.81
389.387	85.81
389.612	100.81
389.837	89.81
390.062	78.81
390.287	101.81
390.512	89.81
390.736	93.81
390.961	109.81
391.186	106.81
391.411	104.81
391.636	85.81
391.86	96.81
392.085	85.81
392.31	91.81
392.534	80.81
392.759	88.81
392.984	104.81
393.208	99.81
393.433	80.81
393.658	74.81
393.882	88.81
394.107	96.81
394.331	100.81
394.556	90.81
394.78	83.81
395.005	95.81
395.229	89.81
395.454	87.81
395.678	104.81
395.903	98.81
396.127	92.81
396.352	90.81
396.576	88.81
396.801	96.81
397.025	93.81
397.249	94.81
397.474	89.81
397.698	110.81
397.922	85.81
398.147	84.81
398.371	89.81
398.595	80.81
398.82	85.81
399.044	80.81
399.268	86.81
399.492	99.81
399.717	103.81
399.941	90.81
400.165	87.81
400.389	91.81
400.613	96.81
400.837	94.81
401.062	86.81
401.286	92.81
401.51	92.81
401.734	95.81
401.958	92.81
402.182	96.81
402.406	100.81
402.63	86.81
402.854	98.81
403.078	101.81
403.302	92.81
403.526	89.81
403.75	79.81
403.974	99.81
404.198	84.81
404.422	88.81
404.645	96.81
404.869	90.81
405.093	94.81
405.317	81.81
405.541	93.81
405.765	91.81
405.988	82.81
406.212	93.81
406.436	95.81
406.66	92.81
406.883	80.81
407.107	95.81
407.331	84.81
407.555	80.81
407.778	106.81
408.002	103.81
408.226	104.81
408.449	102.81
408.673	90.81
408.896	82.81
409.12	92.81
409.344	88.81
409.567	86.81
409.791	88.81
410.014	87.81
410.238	94.81
410.461	94.81
410.685	87.81
410.908	92.81
411.132	90.81
411.355	97.81
411.578	99.81
411.802	74.81
412.025	93.81
412.249	96.81
412.472	98.81
412.695	96.81
412.919	115.81
413.142	98.81
413.365	96.81
413.589	99.81
413.812	94.81
414.035	109.81
414.258	101.81
414.482	81.81
414.705	96.81
414.928	89.81
415.151	92.81
415.374	95.81
415.597	106.81
415.821	109.81
416.044	92.81
416.267	121.81
416.49	80.81
416.713	98.81
416.936	96.81
417.159	86.81
417.382	96.81
417.605	107.81
417.828	105.81
418.051	97.81
418.274	102.81
418.497	97.81
418.72	98.81
418.943	109.81
419.166	96.81
419.389	114.81
419.611	103.81
419.834	110.81
420.057	99.81
420.28	79.81
420.503	103.81
420.726	90.81
420.948	106.81
421.171	100.81
421.394	110.81
421.617	112.81
421.839	112.81
422.062	97.81
422.285	97.81
422.507	110.81
422.73	91.81
422.953	93.81
423.175	106.81
423.398	86.81
423.621	103.81
423.843	98.81
424.066	105.81
424.288	101.81
424.511	107.81
424.733	107.81
424.956	85.81
425.178	90.81
425.401	96.81
425.623	90.81
425.846	84.81
426.068	93.81
426.291	94.81
426.513	95.81
426.735	94.81
426.958	96.81
427.18	93.81
427.402	101.81
427.625	102.81
427.847	91.81
428.069	113.81
428.292	109.81
428.514	85.81
428.736	102.81
428.958	119.81
429.181	112.81
429.403	90.81
429.625	106.81
429.847	84.81
430.069	106.81
430.292	81.81
430.514	100.81
430.736	91.81
430.958	99.81
431.18	102.81
431.402	91.81
431.624	88.81
431.846	85.81
432.068	87.81
432.29	74.81
432.512	98.81
432.734	93.81
432.956	102.81
433.178	106.81
433.4	116.81
433.622	103.81
433.844	97.81
434.066	92.81
434.287	94.81
434.509	82.81
434.731	93.81
434.953	92.81
435.175	91.81
435.397	112.81
435.618	86.81
435.84	92.81
436.062	96.81
436.284	82.81
436.505	91.81
436.727	108.81
436.949	101.81
437.17	92.81
437.392	98.81
437.614	103.81
437.835	100.81
438.057	91.81
438.278	98.81
438.5	88.81
438.721	93.81
438.943	104.81
439.165	99.81
439.386	90.81
439.608	88.81
439.829	99.81
440.05	86.81
440.272	99.81
440.493	105.81
440.715	91.81
440.936	100.81
441.158	95.81
441.379	98.81
441.6	110.81
441.822	102.81
442.043	92.81
442.264	102.81
442.486	107.81
442.707	92.81
442.928	88.81
443.149	87.81
443.371	93.81
443.592	106.81
443.813	107.81
444.034	88.81
444.255	111.81
444.476	107.81
444.698	98.81
444.919	102.81
445.14	243.81
445.361	154.81
445.582	93.81
445.803	102.81
446.024	100.81
446.245	118.81
446.466	92.81
446.687	103.81
446.908	112.81
447.129	93.81
447.35	100.81
447.571	105.81
447.792	102.81
448.013	106.81
448.234	103.81
448.455	94.81
448.675	118.81
448.896	107.81
449.117	98.81
449.338	113.81
449.559	101.81
449.779	96.81
450	86.81
450.221	99.81
450.442	86.81
450.662	104.81
450.883	91.81
451.104	102.81
451.324	108.81
451.545	87.81
451.766	82.81
451.986	98.81
452.207	86.81
452.428	104.81
452.648	94.81
452.869	85.81
453.089	97.81
453.31	89.81
453.53	88.81
453.751	86.81
453.971	81.81
454.192	76.81
454.412	82.81
454.633	96.81
454.853	96.81
455.073	88.81
455.294	94.81
455.514	99.81
455.734	88.81
455.955	87.81
456.175	91.81
456.395	98.81
456.616	90.81
456.836	96.81
457.056	93.81
457.276	84.81
457.497	87.81
457.717	97.81
457.937	89.81
458.157	91.81
458.377	85.81
458.598	98.81
458.818	94.81
459.038	81.81
459.258	80.81
459.478	85.81
459.698	96.81
459.918	92.81
460.138	93.81
460.358	95.81
460.578	98.81
460.798	100.81
461.018	96.81
461.238	87.81
461.458	90.81
461.678	93.81
461.898	97.81
462.118	92.81
462.338	94.81
462.558	96.81
462.777	88.81
462.997	100.81
463.217	87.81
463.437	90.81
463.657	95.81
463.876	83.81
464.096	85.81
464.316	105.81
464.536	101.81
464.755	79.81
464.975	92.81
465.195	101.81
465.414	90.81
465.634	88.81
465.854	104.81
466.073	90.81
466.293	104.81
466.512	98.81
466.732	106.81
466.951	94.81
467.171	87.81
467.391	92.81
467.61	97.81
467.829	114.81
468.049	106.81
468.268	100.81
468.488	101.81
468.707	114.81
468.927	87.81
469.146	90.81
469.365	105.81
469.585	112.81
469.804	97.81
470.023	114.81
470.243	105.81
470.462	89.81
470.681	102.81
470.901	98.81
471.12	108.81
471.339	90.81
471.558	102.81
471.777	93.81
471.997	94.81
472.216	92.81
472.435	90.81
472.654	96.81
472.873	95.81
473.092	95.81
473.311	99.81
473.53	97.81
473.749	92.81
473.968	102.81
474.187	96.81
474.406	114.81
474.625	80.81
474.844	88.81
475.063	96.81
475.282	93.81
475.501	92.81
475.72	93.81
475.939	101.81
476.158	97.81
476.377	78.81
476.596	93.81
476.814	99.81
477.033	99.81
477.252	91.81
477.471	102.81
477.69	99.81
477.908	95.81
478.127	88.81
478.346	107.81
478.564	99.81
478.783	98.81
479.002	109.81
479.22	93.81
479.439	90.81
479.658	97.81
479.876	106.81
480.095	97.81
480.313	91.81
480.532	86.81
480.751	102.81
480.969	82.81
481.188	83.81
481.406	92.81
481.624	90.81
481.843	82.81
482.061	85.81
482.28	104.81
482.498	85.81
482.717	77.81
482.935	98.81
483.153	105.81
483.372	119.81
483.59	118.81
483.808	104.81
484.027	102.81
484.245	101.81
484.463	100.81
484.681	109.81
484.9	102.81
485.118	99.81
485.336	95.81
485.554	90.81
485.772	92.81
485.99	88.81
486.209	88.81
486.427	87.81
486.645	96.81
486.863	100.81
487.081	100.81
487.299	101.81
487.517	101.81
487.735	97.81
487.953	118.81
488.171	112.81
488.389	113.81
488.607	101.81
488.825	92.81
489.043	102.81
489.261	94.81
489.479	106.81
489.696	102.81
489.914	113.81
490.132	86.81
490.35	99.81
490.568	103.81
490.786	96.81
491.003	106.81
491.221	113.81
491.439	100.81
491.657	127.81
491.874	126.81
492.092	139.81
492.31	124.81
492.527	117.81
492.745	114.81
492.963	121.81
493.18	110.81
493.398	109.81
493.615	124.81
493.833	104.81
494.05	106.81
494.268	109.81
494.485	109.81
494.703	115.81
494.92	109.81
495.138	114.81
495.355	107.81
495.573	94.81
495.79	94.81
496.008	99.81
496.225	109.81
496.442	114.81
496.66	114.81
496.877	115.81
497.094	112.81
497.312	108.81
497.529	97.81
497.746	110.81
497.963	88.81
498.181	99.81
498.398	91.81
498.615	99.81
498.832	86.81
499.049	93.81
499.267	96.81
499.484	94.81
499.701	99.81
499.918	93.81
500.135	102.81
500.352	101.81
500.569	84.81
500.786	104.81
501.003	100.81
501.22	101.81
501.437	115.81
501.654	90.81
501.871	109.81
502.088	93.81
502.305	100.81
502.522	90.81
502.739	114.81
502.956	96.81
503.172	91.81
503.389	102.81
503.606	105.81
503.823	95.81
504.04	104.81
504.256	82.81
504.473	91.81
504.69	91.81
504.907	97.81
505.123	85.81
505.34	112.81
505.557	96.81
505.773	90.81
505.99	93.81
506.207	94.81
506.423	99.81
506.64	86.81
506.856	85.81
507.073	95.81
507.289	100.81
507.506	85.81
507.722	103.81
507.939	96.81
508.155	102.81
508.372	97.81
508.588	94.81
508.805	80.81
509.021	93.81
509.238	105.81
509.454	92.81
509.67	98.81
509.887	83.81
510.103	85.81
510.319	95.81
510.536	90.81
510.752	91.81
510.968	80.81
511.184	78.81
511.401	95.81
511.617	82.81
511.833	88.81
512.049	86.81
512.265	94.81
512.481	98.81
512.698	77.81
512.914	92.81
513.13	93.81
513.346	82.81
513.562	104.81
513.778	76.81
513.994	85.81
514.21	80.81
514.426	88.81
514.642	109.81
514.858	79.81
515.074	97.81
515.29	91.81
515.506	74.81
515.721	86.81
515.937	87.81
516.153	78.81
516.369	90.81
