Data from Location4.07152019.Energy5.Lamp.07192019.3%Agarose_HRD10591_15-23-40-578.txt Node
Date: Fri Jul 19 15:23:40 EDT 2019
User: cochatt
Spectrometer: HR+D1059
Trigger mode: 1
Integration Time (sec): 1.000000E-1
Scans to average: 1
Electric dark correction enabled: true
Nonlinearity correction enabled: false
Boxcar width: 0
XAxis mode: Wavelengths
Number of Pixels in Spectrum: 2048
>>>>>Begin Spectral Data<<<<<
223.165	-19.5
223.4	-19.5
223.635	-19.5
223.869	-8.5
224.104	-16.5
224.338	-21.5
224.573	-25.5
224.808	-9.5
225.042	-11.5
225.277	-15.5
225.511	-2.5
225.746	16.5
225.98	33.5
226.215	18.5
226.449	6.5
226.683	17.5
226.918	16.5
227.152	21.5
227.387	28.5
227.621	43.5
227.856	49.5
228.09	48.5
228.324	55.5
228.559	55.5
228.793	58.5
229.027	52.5
229.262	60.5
229.496	65.5
229.73	60.5
229.964	88.5
230.199	60.5
230.433	75.5
230.667	77.5
230.901	79.5
231.136	72.5
231.37	87.5
231.604	78.5
231.838	89.5
232.072	75.5
232.306	90.5
232.541	75.5
232.775	73.5
233.009	88.5
233.243	88.5
233.477	82.5
233.711	80.5
233.945	77.5
234.179	80.5
234.413	83.5
234.647	95.5
234.881	83.5
235.115	89.5
235.349	68.5
235.583	65.5
235.817	75.5
236.051	78.5
236.285	79.5
236.519	85.5
236.753	68.5
236.987	72.5
237.221	77.5
237.455	76.5
237.689	81.5
237.922	91.5
238.156	74.5
238.39	73.5
238.624	76.5
238.858	77.5
239.091	92.5
239.325	67.5
239.559	84.5
239.793	81.5
240.027	84.5
240.26	62.5
240.494	64.5
240.728	38.5
240.961	70.5
241.195	60.5
241.429	66.5
241.662	73.5
241.896	84.5
242.13	84.5
242.363	79.5
242.597	68.5
242.83	80.5
243.064	70.5
243.298	70.5
243.531	63.5
243.765	65.5
243.998	81.5
244.232	86.5
244.465	79.5
244.699	72.5
244.932	67.5
245.166	74.5
245.399	78.5
245.633	74.5
245.866	83.5
246.099	72.5
246.333	65.5
246.566	94.5
246.8	70.5
247.033	70.5
247.266	84.5
247.5	74.5
247.733	79.5
247.966	68.5
248.2	78.5
248.433	82.5
248.666	78.5
248.899	70.5
249.133	81.5
249.366	93.5
249.599	81.5
249.832	87.5
250.066	76.5
250.299	66.5
250.532	71.5
250.765	83.5
250.998	86.5
251.231	81.5
251.465	79.5
251.698	72.5
251.931	81.5
252.164	73.5
252.397	65.5
252.63	85.5
252.863	68.5
253.096	81.5
253.329	69.5
253.562	78.5
253.795	77.5
254.028	84.5
254.261	65.5
254.494	86.5
254.727	85.5
254.96	83.5
255.193	75.5
255.426	77.5
255.659	64.5
255.892	72.5
256.124	66.5
256.357	80.5
256.59	92.5
256.823	81.5
257.056	79.5
257.289	83.5
257.521	85.5
257.754	76.5
257.987	67.5
258.22	82.5
258.452	88.5
258.685	76.5
258.918	73.5
259.151	82.5
259.383	76.5
259.616	77.5
259.849	74.5
260.081	70.5
260.314	74.5
260.547	70.5
260.779	68.5
261.012	84.5
261.244	79.5
261.477	92.5
261.71	80.5
261.942	62.5
262.175	77.5
262.407	72.5
262.64	77.5
262.872	82.5
263.105	80.5
263.337	69.5
263.57	83.5
263.802	61.5
264.035	75.5
264.267	79.5
264.499	85.5
264.732	88.5
264.964	77.5
265.197	59.5
265.429	82.5
265.661	86.5
265.894	81.5
266.126	67.5
266.358	68.5
266.591	68.5
266.823	82.5
267.055	83.5
267.287	81.5
267.52	74.5
267.752	74.5
267.984	64.5
268.216	81.5
268.448	90.5
268.681	65.5
268.913	71.5
269.145	68.5
269.377	87.5
269.609	73.5
269.841	68.5
270.073	84.5
270.306	67.5
270.538	84.5
270.77	70.5
271.002	75.5
271.234	84.5
271.466	84.5
271.698	74.5
271.93	84.5
272.162	86.5
272.394	71.5
272.626	68.5
272.858	87.5
273.09	76.5
273.322	84.5
273.553	76.5
273.785	78.5
274.017	81.5
274.249	79.5
274.481	78.5
274.713	85.5
274.945	80.5
275.176	74.5
275.408	77.5
275.64	70.5
275.872	85.5
276.104	83.5
276.335	89.5
276.567	77.5
276.799	70.5
277.031	73.5
277.262	77.5
277.494	81.5
277.726	77.5
277.957	84.5
278.189	82.5
278.421	86.5
278.652	80.5
278.884	83.5
279.115	92.5
279.347	80.5
279.579	81.5
279.81	61.5
280.042	89.5
280.273	84.5
280.505	79.5
280.736	84.5
280.968	77.5
281.199	92.5
281.431	77.5
281.662	77.5
281.894	75.5
282.125	75.5
282.356	77.5
282.588	77.5
282.819	81.5
283.051	89.5
283.282	96.5
283.513	90.5
283.745	81.5
283.976	81.5
284.207	85.5
284.439	76.5
284.67	90.5
284.901	80.5
285.132	84.5
285.364	79.5
285.595	74.5
285.826	80.5
286.057	73.5
286.288	69.5
286.52	85.5
286.751	81.5
286.982	73.5
287.213	70.5
287.444	95.5
287.675	79.5
287.906	84.5
288.138	82.5
288.369	86.5
288.6	81.5
288.831	82.5
289.062	91.5
289.293	85.5
289.524	82.5
289.755	84.5
289.986	82.5
290.217	72.5
290.448	109.5
290.679	80.5
290.91	91.5
291.141	83.5
291.371	79.5
291.602	75.5
291.833	83.5
292.064	80.5
292.295	63.5
292.526	91.5
292.757	80.5
292.987	83.5
293.218	77.5
293.449	83.5
293.68	82.5
293.91	73.5
294.141	74.5
294.372	82.5
294.603	78.5
294.833	84.5
295.064	85.5
295.295	82.5
295.525	72.5
295.756	87.5
295.987	67.5
296.217	84.5
296.448	89.5
296.679	91.5
296.909	92.5
297.14	85.5
297.37	77.5
297.601	82.5
297.831	88.5
298.062	87.5
298.292	90.5
298.523	82.5
298.753	79.5
298.984	85.5
299.214	74.5
299.445	89.5
299.675	73.5
299.905	79.5
300.136	77.5
300.366	81.5
300.597	80.5
300.827	73.5
301.057	67.5
301.288	78.5
301.518	90.5
301.748	85.5
301.979	90.5
302.209	94.5
302.439	84.5
302.669	76.5
302.9	74.5
303.13	79.5
303.36	80.5
303.59	77.5
303.82	92.5
304.051	76.5
304.281	76.5
304.511	74.5
304.741	71.5
304.971	81.5
305.201	83.5
305.431	83.5
305.661	95.5
305.891	81.5
306.121	68.5
306.352	76.5
306.582	90.5
306.812	78.5
307.042	79.5
307.272	73.5
307.502	76.5
307.731	91.5
307.961	83.5
308.191	67.5
308.421	84.5
308.651	69.5
308.881	87.5
309.111	78.5
309.341	81.5
309.571	71.5
309.8	88.5
310.03	90.5
310.26	80.5
310.49	79.5
310.72	81.5
310.949	83.5
311.179	71.5
311.409	74.5
311.639	85.5
311.868	66.5
312.098	86.5
312.328	83.5
312.557	83.5
312.787	86.5
313.017	89.5
313.246	88.5
313.476	85.5
313.706	82.5
313.935	76.5
314.165	82.5
314.394	85.5
314.624	78.5
314.853	88.5
315.083	87.5
315.312	75.5
315.542	86.5
315.771	84.5
316.001	80.5
316.23	84.5
316.46	72.5
316.689	70.5
316.919	60.5
317.148	99.5
317.377	83.5
317.607	93.5
317.836	75.5
318.065	89.5
318.295	77.5
318.524	77.5
318.753	87.5
318.983	93.5
319.212	99.5
319.441	86.5
319.67	82.5
319.9	76.5
320.129	88.5
320.358	77.5
320.587	90.5
320.816	83.5
321.046	86.5
321.275	88.5
321.504	77.5
321.733	84.5
321.962	86.5
322.191	81.5
322.42	91.5
322.649	85.5
322.878	74.5
323.108	94.5
323.337	86.5
323.566	85.5
323.795	77.5
324.024	89.5
324.253	74.5
324.482	71.5
324.71	82.5
324.939	81.5
325.168	84.5
325.397	86.5
325.626	98.5
325.855	83.5
326.084	86.5
326.313	76.5
326.542	81.5
326.77	82.5
326.999	79.5
327.228	97.5
327.457	85.5
327.686	67.5
327.914	101.5
328.143	70.5
328.372	79.5
328.6	82.5
328.829	74.5
329.058	68.5
329.287	96.5
329.515	95.5
329.744	85.5
329.972	71.5
330.201	83.5
330.43	84.5
330.658	87.5
330.887	74.5
331.115	74.5
331.344	76.5
331.572	93.5
331.801	82.5
332.03	79.5
332.258	80.5
332.486	88.5
332.715	85.5
332.943	78.5
333.172	82.5
333.4	82.5
333.629	84.5
333.857	70.5
334.085	81.5
334.314	93.5
334.542	89.5
334.771	86.5
334.999	82.5
335.227	69.5
335.455	82.5
335.684	82.5
335.912	86.5
336.14	74.5
336.369	88.5
336.597	93.5
336.825	76.5
337.053	83.5
337.281	78.5
337.51	82.5
337.738	91.5
337.966	86.5
338.194	75.5
338.422	79.5
338.65	81.5
338.878	69.5
339.106	77.5
339.334	94.5
339.562	82.5
339.79	90.5
340.018	96.5
340.246	80.5
340.474	74.5
340.702	78.5
340.93	88.5
341.158	86.5
341.386	79.5
341.614	89.5
341.842	99.5
342.07	86.5
342.298	80.5
342.526	82.5
342.754	75.5
342.981	80.5
343.209	80.5
343.437	80.5
343.665	71.5
343.893	87.5
344.12	92.5
344.348	80.5
344.576	81.5
344.804	90.5
345.031	79.5
345.259	75.5
345.487	78.5
345.714	85.5
345.942	70.5
346.17	72.5
346.397	88.5
346.625	87.5
346.853	83.5
347.08	77.5
347.308	78.5
347.535	75.5
347.763	90.5
347.99	87.5
348.218	75.5
348.445	73.5
348.673	80.5
348.9	92.5
349.128	79.5
349.355	68.5
349.583	72.5
349.81	65.5
350.037	89.5
350.265	93.5
350.492	82.5
350.72	80.5
350.947	89.5
351.174	73.5
351.402	82.5
351.629	85.5
351.856	87.5
352.083	79.5
352.311	92.5
352.538	78.5
352.765	89.5
352.992	70.5
353.22	68.5
353.447	77.5
353.674	71.5
353.901	83.5
354.128	89.5
354.355	76.5
354.583	86.5
354.81	71.5
355.037	92.5
355.264	74.5
355.491	85.5
355.718	80.5
355.945	71.5
356.172	84.5
356.399	80.5
356.626	70.5
356.853	87.5
357.08	92.5
357.307	85.5
357.534	83.5
357.761	78.5
357.988	77.5
358.215	85.5
358.441	97.5
358.668	85.5
358.895	95.5
359.122	81.5
359.349	88.5
359.576	70.5
359.802	68.5
360.029	71.5
360.256	70.5
360.483	85.5
360.709	86.5
360.936	75.5
361.163	81.5
361.39	75.5
361.616	65.5
361.843	88.5
362.07	83.5
362.296	83.5
362.523	75.5
362.749	73.5
362.976	90.5
363.203	68.5
363.429	76.5
363.656	80.5
363.882	71.5
364.109	81.5
364.335	78.5
364.562	88.5
364.788	80.5
365.015	85.5
365.241	83.5
365.468	86.5
365.694	87.5
365.92	80.5
366.147	73.5
366.373	79.5
366.599	89.5
366.826	75.5
367.052	81.5
367.278	82.5
367.505	80.5
367.731	79.5
367.957	73.5
368.184	77.5
368.41	83.5
368.636	86.5
368.862	80.5
369.089	83.5
369.315	80.5
369.541	82.5
369.767	76.5
369.993	85.5
370.219	75.5
370.445	72.5
370.672	78.5
370.898	64.5
371.124	75.5
371.35	82.5
371.576	95.5
371.802	80.5
372.028	86.5
372.254	84.5
372.48	90.5
372.706	82.5
372.932	75.5
373.158	87.5
373.384	87.5
373.61	85.5
373.835	84.5
374.061	75.5
374.287	86.5
374.513	82.5
374.739	80.5
374.965	89.5
375.191	77.5
375.416	77.5
375.642	65.5
375.868	80.5
376.094	80.5
376.319	85.5
376.545	94.5
376.771	90.5
376.997	80.5
377.222	92.5
377.448	87.5
377.674	74.5
377.899	97.5
378.125	80.5
378.35	91.5
378.576	90.5
378.802	84.5
379.027	86.5
379.253	85.5
379.478	81.5
379.704	79.5
379.929	81.5
380.155	83.5
380.38	96.5
380.606	82.5
380.831	85.5
381.057	91.5
381.282	85.5
381.507	89.5
381.733	81.5
381.958	76.5
382.184	80.5
382.409	74.5
382.634	80.5
382.86	88.5
383.085	74.5
383.31	85.5
383.535	86.5
383.761	81.5
383.986	97.5
384.211	70.5
384.436	84.5
384.662	78.5
384.887	86.5
385.112	83.5
385.337	81.5
385.562	80.5
385.787	77.5
386.013	93.5
386.238	78.5
386.463	83.5
386.688	81.5
386.913	89.5
387.138	78.5
387.363	92.5
387.588	91.5
387.813	90.5
388.038	84.5
388.263	77.5
388.488	95.5
388.713	95.5
388.938	80.5
389.163	85.5
389.387	92.5
389.612	81.5
389.837	80.5
390.062	86.5
390.287	83.5
390.512	77.5
390.736	81.5
390.961	88.5
391.186	94.5
391.411	80.5
391.636	81.5
391.86	85.5
392.085	67.5
392.31	86.5
392.534	85.5
392.759	98.5
392.984	89.5
393.208	88.5
393.433	81.5
393.658	95.5
393.882	82.5
394.107	95.5
394.331	86.5
394.556	78.5
394.78	72.5
395.005	82.5
395.229	87.5
395.454	74.5
395.678	84.5
395.903	71.5
396.127	92.5
396.352	89.5
396.576	81.5
396.801	79.5
397.025	84.5
397.249	94.5
397.474	93.5
397.698	92.5
397.922	78.5
398.147	90.5
398.371	89.5
398.595	91.5
398.82	87.5
399.044	93.5
399.268	82.5
399.492	93.5
399.717	85.5
399.941	90.5
400.165	98.5
400.389	82.5
400.613	81.5
400.837	92.5
401.062	82.5
401.286	89.5
401.51	88.5
401.734	78.5
401.958	87.5
402.182	85.5
402.406	80.5
402.63	81.5
402.854	80.5
403.078	81.5
403.302	86.5
403.526	91.5
403.75	88.5
403.974	101.5
404.198	79.5
404.422	94.5
404.645	89.5
404.869	87.5
405.093	95.5
405.317	99.5
405.541	81.5
405.765	90.5
405.988	89.5
406.212	76.5
406.436	92.5
406.66	96.5
406.883	89.5
407.107	89.5
407.331	84.5
407.555	72.5
407.778	94.5
408.002	81.5
408.226	90.5
408.449	93.5
408.673	95.5
408.896	84.5
409.12	85.5
409.344	80.5
409.567	74.5
409.791	80.5
410.014	92.5
410.238	79.5
410.461	91.5
410.685	90.5
410.908	86.5
411.132	84.5
411.355	82.5
411.578	87.5
411.802	85.5
412.025	100.5
412.249	81.5
412.472	82.5
412.695	86.5
412.919	76.5
413.142	84.5
413.365	91.5
413.589	82.5
413.812	98.5
414.035	98.5
414.258	87.5
414.482	95.5
414.705	81.5
414.928	91.5
415.151	85.5
415.374	88.5
415.597	92.5
415.821	98.5
416.044	90.5
416.267	106.5
416.49	87.5
416.713	85.5
416.936	97.5
417.159	90.5
417.382	89.5
417.605	86.5
417.828	89.5
418.051	80.5
418.274	95.5
418.497	77.5
418.72	100.5
418.943	103.5
419.166	84.5
419.389	94.5
419.611	96.5
419.834	89.5
420.057	105.5
420.28	96.5
420.503	98.5
420.726	95.5
420.948	85.5
421.171	98.5
421.394	89.5
421.617	90.5
421.839	102.5
422.062	95.5
422.285	79.5
422.507	89.5
422.73	89.5
422.953	100.5
423.175	83.5
423.398	85.5
423.621	89.5
423.843	100.5
424.066	99.5
424.288	82.5
424.511	97.5
424.733	81.5
424.956	100.5
425.178	93.5
425.401	96.5
425.623	77.5
425.846	93.5
426.068	98.5
426.291	89.5
426.513	79.5
426.735	95.5
426.958	83.5
427.18	93.5
427.402	86.5
427.625	80.5
427.847	81.5
428.069	90.5
428.292	92.5
428.514	99.5
428.736	82.5
428.958	79.5
429.181	90.5
429.403	87.5
429.625	91.5
429.847	93.5
430.069	80.5
430.292	109.5
430.514	92.5
430.736	71.5
430.958	87.5
431.18	86.5
431.402	80.5
431.624	102.5
431.846	94.5
432.068	80.5
432.29	70.5
432.512	99.5
432.734	102.5
432.956	94.5
433.178	94.5
433.4	83.5
433.622	96.5
433.844	92.5
434.066	92.5
434.287	76.5
434.509	80.5
434.731	84.5
434.953	79.5
435.175	87.5
435.397	80.5
435.618	89.5
435.84	92.5
436.062	101.5
436.284	79.5
436.505	62.5
436.727	88.5
436.949	96.5
437.17	86.5
437.392	89.5
437.614	86.5
437.835	90.5
438.057	93.5
438.278	81.5
438.5	79.5
438.721	99.5
438.943	88.5
439.165	97.5
439.386	103.5
439.608	93.5
439.829	82.5
440.05	105.5
440.272	103.5
440.493	101.5
440.715	95.5
440.936	105.5
441.158	93.5
441.379	91.5
441.6	98.5
441.822	112.5
442.043	89.5
442.264	97.5
442.486	103.5
442.707	96.5
442.928	120.5
443.149	104.5
443.371	96.5
443.592	89.5
443.813	90.5
444.034	100.5
444.255	84.5
444.476	90.5
444.698	87.5
444.919	98.5
445.14	163.5
445.361	128.5
445.582	102.5
445.803	100.5
446.024	85.5
446.245	92.5
446.466	96.5
446.687	71.5
446.908	93.5
447.129	94.5
447.35	87.5
447.571	92.5
447.792	98.5
448.013	93.5
448.234	101.5
448.455	96.5
448.675	91.5
448.896	98.5
449.117	85.5
449.338	75.5
449.559	101.5
449.779	98.5
450	87.5
450.221	78.5
450.442	96.5
450.662	90.5
450.883	80.5
451.104	90.5
451.324	99.5
451.545	89.5
451.766	92.5
451.986	88.5
452.207	100.5
452.428	97.5
452.648	95.5
452.869	89.5
453.089	84.5
453.31	72.5
453.53	73.5
453.751	96.5
453.971	80.5
454.192	83.5
454.412	98.5
454.633	86.5
454.853	97.5
455.073	84.5
455.294	84.5
455.514	87.5
455.734	92.5
455.955	90.5
456.175	84.5
456.395	92.5
456.616	96.5
456.836	82.5
457.056	89.5
457.276	88.5
457.497	78.5
457.717	90.5
457.937	95.5
458.157	83.5
458.377	86.5
458.598	72.5
458.818	86.5
459.038	75.5
459.258	74.5
459.478	76.5
459.698	93.5
459.918	77.5
460.138	90.5
460.358	89.5
460.578	90.5
460.798	77.5
461.018	84.5
461.238	88.5
461.458	107.5
461.678	84.5
461.898	94.5
462.118	90.5
462.338	105.5
462.558	95.5
462.777	92.5
462.997	97.5
463.217	81.5
463.437	83.5
463.657	89.5
463.876	82.5
464.096	95.5
464.316	94.5
464.536	81.5
464.755	94.5
464.975	84.5
465.195	82.5
465.414	86.5
465.634	79.5
465.854	79.5
466.073	84.5
466.293	79.5
466.512	93.5
466.732	99.5
466.951	88.5
467.171	97.5
467.391	94.5
467.61	85.5
467.829	106.5
468.049	88.5
468.268	86.5
468.488	98.5
468.707	97.5
468.927	111.5
469.146	90.5
469.365	100.5
469.585	109.5
469.804	92.5
470.023	94.5
470.243	103.5
470.462	103.5
470.681	112.5
470.901	85.5
471.12	94.5
471.339	91.5
471.558	95.5
471.777	91.5
471.997	101.5
472.216	104.5
472.435	92.5
472.654	91.5
472.873	87.5
473.092	95.5
473.311	95.5
473.53	93.5
473.749	85.5
473.968	88.5
474.187	79.5
474.406	90.5
474.625	93.5
474.844	94.5
475.063	110.5
475.282	99.5
475.501	95.5
475.72	100.5
475.939	90.5
476.158	88.5
476.377	84.5
476.596	91.5
476.814	103.5
477.033	81.5
477.252	98.5
477.471	105.5
477.69	94.5
477.908	98.5
478.127	97.5
478.346	95.5
478.564	105.5
478.783	105.5
479.002	101.5
479.22	100.5
479.439	99.5
479.658	84.5
479.876	93.5
480.095	74.5
480.313	83.5
480.532	92.5
480.751	100.5
480.969	91.5
481.188	80.5
481.406	84.5
481.624	88.5
481.843	84.5
482.061	74.5
482.28	95.5
482.498	96.5
482.717	83.5
482.935	96.5
483.153	101.5
483.372	103.5
483.59	99.5
483.808	94.5
484.027	82.5
484.245	88.5
484.463	81.5
484.681	102.5
484.9	89.5
485.118	90.5
485.336	95.5
485.554	95.5
485.772	94.5
485.99	84.5
486.209	85.5
486.427	94.5
486.645	96.5
486.863	86.5
487.081	98.5
487.299	98.5
487.517	105.5
487.735	108.5
487.953	115.5
488.171	111.5
488.389	109.5
488.607	89.5
488.825	89.5
489.043	94.5
489.261	119.5
489.479	92.5
489.696	89.5
489.914	101.5
490.132	89.5
490.35	91.5
490.568	100.5
490.786	112.5
491.003	116.5
491.221	110.5
491.439	123.5
491.657	112.5
491.874	110.5
492.092	121.5
492.31	126.5
492.527	105.5
492.745	110.5
492.963	114.5
493.18	97.5
493.398	120.5
493.615	96.5
493.833	110.5
494.05	113.5
494.268	121.5
494.485	114.5
494.703	114.5
494.92	104.5
495.138	93.5
495.355	120.5
495.573	118.5
495.79	89.5
496.008	104.5
496.225	114.5
496.442	92.5
496.66	109.5
496.877	102.5
497.094	110.5
497.312	105.5
497.529	107.5
497.746	97.5
497.963	90.5
498.181	97.5
498.398	98.5
498.615	90.5
498.832	91.5
499.049	102.5
499.267	93.5
499.484	95.5
499.701	90.5
499.918	98.5
500.135	99.5
500.352	88.5
500.569	101.5
500.786	115.5
501.003	100.5
501.22	110.5
501.437	97.5
501.654	97.5
501.871	91.5
502.088	93.5
502.305	93.5
502.522	100.5
502.739	94.5
502.956	90.5
503.172	97.5
503.389	87.5
503.606	90.5
503.823	100.5
504.04	100.5
504.256	95.5
504.473	96.5
504.69	90.5
504.907	80.5
505.123	91.5
505.34	98.5
505.557	89.5
505.773	87.5
505.99	84.5
506.207	89.5
506.423	93.5
506.64	86.5
506.856	99.5
507.073	102.5
507.289	80.5
507.506	88.5
507.722	75.5
507.939	101.5
508.155	87.5
508.372	106.5
508.588	86.5
508.805	95.5
509.021	82.5
509.238	89.5
509.454	91.5
509.67	85.5
509.887	87.5
510.103	82.5
510.319	95.5
510.536	82.5
510.752	80.5
510.968	82.5
511.184	77.5
511.401	83.5
511.617	85.5
511.833	74.5
512.049	77.5
512.265	91.5
512.481	72.5
512.698	81.5
512.914	83.5
513.13	87.5
513.346	96.5
513.562	83.5
513.778	83.5
513.994	80.5
514.21	89.5
514.426	84.5
514.642	95.5
514.858	99.5
515.074	89.5
515.29	87.5
515.506	87.5
515.721	83.5
515.937	83.5
516.153	93.5
516.369	85.5
516.585	75.5
516.801	86.5
517.016	76.5
517.232	86.5
517.448	80.5
517.664	86.5
517.879	72.5
518.095	100.5
518.311	88.5
518.527	80.5
518.742	89.5
518.958	79.5
519.173	84.5
519.389	80.5
519.605	83.5
519.82	88.5
520.036	86.5
520.251	87.5
520.467	79.5
520.682	80.5
520.898	70.5
521.113	82.5
521.329	87.5
521.544	82.5
521.76	80.5
521.975	87.5
522.19	94.5
522.406	69.5
522.621	80.5
522.836	79.5
523.052	81.5
523.267	84.5
523.482	83.5
523.698	87.5
523.913	80.5
524.128	82.5
524.343	99.5
524.559	71.5
524.774	94.5
524.989	93.5
525.204	98.5
525.419	86.5
525.634	95.5
525.849	88.5
526.064	94.5
526.28	82.5
526.495	75.5
526.71	93.5
526.925	86.5
527.14	64.5
527.355	86.5
527.57	92.5
527.785	85.5
527.999	89.5
528.214	90.5
528.429	85.5
528.644	92.5
528.859	97.5
529.074	100.5
529.289	100.5
529.503	103.5
529.718	101.5
529.933	82.5
530.148	84.5
530.363	85.5
530.577	94.5
530.792	77.5
531.007	80.5
531.221	73.5
531.436	73.5
531.651	89.5
531.865	78.5
532.08	89.5
532.295	87.5
532.509	82.5
532.724	76.5
532.938	85.5
533.153	95.5
533.367	104.5
533.582	98.5
533.796	90.5
534.011	95.5
534.225	92.5
534.44	85.5
534.654	95.5
534.868	67.5
535.083	103.5
535.297	93.5
535.511	89.5
535.726	82.5
535.94	86.5
536.154	86.5
536.369	97.5
536.583	93.5
536.797	93.5
537.011	96.5
537.225	76.5
537.44	78.5
537.654	88.5
537.868	84.5
538.082	77.5
538.296	77.5
