Data from Location4.07152019.Energy5.Lamp.07192019.3%Agarose_HRD10591_15-23-33-577.txt Node
Date: Fri Jul 19 15:23:33 EDT 2019
User: cochatt
Spectrometer: HR+D1059
Trigger mode: 1
Integration Time (sec): 1.000000E-1
Scans to average: 1
Electric dark correction enabled: true
Nonlinearity correction enabled: false
Boxcar width: 0
XAxis mode: Wavelengths
Number of Pixels in Spectrum: 2048
>>>>>Begin Spectral Data<<<<<
223.165	-23.38
223.4	-23.38
223.635	-23.38
223.869	-20.38
224.104	-16.38
224.338	-14.38
224.573	-9.38
224.808	-7.38
225.042	-6.38
225.277	-5.38
225.511	-7.38
225.746	6.62
225.98	2.62
226.215	15.62
226.449	24.62
226.683	20.62
226.918	14.62
227.152	25.62
227.387	30.62
227.621	26.62
227.856	33.62
228.09	56.62
228.324	48.62
228.559	42.62
228.793	56.62
229.027	51.62
229.262	62.62
229.496	65.62
229.73	65.62
229.964	67.62
230.199	88.62
230.433	72.62
230.667	82.62
230.901	87.62
231.136	88.62
231.37	88.62
231.604	75.62
231.838	80.62
232.072	83.62
232.306	81.62
232.541	84.62
232.775	84.62
233.009	74.62
233.243	80.62
233.477	101.62
233.711	86.62
233.945	81.62
234.179	74.62
234.413	82.62
234.647	85.62
234.881	85.62
235.115	69.62
235.349	84.62
235.583	77.62
235.817	84.62
236.051	73.62
236.285	75.62
236.519	84.62
236.753	73.62
236.987	87.62
237.221	86.62
237.455	78.62
237.689	79.62
237.922	80.62
238.156	69.62
238.39	74.62
238.624	88.62
238.858	74.62
239.091	60.62
239.325	81.62
239.559	72.62
239.793	75.62
240.027	87.62
240.26	96.62
240.494	81.62
240.728	86.62
240.961	84.62
241.195	76.62
241.429	67.62
241.662	85.62
241.896	79.62
242.13	78.62
242.363	84.62
242.597	77.62
242.83	76.62
243.064	68.62
243.298	80.62
243.531	82.62
243.765	84.62
243.998	71.62
244.232	82.62
244.465	87.62
244.699	78.62
244.932	77.62
245.166	87.62
245.399	84.62
245.633	75.62
245.866	80.62
246.099	86.62
246.333	79.62
246.566	81.62
246.8	72.62
247.033	78.62
247.266	90.62
247.5	71.62
247.733	58.62
247.966	74.62
248.2	86.62
248.433	88.62
248.666	85.62
248.899	80.62
249.133	65.62
249.366	70.62
249.599	90.62
249.832	60.62
250.066	89.62
250.299	90.62
250.532	93.62
250.765	80.62
250.998	88.62
251.231	81.62
251.465	84.62
251.698	94.62
251.931	81.62
252.164	77.62
252.397	80.62
252.63	83.62
252.863	80.62
253.096	78.62
253.329	77.62
253.562	84.62
253.795	67.62
254.028	96.62
254.261	83.62
254.494	99.62
254.727	89.62
254.96	87.62
255.193	84.62
255.426	96.62
255.659	76.62
255.892	70.62
256.124	86.62
256.357	83.62
256.59	80.62
256.823	74.62
257.056	74.62
257.289	78.62
257.521	84.62
257.754	76.62
257.987	85.62
258.22	88.62
258.452	71.62
258.685	75.62
258.918	88.62
259.151	77.62
259.383	84.62
259.616	73.62
259.849	78.62
260.081	92.62
260.314	93.62
260.547	79.62
260.779	93.62
261.012	78.62
261.244	80.62
261.477	86.62
261.71	85.62
261.942	78.62
262.175	86.62
262.407	83.62
262.64	86.62
262.872	82.62
263.105	78.62
263.337	91.62
263.57	91.62
263.802	85.62
264.035	69.62
264.267	71.62
264.499	83.62
264.732	80.62
264.964	75.62
265.197	70.62
265.429	93.62
265.661	82.62
265.894	81.62
266.126	96.62
266.358	99.62
266.591	74.62
266.823	77.62
267.055	68.62
267.287	88.62
267.52	101.62
267.752	78.62
267.984	86.62
268.216	86.62
268.448	99.62
268.681	87.62
268.913	83.62
269.145	87.62
269.377	96.62
269.609	89.62
269.841	79.62
270.073	86.62
270.306	82.62
270.538	77.62
270.77	79.62
271.002	73.62
271.234	88.62
271.466	77.62
271.698	90.62
271.93	76.62
272.162	89.62
272.394	86.62
272.626	92.62
272.858	92.62
273.09	78.62
273.322	93.62
273.553	86.62
273.785	97.62
274.017	100.62
274.249	99.62
274.481	84.62
274.713	79.62
274.945	89.62
275.176	88.62
275.408	81.62
275.64	78.62
275.872	77.62
276.104	83.62
276.335	77.62
276.567	87.62
276.799	96.62
277.031	75.62
277.262	92.62
277.494	79.62
277.726	77.62
277.957	99.62
278.189	84.62
278.421	96.62
278.652	84.62
278.884	88.62
279.115	104.62
279.347	94.62
279.579	84.62
279.81	93.62
280.042	79.62
280.273	79.62
280.505	85.62
280.736	86.62
280.968	89.62
281.199	95.62
281.431	90.62
281.662	89.62
281.894	90.62
282.125	76.62
282.356	91.62
282.588	93.62
282.819	87.62
283.051	87.62
283.282	86.62
283.513	99.62
283.745	79.62
283.976	85.62
284.207	81.62
284.439	85.62
284.67	99.62
284.901	91.62
285.132	79.62
285.364	79.62
285.595	81.62
285.826	83.62
286.057	85.62
286.288	77.62
286.52	88.62
286.751	90.62
286.982	106.62
287.213	88.62
287.444	98.62
287.675	98.62
287.906	78.62
288.138	76.62
288.369	84.62
288.6	78.62
288.831	66.62
289.062	77.62
289.293	104.62
289.524	71.62
289.755	87.62
289.986	101.62
290.217	86.62
290.448	94.62
290.679	96.62
290.91	95.62
291.141	83.62
291.371	85.62
291.602	81.62
291.833	90.62
292.064	92.62
292.295	94.62
292.526	88.62
292.757	92.62
292.987	95.62
293.218	88.62
293.449	87.62
293.68	71.62
293.91	86.62
294.141	91.62
294.372	86.62
294.603	75.62
294.833	84.62
295.064	85.62
295.295	97.62
295.525	86.62
295.756	80.62
295.987	80.62
296.217	80.62
296.448	85.62
296.679	75.62
296.909	84.62
297.14	76.62
297.37	83.62
297.601	81.62
297.831	79.62
298.062	93.62
298.292	83.62
298.523	87.62
298.753	87.62
298.984	80.62
299.214	88.62
299.445	86.62
299.675	76.62
299.905	87.62
300.136	99.62
300.366	79.62
300.597	83.62
300.827	79.62
301.057	88.62
301.288	90.62
301.518	99.62
301.748	94.62
301.979	89.62
302.209	81.62
302.439	82.62
302.669	79.62
302.9	92.62
303.13	80.62
303.36	77.62
303.59	78.62
303.82	83.62
304.051	90.62
304.281	95.62
304.511	80.62
304.741	86.62
304.971	91.62
305.201	87.62
305.431	79.62
305.661	80.62
305.891	88.62
306.121	80.62
306.352	89.62
306.582	94.62
306.812	84.62
307.042	80.62
307.272	88.62
307.502	90.62
307.731	93.62
307.961	83.62
308.191	86.62
308.421	90.62
308.651	81.62
308.881	96.62
309.111	90.62
309.341	94.62
309.571	84.62
309.8	88.62
310.03	77.62
310.26	100.62
310.49	101.62
310.72	88.62
310.949	88.62
311.179	99.62
311.409	95.62
311.639	72.62
311.868	83.62
312.098	91.62
312.328	73.62
312.557	76.62
312.787	87.62
313.017	87.62
313.246	88.62
313.476	90.62
313.706	94.62
313.935	85.62
314.165	56.62
314.394	96.62
314.624	98.62
314.853	96.62
315.083	87.62
315.312	88.62
315.542	76.62
315.771	94.62
316.001	83.62
316.23	90.62
316.46	97.62
316.689	75.62
316.919	81.62
317.148	84.62
317.377	90.62
317.607	96.62
317.836	88.62
318.065	85.62
318.295	90.62
318.524	87.62
318.753	84.62
318.983	83.62
319.212	86.62
319.441	94.62
319.67	83.62
319.9	96.62
320.129	78.62
320.358	90.62
320.587	90.62
320.816	79.62
321.046	77.62
321.275	86.62
321.504	89.62
321.733	83.62
321.962	96.62
322.191	78.62
322.42	99.62
322.649	95.62
322.878	87.62
323.108	83.62
323.337	70.62
323.566	88.62
323.795	94.62
324.024	76.62
324.253	83.62
324.482	84.62
324.71	91.62
324.939	88.62
325.168	74.62
325.397	83.62
325.626	81.62
325.855	84.62
326.084	91.62
326.313	79.62
326.542	88.62
326.77	80.62
326.999	74.62
327.228	83.62
327.457	80.62
327.686	95.62
327.914	83.62
328.143	79.62
328.372	96.62
328.6	82.62
328.829	82.62
329.058	80.62
329.287	79.62
329.515	78.62
329.744	93.62
329.972	76.62
330.201	75.62
330.43	78.62
330.658	91.62
330.887	82.62
331.115	76.62
331.344	77.62
331.572	93.62
331.801	84.62
332.03	86.62
332.258	80.62
332.486	81.62
332.715	87.62
332.943	82.62
333.172	88.62
333.4	81.62
333.629	92.62
333.857	93.62
334.085	87.62
334.314	86.62
334.542	89.62
334.771	89.62
334.999	88.62
335.227	88.62
335.455	71.62
335.684	90.62
335.912	103.62
336.14	91.62
336.369	81.62
336.597	86.62
336.825	79.62
337.053	86.62
337.281	82.62
337.51	78.62
337.738	91.62
337.966	84.62
338.194	94.62
338.422	84.62
338.65	88.62
338.878	94.62
339.106	70.62
339.334	79.62
339.562	87.62
339.79	73.62
340.018	90.62
340.246	89.62
340.474	77.62
340.702	95.62
340.93	80.62
341.158	79.62
341.386	86.62
341.614	86.62
341.842	89.62
342.07	85.62
342.298	90.62
342.526	94.62
342.754	88.62
342.981	86.62
343.209	98.62
343.437	86.62
343.665	86.62
343.893	90.62
344.12	98.62
344.348	90.62
344.576	84.62
344.804	86.62
345.031	98.62
345.259	86.62
345.487	97.62
345.714	94.62
345.942	82.62
346.17	90.62
346.397	82.62
346.625	85.62
346.853	88.62
347.08	82.62
347.308	84.62
347.535	83.62
347.763	82.62
347.99	101.62
348.218	81.62
348.445	99.62
348.673	94.62
348.9	84.62
349.128	98.62
349.355	85.62
349.583	91.62
349.81	77.62
350.037	89.62
350.265	84.62
350.492	90.62
350.72	83.62
350.947	86.62
351.174	84.62
351.402	95.62
351.629	78.62
351.856	92.62
352.083	85.62
352.311	76.62
352.538	87.62
352.765	85.62
352.992	88.62
353.22	97.62
353.447	87.62
353.674	79.62
353.901	96.62
354.128	96.62
354.355	89.62
354.583	71.62
354.81	67.62
355.037	80.62
355.264	84.62
355.491	101.62
355.718	85.62
355.945	92.62
356.172	91.62
356.399	86.62
356.626	83.62
356.853	92.62
357.08	85.62
357.307	90.62
357.534	87.62
357.761	88.62
357.988	85.62
358.215	85.62
358.441	107.62
358.668	84.62
358.895	87.62
359.122	95.62
359.349	79.62
359.576	88.62
359.802	81.62
360.029	78.62
360.256	86.62
360.483	85.62
360.709	94.62
360.936	103.62
361.163	84.62
361.39	85.62
361.616	83.62
361.843	90.62
362.07	93.62
362.296	85.62
362.523	104.62
362.749	64.62
362.976	82.62
363.203	90.62
363.429	83.62
363.656	91.62
363.882	85.62
364.109	78.62
364.335	82.62
364.562	94.62
364.788	84.62
365.015	80.62
365.241	73.62
365.468	81.62
365.694	87.62
365.92	91.62
366.147	83.62
366.373	73.62
366.599	70.62
366.826	79.62
367.052	84.62
367.278	71.62
367.505	98.62
367.731	74.62
367.957	77.62
368.184	84.62
368.41	74.62
368.636	94.62
368.862	95.62
369.089	76.62
369.315	93.62
369.541	101.62
369.767	81.62
369.993	94.62
370.219	94.62
370.445	58.62
370.672	80.62
370.898	75.62
371.124	91.62
371.35	82.62
371.576	72.62
371.802	88.62
372.028	105.62
372.254	88.62
372.48	98.62
372.706	73.62
372.932	67.62
373.158	83.62
373.384	91.62
373.61	90.62
373.835	85.62
374.061	91.62
374.287	93.62
374.513	87.62
374.739	91.62
374.965	88.62
375.191	94.62
375.416	74.62
375.642	86.62
375.868	91.62
376.094	93.62
376.319	85.62
376.545	93.62
376.771	91.62
376.997	79.62
377.222	88.62
377.448	86.62
377.674	94.62
377.899	87.62
378.125	73.62
378.35	93.62
378.576	86.62
378.802	93.62
379.027	93.62
379.253	90.62
379.478	78.62
379.704	88.62
379.929	79.62
380.155	81.62
380.38	88.62
380.606	93.62
380.831	90.62
381.057	79.62
381.282	82.62
381.507	78.62
381.733	83.62
381.958	90.62
382.184	84.62
382.409	81.62
382.634	94.62
382.86	95.62
383.085	100.62
383.31	94.62
383.535	88.62
383.761	84.62
383.986	79.62
384.211	83.62
384.436	100.62
384.662	92.62
384.887	85.62
385.112	86.62
385.337	78.62
385.562	92.62
385.787	82.62
386.013	92.62
386.238	99.62
386.463	82.62
386.688	81.62
386.913	85.62
387.138	82.62
387.363	87.62
387.588	86.62
387.813	85.62
388.038	102.62
388.263	90.62
388.488	96.62
388.713	85.62
388.938	75.62
389.163	84.62
389.387	82.62
389.612	89.62
389.837	91.62
390.062	78.62
390.287	98.62
390.512	94.62
390.736	87.62
390.961	98.62
391.186	98.62
391.411	85.62
391.636	98.62
391.86	91.62
392.085	90.62
392.31	100.62
392.534	88.62
392.759	86.62
392.984	79.62
393.208	97.62
393.433	87.62
393.658	84.62
393.882	87.62
394.107	103.62
394.331	93.62
394.556	92.62
394.78	89.62
395.005	86.62
395.229	69.62
395.454	99.62
395.678	99.62
395.903	88.62
396.127	100.62
396.352	94.62
396.576	85.62
396.801	88.62
397.025	76.62
397.249	90.62
397.474	92.62
397.698	90.62
397.922	80.62
398.147	92.62
398.371	96.62
398.595	91.62
398.82	87.62
399.044	91.62
399.268	99.62
399.492	90.62
399.717	91.62
399.941	90.62
400.165	81.62
400.389	77.62
400.613	76.62
400.837	89.62
401.062	101.62
401.286	94.62
401.51	81.62
401.734	81.62
401.958	95.62
402.182	86.62
402.406	90.62
402.63	88.62
402.854	97.62
403.078	104.62
403.302	83.62
403.526	91.62
403.75	97.62
403.974	90.62
404.198	74.62
404.422	90.62
404.645	102.62
404.869	93.62
405.093	95.62
405.317	87.62
405.541	94.62
405.765	89.62
405.988	90.62
406.212	103.62
406.436	90.62
406.66	82.62
406.883	93.62
407.107	101.62
407.331	90.62
407.555	92.62
407.778	75.62
408.002	110.62
408.226	103.62
408.449	86.62
408.673	95.62
408.896	106.62
409.12	79.62
409.344	93.62
409.567	101.62
409.791	89.62
410.014	114.62
410.238	89.62
410.461	99.62
410.685	91.62
410.908	98.62
411.132	95.62
411.355	93.62
411.578	86.62
411.802	79.62
412.025	98.62
412.249	68.62
412.472	85.62
412.695	95.62
412.919	83.62
413.142	93.62
413.365	96.62
413.589	92.62
413.812	101.62
414.035	103.62
414.258	85.62
414.482	85.62
414.705	99.62
414.928	84.62
415.151	89.62
415.374	101.62
415.597	94.62
415.821	79.62
416.044	96.62
416.267	107.62
416.49	110.62
416.713	102.62
416.936	95.62
417.159	82.62
417.382	91.62
417.605	85.62
417.828	90.62
418.051	95.62
418.274	88.62
418.497	122.62
418.72	101.62
418.943	100.62
419.166	93.62
419.389	88.62
419.611	97.62
419.834	83.62
420.057	90.62
420.28	101.62
420.503	93.62
420.726	106.62
420.948	91.62
421.171	96.62
421.394	98.62
421.617	91.62
421.839	107.62
422.062	103.62
422.285	95.62
422.507	98.62
422.73	90.62
422.953	95.62
423.175	95.62
423.398	92.62
423.621	96.62
423.843	94.62
424.066	110.62
424.288	103.62
424.511	99.62
424.733	100.62
424.956	100.62
425.178	98.62
425.401	93.62
425.623	84.62
425.846	105.62
426.068	99.62
426.291	83.62
426.513	86.62
426.735	99.62
426.958	106.62
427.18	90.62
427.402	92.62
427.625	98.62
427.847	89.62
428.069	97.62
428.292	96.62
428.514	98.62
428.736	93.62
428.958	100.62
429.181	100.62
429.403	102.62
429.625	104.62
429.847	99.62
430.069	110.62
430.292	101.62
430.514	109.62
430.736	110.62
430.958	91.62
431.18	92.62
431.402	106.62
431.624	100.62
431.846	83.62
432.068	79.62
432.29	98.62
432.512	93.62
432.734	86.62
432.956	93.62
433.178	90.62
433.4	80.62
433.622	94.62
433.844	95.62
434.066	96.62
434.287	91.62
434.509	94.62
434.731	82.62
434.953	105.62
435.175	95.62
435.397	96.62
435.618	95.62
435.84	96.62
436.062	94.62
436.284	87.62
436.505	90.62
436.727	94.62
436.949	86.62
437.17	95.62
437.392	103.62
437.614	89.62
437.835	91.62
438.057	85.62
438.278	89.62
438.5	96.62
438.721	102.62
438.943	99.62
439.165	85.62
439.386	97.62
439.608	86.62
439.829	92.62
440.05	93.62
440.272	95.62
440.493	105.62
440.715	99.62
440.936	105.62
441.158	82.62
441.379	105.62
441.6	102.62
441.822	100.62
442.043	118.62
442.264	106.62
442.486	90.62
442.707	93.62
442.928	93.62
443.149	95.62
443.371	98.62
443.592	92.62
443.813	99.62
444.034	103.62
444.255	89.62
444.476	112.62
444.698	91.62
444.919	94.62
445.14	192.62
445.361	134.62
445.582	127.62
445.803	107.62
446.024	98.62
446.245	105.62
446.466	106.62
446.687	103.62
446.908	109.62
447.129	120.62
447.35	104.62
447.571	91.62
447.792	90.62
448.013	98.62
448.234	94.62
448.455	105.62
448.675	102.62
448.896	101.62
449.117	101.62
449.338	101.62
449.559	105.62
449.779	101.62
450	96.62
450.221	88.62
450.442	93.62
450.662	95.62
450.883	105.62
451.104	102.62
451.324	107.62
451.545	92.62
451.766	94.62
451.986	99.62
452.207	112.62
452.428	84.62
452.648	79.62
452.869	91.62
453.089	99.62
453.31	100.62
453.53	94.62
453.751	82.62
453.971	75.62
454.192	97.62
454.412	86.62
454.633	94.62
454.853	98.62
455.073	86.62
455.294	100.62
455.514	94.62
455.734	93.62
455.955	81.62
456.175	105.62
456.395	100.62
456.616	104.62
456.836	87.62
457.056	86.62
457.276	87.62
457.497	78.62
457.717	86.62
457.937	89.62
458.157	107.62
458.377	92.62
458.598	85.62
458.818	85.62
459.038	91.62
459.258	80.62
459.478	86.62
459.698	78.62
459.918	88.62
460.138	90.62
460.358	81.62
460.578	90.62
460.798	94.62
461.018	96.62
461.238	93.62
461.458	95.62
461.678	88.62
461.898	97.62
462.118	88.62
462.338	100.62
462.558	98.62
462.777	92.62
462.997	92.62
463.217	92.62
463.437	88.62
463.657	92.62
463.876	91.62
464.096	76.62
464.316	88.62
464.536	86.62
464.755	97.62
464.975	83.62
465.195	94.62
465.414	88.62
465.634	94.62
465.854	88.62
466.073	94.62
466.293	93.62
466.512	94.62
466.732	92.62
466.951	106.62
467.171	104.62
467.391	109.62
467.61	102.62
467.829	93.62
468.049	108.62
468.268	98.62
468.488	113.62
468.707	98.62
468.927	94.62
469.146	93.62
469.365	95.62
469.585	89.62
469.804	103.62
470.023	101.62
470.243	91.62
470.462	92.62
470.681	120.62
470.901	94.62
471.12	94.62
471.339	87.62
471.558	94.62
471.777	103.62
471.997	103.62
472.216	87.62
472.435	98.62
472.654	79.62
472.873	96.62
473.092	80.62
473.311	95.62
473.53	90.62
473.749	91.62
473.968	91.62
474.187	100.62
474.406	103.62
474.625	102.62
474.844	110.62
475.063	99.62
475.282	78.62
475.501	89.62
475.72	109.62
475.939	103.62
476.158	103.62
476.377	87.62
476.596	93.62
476.814	95.62
477.033	92.62
477.252	81.62
477.471	88.62
477.69	83.62
477.908	88.62
478.127	96.62
478.346	104.62
478.564	93.62
478.783	99.62
479.002	106.62
479.22	95.62
479.439	104.62
479.658	76.62
479.876	96.62
480.095	87.62
480.313	96.62
480.532	95.62
480.751	77.62
480.969	86.62
481.188	85.62
481.406	94.62
481.624	89.62
481.843	83.62
482.061	79.62
482.28	82.62
482.498	93.62
482.717	93.62
482.935	91.62
483.153	98.62
483.372	106.62
483.59	103.62
483.808	93.62
484.027	107.62
484.245	111.62
484.463	105.62
484.681	101.62
484.9	109.62
485.118	102.62
485.336	87.62
485.554	97.62
485.772	87.62
485.99	96.62
486.209	87.62
486.427	96.62
486.645	91.62
486.863	99.62
487.081	89.62
487.299	100.62
487.517	94.62
487.735	91.62
487.953	117.62
488.171	130.62
488.389	102.62
488.607	106.62
488.825	99.62
489.043	98.62
489.261	98.62
489.479	86.62
489.696	106.62
489.914	85.62
490.132	84.62
490.35	80.62
490.568	103.62
490.786	110.62
491.003	99.62
491.221	110.62
491.439	126.62
491.657	108.62
491.874	127.62
492.092	116.62
492.31	130.62
492.527	123.62
492.745	120.62
492.963	118.62
493.18	104.62
493.398	120.62
493.615	100.62
493.833	120.62
494.05	109.62
494.268	101.62
494.485	117.62
494.703	106.62
494.92	102.62
495.138	103.62
495.355	115.62
495.573	120.62
495.79	107.62
496.008	110.62
496.225	115.62
496.442	104.62
496.66	104.62
496.877	112.62
497.094	119.62
497.312	110.62
497.529	91.62
497.746	95.62
497.963	103.62
498.181	93.62
498.398	75.62
498.615	108.62
498.832	104.62
499.049	89.62
499.267	102.62
499.484	88.62
499.701	91.62
499.918	107.62
500.135	107.62
500.352	98.62
500.569	107.62
500.786	101.62
501.003	90.62
501.22	102.62
501.437	95.62
501.654	112.62
501.871	80.62
502.088	100.62
502.305	96.62
502.522	98.62
502.739	89.62
502.956	91.62
503.172	96.62
503.389	92.62
503.606	109.62
503.823	96.62
504.04	98.62
504.256	103.62
504.473	98.62
504.69	98.62
504.907	102.62
505.123	83.62
505.34	89.62
505.557	100.62
505.773	93.62
505.99	92.62
506.207	85.62
506.423	96.62
506.64	95.62
506.856	86.62
507.073	92.62
507.289	116.62
507.506	108.62
507.722	86.62
507.939	84.62
508.155	99.62
508.372	75.62
508.588	85.62
508.805	88.62
509.021	94.62
509.238	83.62
509.454	91.62
509.67	89.62
509.887	87.62
510.103	88.62
510.319	83.62
510.536	84.62
510.752	80.62
510.968	83.62
511.184	96.62
511.401	100.62
511.617	104.62
511.833	90.62
512.049	83.62
512.265	88.62
512.481	104.62
512.698	95.62
512.914	86.62
513.13	93.62
513.346	94.62
513.562	79.62
513.778	105.62
513.994	83.62
514.21	90.62
514.426	88.62
514.642	78.62
514.858	81.62
515.074	92.62
515.29	96.62
515.506	89.62
515.721	74.62
515.937	91.62
516.153	107.62
516.369	74.62
516.585	91.62
516.801	92.62
