Data from Location4.07152019.Energy5.Lamp.07192019.3%Agarose_HRD10591_15-24-09-576.txt Node
Date: Fri Jul 19 15:24:09 EDT 2019
User: cochatt
Spectrometer: HR+D1059
Trigger mode: 1
Integration Time (sec): 1.000000E-1
Scans to average: 1
Electric dark correction enabled: true
Nonlinearity correction enabled: false
Boxcar width: 0
XAxis mode: Wavelengths
Number of Pixels in Spectrum: 2048
>>>>>Begin Spectral Data<<<<<
223.165	-23.06
223.4	-23.06
223.635	-23.06
223.869	-23.06
224.104	-8.06
224.338	-21.06
224.573	-9.06
224.808	-8.06
225.042	-7.06
225.277	-12.06
225.511	-6.06
225.746	5.94
225.98	-1.06
226.215	-4.06
226.449	15.94
226.683	15.94
226.918	43.94
227.152	40.94
227.387	42.94
227.621	30.94
227.856	44.94
228.09	48.94
228.324	55.94
228.559	62.94
228.793	67.94
229.027	63.94
229.262	64.94
229.496	63.94
229.73	71.94
229.964	71.94
230.199	61.94
230.433	70.94
230.667	79.94
230.901	80.94
231.136	70.94
231.37	73.94
231.604	70.94
231.838	86.94
232.072	77.94
232.306	94.94
232.541	83.94
232.775	88.94
233.009	74.94
233.243	62.94
233.477	91.94
233.711	104.94
233.945	83.94
234.179	85.94
234.413	87.94
234.647	94.94
234.881	86.94
235.115	89.94
235.349	81.94
235.583	82.94
235.817	90.94
236.051	91.94
236.285	79.94
236.519	76.94
236.753	81.94
236.987	79.94
237.221	78.94
237.455	80.94
237.689	73.94
237.922	75.94
238.156	86.94
238.39	87.94
238.624	81.94
238.858	94.94
239.091	78.94
239.325	87.94
239.559	65.94
239.793	89.94
240.027	80.94
240.26	62.94
240.494	91.94
240.728	83.94
240.961	75.94
241.195	82.94
241.429	84.94
241.662	77.94
241.896	87.94
242.13	68.94
242.363	69.94
242.597	82.94
242.83	83.94
243.064	82.94
243.298	91.94
243.531	73.94
243.765	88.94
243.998	84.94
244.232	83.94
244.465	75.94
244.699	69.94
244.932	82.94
245.166	85.94
245.399	86.94
245.633	84.94
245.866	75.94
246.099	91.94
246.333	72.94
246.566	87.94
246.8	89.94
247.033	85.94
247.266	86.94
247.5	87.94
247.733	81.94
247.966	88.94
248.2	80.94
248.433	89.94
248.666	61.94
248.899	92.94
249.133	86.94
249.366	80.94
249.599	87.94
249.832	84.94
250.066	83.94
250.299	76.94
250.532	87.94
250.765	81.94
250.998	86.94
251.231	101.94
251.465	88.94
251.698	91.94
251.931	78.94
252.164	79.94
252.397	85.94
252.63	85.94
252.863	80.94
253.096	81.94
253.329	92.94
253.562	85.94
253.795	95.94
254.028	91.94
254.261	85.94
254.494	78.94
254.727	74.94
254.96	77.94
255.193	95.94
255.426	83.94
255.659	77.94
255.892	88.94
256.124	86.94
256.357	85.94
256.59	100.94
256.823	89.94
257.056	87.94
257.289	93.94
257.521	82.94
257.754	88.94
257.987	75.94
258.22	88.94
258.452	68.94
258.685	88.94
258.918	88.94
259.151	83.94
259.383	89.94
259.616	88.94
259.849	84.94
260.081	84.94
260.314	85.94
260.547	79.94
260.779	90.94
261.012	94.94
261.244	84.94
261.477	86.94
261.71	86.94
261.942	86.94
262.175	90.94
262.407	96.94
262.64	86.94
262.872	95.94
263.105	91.94
263.337	96.94
263.57	74.94
263.802	82.94
264.035	98.94
264.267	82.94
264.499	84.94
264.732	103.94
264.964	76.94
265.197	72.94
265.429	84.94
265.661	77.94
265.894	74.94
266.126	98.94
266.358	76.94
266.591	85.94
266.823	97.94
267.055	82.94
267.287	77.94
267.52	85.94
267.752	84.94
267.984	91.94
268.216	94.94
268.448	100.94
268.681	78.94
268.913	98.94
269.145	88.94
269.377	83.94
269.609	78.94
269.841	98.94
270.073	89.94
270.306	91.94
270.538	95.94
270.77	83.94
271.002	84.94
271.234	84.94
271.466	84.94
271.698	90.94
271.93	74.94
272.162	85.94
272.394	99.94
272.626	81.94
272.858	94.94
273.09	86.94
273.322	91.94
273.553	86.94
273.785	81.94
274.017	72.94
274.249	86.94
274.481	92.94
274.713	90.94
274.945	80.94
275.176	90.94
275.408	98.94
275.64	84.94
275.872	87.94
276.104	109.94
276.335	79.94
276.567	83.94
276.799	82.94
277.031	90.94
277.262	87.94
277.494	95.94
277.726	83.94
277.957	95.94
278.189	93.94
278.421	78.94
278.652	82.94
278.884	84.94
279.115	84.94
279.347	88.94
279.579	89.94
279.81	83.94
280.042	93.94
280.273	88.94
280.505	102.94
280.736	80.94
280.968	92.94
281.199	75.94
281.431	82.94
281.662	84.94
281.894	84.94
282.125	80.94
282.356	86.94
282.588	89.94
282.819	89.94
283.051	74.94
283.282	77.94
283.513	79.94
283.745	83.94
283.976	98.94
284.207	85.94
284.439	91.94
284.67	102.94
284.901	86.94
285.132	80.94
285.364	91.94
285.595	91.94
285.826	89.94
286.057	76.94
286.288	84.94
286.52	83.94
286.751	77.94
286.982	82.94
287.213	83.94
287.444	80.94
287.675	99.94
287.906	79.94
288.138	92.94
288.369	77.94
288.6	84.94
288.831	86.94
289.062	83.94
289.293	80.94
289.524	94.94
289.755	85.94
289.986	106.94
290.217	90.94
290.448	86.94
290.679	78.94
290.91	89.94
291.141	85.94
291.371	91.94
291.602	91.94
291.833	83.94
292.064	90.94
292.295	99.94
292.526	92.94
292.757	91.94
292.987	84.94
293.218	92.94
293.449	100.94
293.68	92.94
293.91	83.94
294.141	76.94
294.372	92.94
294.603	91.94
294.833	92.94
295.064	96.94
295.295	99.94
295.525	103.94
295.756	91.94
295.987	74.94
296.217	80.94
296.448	83.94
296.679	91.94
296.909	91.94
297.14	99.94
297.37	89.94
297.601	89.94
297.831	80.94
298.062	99.94
298.292	102.94
298.523	95.94
298.753	89.94
298.984	90.94
299.214	99.94
299.445	90.94
299.675	72.94
299.905	94.94
300.136	93.94
300.366	86.94
300.597	98.94
300.827	85.94
301.057	87.94
301.288	88.94
301.518	92.94
301.748	83.94
301.979	98.94
302.209	70.94
302.439	79.94
302.669	90.94
302.9	94.94
303.13	79.94
303.36	79.94
303.59	83.94
303.82	87.94
304.051	80.94
304.281	92.94
304.511	90.94
304.741	71.94
304.971	84.94
305.201	87.94
305.431	88.94
305.661	82.94
305.891	89.94
306.121	74.94
306.352	75.94
306.582	77.94
306.812	90.94
307.042	99.94
307.272	92.94
307.502	73.94
307.731	80.94
307.961	88.94
308.191	91.94
308.421	78.94
308.651	85.94
308.881	80.94
309.111	94.94
309.341	84.94
309.571	71.94
309.8	95.94
310.03	95.94
310.26	82.94
310.49	85.94
310.72	82.94
310.949	103.94
311.179	84.94
311.409	101.94
311.639	82.94
311.868	79.94
312.098	88.94
312.328	88.94
312.557	92.94
312.787	82.94
313.017	73.94
313.246	92.94
313.476	63.94
313.706	87.94
313.935	94.94
314.165	101.94
314.394	87.94
314.624	94.94
314.853	85.94
315.083	91.94
315.312	84.94
315.542	87.94
315.771	87.94
316.001	89.94
316.23	88.94
316.46	90.94
316.689	89.94
316.919	99.94
317.148	93.94
317.377	93.94
317.607	84.94
317.836	86.94
318.065	87.94
318.295	84.94
318.524	83.94
318.753	76.94
318.983	97.94
319.212	90.94
319.441	93.94
319.67	84.94
319.9	89.94
320.129	84.94
320.358	96.94
320.587	99.94
320.816	78.94
321.046	73.94
321.275	91.94
321.504	87.94
321.733	95.94
321.962	76.94
322.191	82.94
322.42	93.94
322.649	92.94
322.878	83.94
323.108	88.94
323.337	86.94
323.566	75.94
323.795	94.94
324.024	84.94
324.253	82.94
324.482	90.94
324.71	94.94
324.939	80.94
325.168	86.94
325.397	85.94
325.626	89.94
325.855	85.94
326.084	90.94
326.313	92.94
326.542	93.94
326.77	84.94
326.999	87.94
327.228	96.94
327.457	81.94
327.686	103.94
327.914	107.94
328.143	86.94
328.372	93.94
328.6	99.94
328.829	84.94
329.058	106.94
329.287	81.94
329.515	88.94
329.744	99.94
329.972	95.94
330.201	91.94
330.43	91.94
330.658	69.94
330.887	85.94
331.115	93.94
331.344	81.94
331.572	104.94
331.801	94.94
332.03	80.94
332.258	89.94
332.486	83.94
332.715	93.94
332.943	89.94
333.172	87.94
333.4	86.94
333.629	81.94
333.857	76.94
334.085	87.94
334.314	73.94
334.542	87.94
334.771	88.94
334.999	88.94
335.227	78.94
335.455	85.94
335.684	93.94
335.912	81.94
336.14	85.94
336.369	93.94
336.597	86.94
336.825	98.94
337.053	95.94
337.281	103.94
337.51	94.94
337.738	85.94
337.966	69.94
338.194	90.94
338.422	90.94
338.65	92.94
338.878	106.94
339.106	93.94
339.334	84.94
339.562	83.94
339.79	86.94
340.018	85.94
340.246	88.94
340.474	77.94
340.702	74.94
340.93	88.94
341.158	88.94
341.386	85.94
341.614	88.94
341.842	90.94
342.07	85.94
342.298	92.94
342.526	79.94
342.754	88.94
342.981	84.94
343.209	84.94
343.437	93.94
343.665	86.94
343.893	83.94
344.12	95.94
344.348	96.94
344.576	88.94
344.804	94.94
345.031	91.94
345.259	83.94
345.487	86.94
345.714	92.94
345.942	78.94
346.17	89.94
346.397	99.94
346.625	87.94
346.853	79.94
347.08	84.94
347.308	85.94
347.535	75.94
347.763	80.94
347.99	91.94
348.218	95.94
348.445	85.94
348.673	89.94
348.9	93.94
349.128	89.94
349.355	85.94
349.583	82.94
349.81	98.94
350.037	85.94
350.265	74.94
350.492	84.94
350.72	84.94
350.947	79.94
351.174	107.94
351.402	93.94
351.629	81.94
351.856	93.94
352.083	85.94
352.311	93.94
352.538	83.94
352.765	101.94
352.992	86.94
353.22	84.94
353.447	84.94
353.674	84.94
353.901	99.94
354.128	86.94
354.355	93.94
354.583	96.94
354.81	89.94
355.037	82.94
355.264	85.94
355.491	99.94
355.718	105.94
355.945	93.94
356.172	83.94
356.399	83.94
356.626	86.94
356.853	78.94
357.08	91.94
357.307	93.94
357.534	87.94
357.761	89.94
357.988	87.94
358.215	90.94
358.441	92.94
358.668	89.94
358.895	76.94
359.122	86.94
359.349	92.94
359.576	90.94
359.802	97.94
360.029	93.94
360.256	79.94
360.483	91.94
360.709	80.94
360.936	96.94
361.163	80.94
361.39	93.94
361.616	71.94
361.843	90.94
362.07	83.94
362.296	83.94
362.523	92.94
362.749	86.94
362.976	95.94
363.203	80.94
363.429	88.94
363.656	91.94
363.882	86.94
364.109	89.94
364.335	93.94
364.562	90.94
364.788	89.94
365.015	87.94
365.241	77.94
365.468	96.94
365.694	80.94
365.92	93.94
366.147	93.94
366.373	88.94
366.599	91.94
366.826	83.94
367.052	82.94
367.278	84.94
367.505	91.94
367.731	96.94
367.957	90.94
368.184	71.94
368.41	90.94
368.636	84.94
368.862	98.94
369.089	86.94
369.315	98.94
369.541	92.94
369.767	96.94
369.993	84.94
370.219	82.94
370.445	92.94
370.672	83.94
370.898	90.94
371.124	84.94
371.35	91.94
371.576	93.94
371.802	93.94
372.028	91.94
372.254	94.94
372.48	90.94
372.706	95.94
372.932	87.94
373.158	93.94
373.384	95.94
373.61	88.94
373.835	87.94
374.061	92.94
374.287	86.94
374.513	88.94
374.739	84.94
374.965	101.94
375.191	94.94
375.416	88.94
375.642	91.94
375.868	87.94
376.094	94.94
376.319	75.94
376.545	95.94
376.771	89.94
376.997	81.94
377.222	88.94
377.448	82.94
377.674	88.94
377.899	87.94
378.125	84.94
378.35	84.94
378.576	88.94
378.802	84.94
379.027	68.94
379.253	83.94
379.478	93.94
379.704	91.94
379.929	80.94
380.155	88.94
380.38	77.94
380.606	86.94
380.831	96.94
381.057	96.94
381.282	84.94
381.507	88.94
381.733	92.94
381.958	90.94
382.184	84.94
382.409	101.94
382.634	80.94
382.86	80.94
383.085	86.94
383.31	92.94
383.535	100.94
383.761	91.94
383.986	101.94
384.211	88.94
384.436	91.94
384.662	59.94
384.887	94.94
385.112	92.94
385.337	84.94
385.562	83.94
385.787	95.94
386.013	92.94
386.238	90.94
386.463	108.94
386.688	89.94
386.913	78.94
387.138	78.94
387.363	96.94
387.588	85.94
387.813	86.94
388.038	97.94
388.263	97.94
388.488	90.94
388.713	90.94
388.938	78.94
389.163	95.94
389.387	92.94
389.612	106.94
389.837	78.94
390.062	82.94
390.287	88.94
390.512	87.94
390.736	84.94
390.961	79.94
391.186	80.94
391.411	95.94
391.636	96.94
391.86	85.94
392.085	85.94
392.31	82.94
392.534	88.94
392.759	92.94
392.984	90.94
393.208	85.94
393.433	88.94
393.658	95.94
393.882	83.94
394.107	78.94
394.331	103.94
394.556	104.94
394.78	84.94
395.005	101.94
395.229	98.94
395.454	101.94
395.678	101.94
395.903	85.94
396.127	82.94
396.352	101.94
396.576	93.94
396.801	94.94
397.025	95.94
397.249	94.94
397.474	88.94
397.698	93.94
397.922	91.94
398.147	90.94
398.371	93.94
398.595	99.94
398.82	92.94
399.044	93.94
399.268	87.94
399.492	96.94
399.717	95.94
399.941	90.94
400.165	84.94
400.389	102.94
400.613	85.94
400.837	98.94
401.062	87.94
401.286	90.94
401.51	93.94
401.734	87.94
401.958	92.94
402.182	86.94
402.406	90.94
402.63	88.94
402.854	81.94
403.078	84.94
403.302	100.94
403.526	94.94
403.75	98.94
403.974	89.94
404.198	83.94
404.422	83.94
404.645	83.94
404.869	100.94
405.093	94.94
405.317	87.94
405.541	95.94
405.765	83.94
405.988	103.94
406.212	87.94
406.436	88.94
406.66	93.94
406.883	94.94
407.107	91.94
407.331	91.94
407.555	77.94
407.778	78.94
408.002	88.94
408.226	84.94
408.449	87.94
408.673	92.94
408.896	95.94
409.12	102.94
409.344	93.94
409.567	90.94
409.791	79.94
410.014	106.94
410.238	101.94
410.461	92.94
410.685	92.94
410.908	97.94
411.132	96.94
411.355	101.94
411.578	101.94
411.802	86.94
412.025	89.94
412.249	92.94
412.472	97.94
412.695	97.94
412.919	81.94
413.142	86.94
413.365	96.94
413.589	84.94
413.812	86.94
414.035	104.94
414.258	101.94
414.482	91.94
414.705	90.94
414.928	100.94
415.151	103.94
415.374	91.94
415.597	95.94
415.821	107.94
416.044	92.94
416.267	100.94
416.49	97.94
416.713	88.94
416.936	93.94
417.159	97.94
417.382	76.94
417.605	90.94
417.828	98.94
418.051	90.94
418.274	96.94
418.497	104.94
418.72	100.94
418.943	124.94
419.166	97.94
419.389	95.94
419.611	81.94
419.834	90.94
420.057	103.94
420.28	111.94
420.503	122.94
420.726	98.94
420.948	90.94
421.171	88.94
421.394	102.94
421.617	92.94
421.839	83.94
422.062	90.94
422.285	100.94
422.507	114.94
422.73	96.94
422.953	100.94
423.175	96.94
423.398	100.94
423.621	98.94
423.843	97.94
424.066	93.94
424.288	93.94
424.511	102.94
424.733	102.94
424.956	108.94
425.178	93.94
425.401	98.94
425.623	98.94
425.846	105.94
426.068	100.94
426.291	102.94
426.513	84.94
426.735	98.94
426.958	83.94
427.18	84.94
427.402	97.94
427.625	103.94
427.847	90.94
428.069	95.94
428.292	95.94
428.514	104.94
428.736	95.94
428.958	96.94
429.181	97.94
429.403	95.94
429.625	101.94
429.847	101.94
430.069	100.94
430.292	109.94
430.514	86.94
430.736	85.94
430.958	95.94
431.18	99.94
431.402	89.94
431.624	102.94
431.846	82.94
432.068	89.94
432.29	94.94
432.512	86.94
432.734	98.94
432.956	115.94
433.178	95.94
433.4	91.94
433.622	109.94
433.844	97.94
434.066	98.94
434.287	94.94
434.509	104.94
434.731	93.94
434.953	84.94
435.175	103.94
435.397	91.94
435.618	96.94
435.84	97.94
436.062	87.94
436.284	94.94
436.505	98.94
436.727	100.94
436.949	107.94
437.17	100.94
437.392	97.94
437.614	94.94
437.835	85.94
438.057	93.94
438.278	85.94
438.5	94.94
438.721	99.94
438.943	92.94
439.165	107.94
439.386	112.94
439.608	114.94
439.829	107.94
440.05	96.94
440.272	108.94
440.493	99.94
440.715	96.94
440.936	119.94
441.158	107.94
441.379	100.94
441.6	110.94
441.822	107.94
442.043	107.94
442.264	89.94
442.486	102.94
442.707	105.94
442.928	116.94
443.149	92.94
443.371	106.94
443.592	92.94
443.813	87.94
444.034	121.94
444.255	94.94
444.476	101.94
444.698	96.94
444.919	104.94
445.14	197.94
445.361	138.94
445.582	109.94
445.803	95.94
446.024	100.94
446.245	104.94
446.466	114.94
446.687	101.94
446.908	106.94
447.129	116.94
447.35	98.94
447.571	94.94
447.792	107.94
448.013	104.94
448.234	114.94
448.455	91.94
448.675	114.94
448.896	106.94
449.117	85.94
449.338	90.94
449.559	100.94
449.779	90.94
450	90.94
450.221	90.94
450.442	102.94
450.662	95.94
450.883	93.94
451.104	94.94
451.324	81.94
451.545	99.94
451.766	99.94
451.986	88.94
452.207	99.94
452.428	95.94
452.648	97.94
452.869	93.94
453.089	96.94
453.31	88.94
453.53	87.94
453.751	107.94
453.971	86.94
454.192	84.94
454.412	88.94
454.633	89.94
454.853	91.94
455.073	99.94
455.294	86.94
455.514	99.94
455.734	73.94
455.955	91.94
456.175	95.94
456.395	103.94
456.616	99.94
456.836	95.94
457.056	80.94
457.276	95.94
457.497	93.94
457.717	92.94
457.937	83.94
458.157	94.94
458.377	84.94
458.598	92.94
458.818	82.94
459.038	76.94
459.258	91.94
459.478	106.94
459.698	96.94
459.918	93.94
460.138	87.94
460.358	91.94
460.578	95.94
460.798	105.94
461.018	94.94
461.238	91.94
461.458	94.94
461.678	78.94
461.898	85.94
462.118	85.94
462.338	91.94
462.558	107.94
462.777	99.94
462.997	96.94
463.217	93.94
463.437	89.94
463.657	83.94
463.876	86.94
464.096	111.94
464.316	92.94
464.536	81.94
464.755	90.94
464.975	103.94
465.195	89.94
465.414	89.94
465.634	95.94
465.854	94.94
466.073	86.94
466.293	91.94
466.512	97.94
466.732	95.94
466.951	90.94
467.171	97.94
467.391	88.94
467.61	110.94
467.829	100.94
468.049	102.94
468.268	110.94
468.488	102.94
468.707	104.94
468.927	98.94
469.146	105.94
469.365	109.94
469.585	106.94
469.804	76.94
470.023	88.94
470.243	89.94
470.462	96.94
470.681	94.94
470.901	89.94
471.12	98.94
471.339	102.94
471.558	90.94
471.777	104.94
471.997	93.94
472.216	100.94
472.435	89.94
472.654	100.94
472.873	91.94
473.092	104.94
473.311	93.94
473.53	95.94
473.749	99.94
473.968	84.94
474.187	95.94
474.406	92.94
474.625	97.94
474.844	106.94
475.063	86.94
475.282	86.94
475.501	111.94
475.72	99.94
475.939	89.94
476.158	86.94
476.377	93.94
476.596	81.94
476.814	96.94
477.033	86.94
477.252	101.94
477.471	112.94
477.69	98.94
477.908	104.94
478.127	91.94
478.346	97.94
478.564	98.94
478.783	95.94
479.002	92.94
479.22	102.94
479.439	105.94
479.658	91.94
479.876	99.94
480.095	105.94
480.313	93.94
480.532	91.94
480.751	95.94
480.969	83.94
481.188	90.94
481.406	81.94
481.624	87.94
481.843	72.94
482.061	81.94
482.28	100.94
482.498	92.94
482.717	89.94
482.935	86.94
483.153	93.94
483.372	97.94
483.59	104.94
483.808	98.94
484.027	82.94
484.245	104.94
484.463	105.94
484.681	115.94
484.9	108.94
485.118	99.94
485.336	91.94
485.554	82.94
485.772	83.94
485.99	107.94
486.209	92.94
486.427	85.94
486.645	101.94
486.863	119.94
487.081	102.94
487.299	92.94
487.517	106.94
487.735	106.94
487.953	118.94
488.171	99.94
488.389	118.94
488.607	118.94
488.825	104.94
489.043	104.94
489.261	93.94
489.479	89.94
489.696	95.94
489.914	95.94
490.132	100.94
490.35	88.94
490.568	108.94
490.786	115.94
491.003	107.94
491.221	130.94
491.439	110.94
491.657	132.94
491.874	132.94
492.092	121.94
492.31	113.94
492.527	115.94
492.745	110.94
492.963	125.94
493.18	118.94
493.398	124.94
493.615	114.94
493.833	126.94
494.05	116.94
494.268	115.94
494.485	122.94
494.703	111.94
494.92	123.94
495.138	114.94
495.355	112.94
495.573	112.94
495.79	83.94
496.008	94.94
496.225	118.94
496.442	118.94
496.66	109.94
496.877	106.94
497.094	116.94
497.312	117.94
497.529	114.94
497.746	100.94
497.963	116.94
498.181	103.94
498.398	95.94
498.615	94.94
498.832	96.94
499.049	97.94
499.267	93.94
499.484	90.94
499.701	105.94
499.918	104.94
500.135	111.94
500.352	94.94
500.569	105.94
500.786	111.94
501.003	94.94
501.22	111.94
501.437	115.94
501.654	84.94
501.871	90.94
502.088	96.94
502.305	98.94
502.522	116.94
502.739	100.94
502.956	101.94
503.172	106.94
503.389	90.94
503.606	89.94
503.823	101.94
504.04	103.94
504.256	99.94
504.473	107.94
504.69	103.94
504.907	106.94
505.123	99.94
505.34	91.94
505.557	92.94
505.773	88.94
505.99	107.94
506.207	96.94
506.423	89.94
506.64	100.94
506.856	116.94
507.073	86.94
507.289	102.94
507.506	103.94
507.722	92.94
507.939	89.94
508.155	98.94
508.372	106.94
508.588	104.94
508.805	97.94
509.021	97.94
509.238	89.94
509.454	108.94
509.67	90.94
509.887	81.94
510.103	98.94
510.319	77.94
510.536	91.94
510.752	87.94
510.968	79.94
511.184	93.94
511.401	70.94
511.617	93.94
511.833	86.94
512.049	81.94
512.265	90.94
512.481	99.94
512.698	90.94
512.914	78.94
513.13	95.94
513.346	87.94
513.562	92.94
513.778	89.94
513.994	93.94
514.21	92.94
514.426	83.94
514.642	77.94
514.858	85.94
515.074	92.94
515.29	107.94
515.506	90.94
515.721	91.94
515.937	87.94
516.153	75.94
516.369	88.94
