Data from Location4.07152019.Energy5.Lamp.07192019.3%Agarose_HRD10591_15-26-08-578.txt Node
Date: Fri Jul 19 15:26:08 EDT 2019
User: cochatt
Spectrometer: HR+D1059
Trigger mode: 1
Integration Time (sec): 1.000000E-1
Scans to average: 1
Electric dark correction enabled: true
Nonlinearity correction enabled: false
Boxcar width: 0
XAxis mode: Wavelengths
Number of Pixels in Spectrum: 2048
>>>>>Begin Spectral Data<<<<<
223.165	-30.06
223.4	-30.06
223.635	-30.06
223.869	-20.06
224.104	-15.06
224.338	-10.06
224.573	-13.06
224.808	0.94
225.042	-4.06
225.277	-12.06
225.511	-3.06
225.746	-3.06
225.98	8.94
226.215	-0.06
226.449	21.94
226.683	11.94
226.918	22.94
227.152	43.94
227.387	21.94
227.621	43.94
227.856	41.94
228.09	37.94
228.324	44.94
228.559	54.94
228.793	58.94
229.027	55.94
229.262	62.94
229.496	62.94
229.73	63.94
229.964	73.94
230.199	60.94
230.433	76.94
230.667	61.94
230.901	70.94
231.136	74.94
231.37	75.94
231.604	85.94
231.838	81.94
232.072	81.94
232.306	67.94
232.541	80.94
232.775	75.94
233.009	87.94
233.243	69.94
233.477	105.94
233.711	72.94
233.945	66.94
234.179	65.94
234.413	78.94
234.647	84.94
234.881	63.94
235.115	59.94
235.349	67.94
235.583	83.94
235.817	69.94
236.051	78.94
236.285	58.94
236.519	71.94
236.753	80.94
236.987	74.94
237.221	70.94
237.455	74.94
237.689	71.94
237.922	68.94
238.156	79.94
238.39	68.94
238.624	68.94
238.858	69.94
239.091	69.94
239.325	60.94
239.559	80.94
239.793	65.94
240.027	70.94
240.26	53.94
240.494	73.94
240.728	70.94
240.961	70.94
241.195	80.94
241.429	74.94
241.662	70.94
241.896	75.94
242.13	67.94
242.363	67.94
242.597	71.94
242.83	65.94
243.064	81.94
243.298	66.94
243.531	86.94
243.765	61.94
243.998	64.94
244.232	81.94
244.465	83.94
244.699	83.94
244.932	91.94
245.166	57.94
245.399	71.94
245.633	71.94
245.866	70.94
246.099	72.94
246.333	79.94
246.566	80.94
246.8	77.94
247.033	70.94
247.266	77.94
247.5	58.94
247.733	77.94
247.966	78.94
248.2	76.94
248.433	75.94
248.666	78.94
248.899	70.94
249.133	64.94
249.366	74.94
249.599	86.94
249.832	79.94
250.066	82.94
250.299	73.94
250.532	89.94
250.765	65.94
250.998	71.94
251.231	91.94
251.465	75.94
251.698	79.94
251.931	70.94
252.164	83.94
252.397	65.94
252.63	90.94
252.863	70.94
253.096	70.94
253.329	89.94
253.562	75.94
253.795	55.94
254.028	69.94
254.261	81.94
254.494	73.94
254.727	76.94
254.96	68.94
255.193	76.94
255.426	65.94
255.659	77.94
255.892	67.94
256.124	85.94
256.357	70.94
256.59	61.94
256.823	89.94
257.056	72.94
257.289	75.94
257.521	84.94
257.754	71.94
257.987	74.94
258.22	77.94
258.452	86.94
258.685	83.94
258.918	75.94
259.151	74.94
259.383	71.94
259.616	79.94
259.849	81.94
260.081	79.94
260.314	65.94
260.547	59.94
260.779	63.94
261.012	76.94
261.244	71.94
261.477	81.94
261.71	88.94
261.942	76.94
262.175	71.94
262.407	83.94
262.64	83.94
262.872	65.94
263.105	86.94
263.337	85.94
263.57	76.94
263.802	78.94
264.035	70.94
264.267	76.94
264.499	80.94
264.732	65.94
264.964	80.94
265.197	91.94
265.429	69.94
265.661	78.94
265.894	71.94
266.126	78.94
266.358	68.94
266.591	75.94
266.823	73.94
267.055	61.94
267.287	77.94
267.52	80.94
267.752	79.94
267.984	94.94
268.216	71.94
268.448	78.94
268.681	78.94
268.913	89.94
269.145	73.94
269.377	81.94
269.609	81.94
269.841	83.94
270.073	60.94
270.306	80.94
270.538	87.94
270.77	82.94
271.002	78.94
271.234	82.94
271.466	84.94
271.698	70.94
271.93	83.94
272.162	91.94
272.394	75.94
272.626	78.94
272.858	77.94
273.09	86.94
273.322	85.94
273.553	73.94
273.785	74.94
274.017	76.94
274.249	73.94
274.481	69.94
274.713	79.94
274.945	82.94
275.176	72.94
275.408	81.94
275.64	79.94
275.872	83.94
276.104	81.94
276.335	77.94
276.567	68.94
276.799	81.94
277.031	76.94
277.262	60.94
277.494	82.94
277.726	86.94
277.957	71.94
278.189	65.94
278.421	75.94
278.652	83.94
278.884	86.94
279.115	88.94
279.347	79.94
279.579	97.94
279.81	75.94
280.042	77.94
280.273	76.94
280.505	79.94
280.736	91.94
280.968	83.94
281.199	85.94
281.431	80.94
281.662	78.94
281.894	73.94
282.125	83.94
282.356	92.94
282.588	88.94
282.819	71.94
283.051	84.94
283.282	90.94
283.513	77.94
283.745	72.94
283.976	84.94
284.207	85.94
284.439	67.94
284.67	86.94
284.901	79.94
285.132	84.94
285.364	66.94
285.595	80.94
285.826	66.94
286.057	80.94
286.288	84.94
286.52	74.94
286.751	86.94
286.982	69.94
287.213	83.94
287.444	85.94
287.675	76.94
287.906	70.94
288.138	83.94
288.369	80.94
288.6	92.94
288.831	73.94
289.062	92.94
289.293	80.94
289.524	76.94
289.755	74.94
289.986	74.94
290.217	75.94
290.448	79.94
290.679	78.94
290.91	68.94
291.141	84.94
291.371	81.94
291.602	89.94
291.833	77.94
292.064	68.94
292.295	75.94
292.526	80.94
292.757	81.94
292.987	81.94
293.218	67.94
293.449	78.94
293.68	81.94
293.91	69.94
294.141	84.94
294.372	72.94
294.603	83.94
294.833	77.94
295.064	73.94
295.295	97.94
295.525	75.94
295.756	87.94
295.987	71.94
296.217	76.94
296.448	81.94
296.679	79.94
296.909	64.94
297.14	66.94
297.37	75.94
297.601	78.94
297.831	89.94
298.062	73.94
298.292	70.94
298.523	80.94
298.753	92.94
298.984	64.94
299.214	81.94
299.445	70.94
299.675	76.94
299.905	80.94
300.136	69.94
300.366	87.94
300.597	82.94
300.827	85.94
301.057	80.94
301.288	81.94
301.518	78.94
301.748	66.94
301.979	69.94
302.209	67.94
302.439	91.94
302.669	76.94
302.9	65.94
303.13	86.94
303.36	85.94
303.59	76.94
303.82	75.94
304.051	83.94
304.281	83.94
304.511	83.94
304.741	79.94
304.971	83.94
305.201	69.94
305.431	79.94
305.661	74.94
305.891	80.94
306.121	81.94
306.352	85.94
306.582	89.94
306.812	85.94
307.042	80.94
307.272	73.94
307.502	88.94
307.731	68.94
307.961	67.94
308.191	79.94
308.421	91.94
308.651	77.94
308.881	74.94
309.111	84.94
309.341	85.94
309.571	83.94
309.8	81.94
310.03	79.94
310.26	73.94
310.49	87.94
310.72	74.94
310.949	65.94
311.179	73.94
311.409	74.94
311.639	83.94
311.868	77.94
312.098	78.94
312.328	90.94
312.557	81.94
312.787	91.94
313.017	81.94
313.246	85.94
313.476	82.94
313.706	74.94
313.935	84.94
314.165	76.94
314.394	71.94
314.624	80.94
314.853	86.94
315.083	82.94
315.312	88.94
315.542	79.94
315.771	82.94
316.001	75.94
316.23	87.94
316.46	87.94
316.689	72.94
316.919	90.94
317.148	80.94
317.377	86.94
317.607	86.94
317.836	78.94
318.065	75.94
318.295	91.94
318.524	61.94
318.753	71.94
318.983	81.94
319.212	75.94
319.441	78.94
319.67	69.94
319.9	78.94
320.129	83.94
320.358	83.94
320.587	79.94
320.816	86.94
321.046	74.94
321.275	66.94
321.504	69.94
321.733	85.94
321.962	83.94
322.191	77.94
322.42	80.94
322.649	81.94
322.878	82.94
323.108	78.94
323.337	93.94
323.566	83.94
323.795	77.94
324.024	82.94
324.253	76.94
324.482	72.94
324.71	81.94
324.939	94.94
325.168	70.94
325.397	84.94
325.626	73.94
325.855	73.94
326.084	79.94
326.313	71.94
326.542	74.94
326.77	81.94
326.999	82.94
327.228	69.94
327.457	81.94
327.686	80.94
327.914	61.94
328.143	75.94
328.372	70.94
328.6	66.94
328.829	82.94
329.058	79.94
329.287	74.94
329.515	84.94
329.744	74.94
329.972	77.94
330.201	89.94
330.43	85.94
330.658	69.94
330.887	79.94
331.115	81.94
331.344	85.94
331.572	92.94
331.801	81.94
332.03	74.94
332.258	84.94
332.486	68.94
332.715	83.94
332.943	81.94
333.172	74.94
333.4	77.94
333.629	79.94
333.857	83.94
334.085	80.94
334.314	89.94
334.542	73.94
334.771	90.94
334.999	82.94
335.227	71.94
335.455	76.94
335.684	83.94
335.912	63.94
336.14	77.94
336.369	80.94
336.597	85.94
336.825	83.94
337.053	73.94
337.281	64.94
337.51	66.94
337.738	65.94
337.966	81.94
338.194	72.94
338.422	72.94
338.65	66.94
338.878	90.94
339.106	84.94
339.334	77.94
339.562	77.94
339.79	61.94
340.018	83.94
340.246	76.94
340.474	92.94
340.702	76.94
340.93	69.94
341.158	80.94
341.386	77.94
341.614	71.94
341.842	81.94
342.07	76.94
342.298	65.94
342.526	68.94
342.754	82.94
342.981	64.94
343.209	89.94
343.437	92.94
343.665	75.94
343.893	66.94
344.12	74.94
344.348	83.94
344.576	77.94
344.804	72.94
345.031	73.94
345.259	88.94
345.487	78.94
345.714	71.94
345.942	70.94
346.17	69.94
346.397	61.94
346.625	86.94
346.853	72.94
347.08	63.94
347.308	68.94
347.535	72.94
347.763	89.94
347.99	73.94
348.218	88.94
348.445	83.94
348.673	74.94
348.9	64.94
349.128	86.94
349.355	82.94
349.583	87.94
349.81	79.94
350.037	81.94
350.265	78.94
350.492	82.94
350.72	90.94
350.947	73.94
351.174	89.94
351.402	94.94
351.629	83.94
351.856	82.94
352.083	68.94
352.311	85.94
352.538	78.94
352.765	85.94
352.992	81.94
353.22	73.94
353.447	71.94
353.674	87.94
353.901	78.94
354.128	77.94
354.355	87.94
354.583	76.94
354.81	75.94
355.037	81.94
355.264	80.94
355.491	92.94
355.718	97.94
355.945	91.94
356.172	92.94
356.399	76.94
356.626	76.94
356.853	71.94
357.08	78.94
357.307	89.94
357.534	81.94
357.761	77.94
357.988	80.94
358.215	75.94
358.441	66.94
358.668	89.94
358.895	75.94
359.122	81.94
359.349	74.94
359.576	74.94
359.802	94.94
360.029	82.94
360.256	55.94
360.483	87.94
360.709	71.94
360.936	86.94
361.163	90.94
361.39	75.94
361.616	79.94
361.843	78.94
362.07	74.94
362.296	78.94
362.523	76.94
362.749	70.94
362.976	68.94
363.203	76.94
363.429	71.94
363.656	64.94
363.882	74.94
364.109	79.94
364.335	77.94
364.562	70.94
364.788	65.94
365.015	84.94
365.241	67.94
365.468	74.94
365.694	68.94
365.92	86.94
366.147	82.94
366.373	79.94
366.599	75.94
366.826	80.94
367.052	73.94
367.278	64.94
367.505	76.94
367.731	81.94
367.957	87.94
368.184	82.94
368.41	79.94
368.636	62.94
368.862	75.94
369.089	71.94
369.315	75.94
369.541	82.94
369.767	79.94
369.993	76.94
370.219	77.94
370.445	76.94
370.672	68.94
370.898	70.94
371.124	76.94
371.35	84.94
371.576	78.94
371.802	84.94
372.028	76.94
372.254	75.94
372.48	83.94
372.706	93.94
372.932	87.94
373.158	74.94
373.384	77.94
373.61	83.94
373.835	82.94
374.061	73.94
374.287	72.94
374.513	79.94
374.739	77.94
374.965	84.94
375.191	90.94
375.416	82.94
375.642	79.94
375.868	71.94
376.094	78.94
376.319	61.94
376.545	85.94
376.771	82.94
376.997	69.94
377.222	71.94
377.448	95.94
377.674	87.94
377.899	71.94
378.125	69.94
378.35	75.94
378.576	75.94
378.802	76.94
379.027	70.94
379.253	85.94
379.478	76.94
379.704	74.94
379.929	80.94
380.155	77.94
380.38	81.94
380.606	65.94
380.831	75.94
381.057	85.94
381.282	71.94
381.507	69.94
381.733	71.94
381.958	78.94
382.184	75.94
382.409	74.94
382.634	73.94
382.86	77.94
383.085	68.94
383.31	72.94
383.535	74.94
383.761	82.94
383.986	88.94
384.211	71.94
384.436	73.94
384.662	73.94
384.887	69.94
385.112	71.94
385.337	69.94
385.562	71.94
385.787	72.94
386.013	79.94
386.238	71.94
386.463	73.94
386.688	81.94
386.913	78.94
387.138	86.94
387.363	62.94
387.588	79.94
387.813	80.94
388.038	76.94
388.263	80.94
388.488	78.94
388.713	86.94
388.938	87.94
389.163	85.94
389.387	73.94
389.612	74.94
389.837	71.94
390.062	92.94
390.287	87.94
390.512	79.94
390.736	74.94
390.961	93.94
391.186	81.94
391.411	89.94
391.636	98.94
391.86	78.94
392.085	78.94
392.31	73.94
392.534	81.94
392.759	85.94
392.984	85.94
393.208	74.94
393.433	87.94
393.658	84.94
393.882	81.94
394.107	90.94
394.331	73.94
394.556	85.94
394.78	82.94
395.005	88.94
395.229	80.94
395.454	84.94
395.678	76.94
395.903	85.94
396.127	76.94
396.352	88.94
396.576	79.94
396.801	75.94
397.025	83.94
397.249	90.94
397.474	85.94
397.698	91.94
397.922	77.94
398.147	62.94
398.371	88.94
398.595	84.94
398.82	78.94
399.044	75.94
399.268	81.94
399.492	67.94
399.717	73.94
399.941	81.94
400.165	89.94
400.389	70.94
400.613	71.94
400.837	90.94
401.062	76.94
401.286	82.94
401.51	86.94
401.734	93.94
401.958	76.94
402.182	78.94
402.406	80.94
402.63	94.94
402.854	79.94
403.078	78.94
403.302	83.94
403.526	74.94
403.75	83.94
403.974	85.94
404.198	77.94
404.422	88.94
404.645	85.94
404.869	75.94
405.093	83.94
405.317	83.94
405.541	93.94
405.765	81.94
405.988	69.94
406.212	76.94
406.436	85.94
406.66	90.94
406.883	89.94
407.107	87.94
407.331	89.94
407.555	71.94
407.778	79.94
408.002	80.94
408.226	89.94
408.449	94.94
408.673	85.94
408.896	78.94
409.12	74.94
409.344	81.94
409.567	85.94
409.791	71.94
410.014	99.94
410.238	100.94
410.461	89.94
410.685	88.94
410.908	96.94
411.132	89.94
411.355	82.94
411.578	75.94
411.802	100.94
412.025	79.94
412.249	93.94
412.472	92.94
412.695	91.94
412.919	73.94
413.142	82.94
413.365	93.94
413.589	89.94
413.812	81.94
414.035	89.94
414.258	110.94
414.482	101.94
414.705	87.94
414.928	92.94
415.151	82.94
415.374	84.94
415.597	79.94
415.821	92.94
416.044	98.94
416.267	93.94
416.49	75.94
416.713	96.94
416.936	101.94
417.159	99.94
417.382	90.94
417.605	81.94
417.828	95.94
418.051	92.94
418.274	89.94
418.497	79.94
418.72	83.94
418.943	92.94
419.166	85.94
419.389	81.94
419.611	92.94
419.834	89.94
420.057	100.94
420.28	92.94
420.503	91.94
420.726	99.94
420.948	89.94
421.171	89.94
421.394	73.94
421.617	87.94
421.839	87.94
422.062	91.94
422.285	89.94
422.507	75.94
422.73	72.94
422.953	87.94
423.175	86.94
423.398	97.94
423.621	91.94
423.843	86.94
424.066	77.94
424.288	100.94
424.511	91.94
424.733	96.94
424.956	90.94
425.178	97.94
425.401	84.94
425.623	99.94
425.846	106.94
426.068	84.94
426.291	79.94
426.513	89.94
426.735	98.94
426.958	82.94
427.18	91.94
427.402	96.94
427.625	85.94
427.847	80.94
428.069	92.94
428.292	84.94
428.514	88.94
428.736	97.94
428.958	63.94
429.181	88.94
429.403	92.94
429.625	85.94
429.847	80.94
430.069	96.94
430.292	85.94
430.514	84.94
430.736	88.94
430.958	94.94
431.18	86.94
431.402	97.94
431.624	84.94
431.846	75.94
432.068	86.94
432.29	71.94
432.512	95.94
432.734	90.94
432.956	81.94
433.178	89.94
433.4	95.94
433.622	99.94
433.844	94.94
434.066	78.94
434.287	70.94
434.509	77.94
434.731	87.94
434.953	84.94
435.175	87.94
435.397	78.94
435.618	82.94
435.84	83.94
436.062	85.94
436.284	89.94
436.505	84.94
436.727	101.94
436.949	97.94
437.17	75.94
437.392	86.94
437.614	84.94
437.835	80.94
438.057	74.94
438.278	92.94
438.5	78.94
438.721	90.94
438.943	95.94
439.165	97.94
439.386	102.94
439.608	83.94
439.829	92.94
440.05	82.94
440.272	95.94
440.493	79.94
440.715	91.94
440.936	96.94
441.158	88.94
441.379	85.94
441.6	93.94
441.822	68.94
442.043	91.94
442.264	91.94
442.486	97.94
442.707	91.94
442.928	90.94
443.149	92.94
443.371	98.94
443.592	90.94
443.813	96.94
444.034	93.94
444.255	77.94
444.476	89.94
444.698	90.94
444.919	100.94
445.14	209.94
445.361	144.94
445.582	91.94
445.803	81.94
446.024	105.94
446.245	99.94
446.466	91.94
446.687	101.94
446.908	86.94
447.129	91.94
447.35	86.94
447.571	94.94
447.792	85.94
448.013	94.94
448.234	93.94
448.455	86.94
448.675	97.94
448.896	88.94
449.117	102.94
449.338	88.94
449.559	87.94
449.779	99.94
450	109.94
450.221	81.94
450.442	89.94
450.662	101.94
450.883	89.94
451.104	78.94
451.324	86.94
451.545	94.94
451.766	97.94
451.986	78.94
452.207	93.94
452.428	98.94
452.648	81.94
452.869	86.94
453.089	87.94
453.31	88.94
453.53	87.94
453.751	95.94
453.971	89.94
454.192	86.94
454.412	87.94
454.633	86.94
454.853	96.94
455.073	83.94
455.294	94.94
455.514	95.94
455.734	81.94
455.955	91.94
456.175	90.94
456.395	89.94
456.616	74.94
456.836	85.94
457.056	64.94
457.276	77.94
457.497	74.94
457.717	87.94
457.937	84.94
458.157	82.94
458.377	72.94
458.598	80.94
458.818	95.94
459.038	79.94
459.258	78.94
459.478	81.94
459.698	79.94
459.918	86.94
460.138	92.94
460.358	77.94
460.578	85.94
460.798	68.94
461.018	82.94
461.238	82.94
461.458	92.94
461.678	85.94
461.898	82.94
462.118	88.94
462.338	78.94
462.558	94.94
462.777	102.94
462.997	82.94
463.217	77.94
463.437	78.94
463.657	82.94
463.876	77.94
464.096	70.94
464.316	66.94
464.536	86.94
464.755	70.94
464.975	85.94
465.195	82.94
465.414	79.94
465.634	89.94
465.854	93.94
466.073	85.94
466.293	97.94
466.512	105.94
466.732	79.94
466.951	99.94
467.171	80.94
467.391	83.94
467.61	98.94
467.829	89.94
468.049	89.94
468.268	93.94
468.488	95.94
468.707	96.94
468.927	104.94
469.146	87.94
469.365	94.94
469.585	83.94
469.804	78.94
470.023	91.94
470.243	97.94
470.462	90.94
470.681	103.94
470.901	94.94
471.12	90.94
471.339	82.94
471.558	80.94
471.777	73.94
471.997	101.94
472.216	98.94
472.435	94.94
472.654	98.94
472.873	83.94
473.092	91.94
473.311	86.94
473.53	84.94
473.749	88.94
473.968	101.94
474.187	99.94
474.406	98.94
474.625	106.94
474.844	98.94
475.063	82.94
475.282	98.94
475.501	72.94
475.72	94.94
475.939	83.94
476.158	79.94
476.377	91.94
476.596	80.94
476.814	79.94
477.033	84.94
477.252	69.94
477.471	93.94
477.69	76.94
477.908	72.94
478.127	89.94
478.346	93.94
478.564	84.94
478.783	86.94
479.002	86.94
479.22	83.94
479.439	71.94
479.658	98.94
479.876	75.94
480.095	89.94
480.313	85.94
480.532	85.94
480.751	91.94
480.969	71.94
481.188	75.94
481.406	66.94
481.624	84.94
481.843	70.94
482.061	74.94
482.28	80.94
482.498	79.94
482.717	84.94
482.935	88.94
483.153	94.94
483.372	95.94
483.59	92.94
483.808	86.94
484.027	97.94
484.245	84.94
484.463	102.94
484.681	112.94
484.9	77.94
485.118	95.94
485.336	92.94
485.554	86.94
485.772	78.94
485.99	81.94
486.209	90.94
486.427	81.94
486.645	81.94
486.863	95.94
487.081	92.94
487.299	85.94
487.517	104.94
487.735	97.94
487.953	109.94
488.171	113.94
488.389	99.94
488.607	101.94
488.825	98.94
489.043	108.94
489.261	81.94
489.479	99.94
489.696	91.94
489.914	86.94
490.132	93.94
490.35	111.94
490.568	105.94
490.786	99.94
491.003	98.94
491.221	87.94
491.439	117.94
491.657	95.94
491.874	109.94
492.092	130.94
492.31	129.94
492.527	124.94
492.745	115.94
492.963	118.94
493.18	105.94
493.398	103.94
493.615	111.94
493.833	96.94
494.05	113.94
494.268	103.94
494.485	95.94
494.703	105.94
494.92	83.94
495.138	89.94
495.355	107.94
495.573	99.94
495.79	96.94
496.008	95.94
496.225	98.94
496.442	107.94
496.66	115.94
496.877	95.94
497.094	105.94
497.312	115.94
497.529	104.94
497.746	102.94
497.963	83.94
498.181	93.94
498.398	93.94
498.615	86.94
498.832	90.94
499.049	90.94
499.267	77.94
499.484	99.94
499.701	82.94
499.918	97.94
500.135	96.94
500.352	79.94
500.569	95.94
500.786	99.94
501.003	94.94
501.22	100.94
501.437	90.94
501.654	102.94
501.871	94.94
502.088	89.94
502.305	78.94
502.522	97.94
502.739	81.94
502.956	91.94
503.172	82.94
503.389	90.94
503.606	83.94
503.823	94.94
504.04	81.94
504.256	83.94
504.473	91.94
504.69	98.94
504.907	95.94
505.123	92.94
505.34	75.94
505.557	89.94
505.773	90.94
505.99	71.94
506.207	85.94
506.423	84.94
506.64	106.94
506.856	91.94
507.073	91.94
507.289	99.94
507.506	80.94
507.722	113.94
507.939	78.94
508.155	90.94
508.372	84.94
508.588	80.94
508.805	86.94
509.021	87.94
509.238	74.94
509.454	94.94
509.67	74.94
509.887	82.94
510.103	86.94
510.319	81.94
510.536	81.94
510.752	82.94
510.968	81.94
511.184	68.94
511.401	71.94
511.617	88.94
511.833	84.94
512.049	84.94
512.265	87.94
512.481	90.94
512.698	73.94
512.914	75.94
513.13	82.94
513.346	69.94
513.562	93.94
513.778	82.94
513.994	92.94
514.21	79.94
514.426	93.94
514.642	78.94
514.858	83.94
515.074	68.94
515.29	80.94
515.506	79.94
515.721	69.94
515.937	70.94
516.153	80.94
516.369	82.94
516.585	70.94
516.801	92.94
517.016	84.94
517.232	85.94
517.448	80.94
517.664	95.94
517.879	78.94
518.095	77.94
518.311	88.94
518.527	78.94
518.742	78.94
