Data from Location4.07152019.Energy5.Lamp.07192019.3%Agarose_HRD10591_15-23-36-576.txt Node
Date: Fri Jul 19 15:23:36 EDT 2019
User: cochatt
Spectrometer: HR+D1059
Trigger mode: 1
Integration Time (sec): 1.000000E-1
Scans to average: 1
Electric dark correction enabled: true
Nonlinearity correction enabled: false
Boxcar width: 0
XAxis mode: Wavelengths
Number of Pixels in Spectrum: 2048
>>>>>Begin Spectral Data<<<<<
223.165	-12.25
223.4	-12.25
223.635	-12.25
223.869	-17.25
224.104	-20.25
224.338	-3.25
224.573	-13.25
224.808	-14.25
225.042	-18.25
225.277	-10.25
225.511	5.75
225.746	-8.25
225.98	12.75
226.215	12.75
226.449	17.75
226.683	21.75
226.918	26.75
227.152	19.75
227.387	40.75
227.621	33.75
227.856	47.75
228.09	41.75
228.324	49.75
228.559	53.75
228.793	55.75
229.027	58.75
229.262	70.75
229.496	59.75
229.73	60.75
229.964	71.75
230.199	76.75
230.433	69.75
230.667	90.75
230.901	71.75
231.136	82.75
231.37	76.75
231.604	98.75
231.838	90.75
232.072	97.75
232.306	92.75
232.541	95.75
232.775	74.75
233.009	79.75
233.243	77.75
233.477	97.75
233.711	91.75
233.945	69.75
234.179	76.75
234.413	91.75
234.647	85.75
234.881	82.75
235.115	87.75
235.349	80.75
235.583	88.75
235.817	76.75
236.051	86.75
236.285	70.75
236.519	79.75
236.753	79.75
236.987	77.75
237.221	91.75
237.455	85.75
237.689	82.75
237.922	84.75
238.156	81.75
238.39	82.75
238.624	76.75
238.858	72.75
239.091	64.75
239.325	85.75
239.559	80.75
239.793	77.75
240.027	83.75
240.26	85.75
240.494	74.75
240.728	75.75
240.961	78.75
241.195	70.75
241.429	79.75
241.662	83.75
241.896	92.75
242.13	73.75
242.363	74.75
242.597	87.75
242.83	91.75
243.064	87.75
243.298	77.75
243.531	82.75
243.765	72.75
243.998	67.75
244.232	85.75
244.465	82.75
244.699	72.75
244.932	84.75
245.166	86.75
245.399	82.75
245.633	76.75
245.866	87.75
246.099	75.75
246.333	86.75
246.566	81.75
246.8	84.75
247.033	75.75
247.266	68.75
247.5	76.75
247.733	95.75
247.966	71.75
248.2	91.75
248.433	78.75
248.666	84.75
248.899	85.75
249.133	79.75
249.366	92.75
249.599	71.75
249.832	79.75
250.066	77.75
250.299	84.75
250.532	75.75
250.765	67.75
250.998	78.75
251.231	75.75
251.465	72.75
251.698	78.75
251.931	76.75
252.164	74.75
252.397	68.75
252.63	83.75
252.863	75.75
253.096	89.75
253.329	84.75
253.562	86.75
253.795	66.75
254.028	69.75
254.261	90.75
254.494	83.75
254.727	68.75
254.96	81.75
255.193	81.75
255.426	90.75
255.659	84.75
255.892	72.75
256.124	70.75
256.357	86.75
256.59	87.75
256.823	94.75
257.056	76.75
257.289	72.75
257.521	67.75
257.754	77.75
257.987	75.75
258.22	90.75
258.452	82.75
258.685	83.75
258.918	83.75
259.151	80.75
259.383	54.75
259.616	91.75
259.849	76.75
260.081	83.75
260.314	75.75
260.547	80.75
260.779	77.75
261.012	96.75
261.244	67.75
261.477	87.75
261.71	79.75
261.942	78.75
262.175	79.75
262.407	78.75
262.64	73.75
262.872	76.75
263.105	92.75
263.337	83.75
263.57	84.75
263.802	82.75
264.035	79.75
264.267	85.75
264.499	69.75
264.732	96.75
264.964	91.75
265.197	96.75
265.429	71.75
265.661	95.75
265.894	81.75
266.126	78.75
266.358	74.75
266.591	78.75
266.823	79.75
267.055	76.75
267.287	90.75
267.52	75.75
267.752	75.75
267.984	98.75
268.216	71.75
268.448	81.75
268.681	90.75
268.913	75.75
269.145	92.75
269.377	80.75
269.609	86.75
269.841	91.75
270.073	78.75
270.306	89.75
270.538	81.75
270.77	75.75
271.002	74.75
271.234	92.75
271.466	71.75
271.698	83.75
271.93	88.75
272.162	88.75
272.394	81.75
272.626	79.75
272.858	86.75
273.09	90.75
273.322	75.75
273.553	90.75
273.785	91.75
274.017	87.75
274.249	80.75
274.481	86.75
274.713	86.75
274.945	83.75
275.176	82.75
275.408	88.75
275.64	87.75
275.872	75.75
276.104	67.75
276.335	71.75
276.567	75.75
276.799	91.75
277.031	74.75
277.262	72.75
277.494	79.75
277.726	93.75
277.957	93.75
278.189	85.75
278.421	92.75
278.652	99.75
278.884	98.75
279.115	93.75
279.347	75.75
279.579	101.75
279.81	86.75
280.042	82.75
280.273	69.75
280.505	81.75
280.736	82.75
280.968	98.75
281.199	80.75
281.431	91.75
281.662	74.75
281.894	85.75
282.125	77.75
282.356	78.75
282.588	76.75
282.819	83.75
283.051	88.75
283.282	75.75
283.513	80.75
283.745	101.75
283.976	98.75
284.207	74.75
284.439	81.75
284.67	77.75
284.901	81.75
285.132	68.75
285.364	76.75
285.595	66.75
285.826	81.75
286.057	68.75
286.288	85.75
286.52	79.75
286.751	81.75
286.982	96.75
287.213	75.75
287.444	86.75
287.675	86.75
287.906	77.75
288.138	59.75
288.369	100.75
288.6	80.75
288.831	92.75
289.062	73.75
289.293	79.75
289.524	62.75
289.755	92.75
289.986	88.75
290.217	87.75
290.448	99.75
290.679	84.75
290.91	84.75
291.141	84.75
291.371	75.75
291.602	93.75
291.833	86.75
292.064	88.75
292.295	82.75
292.526	93.75
292.757	83.75
292.987	78.75
293.218	80.75
293.449	88.75
293.68	95.75
293.91	73.75
294.141	71.75
294.372	85.75
294.603	80.75
294.833	74.75
295.064	101.75
295.295	94.75
295.525	96.75
295.756	87.75
295.987	75.75
296.217	85.75
296.448	78.75
296.679	84.75
296.909	90.75
297.14	80.75
297.37	86.75
297.601	80.75
297.831	98.75
298.062	83.75
298.292	94.75
298.523	78.75
298.753	82.75
298.984	84.75
299.214	77.75
299.445	79.75
299.675	89.75
299.905	89.75
300.136	76.75
300.366	95.75
300.597	89.75
300.827	85.75
301.057	96.75
301.288	79.75
301.518	101.75
301.748	90.75
301.979	68.75
302.209	85.75
302.439	93.75
302.669	89.75
302.9	99.75
303.13	83.75
303.36	83.75
303.59	90.75
303.82	94.75
304.051	93.75
304.281	70.75
304.511	79.75
304.741	77.75
304.971	92.75
305.201	85.75
305.431	79.75
305.661	81.75
305.891	87.75
306.121	72.75
306.352	84.75
306.582	95.75
306.812	100.75
307.042	88.75
307.272	101.75
307.502	87.75
307.731	92.75
307.961	89.75
308.191	90.75
308.421	66.75
308.651	88.75
308.881	82.75
309.111	81.75
309.341	75.75
309.571	76.75
309.8	75.75
310.03	72.75
310.26	87.75
310.49	80.75
310.72	89.75
310.949	77.75
311.179	87.75
311.409	90.75
311.639	79.75
311.868	95.75
312.098	84.75
312.328	84.75
312.557	76.75
312.787	89.75
313.017	80.75
313.246	93.75
313.476	93.75
313.706	74.75
313.935	86.75
314.165	73.75
314.394	81.75
314.624	95.75
314.853	81.75
315.083	84.75
315.312	89.75
315.542	87.75
315.771	83.75
316.001	92.75
316.23	87.75
316.46	83.75
316.689	88.75
316.919	83.75
317.148	82.75
317.377	99.75
317.607	84.75
317.836	88.75
318.065	85.75
318.295	100.75
318.524	83.75
318.753	91.75
318.983	79.75
319.212	91.75
319.441	96.75
319.67	97.75
319.9	89.75
320.129	84.75
320.358	76.75
320.587	87.75
320.816	89.75
321.046	90.75
321.275	82.75
321.504	85.75
321.733	87.75
321.962	78.75
322.191	97.75
322.42	94.75
322.649	90.75
322.878	92.75
323.108	92.75
323.337	88.75
323.566	80.75
323.795	70.75
324.024	80.75
324.253	86.75
324.482	77.75
324.71	93.75
324.939	90.75
325.168	84.75
325.397	67.75
325.626	65.75
325.855	73.75
326.084	98.75
326.313	92.75
326.542	80.75
326.77	83.75
326.999	83.75
327.228	84.75
327.457	86.75
327.686	98.75
327.914	102.75
328.143	97.75
328.372	72.75
328.6	83.75
328.829	87.75
329.058	88.75
329.287	90.75
329.515	86.75
329.744	88.75
329.972	92.75
330.201	82.75
330.43	90.75
330.658	93.75
330.887	84.75
331.115	78.75
331.344	90.75
331.572	105.75
331.801	77.75
332.03	82.75
332.258	94.75
332.486	92.75
332.715	84.75
332.943	94.75
333.172	87.75
333.4	84.75
333.629	81.75
333.857	88.75
334.085	86.75
334.314	87.75
334.542	83.75
334.771	91.75
334.999	83.75
335.227	85.75
335.455	86.75
335.684	88.75
335.912	87.75
336.14	87.75
336.369	87.75
336.597	73.75
336.825	91.75
337.053	83.75
337.281	92.75
337.51	85.75
337.738	93.75
337.966	92.75
338.194	85.75
338.422	78.75
338.65	74.75
338.878	77.75
339.106	83.75
339.334	90.75
339.562	91.75
339.79	95.75
340.018	91.75
340.246	84.75
340.474	90.75
340.702	90.75
340.93	81.75
341.158	87.75
341.386	80.75
341.614	89.75
341.842	76.75
342.07	76.75
342.298	84.75
342.526	93.75
342.754	94.75
342.981	80.75
343.209	83.75
343.437	95.75
343.665	77.75
343.893	78.75
344.12	94.75
344.348	76.75
344.576	89.75
344.804	88.75
345.031	100.75
345.259	86.75
345.487	81.75
345.714	76.75
345.942	97.75
346.17	91.75
346.397	90.75
346.625	78.75
346.853	74.75
347.08	83.75
347.308	74.75
347.535	92.75
347.763	77.75
347.99	70.75
348.218	75.75
348.445	83.75
348.673	78.75
348.9	78.75
349.128	90.75
349.355	80.75
349.583	82.75
349.81	83.75
350.037	87.75
350.265	83.75
350.492	85.75
350.72	71.75
350.947	76.75
351.174	94.75
351.402	81.75
351.629	84.75
351.856	82.75
352.083	83.75
352.311	92.75
352.538	91.75
352.765	78.75
352.992	90.75
353.22	84.75
353.447	91.75
353.674	84.75
353.901	68.75
354.128	72.75
354.355	74.75
354.583	85.75
354.81	87.75
355.037	89.75
355.264	77.75
355.491	94.75
355.718	94.75
355.945	90.75
356.172	92.75
356.399	84.75
356.626	81.75
356.853	102.75
357.08	71.75
357.307	88.75
357.534	74.75
357.761	85.75
357.988	89.75
358.215	86.75
358.441	88.75
358.668	94.75
358.895	93.75
359.122	68.75
359.349	80.75
359.576	77.75
359.802	90.75
360.029	83.75
360.256	81.75
360.483	89.75
360.709	77.75
360.936	90.75
361.163	97.75
361.39	100.75
361.616	96.75
361.843	80.75
362.07	74.75
362.296	93.75
362.523	80.75
362.749	75.75
362.976	91.75
363.203	85.75
363.429	77.75
363.656	85.75
363.882	92.75
364.109	90.75
364.335	96.75
364.562	75.75
364.788	85.75
365.015	85.75
365.241	87.75
365.468	86.75
365.694	85.75
365.92	87.75
366.147	90.75
366.373	80.75
366.599	87.75
366.826	81.75
367.052	80.75
367.278	78.75
367.505	80.75
367.731	93.75
367.957	84.75
368.184	90.75
368.41	88.75
368.636	94.75
368.862	83.75
369.089	92.75
369.315	75.75
369.541	89.75
369.767	100.75
369.993	88.75
370.219	86.75
370.445	87.75
370.672	87.75
370.898	76.75
371.124	93.75
371.35	90.75
371.576	84.75
371.802	78.75
372.028	77.75
372.254	84.75
372.48	92.75
372.706	98.75
372.932	83.75
373.158	89.75
373.384	81.75
373.61	77.75
373.835	89.75
374.061	93.75
374.287	91.75
374.513	76.75
374.739	79.75
374.965	85.75
375.191	75.75
375.416	79.75
375.642	95.75
375.868	88.75
376.094	98.75
376.319	93.75
376.545	96.75
376.771	85.75
376.997	85.75
377.222	84.75
377.448	84.75
377.674	92.75
377.899	104.75
378.125	73.75
378.35	88.75
378.576	76.75
378.802	98.75
379.027	100.75
379.253	77.75
379.478	71.75
379.704	95.75
379.929	85.75
380.155	81.75
380.38	82.75
380.606	86.75
380.831	96.75
381.057	97.75
381.282	74.75
381.507	90.75
381.733	78.75
381.958	75.75
382.184	81.75
382.409	77.75
382.634	83.75
382.86	87.75
383.085	86.75
383.31	80.75
383.535	95.75
383.761	67.75
383.986	83.75
384.211	105.75
384.436	86.75
384.662	93.75
384.887	75.75
385.112	78.75
385.337	83.75
385.562	82.75
385.787	83.75
386.013	90.75
386.238	74.75
386.463	77.75
386.688	89.75
386.913	91.75
387.138	86.75
387.363	78.75
387.588	83.75
387.813	87.75
388.038	78.75
388.263	84.75
388.488	100.75
388.713	93.75
388.938	95.75
389.163	93.75
389.387	85.75
389.612	74.75
389.837	76.75
390.062	84.75
390.287	80.75
390.512	87.75
390.736	93.75
390.961	88.75
391.186	77.75
391.411	89.75
391.636	88.75
391.86	81.75
392.085	94.75
392.31	106.75
392.534	87.75
392.759	88.75
392.984	87.75
393.208	78.75
393.433	93.75
393.658	92.75
393.882	88.75
394.107	102.75
394.331	90.75
394.556	92.75
394.78	79.75
395.005	80.75
395.229	85.75
395.454	90.75
395.678	99.75
395.903	89.75
396.127	92.75
396.352	79.75
396.576	85.75
396.801	92.75
397.025	99.75
397.249	83.75
397.474	87.75
397.698	92.75
397.922	91.75
398.147	91.75
398.371	90.75
398.595	77.75
398.82	78.75
399.044	83.75
399.268	78.75
399.492	73.75
399.717	100.75
399.941	83.75
400.165	100.75
400.389	90.75
400.613	84.75
400.837	94.75
401.062	89.75
401.286	95.75
401.51	76.75
401.734	88.75
401.958	103.75
402.182	98.75
402.406	91.75
402.63	85.75
402.854	92.75
403.078	99.75
403.302	96.75
403.526	97.75
403.75	86.75
403.974	99.75
404.198	92.75
404.422	102.75
404.645	89.75
404.869	97.75
405.093	81.75
405.317	105.75
405.541	79.75
405.765	80.75
405.988	92.75
406.212	101.75
406.436	87.75
406.66	88.75
406.883	88.75
407.107	98.75
407.331	84.75
407.555	82.75
407.778	101.75
408.002	68.75
408.226	82.75
408.449	90.75
408.673	88.75
408.896	90.75
409.12	89.75
409.344	92.75
409.567	96.75
409.791	92.75
410.014	98.75
410.238	89.75
410.461	82.75
410.685	99.75
410.908	98.75
411.132	86.75
411.355	99.75
411.578	96.75
411.802	89.75
412.025	88.75
412.249	101.75
412.472	94.75
412.695	84.75
412.919	92.75
413.142	91.75
413.365	93.75
413.589	83.75
413.812	93.75
414.035	99.75
414.258	84.75
414.482	102.75
414.705	102.75
414.928	102.75
415.151	89.75
415.374	93.75
415.597	106.75
415.821	87.75
416.044	102.75
416.267	98.75
416.49	95.75
416.713	100.75
416.936	97.75
417.159	84.75
417.382	95.75
417.605	90.75
417.828	99.75
418.051	90.75
418.274	95.75
418.497	101.75
418.72	95.75
418.943	110.75
419.166	90.75
419.389	100.75
419.611	110.75
419.834	98.75
420.057	98.75
420.28	94.75
420.503	105.75
420.726	102.75
420.948	91.75
421.171	101.75
421.394	89.75
421.617	93.75
421.839	99.75
422.062	105.75
422.285	100.75
422.507	94.75
422.73	104.75
422.953	82.75
423.175	95.75
423.398	89.75
423.621	101.75
423.843	107.75
424.066	101.75
424.288	88.75
424.511	92.75
424.733	94.75
424.956	96.75
425.178	94.75
425.401	116.75
425.623	87.75
425.846	93.75
426.068	86.75
426.291	103.75
426.513	91.75
426.735	91.75
426.958	93.75
427.18	98.75
427.402	93.75
427.625	95.75
427.847	96.75
428.069	87.75
428.292	79.75
428.514	96.75
428.736	86.75
428.958	93.75
429.181	101.75
429.403	90.75
429.625	90.75
429.847	90.75
430.069	96.75
430.292	99.75
430.514	89.75
430.736	110.75
430.958	95.75
431.18	84.75
431.402	87.75
431.624	82.75
431.846	95.75
432.068	85.75
432.29	88.75
432.512	83.75
432.734	88.75
432.956	103.75
433.178	98.75
433.4	98.75
433.622	106.75
433.844	106.75
434.066	103.75
434.287	86.75
434.509	97.75
434.731	92.75
434.953	77.75
435.175	99.75
435.397	91.75
435.618	95.75
435.84	80.75
436.062	100.75
436.284	102.75
436.505	100.75
436.727	99.75
436.949	87.75
437.17	91.75
437.392	95.75
437.614	83.75
437.835	87.75
438.057	104.75
438.278	90.75
438.5	86.75
438.721	84.75
438.943	96.75
439.165	84.75
439.386	100.75
439.608	85.75
439.829	104.75
440.05	96.75
440.272	100.75
440.493	103.75
440.715	87.75
440.936	104.75
441.158	107.75
441.379	93.75
441.6	85.75
441.822	95.75
442.043	108.75
442.264	92.75
442.486	113.75
442.707	99.75
442.928	90.75
443.149	101.75
443.371	86.75
443.592	101.75
443.813	93.75
444.034	100.75
444.255	100.75
444.476	112.75
444.698	95.75
444.919	108.75
445.14	173.75
445.361	146.75
445.582	106.75
445.803	89.75
446.024	96.75
446.245	103.75
446.466	94.75
446.687	93.75
446.908	110.75
447.129	98.75
447.35	99.75
447.571	110.75
447.792	92.75
448.013	95.75
448.234	98.75
448.455	98.75
448.675	96.75
448.896	106.75
449.117	101.75
449.338	89.75
449.559	94.75
449.779	88.75
450	108.75
450.221	116.75
450.442	114.75
450.662	87.75
450.883	97.75
451.104	81.75
451.324	96.75
451.545	92.75
451.766	88.75
451.986	101.75
452.207	83.75
452.428	99.75
452.648	92.75
452.869	96.75
453.089	95.75
453.31	87.75
453.53	79.75
453.751	75.75
453.971	85.75
454.192	89.75
454.412	85.75
454.633	81.75
454.853	87.75
455.073	86.75
455.294	93.75
455.514	78.75
455.734	82.75
455.955	79.75
456.175	93.75
456.395	88.75
456.616	91.75
456.836	90.75
457.056	98.75
457.276	99.75
457.497	95.75
457.717	88.75
457.937	92.75
458.157	96.75
458.377	97.75
458.598	78.75
458.818	85.75
459.038	81.75
459.258	99.75
459.478	91.75
459.698	76.75
459.918	95.75
460.138	95.75
460.358	103.75
460.578	97.75
460.798	100.75
461.018	77.75
461.238	90.75
461.458	84.75
461.678	82.75
461.898	84.75
462.118	80.75
462.338	93.75
462.558	89.75
462.777	84.75
462.997	101.75
463.217	81.75
463.437	80.75
463.657	95.75
463.876	81.75
464.096	90.75
464.316	89.75
464.536	92.75
464.755	97.75
464.975	81.75
465.195	84.75
465.414	98.75
465.634	97.75
465.854	99.75
466.073	94.75
466.293	100.75
466.512	89.75
466.732	90.75
466.951	87.75
467.171	95.75
467.391	96.75
467.61	91.75
467.829	101.75
468.049	104.75
468.268	100.75
468.488	118.75
468.707	95.75
468.927	96.75
469.146	100.75
469.365	92.75
469.585	94.75
469.804	103.75
470.023	104.75
470.243	120.75
470.462	99.75
470.681	102.75
470.901	102.75
471.12	98.75
471.339	94.75
471.558	99.75
471.777	101.75
471.997	91.75
472.216	90.75
472.435	91.75
472.654	81.75
472.873	89.75
473.092	93.75
473.311	101.75
473.53	85.75
473.749	89.75
473.968	98.75
474.187	91.75
474.406	94.75
474.625	100.75
474.844	93.75
475.063	100.75
475.282	101.75
475.501	91.75
475.72	95.75
475.939	96.75
476.158	93.75
476.377	95.75
476.596	91.75
476.814	87.75
477.033	87.75
477.252	94.75
477.471	97.75
477.69	97.75
477.908	96.75
478.127	104.75
478.346	104.75
478.564	90.75
478.783	99.75
479.002	108.75
479.22	97.75
479.439	100.75
479.658	108.75
479.876	81.75
480.095	92.75
480.313	99.75
480.532	96.75
480.751	101.75
480.969	91.75
481.188	71.75
481.406	71.75
481.624	89.75
481.843	93.75
482.061	86.75
482.28	83.75
482.498	83.75
482.717	80.75
482.935	112.75
483.153	100.75
483.372	95.75
483.59	102.75
483.808	93.75
484.027	99.75
484.245	106.75
484.463	109.75
484.681	100.75
484.9	101.75
485.118	111.75
485.336	96.75
485.554	92.75
485.772	94.75
485.99	87.75
486.209	91.75
486.427	87.75
486.645	105.75
486.863	105.75
487.081	97.75
487.299	102.75
487.517	99.75
487.735	108.75
487.953	119.75
488.171	121.75
488.389	121.75
488.607	106.75
488.825	97.75
489.043	84.75
489.261	111.75
489.479	106.75
489.696	106.75
489.914	91.75
490.132	84.75
490.35	99.75
490.568	109.75
490.786	98.75
491.003	116.75
491.221	90.75
491.439	97.75
491.657	109.75
491.874	107.75
492.092	123.75
492.31	129.75
492.527	128.75
492.745	108.75
492.963	126.75
493.18	119.75
493.398	101.75
493.615	121.75
493.833	119.75
494.05	118.75
494.268	103.75
494.485	98.75
494.703	103.75
494.92	104.75
495.138	86.75
495.355	105.75
495.573	113.75
495.79	102.75
496.008	113.75
496.225	115.75
496.442	104.75
496.66	105.75
496.877	113.75
497.094	103.75
497.312	115.75
497.529	110.75
497.746	109.75
497.963	102.75
498.181	91.75
498.398	100.75
498.615	111.75
498.832	92.75
499.049	102.75
499.267	90.75
499.484	89.75
499.701	93.75
499.918	93.75
500.135	102.75
500.352	105.75
500.569	107.75
500.786	90.75
501.003	97.75
501.22	104.75
501.437	97.75
501.654	91.75
501.871	100.75
502.088	100.75
502.305	109.75
502.522	103.75
502.739	80.75
502.956	99.75
503.172	97.75
503.389	102.75
503.606	100.75
503.823	89.75
504.04	104.75
504.256	111.75
504.473	90.75
504.69	95.75
504.907	97.75
505.123	84.75
505.34	96.75
505.557	101.75
505.773	87.75
505.99	96.75
506.207	87.75
506.423	97.75
506.64	97.75
506.856	109.75
507.073	93.75
507.289	86.75
507.506	99.75
507.722	95.75
507.939	100.75
508.155	100.75
508.372	95.75
508.588	83.75
508.805	86.75
509.021	97.75
509.238	93.75
509.454	86.75
509.67	86.75
509.887	89.75
510.103	88.75
510.319	93.75
510.536	93.75
510.752	79.75
510.968	93.75
511.184	87.75
511.401	83.75
511.617	74.75
511.833	84.75
512.049	88.75
512.265	91.75
512.481	81.75
512.698	87.75
512.914	87.75
513.13	91.75
513.346	90.75
513.562	80.75
513.778	77.75
513.994	92.75
514.21	90.75
514.426	81.75
514.642	88.75
514.858	78.75
515.074	93.75
515.29	87.75
515.506	90.75
515.721	91.75
515.937	86.75
516.153	90.75
516.369	91.75
516.585	82.75
516.801	90.75
517.016	89.75
