Data from Location4.07152019.Energy5.Lamp.07192019.3%Agarose_HRD10591_15-24-46-578.txt Node
Date: Fri Jul 19 15:24:46 EDT 2019
User: cochatt
Spectrometer: HR+D1059
Trigger mode: 1
Integration Time (sec): 1.000000E-1
Scans to average: 1
Electric dark correction enabled: true
Nonlinearity correction enabled: false
Boxcar width: 0
XAxis mode: Wavelengths
Number of Pixels in Spectrum: 2048
>>>>>Begin Spectral Data<<<<<
223.165	-3.19
223.4	-3.19
223.635	-3.19
223.869	0.81
224.104	-25.19
224.338	-13.19
224.573	-17.19
224.808	-24.19
225.042	-12.19
225.277	-6.19
225.511	8.81
225.746	1.81
225.98	-3.19
226.215	4.81
226.449	10.81
226.683	14.81
226.918	18.81
227.152	43.81
227.387	30.81
227.621	51.81
227.856	37.81
228.09	45.81
228.324	51.81
228.559	46.81
228.793	63.81
229.027	56.81
229.262	54.81
229.496	51.81
229.73	69.81
229.964	65.81
230.199	63.81
230.433	74.81
230.667	73.81
230.901	78.81
231.136	73.81
231.37	65.81
231.604	81.81
231.838	66.81
232.072	69.81
232.306	68.81
232.541	68.81
232.775	93.81
233.009	67.81
233.243	76.81
233.477	82.81
233.711	84.81
233.945	74.81
234.179	71.81
234.413	88.81
234.647	83.81
234.881	76.81
235.115	87.81
235.349	78.81
235.583	68.81
235.817	68.81
236.051	74.81
236.285	79.81
236.519	76.81
236.753	83.81
236.987	77.81
237.221	67.81
237.455	85.81
237.689	77.81
237.922	68.81
238.156	60.81
238.39	79.81
238.624	81.81
238.858	69.81
239.091	83.81
239.325	79.81
239.559	71.81
239.793	83.81
240.027	67.81
240.26	69.81
240.494	68.81
240.728	81.81
240.961	68.81
241.195	79.81
241.429	68.81
241.662	69.81
241.896	77.81
242.13	71.81
242.363	71.81
242.597	88.81
242.83	64.81
243.064	59.81
243.298	76.81
243.531	84.81
243.765	69.81
243.998	73.81
244.232	87.81
244.465	79.81
244.699	60.81
244.932	70.81
245.166	75.81
245.399	72.81
245.633	67.81
245.866	74.81
246.099	69.81
246.333	71.81
246.566	81.81
246.8	70.81
247.033	54.81
247.266	67.81
247.5	72.81
247.733	75.81
247.966	74.81
248.2	76.81
248.433	76.81
248.666	64.81
248.899	69.81
249.133	79.81
249.366	78.81
249.599	69.81
249.832	69.81
250.066	79.81
250.299	85.81
250.532	83.81
250.765	85.81
250.998	73.81
251.231	78.81
251.465	59.81
251.698	71.81
251.931	84.81
252.164	75.81
252.397	76.81
252.63	73.81
252.863	75.81
253.096	78.81
253.329	80.81
253.562	72.81
253.795	66.81
254.028	82.81
254.261	68.81
254.494	72.81
254.727	75.81
254.96	79.81
255.193	87.81
255.426	71.81
255.659	64.81
255.892	76.81
256.124	77.81
256.357	79.81
256.59	83.81
256.823	80.81
257.056	79.81
257.289	77.81
257.521	74.81
257.754	74.81
257.987	90.81
258.22	83.81
258.452	73.81
258.685	86.81
258.918	72.81
259.151	76.81
259.383	75.81
259.616	66.81
259.849	80.81
260.081	70.81
260.314	90.81
260.547	78.81
260.779	64.81
261.012	69.81
261.244	72.81
261.477	71.81
261.71	71.81
261.942	85.81
262.175	66.81
262.407	79.81
262.64	83.81
262.872	82.81
263.105	79.81
263.337	79.81
263.57	74.81
263.802	81.81
264.035	69.81
264.267	76.81
264.499	86.81
264.732	83.81
264.964	87.81
265.197	61.81
265.429	75.81
265.661	69.81
265.894	65.81
266.126	78.81
266.358	82.81
266.591	78.81
266.823	84.81
267.055	82.81
267.287	86.81
267.52	89.81
267.752	68.81
267.984	81.81
268.216	71.81
268.448	86.81
268.681	74.81
268.913	62.81
269.145	78.81
269.377	82.81
269.609	75.81
269.841	92.81
270.073	86.81
270.306	68.81
270.538	78.81
270.77	87.81
271.002	72.81
271.234	85.81
271.466	67.81
271.698	69.81
271.93	84.81
272.162	72.81
272.394	84.81
272.626	79.81
272.858	80.81
273.09	82.81
273.322	74.81
273.553	57.81
273.785	72.81
274.017	87.81
274.249	96.81
274.481	86.81
274.713	90.81
274.945	70.81
275.176	71.81
275.408	92.81
275.64	80.81
275.872	74.81
276.104	72.81
276.335	78.81
276.567	82.81
276.799	97.81
277.031	76.81
277.262	87.81
277.494	92.81
277.726	77.81
277.957	71.81
278.189	63.81
278.421	88.81
278.652	72.81
278.884	83.81
279.115	66.81
279.347	83.81
279.579	71.81
279.81	76.81
280.042	86.81
280.273	85.81
280.505	91.81
280.736	76.81
280.968	94.81
281.199	77.81
281.431	89.81
281.662	83.81
281.894	76.81
282.125	80.81
282.356	93.81
282.588	80.81
282.819	110.81
283.051	86.81
283.282	92.81
283.513	79.81
283.745	85.81
283.976	81.81
284.207	70.81
284.439	67.81
284.67	74.81
284.901	81.81
285.132	84.81
285.364	76.81
285.595	86.81
285.826	72.81
286.057	72.81
286.288	63.81
286.52	78.81
286.751	79.81
286.982	83.81
287.213	92.81
287.444	81.81
287.675	74.81
287.906	74.81
288.138	75.81
288.369	63.81
288.6	70.81
288.831	71.81
289.062	78.81
289.293	80.81
289.524	87.81
289.755	87.81
289.986	90.81
290.217	101.81
290.448	70.81
290.679	86.81
290.91	86.81
291.141	88.81
291.371	91.81
291.602	78.81
291.833	84.81
292.064	81.81
292.295	72.81
292.526	81.81
292.757	98.81
292.987	90.81
293.218	74.81
293.449	78.81
293.68	82.81
293.91	78.81
294.141	87.81
294.372	86.81
294.603	70.81
294.833	75.81
295.064	78.81
295.295	84.81
295.525	83.81
295.756	77.81
295.987	79.81
296.217	86.81
296.448	81.81
296.679	79.81
296.909	78.81
297.14	91.81
297.37	89.81
297.601	74.81
297.831	79.81
298.062	71.81
298.292	91.81
298.523	77.81
298.753	76.81
298.984	81.81
299.214	75.81
299.445	94.81
299.675	79.81
299.905	71.81
300.136	74.81
300.366	82.81
300.597	76.81
300.827	72.81
301.057	68.81
301.288	71.81
301.518	88.81
301.748	84.81
301.979	78.81
302.209	74.81
302.439	78.81
302.669	74.81
302.9	80.81
303.13	85.81
303.36	81.81
303.59	78.81
303.82	81.81
304.051	71.81
304.281	82.81
304.511	81.81
304.741	69.81
304.971	78.81
305.201	81.81
305.431	79.81
305.661	101.81
305.891	80.81
306.121	82.81
306.352	74.81
306.582	76.81
306.812	69.81
307.042	75.81
307.272	77.81
307.502	87.81
307.731	78.81
307.961	83.81
308.191	72.81
308.421	79.81
308.651	94.81
308.881	84.81
309.111	79.81
309.341	82.81
309.571	75.81
309.8	80.81
310.03	84.81
310.26	81.81
310.49	78.81
310.72	86.81
310.949	86.81
311.179	77.81
311.409	76.81
311.639	77.81
311.868	87.81
312.098	69.81
312.328	82.81
312.557	87.81
312.787	103.81
313.017	78.81
313.246	82.81
313.476	85.81
313.706	83.81
313.935	67.81
314.165	85.81
314.394	65.81
314.624	77.81
314.853	68.81
315.083	80.81
315.312	79.81
315.542	78.81
315.771	84.81
316.001	71.81
316.23	78.81
316.46	70.81
316.689	77.81
316.919	77.81
317.148	90.81
317.377	84.81
317.607	88.81
317.836	79.81
318.065	64.81
318.295	88.81
318.524	78.81
318.753	85.81
318.983	87.81
319.212	90.81
319.441	78.81
319.67	90.81
319.9	76.81
320.129	78.81
320.358	73.81
320.587	77.81
320.816	83.81
321.046	81.81
321.275	80.81
321.504	77.81
321.733	83.81
321.962	82.81
322.191	80.81
322.42	88.81
322.649	76.81
322.878	78.81
323.108	83.81
323.337	82.81
323.566	80.81
323.795	82.81
324.024	76.81
324.253	88.81
324.482	85.81
324.71	75.81
324.939	86.81
325.168	74.81
325.397	82.81
325.626	67.81
325.855	91.81
326.084	68.81
326.313	97.81
326.542	70.81
326.77	77.81
326.999	73.81
327.228	85.81
327.457	70.81
327.686	66.81
327.914	85.81
328.143	81.81
328.372	86.81
328.6	71.81
328.829	71.81
329.058	89.81
329.287	84.81
329.515	58.81
329.744	71.81
329.972	81.81
330.201	81.81
330.43	87.81
330.658	71.81
330.887	86.81
331.115	95.81
331.344	83.81
331.572	85.81
331.801	77.81
332.03	70.81
332.258	75.81
332.486	86.81
332.715	78.81
332.943	81.81
333.172	80.81
333.4	72.81
333.629	79.81
333.857	76.81
334.085	72.81
334.314	80.81
334.542	81.81
334.771	83.81
334.999	75.81
335.227	70.81
335.455	84.81
335.684	79.81
335.912	74.81
336.14	83.81
336.369	72.81
336.597	75.81
336.825	94.81
337.053	80.81
337.281	78.81
337.51	94.81
337.738	88.81
337.966	78.81
338.194	68.81
338.422	87.81
338.65	92.81
338.878	71.81
339.106	91.81
339.334	84.81
339.562	94.81
339.79	95.81
340.018	82.81
340.246	86.81
340.474	91.81
340.702	86.81
340.93	77.81
341.158	75.81
341.386	99.81
341.614	71.81
341.842	81.81
342.07	95.81
342.298	93.81
342.526	76.81
342.754	80.81
342.981	78.81
343.209	90.81
343.437	91.81
343.665	73.81
343.893	91.81
344.12	78.81
344.348	88.81
344.576	86.81
344.804	74.81
345.031	84.81
345.259	91.81
345.487	73.81
345.714	77.81
345.942	73.81
346.17	80.81
346.397	78.81
346.625	80.81
346.853	89.81
347.08	96.81
347.308	72.81
347.535	76.81
347.763	70.81
347.99	71.81
348.218	79.81
348.445	82.81
348.673	95.81
348.9	70.81
349.128	87.81
349.355	87.81
349.583	80.81
349.81	81.81
350.037	75.81
350.265	83.81
350.492	81.81
350.72	75.81
350.947	86.81
351.174	72.81
351.402	79.81
351.629	90.81
351.856	74.81
352.083	72.81
352.311	77.81
352.538	81.81
352.765	100.81
352.992	93.81
353.22	82.81
353.447	68.81
353.674	79.81
353.901	71.81
354.128	90.81
354.355	80.81
354.583	81.81
354.81	79.81
355.037	75.81
355.264	76.81
355.491	88.81
355.718	67.81
355.945	79.81
356.172	69.81
356.399	77.81
356.626	64.81
356.853	77.81
357.08	75.81
357.307	81.81
357.534	83.81
357.761	83.81
357.988	80.81
358.215	76.81
358.441	74.81
358.668	83.81
358.895	83.81
359.122	74.81
359.349	75.81
359.576	83.81
359.802	85.81
360.029	84.81
360.256	82.81
360.483	95.81
360.709	76.81
360.936	83.81
361.163	85.81
361.39	83.81
361.616	88.81
361.843	81.81
362.07	74.81
362.296	82.81
362.523	73.81
362.749	107.81
362.976	79.81
363.203	87.81
363.429	78.81
363.656	81.81
363.882	79.81
364.109	79.81
364.335	83.81
364.562	59.81
364.788	74.81
365.015	80.81
365.241	84.81
365.468	73.81
365.694	74.81
365.92	85.81
366.147	77.81
366.373	78.81
366.599	85.81
366.826	79.81
367.052	82.81
367.278	76.81
367.505	75.81
367.731	75.81
367.957	95.81
368.184	90.81
368.41	67.81
368.636	86.81
368.862	85.81
369.089	72.81
369.315	72.81
369.541	89.81
369.767	79.81
369.993	75.81
370.219	89.81
370.445	82.81
370.672	85.81
370.898	92.81
371.124	78.81
371.35	81.81
371.576	87.81
371.802	78.81
372.028	82.81
372.254	68.81
372.48	76.81
372.706	76.81
372.932	85.81
373.158	83.81
373.384	86.81
373.61	82.81
373.835	82.81
374.061	76.81
374.287	84.81
374.513	72.81
374.739	66.81
374.965	69.81
375.191	69.81
375.416	90.81
375.642	71.81
375.868	71.81
376.094	81.81
376.319	89.81
376.545	74.81
376.771	76.81
376.997	80.81
377.222	80.81
377.448	86.81
377.674	80.81
377.899	90.81
378.125	86.81
378.35	80.81
378.576	84.81
378.802	81.81
379.027	87.81
379.253	74.81
379.478	88.81
379.704	64.81
379.929	82.81
380.155	79.81
380.38	80.81
380.606	79.81
380.831	70.81
381.057	104.81
381.282	67.81
381.507	86.81
381.733	72.81
381.958	83.81
382.184	81.81
382.409	86.81
382.634	84.81
382.86	71.81
383.085	89.81
383.31	83.81
383.535	94.81
383.761	93.81
383.986	78.81
384.211	84.81
384.436	88.81
384.662	78.81
384.887	82.81
385.112	83.81
385.337	94.81
385.562	89.81
385.787	69.81
386.013	71.81
386.238	84.81
386.463	87.81
386.688	67.81
386.913	76.81
387.138	88.81
387.363	78.81
387.588	90.81
387.813	77.81
388.038	83.81
388.263	94.81
388.488	76.81
388.713	80.81
388.938	88.81
389.163	72.81
389.387	93.81
389.612	66.81
389.837	82.81
390.062	81.81
390.287	87.81
390.512	71.81
390.736	70.81
390.961	85.81
391.186	93.81
391.411	74.81
391.636	85.81
391.86	78.81
392.085	92.81
392.31	79.81
392.534	76.81
392.759	85.81
392.984	79.81
393.208	89.81
393.433	82.81
393.658	83.81
393.882	83.81
394.107	82.81
394.331	80.81
394.556	90.81
394.78	88.81
395.005	89.81
395.229	76.81
395.454	87.81
395.678	85.81
395.903	84.81
396.127	95.81
396.352	82.81
396.576	87.81
396.801	76.81
397.025	92.81
397.249	87.81
397.474	80.81
397.698	85.81
397.922	81.81
398.147	69.81
398.371	77.81
398.595	75.81
398.82	77.81
399.044	77.81
399.268	78.81
399.492	75.81
399.717	80.81
399.941	98.81
400.165	91.81
400.389	84.81
400.613	80.81
400.837	88.81
401.062	87.81
401.286	84.81
401.51	96.81
401.734	69.81
401.958	83.81
402.182	71.81
402.406	96.81
402.63	97.81
402.854	91.81
403.078	83.81
403.302	78.81
403.526	81.81
403.75	84.81
403.974	86.81
404.198	89.81
404.422	97.81
404.645	84.81
404.869	76.81
405.093	91.81
405.317	79.81
405.541	87.81
405.765	96.81
405.988	98.81
406.212	93.81
406.436	84.81
406.66	85.81
406.883	95.81
407.107	92.81
407.331	81.81
407.555	78.81
407.778	90.81
408.002	73.81
408.226	79.81
408.449	91.81
408.673	98.81
408.896	91.81
409.12	91.81
409.344	94.81
409.567	78.81
409.791	71.81
410.014	85.81
410.238	85.81
410.461	69.81
410.685	87.81
410.908	72.81
411.132	95.81
411.355	79.81
411.578	90.81
411.802	91.81
412.025	81.81
412.249	79.81
412.472	100.81
412.695	81.81
412.919	77.81
413.142	77.81
413.365	90.81
413.589	95.81
413.812	99.81
414.035	91.81
414.258	81.81
414.482	87.81
414.705	79.81
414.928	82.81
415.151	83.81
415.374	79.81
415.597	95.81
415.821	94.81
416.044	89.81
416.267	91.81
416.49	93.81
416.713	94.81
416.936	87.81
417.159	97.81
417.382	79.81
417.605	72.81
417.828	93.81
418.051	102.81
418.274	88.81
418.497	90.81
418.72	80.81
418.943	95.81
419.166	71.81
419.389	93.81
419.611	88.81
419.834	98.81
420.057	94.81
420.28	93.81
420.503	105.81
420.726	78.81
420.948	86.81
421.171	85.81
421.394	93.81
421.617	94.81
421.839	92.81
422.062	90.81
422.285	81.81
422.507	95.81
422.73	90.81
422.953	89.81
423.175	85.81
423.398	91.81
423.621	108.81
423.843	80.81
424.066	84.81
424.288	85.81
424.511	91.81
424.733	94.81
424.956	86.81
425.178	83.81
425.401	95.81
425.623	99.81
425.846	90.81
426.068	84.81
426.291	91.81
426.513	83.81
426.735	85.81
426.958	83.81
427.18	90.81
427.402	81.81
427.625	68.81
427.847	93.81
428.069	79.81
428.292	90.81
428.514	81.81
428.736	88.81
428.958	84.81
429.181	97.81
429.403	91.81
429.625	79.81
429.847	80.81
430.069	92.81
430.292	83.81
430.514	87.81
430.736	105.81
430.958	99.81
431.18	92.81
431.402	96.81
431.624	90.81
431.846	96.81
432.068	70.81
432.29	78.81
432.512	84.81
432.734	96.81
432.956	84.81
433.178	95.81
433.4	97.81
433.622	102.81
433.844	89.81
434.066	99.81
434.287	101.81
434.509	88.81
434.731	88.81
434.953	88.81
435.175	117.81
435.397	102.81
435.618	83.81
435.84	89.81
436.062	85.81
436.284	72.81
436.505	79.81
436.727	84.81
436.949	85.81
437.17	78.81
437.392	86.81
437.614	76.81
437.835	97.81
438.057	80.81
438.278	86.81
438.5	87.81
438.721	90.81
438.943	92.81
439.165	76.81
439.386	82.81
439.608	97.81
439.829	88.81
440.05	110.81
440.272	90.81
440.493	96.81
440.715	88.81
440.936	95.81
441.158	100.81
441.379	90.81
441.6	93.81
441.822	92.81
442.043	100.81
442.264	96.81
442.486	93.81
442.707	83.81
442.928	89.81
443.149	93.81
443.371	100.81
443.592	89.81
443.813	83.81
444.034	87.81
444.255	94.81
444.476	90.81
444.698	85.81
444.919	84.81
445.14	222.81
445.361	161.81
445.582	96.81
445.803	99.81
446.024	108.81
446.245	96.81
446.466	95.81
446.687	108.81
446.908	97.81
447.129	91.81
447.35	79.81
447.571	94.81
447.792	85.81
448.013	81.81
448.234	93.81
448.455	96.81
448.675	90.81
448.896	97.81
449.117	95.81
449.338	95.81
449.559	90.81
449.779	97.81
450	103.81
450.221	93.81
450.442	101.81
450.662	93.81
450.883	95.81
451.104	79.81
451.324	85.81
451.545	91.81
451.766	88.81
451.986	81.81
452.207	95.81
452.428	91.81
452.648	102.81
452.869	103.81
453.089	85.81
453.31	86.81
453.53	89.81
453.751	71.81
453.971	84.81
454.192	82.81
454.412	96.81
454.633	88.81
454.853	87.81
455.073	78.81
455.294	78.81
455.514	82.81
455.734	74.81
455.955	82.81
456.175	94.81
456.395	68.81
456.616	76.81
456.836	87.81
457.056	80.81
457.276	84.81
457.497	82.81
457.717	84.81
457.937	80.81
458.157	78.81
458.377	90.81
458.598	87.81
458.818	81.81
459.038	78.81
459.258	62.81
459.478	66.81
459.698	81.81
459.918	92.81
460.138	81.81
460.358	76.81
460.578	89.81
460.798	86.81
461.018	92.81
461.238	84.81
461.458	79.81
461.678	96.81
461.898	95.81
462.118	96.81
462.338	93.81
462.558	78.81
462.777	82.81
462.997	102.81
463.217	78.81
463.437	91.81
463.657	82.81
463.876	78.81
464.096	65.81
464.316	78.81
464.536	74.81
464.755	86.81
464.975	85.81
465.195	84.81
465.414	82.81
465.634	78.81
465.854	92.81
466.073	88.81
466.293	85.81
466.512	93.81
466.732	95.81
466.951	109.81
467.171	102.81
467.391	96.81
467.61	89.81
467.829	101.81
468.049	99.81
468.268	77.81
468.488	90.81
468.707	84.81
468.927	77.81
469.146	90.81
469.365	82.81
469.585	90.81
469.804	88.81
470.023	82.81
470.243	98.81
470.462	88.81
470.681	89.81
470.901	82.81
471.12	97.81
471.339	93.81
471.558	87.81
471.777	100.81
471.997	83.81
472.216	100.81
472.435	94.81
472.654	93.81
472.873	73.81
473.092	82.81
473.311	96.81
473.53	82.81
473.749	90.81
473.968	96.81
474.187	87.81
474.406	82.81
474.625	94.81
474.844	100.81
475.063	90.81
475.282	86.81
475.501	82.81
475.72	66.81
475.939	92.81
476.158	83.81
476.377	83.81
476.596	81.81
476.814	94.81
477.033	69.81
477.252	82.81
477.471	99.81
477.69	95.81
477.908	88.81
478.127	108.81
478.346	102.81
478.564	85.81
478.783	82.81
479.002	77.81
479.22	91.81
479.439	86.81
479.658	87.81
479.876	89.81
480.095	70.81
480.313	90.81
480.532	95.81
480.751	92.81
480.969	80.81
481.188	79.81
481.406	79.81
481.624	79.81
481.843	71.81
482.061	90.81
482.28	84.81
482.498	86.81
482.717	90.81
482.935	96.81
483.153	106.81
483.372	99.81
483.59	97.81
483.808	100.81
484.027	94.81
484.245	88.81
484.463	106.81
484.681	104.81
484.9	98.81
485.118	86.81
485.336	95.81
485.554	85.81
485.772	77.81
485.99	79.81
486.209	83.81
486.427	84.81
486.645	88.81
486.863	93.81
487.081	84.81
487.299	104.81
487.517	108.81
487.735	106.81
487.953	103.81
488.171	103.81
488.389	103.81
488.607	82.81
488.825	92.81
489.043	92.81
489.261	82.81
489.479	90.81
489.696	98.81
489.914	92.81
490.132	105.81
490.35	93.81
490.568	90.81
490.786	72.81
491.003	106.81
491.221	93.81
491.439	104.81
491.657	104.81
491.874	107.81
492.092	124.81
492.31	101.81
492.527	109.81
492.745	122.81
492.963	109.81
493.18	111.81
493.398	107.81
493.615	109.81
493.833	102.81
494.05	104.81
494.268	97.81
494.485	107.81
494.703	94.81
494.92	113.81
495.138	105.81
495.355	93.81
495.573	94.81
495.79	100.81
496.008	120.81
496.225	105.81
496.442	103.81
496.66	115.81
496.877	104.81
497.094	93.81
497.312	103.81
497.529	100.81
497.746	102.81
497.963	105.81
498.181	90.81
498.398	91.81
498.615	91.81
498.832	74.81
499.049	75.81
499.267	99.81
499.484	83.81
499.701	92.81
499.918	108.81
500.135	90.81
500.352	85.81
500.569	93.81
500.786	109.81
501.003	94.81
501.22	88.81
501.437	108.81
501.654	93.81
501.871	86.81
502.088	94.81
502.305	94.81
502.522	95.81
502.739	95.81
502.956	92.81
503.172	97.81
503.389	83.81
503.606	84.81
503.823	96.81
504.04	89.81
504.256	98.81
504.473	92.81
504.69	87.81
504.907	94.81
505.123	86.81
505.34	86.81
505.557	86.81
505.773	85.81
505.99	84.81
506.207	88.81
506.423	91.81
506.64	93.81
506.856	87.81
507.073	87.81
507.289	101.81
507.506	89.81
507.722	80.81
507.939	81.81
508.155	107.81
508.372	88.81
508.588	83.81
508.805	83.81
509.021	91.81
509.238	90.81
509.454	90.81
509.67	84.81
509.887	81.81
510.103	88.81
510.319	79.81
510.536	84.81
510.752	85.81
510.968	86.81
511.184	83.81
511.401	79.81
511.617	79.81
511.833	91.81
512.049	75.81
512.265	78.81
512.481	81.81
512.698	85.81
512.914	75.81
513.13	93.81
513.346	93.81
513.562	94.81
513.778	85.81
513.994	72.81
514.21	81.81
514.426	82.81
514.642	79.81
514.858	67.81
515.074	84.81
515.29	95.81
515.506	82.81
515.721	64.81
515.937	81.81
516.153	69.81
516.369	87.81
516.585	76.81
516.801	75.81
517.016	82.81
517.232	80.81
517.448	88.81
517.664	86.81
517.879	92.81
518.095	76.81
518.311	85.81
518.527	72.81
