Data from Location4.07152019.Energy5.Lamp.07192019.3%Agarose_HRD10591_15-25-59-578.txt Node
Date: Fri Jul 19 15:25:59 EDT 2019
User: cochatt
Spectrometer: HR+D1059
Trigger mode: 1
Integration Time (sec): 1.000000E-1
Scans to average: 1
Electric dark correction enabled: true
Nonlinearity correction enabled: false
Boxcar width: 0
XAxis mode: Wavelengths
Number of Pixels in Spectrum: 2048
>>>>>Begin Spectral Data<<<<<
223.165	-15.69
223.4	-15.69
223.635	-15.69
223.869	-12.69
224.104	-16.69
224.338	-21.69
224.573	-19.69
224.808	2.31
225.042	-4.69
225.277	-12.69
225.511	4.31
225.746	5.31
225.98	1.31
226.215	8.31
226.449	10.31
226.683	16.31
226.918	28.31
227.152	27.31
227.387	23.31
227.621	40.31
227.856	50.31
228.09	37.31
228.324	58.31
228.559	56.31
228.793	57.31
229.027	45.31
229.262	54.31
229.496	60.31
229.73	72.31
229.964	65.31
230.199	64.31
230.433	73.31
230.667	79.31
230.901	73.31
231.136	74.31
231.37	82.31
231.604	72.31
231.838	82.31
232.072	82.31
232.306	78.31
232.541	88.31
232.775	92.31
233.009	80.31
233.243	85.31
233.477	100.31
233.711	82.31
233.945	72.31
234.179	67.31
234.413	85.31
234.647	89.31
234.881	83.31
235.115	86.31
235.349	91.31
235.583	76.31
235.817	84.31
236.051	69.31
236.285	76.31
236.519	63.31
236.753	73.31
236.987	79.31
237.221	77.31
237.455	73.31
237.689	89.31
237.922	79.31
238.156	84.31
238.39	96.31
238.624	57.31
238.858	75.31
239.091	71.31
239.325	73.31
239.559	80.31
239.793	76.31
240.027	69.31
240.26	80.31
240.494	94.31
240.728	83.31
240.961	66.31
241.195	74.31
241.429	65.31
241.662	68.31
241.896	69.31
242.13	73.31
242.363	78.31
242.597	86.31
242.83	74.31
243.064	76.31
243.298	67.31
243.531	69.31
243.765	81.31
243.998	74.31
244.232	81.31
244.465	83.31
244.699	79.31
244.932	89.31
245.166	68.31
245.399	69.31
245.633	68.31
245.866	78.31
246.099	60.31
246.333	80.31
246.566	74.31
246.8	80.31
247.033	86.31
247.266	84.31
247.5	71.31
247.733	84.31
247.966	69.31
248.2	69.31
248.433	77.31
248.666	77.31
248.899	79.31
249.133	73.31
249.366	77.31
249.599	76.31
249.832	72.31
250.066	91.31
250.299	80.31
250.532	77.31
250.765	65.31
250.998	76.31
251.231	69.31
251.465	78.31
251.698	70.31
251.931	82.31
252.164	72.31
252.397	82.31
252.63	72.31
252.863	66.31
253.096	68.31
253.329	66.31
253.562	77.31
253.795	74.31
254.028	73.31
254.261	87.31
254.494	86.31
254.727	85.31
254.96	63.31
255.193	86.31
255.426	86.31
255.659	78.31
255.892	90.31
256.124	83.31
256.357	78.31
256.59	82.31
256.823	75.31
257.056	79.31
257.289	71.31
257.521	86.31
257.754	95.31
257.987	73.31
258.22	84.31
258.452	69.31
258.685	80.31
258.918	66.31
259.151	72.31
259.383	78.31
259.616	80.31
259.849	77.31
260.081	80.31
260.314	81.31
260.547	81.31
260.779	81.31
261.012	71.31
261.244	74.31
261.477	81.31
261.71	76.31
261.942	88.31
262.175	89.31
262.407	74.31
262.64	81.31
262.872	70.31
263.105	66.31
263.337	77.31
263.57	84.31
263.802	90.31
264.035	85.31
264.267	86.31
264.499	76.31
264.732	88.31
264.964	79.31
265.197	85.31
265.429	79.31
265.661	85.31
265.894	79.31
266.126	77.31
266.358	85.31
266.591	84.31
266.823	79.31
267.055	87.31
267.287	82.31
267.52	89.31
267.752	65.31
267.984	67.31
268.216	86.31
268.448	85.31
268.681	86.31
268.913	74.31
269.145	82.31
269.377	85.31
269.609	69.31
269.841	89.31
270.073	91.31
270.306	76.31
270.538	93.31
270.77	87.31
271.002	78.31
271.234	82.31
271.466	87.31
271.698	85.31
271.93	77.31
272.162	66.31
272.394	87.31
272.626	79.31
272.858	80.31
273.09	95.31
273.322	98.31
273.553	71.31
273.785	74.31
274.017	85.31
274.249	88.31
274.481	73.31
274.713	95.31
274.945	83.31
275.176	84.31
275.408	76.31
275.64	87.31
275.872	78.31
276.104	79.31
276.335	82.31
276.567	84.31
276.799	73.31
277.031	86.31
277.262	76.31
277.494	75.31
277.726	84.31
277.957	81.31
278.189	79.31
278.421	73.31
278.652	73.31
278.884	73.31
279.115	83.31
279.347	80.31
279.579	69.31
279.81	83.31
280.042	80.31
280.273	76.31
280.505	73.31
280.736	83.31
280.968	82.31
281.199	82.31
281.431	72.31
281.662	83.31
281.894	69.31
282.125	73.31
282.356	95.31
282.588	76.31
282.819	65.31
283.051	71.31
283.282	77.31
283.513	90.31
283.745	85.31
283.976	82.31
284.207	94.31
284.439	80.31
284.67	78.31
284.901	78.31
285.132	72.31
285.364	91.31
285.595	76.31
285.826	95.31
286.057	91.31
286.288	84.31
286.52	81.31
286.751	85.31
286.982	77.31
287.213	78.31
287.444	77.31
287.675	69.31
287.906	69.31
288.138	87.31
288.369	86.31
288.6	85.31
288.831	87.31
289.062	84.31
289.293	86.31
289.524	84.31
289.755	85.31
289.986	85.31
290.217	70.31
290.448	81.31
290.679	84.31
290.91	95.31
291.141	76.31
291.371	81.31
291.602	74.31
291.833	89.31
292.064	83.31
292.295	86.31
292.526	94.31
292.757	85.31
292.987	85.31
293.218	66.31
293.449	86.31
293.68	91.31
293.91	96.31
294.141	88.31
294.372	83.31
294.603	84.31
294.833	79.31
295.064	79.31
295.295	79.31
295.525	79.31
295.756	71.31
295.987	102.31
296.217	76.31
296.448	85.31
296.679	66.31
296.909	83.31
297.14	87.31
297.37	91.31
297.601	79.31
297.831	93.31
298.062	77.31
298.292	85.31
298.523	73.31
298.753	73.31
298.984	88.31
299.214	94.31
299.445	72.31
299.675	85.31
299.905	92.31
300.136	71.31
300.366	83.31
300.597	73.31
300.827	84.31
301.057	58.31
301.288	85.31
301.518	81.31
301.748	77.31
301.979	70.31
302.209	86.31
302.439	93.31
302.669	81.31
302.9	82.31
303.13	77.31
303.36	85.31
303.59	79.31
303.82	65.31
304.051	78.31
304.281	98.31
304.511	93.31
304.741	86.31
304.971	79.31
305.201	82.31
305.431	71.31
305.661	80.31
305.891	80.31
306.121	79.31
306.352	95.31
306.582	72.31
306.812	91.31
307.042	90.31
307.272	80.31
307.502	96.31
307.731	92.31
307.961	67.31
308.191	84.31
308.421	74.31
308.651	80.31
308.881	97.31
309.111	81.31
309.341	81.31
309.571	80.31
309.8	90.31
310.03	68.31
310.26	74.31
310.49	90.31
310.72	79.31
310.949	84.31
311.179	79.31
311.409	95.31
311.639	90.31
311.868	89.31
312.098	81.31
312.328	82.31
312.557	86.31
312.787	82.31
313.017	85.31
313.246	86.31
313.476	79.31
313.706	74.31
313.935	69.31
314.165	87.31
314.394	72.31
314.624	75.31
314.853	73.31
315.083	83.31
315.312	78.31
315.542	83.31
315.771	77.31
316.001	73.31
316.23	80.31
316.46	86.31
316.689	72.31
316.919	85.31
317.148	70.31
317.377	93.31
317.607	78.31
317.836	81.31
318.065	82.31
318.295	103.31
318.524	93.31
318.753	80.31
318.983	86.31
319.212	80.31
319.441	88.31
319.67	77.31
319.9	73.31
320.129	90.31
320.358	83.31
320.587	90.31
320.816	83.31
321.046	80.31
321.275	78.31
321.504	101.31
321.733	75.31
321.962	80.31
322.191	89.31
322.42	74.31
322.649	76.31
322.878	93.31
323.108	76.31
323.337	89.31
323.566	87.31
323.795	79.31
324.024	80.31
324.253	82.31
324.482	81.31
324.71	76.31
324.939	84.31
325.168	76.31
325.397	73.31
325.626	92.31
325.855	76.31
326.084	86.31
326.313	88.31
326.542	95.31
326.77	93.31
326.999	84.31
327.228	70.31
327.457	84.31
327.686	70.31
327.914	78.31
328.143	79.31
328.372	80.31
328.6	92.31
328.829	78.31
329.058	86.31
329.287	88.31
329.515	77.31
329.744	81.31
329.972	82.31
330.201	93.31
330.43	76.31
330.658	74.31
330.887	83.31
331.115	91.31
331.344	88.31
331.572	83.31
331.801	93.31
332.03	74.31
332.258	69.31
332.486	84.31
332.715	72.31
332.943	59.31
333.172	66.31
333.4	83.31
333.629	77.31
333.857	80.31
334.085	86.31
334.314	87.31
334.542	85.31
334.771	96.31
334.999	69.31
335.227	86.31
335.455	86.31
335.684	85.31
335.912	86.31
336.14	82.31
336.369	80.31
336.597	86.31
336.825	90.31
337.053	76.31
337.281	68.31
337.51	71.31
337.738	79.31
337.966	97.31
338.194	82.31
338.422	90.31
338.65	83.31
338.878	83.31
339.106	78.31
339.334	73.31
339.562	93.31
339.79	72.31
340.018	70.31
340.246	85.31
340.474	72.31
340.702	80.31
340.93	101.31
341.158	84.31
341.386	86.31
341.614	67.31
341.842	81.31
342.07	79.31
342.298	78.31
342.526	86.31
342.754	66.31
342.981	66.31
343.209	88.31
343.437	80.31
343.665	62.31
343.893	86.31
344.12	93.31
344.348	85.31
344.576	90.31
344.804	74.31
345.031	81.31
345.259	92.31
345.487	82.31
345.714	71.31
345.942	70.31
346.17	76.31
346.397	76.31
346.625	85.31
346.853	86.31
347.08	78.31
347.308	86.31
347.535	76.31
347.763	77.31
347.99	74.31
348.218	88.31
348.445	80.31
348.673	69.31
348.9	82.31
349.128	93.31
349.355	78.31
349.583	80.31
349.81	84.31
350.037	76.31
350.265	71.31
350.492	84.31
350.72	82.31
350.947	91.31
351.174	79.31
351.402	69.31
351.629	80.31
351.856	79.31
352.083	64.31
352.311	89.31
352.538	77.31
352.765	67.31
352.992	84.31
353.22	75.31
353.447	80.31
353.674	69.31
353.901	77.31
354.128	84.31
354.355	86.31
354.583	77.31
354.81	85.31
355.037	77.31
355.264	71.31
355.491	78.31
355.718	81.31
355.945	87.31
356.172	84.31
356.399	84.31
356.626	76.31
356.853	92.31
357.08	76.31
357.307	80.31
357.534	73.31
357.761	76.31
357.988	71.31
358.215	89.31
358.441	86.31
358.668	76.31
358.895	84.31
359.122	80.31
359.349	80.31
359.576	70.31
359.802	83.31
360.029	78.31
360.256	72.31
360.483	83.31
360.709	73.31
360.936	95.31
361.163	92.31
361.39	89.31
361.616	73.31
361.843	73.31
362.07	78.31
362.296	81.31
362.523	83.31
362.749	79.31
362.976	78.31
363.203	76.31
363.429	94.31
363.656	84.31
363.882	87.31
364.109	72.31
364.335	74.31
364.562	87.31
364.788	72.31
365.015	84.31
365.241	98.31
365.468	81.31
365.694	68.31
365.92	83.31
366.147	89.31
366.373	64.31
366.599	87.31
366.826	98.31
367.052	86.31
367.278	73.31
367.505	74.31
367.731	80.31
367.957	89.31
368.184	80.31
368.41	77.31
368.636	78.31
368.862	87.31
369.089	82.31
369.315	85.31
369.541	76.31
369.767	95.31
369.993	85.31
370.219	84.31
370.445	82.31
370.672	77.31
370.898	84.31
371.124	94.31
371.35	79.31
371.576	94.31
371.802	73.31
372.028	83.31
372.254	80.31
372.48	81.31
372.706	80.31
372.932	80.31
373.158	78.31
373.384	85.31
373.61	79.31
373.835	98.31
374.061	89.31
374.287	75.31
374.513	85.31
374.739	74.31
374.965	84.31
375.191	85.31
375.416	77.31
375.642	80.31
375.868	82.31
376.094	92.31
376.319	74.31
376.545	74.31
376.771	73.31
376.997	82.31
377.222	78.31
377.448	83.31
377.674	79.31
377.899	78.31
378.125	83.31
378.35	94.31
378.576	89.31
378.802	79.31
379.027	94.31
379.253	82.31
379.478	71.31
379.704	79.31
379.929	101.31
380.155	81.31
380.38	85.31
380.606	79.31
380.831	96.31
381.057	97.31
381.282	73.31
381.507	89.31
381.733	87.31
381.958	66.31
382.184	77.31
382.409	68.31
382.634	89.31
382.86	86.31
383.085	81.31
383.31	75.31
383.535	87.31
383.761	81.31
383.986	74.31
384.211	77.31
384.436	68.31
384.662	80.31
384.887	89.31
385.112	87.31
385.337	85.31
385.562	88.31
385.787	80.31
386.013	79.31
386.238	84.31
386.463	77.31
386.688	94.31
386.913	87.31
387.138	73.31
387.363	87.31
387.588	82.31
387.813	82.31
388.038	93.31
388.263	80.31
388.488	85.31
388.713	90.31
388.938	90.31
389.163	81.31
389.387	82.31
389.612	78.31
389.837	87.31
390.062	92.31
390.287	94.31
390.512	94.31
390.736	86.31
390.961	69.31
391.186	88.31
391.411	74.31
391.636	74.31
391.86	78.31
392.085	93.31
392.31	81.31
392.534	73.31
392.759	80.31
392.984	84.31
393.208	77.31
393.433	73.31
393.658	82.31
393.882	77.31
394.107	86.31
394.331	79.31
394.556	109.31
394.78	98.31
395.005	74.31
395.229	87.31
395.454	94.31
395.678	80.31
395.903	72.31
396.127	84.31
396.352	78.31
396.576	86.31
396.801	89.31
397.025	85.31
397.249	84.31
397.474	82.31
397.698	85.31
397.922	73.31
398.147	93.31
398.371	80.31
398.595	78.31
398.82	80.31
399.044	82.31
399.268	65.31
399.492	83.31
399.717	81.31
399.941	84.31
400.165	86.31
400.389	87.31
400.613	103.31
400.837	85.31
401.062	91.31
401.286	93.31
401.51	88.31
401.734	71.31
401.958	80.31
402.182	86.31
402.406	82.31
402.63	89.31
402.854	88.31
403.078	90.31
403.302	79.31
403.526	98.31
403.75	84.31
403.974	86.31
404.198	77.31
404.422	90.31
404.645	84.31
404.869	79.31
405.093	76.31
405.317	82.31
405.541	83.31
405.765	76.31
405.988	83.31
406.212	84.31
406.436	82.31
406.66	95.31
406.883	74.31
407.107	95.31
407.331	84.31
407.555	95.31
407.778	87.31
408.002	82.31
408.226	84.31
408.449	80.31
408.673	87.31
408.896	91.31
409.12	83.31
409.344	86.31
409.567	81.31
409.791	88.31
410.014	74.31
410.238	84.31
410.461	93.31
410.685	108.31
410.908	84.31
411.132	83.31
411.355	79.31
411.578	88.31
411.802	73.31
412.025	92.31
412.249	92.31
412.472	81.31
412.695	95.31
412.919	116.31
413.142	88.31
413.365	106.31
413.589	77.31
413.812	91.31
414.035	88.31
414.258	86.31
414.482	90.31
414.705	95.31
414.928	77.31
415.151	93.31
415.374	84.31
415.597	70.31
415.821	88.31
416.044	69.31
416.267	84.31
416.49	71.31
416.713	77.31
416.936	87.31
417.159	88.31
417.382	83.31
417.605	85.31
417.828	97.31
418.051	89.31
418.274	101.31
418.497	95.31
418.72	96.31
418.943	81.31
419.166	89.31
419.389	82.31
419.611	88.31
419.834	89.31
420.057	89.31
420.28	92.31
420.503	96.31
420.726	79.31
420.948	94.31
421.171	87.31
421.394	98.31
421.617	88.31
421.839	89.31
422.062	78.31
422.285	100.31
422.507	84.31
422.73	79.31
422.953	74.31
423.175	85.31
423.398	91.31
423.621	88.31
423.843	92.31
424.066	104.31
424.288	97.31
424.511	88.31
424.733	86.31
424.956	90.31
425.178	76.31
425.401	98.31
425.623	86.31
425.846	85.31
426.068	70.31
426.291	90.31
426.513	103.31
426.735	95.31
426.958	85.31
427.18	97.31
427.402	76.31
427.625	81.31
427.847	94.31
428.069	81.31
428.292	84.31
428.514	92.31
428.736	85.31
428.958	100.31
429.181	87.31
429.403	89.31
429.625	93.31
429.847	90.31
430.069	94.31
430.292	101.31
430.514	99.31
430.736	97.31
430.958	95.31
431.18	89.31
431.402	83.31
431.624	90.31
431.846	80.31
432.068	83.31
432.29	87.31
432.512	105.31
432.734	96.31
432.956	75.31
433.178	90.31
433.4	91.31
433.622	95.31
433.844	108.31
434.066	82.31
434.287	95.31
434.509	80.31
434.731	84.31
434.953	79.31
435.175	93.31
435.397	89.31
435.618	87.31
435.84	84.31
436.062	93.31
436.284	96.31
436.505	82.31
436.727	84.31
436.949	87.31
437.17	93.31
437.392	86.31
437.614	85.31
437.835	88.31
438.057	82.31
438.278	75.31
438.5	76.31
438.721	97.31
438.943	95.31
439.165	93.31
439.386	94.31
439.608	103.31
439.829	94.31
440.05	88.31
440.272	82.31
440.493	106.31
440.715	96.31
440.936	95.31
441.158	100.31
441.379	86.31
441.6	100.31
441.822	102.31
442.043	111.31
442.264	88.31
442.486	101.31
442.707	86.31
442.928	103.31
443.149	101.31
443.371	98.31
443.592	100.31
443.813	95.31
444.034	92.31
444.255	76.31
444.476	87.31
444.698	87.31
444.919	84.31
445.14	234.31
445.361	162.31
445.582	96.31
445.803	86.31
446.024	85.31
446.245	101.31
446.466	104.31
446.687	101.31
446.908	100.31
447.129	100.31
447.35	98.31
447.571	90.31
447.792	97.31
448.013	86.31
448.234	105.31
448.455	103.31
448.675	101.31
448.896	102.31
449.117	87.31
449.338	85.31
449.559	83.31
449.779	95.31
450	100.31
450.221	74.31
450.442	92.31
450.662	91.31
450.883	90.31
451.104	83.31
451.324	93.31
451.545	77.31
451.766	86.31
451.986	95.31
452.207	95.31
452.428	93.31
452.648	90.31
452.869	81.31
453.089	93.31
453.31	76.31
453.53	76.31
453.751	81.31
453.971	86.31
454.192	82.31
454.412	83.31
454.633	74.31
454.853	88.31
455.073	94.31
455.294	96.31
455.514	86.31
455.734	87.31
455.955	92.31
456.175	74.31
456.395	75.31
456.616	81.31
456.836	83.31
457.056	93.31
457.276	84.31
457.497	72.31
457.717	87.31
457.937	97.31
458.157	88.31
458.377	94.31
458.598	98.31
458.818	82.31
459.038	74.31
459.258	92.31
459.478	81.31
459.698	85.31
459.918	92.31
460.138	71.31
460.358	80.31
460.578	97.31
460.798	78.31
461.018	84.31
461.238	101.31
461.458	88.31
461.678	76.31
461.898	81.31
462.118	90.31
462.338	84.31
462.558	85.31
462.777	84.31
462.997	89.31
463.217	85.31
463.437	83.31
463.657	103.31
463.876	92.31
464.096	88.31
464.316	96.31
464.536	104.31
464.755	92.31
464.975	88.31
465.195	84.31
465.414	83.31
465.634	86.31
465.854	84.31
466.073	90.31
466.293	82.31
466.512	86.31
466.732	92.31
466.951	97.31
467.171	105.31
467.391	93.31
467.61	100.31
467.829	97.31
468.049	92.31
468.268	82.31
468.488	87.31
468.707	88.31
468.927	80.31
469.146	82.31
469.365	100.31
469.585	95.31
469.804	96.31
470.023	79.31
470.243	97.31
470.462	88.31
470.681	96.31
470.901	91.31
471.12	103.31
471.339	96.31
471.558	111.31
471.777	84.31
471.997	83.31
472.216	103.31
472.435	98.31
472.654	85.31
472.873	75.31
473.092	84.31
473.311	94.31
473.53	93.31
473.749	92.31
473.968	81.31
474.187	81.31
474.406	80.31
474.625	87.31
474.844	94.31
475.063	96.31
475.282	84.31
475.501	76.31
475.72	88.31
475.939	101.31
476.158	87.31
476.377	93.31
476.596	92.31
476.814	89.31
477.033	100.31
477.252	76.31
477.471	103.31
477.69	94.31
477.908	98.31
478.127	91.31
478.346	93.31
478.564	113.31
478.783	91.31
479.002	94.31
479.22	86.31
479.439	102.31
479.658	96.31
479.876	82.31
480.095	72.31
480.313	80.31
480.532	92.31
480.751	96.31
480.969	88.31
481.188	72.31
481.406	72.31
481.624	83.31
481.843	88.31
482.061	72.31
482.28	87.31
482.498	89.31
482.717	84.31
482.935	97.31
483.153	97.31
483.372	81.31
483.59	106.31
483.808	111.31
484.027	90.31
484.245	86.31
484.463	85.31
484.681	100.31
484.9	98.31
485.118	99.31
485.336	86.31
485.554	87.31
485.772	89.31
485.99	74.31
486.209	84.31
486.427	87.31
486.645	89.31
486.863	95.31
487.081	102.31
487.299	89.31
487.517	88.31
487.735	95.31
487.953	110.31
488.171	122.31
488.389	113.31
488.607	95.31
488.825	103.31
489.043	113.31
489.261	104.31
489.479	82.31
489.696	100.31
489.914	113.31
490.132	85.31
490.35	110.31
490.568	88.31
490.786	97.31
491.003	95.31
491.221	102.31
491.439	108.31
491.657	106.31
491.874	118.31
492.092	120.31
492.31	121.31
492.527	114.31
492.745	107.31
492.963	108.31
493.18	98.31
493.398	109.31
493.615	98.31
493.833	95.31
494.05	115.31
494.268	104.31
494.485	98.31
494.703	122.31
494.92	112.31
495.138	114.31
495.355	109.31
495.573	95.31
495.79	105.31
496.008	104.31
496.225	114.31
496.442	102.31
496.66	110.31
496.877	105.31
497.094	113.31
497.312	95.31
497.529	100.31
497.746	106.31
497.963	98.31
498.181	95.31
498.398	86.31
498.615	84.31
498.832	98.31
499.049	89.31
499.267	91.31
499.484	90.31
499.701	89.31
499.918	92.31
500.135	80.31
500.352	101.31
500.569	83.31
500.786	96.31
501.003	95.31
501.22	90.31
501.437	88.31
501.654	113.31
501.871	99.31
502.088	92.31
502.305	86.31
502.522	76.31
502.739	99.31
502.956	93.31
503.172	96.31
503.389	93.31
503.606	98.31
503.823	97.31
504.04	108.31
504.256	97.31
504.473	92.31
504.69	105.31
504.907	88.31
505.123	83.31
505.34	91.31
505.557	87.31
505.773	97.31
505.99	98.31
506.207	86.31
506.423	86.31
506.64	97.31
506.856	91.31
507.073	88.31
507.289	85.31
507.506	84.31
507.722	88.31
507.939	85.31
508.155	92.31
508.372	80.31
508.588	90.31
508.805	96.31
509.021	96.31
509.238	90.31
509.454	103.31
509.67	92.31
509.887	87.31
510.103	96.31
510.319	85.31
510.536	81.31
510.752	73.31
510.968	74.31
511.184	78.31
511.401	88.31
511.617	78.31
511.833	92.31
512.049	88.31
512.265	89.31
512.481	92.31
512.698	77.31
512.914	88.31
513.13	84.31
513.346	88.31
513.562	72.31
513.778	84.31
513.994	76.31
514.21	81.31
514.426	98.31
514.642	79.31
514.858	90.31
515.074	73.31
515.29	88.31
515.506	94.31
515.721	89.31
515.937	71.31
516.153	87.31
516.369	62.31
516.585	70.31
516.801	84.31
517.016	92.31
517.232	76.31
517.448	72.31
517.664	72.31
517.879	88.31
518.095	92.31
