Data from Location4.07152019.Energy5.Lamp.07192019.3%Agarose_HRD10591_15-24-31-577.txt Node
Date: Fri Jul 19 15:24:31 EDT 2019
User: cochatt
Spectrometer: HR+D1059
Trigger mode: 1
Integration Time (sec): 1.000000E-1
Scans to average: 1
Electric dark correction enabled: true
Nonlinearity correction enabled: false
Boxcar width: 0
XAxis mode: Wavelengths
Number of Pixels in Spectrum: 2048
>>>>>Begin Spectral Data<<<<<
223.165	-15.75
223.4	-15.75
223.635	-15.75
223.869	-15.75
224.104	-25.75
224.338	3.25
224.573	-13.75
224.808	-25.75
225.042	-10.75
225.277	-14.75
225.511	-0.75
225.746	11.25
225.98	0.25
226.215	9.25
226.449	17.25
226.683	37.25
226.918	19.25
227.152	25.25
227.387	28.25
227.621	38.25
227.856	45.25
228.09	40.25
228.324	59.25
228.559	64.25
228.793	69.25
229.027	56.25
229.262	57.25
229.496	55.25
229.73	72.25
229.964	64.25
230.199	76.25
230.433	66.25
230.667	74.25
230.901	80.25
231.136	74.25
231.37	75.25
231.604	80.25
231.838	80.25
232.072	83.25
232.306	92.25
232.541	77.25
232.775	77.25
233.009	73.25
233.243	55.25
233.477	90.25
233.711	88.25
233.945	75.25
234.179	77.25
234.413	93.25
234.647	96.25
234.881	84.25
235.115	87.25
235.349	85.25
235.583	75.25
235.817	72.25
236.051	76.25
236.285	74.25
236.519	80.25
236.753	89.25
236.987	86.25
237.221	86.25
237.455	73.25
237.689	87.25
237.922	66.25
238.156	81.25
238.39	76.25
238.624	76.25
238.858	83.25
239.091	68.25
239.325	74.25
239.559	82.25
239.793	66.25
240.027	77.25
240.26	66.25
240.494	76.25
240.728	86.25
240.961	79.25
241.195	74.25
241.429	89.25
241.662	68.25
241.896	76.25
242.13	68.25
242.363	68.25
242.597	92.25
242.83	75.25
243.064	76.25
243.298	75.25
243.531	90.25
243.765	90.25
243.998	68.25
244.232	83.25
244.465	73.25
244.699	78.25
244.932	95.25
245.166	63.25
245.399	83.25
245.633	90.25
245.866	85.25
246.099	83.25
246.333	81.25
246.566	79.25
246.8	103.25
247.033	79.25
247.266	72.25
247.5	72.25
247.733	72.25
247.966	93.25
248.2	77.25
248.433	76.25
248.666	82.25
248.899	68.25
249.133	71.25
249.366	89.25
249.599	89.25
249.832	64.25
250.066	71.25
250.299	79.25
250.532	75.25
250.765	77.25
250.998	73.25
251.231	72.25
251.465	76.25
251.698	75.25
251.931	83.25
252.164	67.25
252.397	76.25
252.63	88.25
252.863	88.25
253.096	73.25
253.329	76.25
253.562	63.25
253.795	84.25
254.028	75.25
254.261	96.25
254.494	85.25
254.727	82.25
254.96	92.25
255.193	79.25
255.426	89.25
255.659	82.25
255.892	85.25
256.124	76.25
256.357	83.25
256.59	85.25
256.823	89.25
257.056	80.25
257.289	71.25
257.521	88.25
257.754	78.25
257.987	84.25
258.22	88.25
258.452	62.25
258.685	79.25
258.918	75.25
259.151	82.25
259.383	79.25
259.616	92.25
259.849	74.25
260.081	70.25
260.314	77.25
260.547	85.25
260.779	83.25
261.012	90.25
261.244	83.25
261.477	88.25
261.71	78.25
261.942	92.25
262.175	83.25
262.407	72.25
262.64	74.25
262.872	80.25
263.105	81.25
263.337	83.25
263.57	89.25
263.802	83.25
264.035	80.25
264.267	94.25
264.499	89.25
264.732	74.25
264.964	106.25
265.197	93.25
265.429	94.25
265.661	73.25
265.894	68.25
266.126	85.25
266.358	90.25
266.591	69.25
266.823	75.25
267.055	73.25
267.287	81.25
267.52	79.25
267.752	98.25
267.984	77.25
268.216	75.25
268.448	90.25
268.681	79.25
268.913	89.25
269.145	77.25
269.377	85.25
269.609	88.25
269.841	96.25
270.073	85.25
270.306	89.25
270.538	70.25
270.77	75.25
271.002	91.25
271.234	82.25
271.466	93.25
271.698	85.25
271.93	90.25
272.162	83.25
272.394	85.25
272.626	82.25
272.858	87.25
273.09	97.25
273.322	77.25
273.553	84.25
273.785	88.25
274.017	80.25
274.249	94.25
274.481	75.25
274.713	83.25
274.945	95.25
275.176	73.25
275.408	92.25
275.64	78.25
275.872	65.25
276.104	93.25
276.335	71.25
276.567	83.25
276.799	85.25
277.031	84.25
277.262	92.25
277.494	81.25
277.726	75.25
277.957	93.25
278.189	92.25
278.421	79.25
278.652	84.25
278.884	89.25
279.115	94.25
279.347	75.25
279.579	76.25
279.81	85.25
280.042	79.25
280.273	100.25
280.505	80.25
280.736	75.25
280.968	86.25
281.199	87.25
281.431	81.25
281.662	70.25
281.894	79.25
282.125	87.25
282.356	79.25
282.588	97.25
282.819	83.25
283.051	71.25
283.282	89.25
283.513	76.25
283.745	83.25
283.976	85.25
284.207	87.25
284.439	89.25
284.67	84.25
284.901	90.25
285.132	85.25
285.364	85.25
285.595	97.25
285.826	89.25
286.057	87.25
286.288	87.25
286.52	85.25
286.751	92.25
286.982	89.25
287.213	88.25
287.444	94.25
287.675	100.25
287.906	87.25
288.138	92.25
288.369	92.25
288.6	92.25
288.831	96.25
289.062	98.25
289.293	97.25
289.524	77.25
289.755	89.25
289.986	84.25
290.217	83.25
290.448	76.25
290.679	85.25
290.91	101.25
291.141	91.25
291.371	76.25
291.602	93.25
291.833	83.25
292.064	89.25
292.295	84.25
292.526	85.25
292.757	83.25
292.987	85.25
293.218	96.25
293.449	88.25
293.68	85.25
293.91	93.25
294.141	84.25
294.372	71.25
294.603	96.25
294.833	82.25
295.064	95.25
295.295	102.25
295.525	85.25
295.756	79.25
295.987	84.25
296.217	85.25
296.448	69.25
296.679	79.25
296.909	73.25
297.14	77.25
297.37	85.25
297.601	78.25
297.831	88.25
298.062	86.25
298.292	92.25
298.523	82.25
298.753	89.25
298.984	77.25
299.214	81.25
299.445	93.25
299.675	85.25
299.905	93.25
300.136	89.25
300.366	91.25
300.597	85.25
300.827	96.25
301.057	84.25
301.288	88.25
301.518	88.25
301.748	79.25
301.979	88.25
302.209	85.25
302.439	84.25
302.669	77.25
302.9	88.25
303.13	90.25
303.36	81.25
303.59	85.25
303.82	78.25
304.051	72.25
304.281	101.25
304.511	81.25
304.741	96.25
304.971	76.25
305.201	75.25
305.431	79.25
305.661	88.25
305.891	89.25
306.121	97.25
306.352	79.25
306.582	84.25
306.812	89.25
307.042	82.25
307.272	95.25
307.502	89.25
307.731	74.25
307.961	88.25
308.191	88.25
308.421	94.25
308.651	89.25
308.881	87.25
309.111	76.25
309.341	83.25
309.571	80.25
309.8	76.25
310.03	96.25
310.26	85.25
310.49	94.25
310.72	96.25
310.949	92.25
311.179	106.25
311.409	76.25
311.639	77.25
311.868	87.25
312.098	87.25
312.328	99.25
312.557	83.25
312.787	84.25
313.017	98.25
313.246	89.25
313.476	84.25
313.706	88.25
313.935	98.25
314.165	111.25
314.394	94.25
314.624	75.25
314.853	97.25
315.083	92.25
315.312	87.25
315.542	89.25
315.771	84.25
316.001	93.25
316.23	94.25
316.46	71.25
316.689	69.25
316.919	83.25
317.148	96.25
317.377	98.25
317.607	78.25
317.836	86.25
318.065	75.25
318.295	90.25
318.524	74.25
318.753	83.25
318.983	70.25
319.212	90.25
319.441	80.25
319.67	79.25
319.9	72.25
320.129	88.25
320.358	89.25
320.587	82.25
320.816	83.25
321.046	75.25
321.275	85.25
321.504	96.25
321.733	86.25
321.962	91.25
322.191	97.25
322.42	93.25
322.649	105.25
322.878	78.25
323.108	99.25
323.337	82.25
323.566	80.25
323.795	88.25
324.024	85.25
324.253	85.25
324.482	98.25
324.71	95.25
324.939	97.25
325.168	87.25
325.397	94.25
325.626	86.25
325.855	85.25
326.084	87.25
326.313	91.25
326.542	80.25
326.77	90.25
326.999	95.25
327.228	95.25
327.457	96.25
327.686	83.25
327.914	85.25
328.143	89.25
328.372	100.25
328.6	76.25
328.829	105.25
329.058	89.25
329.287	92.25
329.515	82.25
329.744	87.25
329.972	80.25
330.201	73.25
330.43	75.25
330.658	76.25
330.887	76.25
331.115	83.25
331.344	93.25
331.572	81.25
331.801	81.25
332.03	77.25
332.258	87.25
332.486	76.25
332.715	94.25
332.943	91.25
333.172	91.25
333.4	87.25
333.629	75.25
333.857	84.25
334.085	89.25
334.314	86.25
334.542	82.25
334.771	93.25
334.999	84.25
335.227	87.25
335.455	76.25
335.684	83.25
335.912	91.25
336.14	81.25
336.369	92.25
336.597	79.25
336.825	74.25
337.053	79.25
337.281	72.25
337.51	89.25
337.738	85.25
337.966	89.25
338.194	72.25
338.422	91.25
338.65	91.25
338.878	83.25
339.106	92.25
339.334	74.25
339.562	75.25
339.79	83.25
340.018	104.25
340.246	86.25
340.474	86.25
340.702	87.25
340.93	80.25
341.158	83.25
341.386	86.25
341.614	86.25
341.842	84.25
342.07	74.25
342.298	79.25
342.526	84.25
342.754	77.25
342.981	83.25
343.209	82.25
343.437	97.25
343.665	82.25
343.893	87.25
344.12	87.25
344.348	95.25
344.576	89.25
344.804	88.25
345.031	88.25
345.259	74.25
345.487	74.25
345.714	83.25
345.942	100.25
346.17	77.25
346.397	88.25
346.625	76.25
346.853	82.25
347.08	99.25
347.308	91.25
347.535	96.25
347.763	80.25
347.99	77.25
348.218	97.25
348.445	72.25
348.673	81.25
348.9	79.25
349.128	92.25
349.355	82.25
349.583	86.25
349.81	82.25
350.037	78.25
350.265	92.25
350.492	95.25
350.72	85.25
350.947	86.25
351.174	91.25
351.402	80.25
351.629	77.25
351.856	78.25
352.083	74.25
352.311	90.25
352.538	81.25
352.765	94.25
352.992	77.25
353.22	104.25
353.447	95.25
353.674	74.25
353.901	89.25
354.128	81.25
354.355	73.25
354.583	99.25
354.81	77.25
355.037	90.25
355.264	90.25
355.491	90.25
355.718	89.25
355.945	97.25
356.172	84.25
356.399	86.25
356.626	81.25
356.853	86.25
357.08	77.25
357.307	85.25
357.534	83.25
357.761	86.25
357.988	85.25
358.215	81.25
358.441	74.25
358.668	93.25
358.895	88.25
359.122	86.25
359.349	88.25
359.576	86.25
359.802	80.25
360.029	84.25
360.256	83.25
360.483	95.25
360.709	76.25
360.936	89.25
361.163	85.25
361.39	93.25
361.616	88.25
361.843	98.25
362.07	77.25
362.296	80.25
362.523	86.25
362.749	89.25
362.976	89.25
363.203	90.25
363.429	83.25
363.656	92.25
363.882	83.25
364.109	69.25
364.335	92.25
364.562	85.25
364.788	86.25
365.015	85.25
365.241	80.25
365.468	80.25
365.694	89.25
365.92	88.25
366.147	94.25
366.373	89.25
366.599	84.25
366.826	96.25
367.052	89.25
367.278	97.25
367.505	77.25
367.731	77.25
367.957	75.25
368.184	98.25
368.41	81.25
368.636	79.25
368.862	86.25
369.089	87.25
369.315	84.25
369.541	86.25
369.767	83.25
369.993	92.25
370.219	88.25
370.445	69.25
370.672	72.25
370.898	92.25
371.124	72.25
371.35	79.25
371.576	96.25
371.802	97.25
372.028	101.25
372.254	70.25
372.48	84.25
372.706	77.25
372.932	83.25
373.158	77.25
373.384	91.25
373.61	86.25
373.835	83.25
374.061	83.25
374.287	93.25
374.513	91.25
374.739	92.25
374.965	98.25
375.191	81.25
375.416	98.25
375.642	89.25
375.868	91.25
376.094	79.25
376.319	87.25
376.545	86.25
376.771	90.25
376.997	83.25
377.222	80.25
377.448	84.25
377.674	81.25
377.899	92.25
378.125	89.25
378.35	77.25
378.576	74.25
378.802	84.25
379.027	85.25
379.253	83.25
379.478	84.25
379.704	85.25
379.929	78.25
380.155	75.25
380.38	83.25
380.606	84.25
380.831	90.25
381.057	93.25
381.282	94.25
381.507	105.25
381.733	88.25
381.958	76.25
382.184	82.25
382.409	88.25
382.634	93.25
382.86	70.25
383.085	83.25
383.31	87.25
383.535	93.25
383.761	87.25
383.986	86.25
384.211	69.25
384.436	80.25
384.662	91.25
384.887	96.25
385.112	96.25
385.337	96.25
385.562	65.25
385.787	99.25
386.013	91.25
386.238	76.25
386.463	93.25
386.688	84.25
386.913	89.25
387.138	93.25
387.363	89.25
387.588	90.25
387.813	91.25
388.038	92.25
388.263	92.25
388.488	80.25
388.713	65.25
388.938	83.25
389.163	69.25
389.387	74.25
389.612	87.25
389.837	95.25
390.062	93.25
390.287	84.25
390.512	91.25
390.736	88.25
390.961	86.25
391.186	79.25
391.411	84.25
391.636	84.25
391.86	100.25
392.085	97.25
392.31	91.25
392.534	88.25
392.759	88.25
392.984	92.25
393.208	92.25
393.433	86.25
393.658	75.25
393.882	93.25
394.107	89.25
394.331	95.25
394.556	96.25
394.78	81.25
395.005	90.25
395.229	75.25
395.454	93.25
395.678	90.25
395.903	97.25
396.127	87.25
396.352	88.25
396.576	92.25
396.801	78.25
397.025	92.25
397.249	84.25
397.474	97.25
397.698	80.25
397.922	83.25
398.147	91.25
398.371	90.25
398.595	86.25
398.82	71.25
399.044	93.25
399.268	89.25
399.492	88.25
399.717	89.25
399.941	83.25
400.165	104.25
400.389	83.25
400.613	90.25
400.837	87.25
401.062	87.25
401.286	81.25
401.51	93.25
401.734	83.25
401.958	87.25
402.182	87.25
402.406	90.25
402.63	85.25
402.854	75.25
403.078	83.25
403.302	93.25
403.526	95.25
403.75	88.25
403.974	91.25
404.198	90.25
404.422	99.25
404.645	81.25
404.869	95.25
405.093	84.25
405.317	84.25
405.541	87.25
405.765	108.25
405.988	91.25
406.212	91.25
406.436	106.25
406.66	92.25
406.883	91.25
407.107	94.25
407.331	93.25
407.555	95.25
407.778	84.25
408.002	81.25
408.226	84.25
408.449	92.25
408.673	93.25
408.896	94.25
409.12	85.25
409.344	88.25
409.567	98.25
409.791	84.25
410.014	90.25
410.238	91.25
410.461	102.25
410.685	92.25
410.908	77.25
411.132	101.25
411.355	97.25
411.578	103.25
411.802	71.25
412.025	92.25
412.249	86.25
412.472	85.25
412.695	85.25
412.919	87.25
413.142	81.25
413.365	88.25
413.589	87.25
413.812	92.25
414.035	89.25
414.258	85.25
414.482	91.25
414.705	91.25
414.928	92.25
415.151	82.25
415.374	98.25
415.597	94.25
415.821	104.25
416.044	89.25
416.267	95.25
416.49	101.25
416.713	102.25
416.936	101.25
417.159	82.25
417.382	85.25
417.605	96.25
417.828	99.25
418.051	98.25
418.274	98.25
418.497	91.25
418.72	103.25
418.943	81.25
419.166	104.25
419.389	97.25
419.611	109.25
419.834	93.25
420.057	81.25
420.28	90.25
420.503	87.25
420.726	92.25
420.948	90.25
421.171	104.25
421.394	76.25
421.617	84.25
421.839	105.25
422.062	87.25
422.285	99.25
422.507	102.25
422.73	91.25
422.953	97.25
423.175	92.25
423.398	79.25
423.621	107.25
423.843	105.25
424.066	95.25
424.288	96.25
424.511	91.25
424.733	99.25
424.956	99.25
425.178	104.25
425.401	92.25
425.623	76.25
425.846	79.25
426.068	90.25
426.291	111.25
426.513	96.25
426.735	101.25
426.958	97.25
427.18	102.25
427.402	83.25
427.625	103.25
427.847	105.25
428.069	103.25
428.292	82.25
428.514	84.25
428.736	97.25
428.958	91.25
429.181	90.25
429.403	85.25
429.625	95.25
429.847	84.25
430.069	76.25
430.292	97.25
430.514	96.25
430.736	95.25
430.958	105.25
431.18	107.25
431.402	96.25
431.624	86.25
431.846	101.25
432.068	89.25
432.29	78.25
432.512	93.25
432.734	100.25
432.956	98.25
433.178	97.25
433.4	102.25
433.622	104.25
433.844	98.25
434.066	95.25
434.287	80.25
434.509	87.25
434.731	95.25
434.953	92.25
435.175	98.25
435.397	89.25
435.618	102.25
435.84	75.25
436.062	92.25
436.284	92.25
436.505	101.25
436.727	95.25
436.949	81.25
437.17	97.25
437.392	81.25
437.614	92.25
437.835	87.25
438.057	96.25
438.278	98.25
438.5	87.25
438.721	88.25
438.943	93.25
439.165	89.25
439.386	96.25
439.608	97.25
439.829	108.25
440.05	89.25
440.272	101.25
440.493	100.25
440.715	102.25
440.936	95.25
441.158	106.25
441.379	121.25
441.6	105.25
441.822	96.25
442.043	100.25
442.264	102.25
442.486	105.25
442.707	106.25
442.928	102.25
443.149	108.25
443.371	86.25
443.592	90.25
443.813	96.25
444.034	93.25
444.255	96.25
444.476	101.25
444.698	110.25
444.919	83.25
445.14	214.25
445.361	165.25
445.582	109.25
445.803	102.25
446.024	96.25
446.245	107.25
446.466	109.25
446.687	88.25
446.908	96.25
447.129	98.25
447.35	89.25
447.571	98.25
447.792	95.25
448.013	97.25
448.234	100.25
448.455	106.25
448.675	86.25
448.896	88.25
449.117	92.25
449.338	100.25
449.559	100.25
449.779	100.25
450	87.25
450.221	103.25
450.442	83.25
450.662	92.25
450.883	97.25
451.104	101.25
451.324	87.25
451.545	73.25
451.766	88.25
451.986	113.25
452.207	98.25
452.428	100.25
452.648	78.25
452.869	103.25
453.089	97.25
453.31	100.25
453.53	83.25
453.751	92.25
453.971	85.25
454.192	92.25
454.412	82.25
454.633	94.25
454.853	93.25
455.073	97.25
455.294	91.25
455.514	96.25
455.734	90.25
455.955	87.25
456.175	94.25
456.395	84.25
456.616	84.25
456.836	87.25
457.056	91.25
457.276	90.25
457.497	84.25
457.717	86.25
457.937	80.25
458.157	81.25
458.377	92.25
458.598	85.25
458.818	84.25
459.038	82.25
459.258	84.25
459.478	85.25
459.698	77.25
459.918	84.25
460.138	89.25
460.358	94.25
460.578	91.25
460.798	102.25
461.018	98.25
461.238	87.25
461.458	90.25
461.678	94.25
461.898	106.25
462.118	105.25
462.338	82.25
462.558	88.25
462.777	85.25
462.997	95.25
463.217	89.25
463.437	83.25
463.657	92.25
463.876	92.25
464.096	83.25
464.316	85.25
464.536	85.25
464.755	86.25
464.975	113.25
465.195	92.25
465.414	101.25
465.634	98.25
465.854	92.25
466.073	92.25
466.293	94.25
466.512	90.25
466.732	96.25
466.951	91.25
467.171	90.25
467.391	98.25
467.61	102.25
467.829	103.25
468.049	101.25
468.268	93.25
468.488	99.25
468.707	92.25
468.927	81.25
469.146	102.25
469.365	95.25
469.585	107.25
469.804	107.25
470.023	103.25
470.243	105.25
470.462	88.25
470.681	97.25
470.901	99.25
471.12	102.25
471.339	100.25
471.558	112.25
471.777	103.25
471.997	93.25
472.216	92.25
472.435	93.25
472.654	86.25
472.873	85.25
473.092	97.25
473.311	97.25
473.53	88.25
473.749	96.25
473.968	95.25
474.187	76.25
474.406	91.25
474.625	102.25
474.844	91.25
475.063	101.25
475.282	96.25
475.501	101.25
475.72	102.25
475.939	102.25
476.158	105.25
476.377	107.25
476.596	78.25
476.814	88.25
477.033	90.25
477.252	95.25
477.471	108.25
477.69	102.25
477.908	90.25
478.127	118.25
478.346	84.25
478.564	103.25
478.783	94.25
479.002	116.25
479.22	106.25
479.439	99.25
479.658	98.25
479.876	98.25
480.095	87.25
480.313	83.25
480.532	91.25
480.751	91.25
480.969	82.25
481.188	71.25
481.406	91.25
481.624	85.25
481.843	78.25
482.061	92.25
482.28	92.25
482.498	82.25
482.717	86.25
482.935	87.25
483.153	87.25
483.372	91.25
483.59	93.25
483.808	100.25
484.027	95.25
484.245	90.25
484.463	86.25
484.681	111.25
484.9	95.25
485.118	105.25
485.336	81.25
485.554	97.25
485.772	88.25
485.99	90.25
486.209	99.25
486.427	97.25
486.645	77.25
486.863	96.25
487.081	96.25
487.299	89.25
487.517	104.25
487.735	98.25
487.953	108.25
488.171	117.25
488.389	120.25
488.607	106.25
488.825	99.25
489.043	96.25
489.261	77.25
489.479	97.25
489.696	95.25
489.914	102.25
490.132	92.25
490.35	82.25
490.568	98.25
490.786	106.25
491.003	101.25
491.221	109.25
491.439	112.25
491.657	95.25
491.874	113.25
492.092	115.25
492.31	129.25
492.527	128.25
492.745	120.25
492.963	99.25
493.18	109.25
493.398	115.25
493.615	114.25
493.833	100.25
494.05	124.25
494.268	116.25
494.485	107.25
494.703	95.25
494.92	90.25
495.138	103.25
495.355	114.25
495.573	114.25
495.79	120.25
496.008	115.25
496.225	115.25
496.442	100.25
496.66	119.25
496.877	98.25
497.094	109.25
497.312	106.25
497.529	112.25
497.746	95.25
497.963	92.25
498.181	85.25
498.398	85.25
498.615	76.25
498.832	89.25
499.049	91.25
499.267	90.25
499.484	100.25
499.701	113.25
499.918	87.25
500.135	98.25
500.352	100.25
500.569	99.25
500.786	112.25
501.003	119.25
501.22	100.25
501.437	95.25
501.654	91.25
501.871	100.25
502.088	100.25
502.305	106.25
502.522	101.25
502.739	94.25
502.956	87.25
503.172	82.25
503.389	102.25
503.606	92.25
503.823	104.25
504.04	86.25
504.256	92.25
504.473	105.25
504.69	91.25
504.907	100.25
505.123	90.25
505.34	92.25
505.557	107.25
505.773	115.25
505.99	87.25
506.207	86.25
506.423	92.25
506.64	74.25
506.856	103.25
507.073	100.25
507.289	84.25
507.506	100.25
507.722	83.25
507.939	74.25
508.155	88.25
508.372	82.25
508.588	89.25
508.805	100.25
509.021	91.25
509.238	82.25
509.454	82.25
509.67	88.25
509.887	95.25
510.103	94.25
510.319	89.25
510.536	84.25
510.752	81.25
510.968	77.25
511.184	75.25
511.401	81.25
511.617	92.25
511.833	95.25
512.049	83.25
512.265	78.25
512.481	90.25
512.698	91.25
512.914	82.25
513.13	91.25
513.346	98.25
513.562	91.25
513.778	83.25
513.994	79.25
514.21	69.25
514.426	102.25
514.642	106.25
514.858	84.25
515.074	85.25
515.29	64.25
515.506	97.25
515.721	95.25
515.937	89.25
516.153	81.25
516.369	83.25
516.585	79.25
516.801	88.25
517.016	99.25
