Data from Location4.07152019.Energy5.Lamp.07192019.3%Agarose_HRD10591_15-24-32-579.txt Node
Date: Fri Jul 19 15:24:32 EDT 2019
User: cochatt
Spectrometer: HR+D1059
Trigger mode: 1
Integration Time (sec): 1.000000E-1
Scans to average: 1
Electric dark correction enabled: true
Nonlinearity correction enabled: false
Boxcar width: 0
XAxis mode: Wavelengths
Number of Pixels in Spectrum: 2048
>>>>>Begin Spectral Data<<<<<
223.165	-26.06
223.4	-26.06
223.635	-26.06
223.869	-14.06
224.104	-25.06
224.338	-14.06
224.573	-21.06
224.808	-9.06
225.042	-6.06
225.277	9.94
225.511	-7.06
225.746	-2.06
225.98	9.94
226.215	18.94
226.449	17.94
226.683	18.94
226.918	23.94
227.152	24.94
227.387	30.94
227.621	41.94
227.856	50.94
228.09	53.94
228.324	45.94
228.559	54.94
228.793	63.94
229.027	66.94
229.262	60.94
229.496	66.94
229.73	48.94
229.964	58.94
230.199	76.94
230.433	82.94
230.667	66.94
230.901	86.94
231.136	71.94
231.37	68.94
231.604	75.94
231.838	74.94
232.072	79.94
232.306	77.94
232.541	83.94
232.775	67.94
233.009	76.94
233.243	76.94
233.477	88.94
233.711	82.94
233.945	79.94
234.179	92.94
234.413	88.94
234.647	86.94
234.881	81.94
235.115	96.94
235.349	97.94
235.583	73.94
235.817	71.94
236.051	73.94
236.285	68.94
236.519	69.94
236.753	67.94
236.987	77.94
237.221	84.94
237.455	65.94
237.689	75.94
237.922	69.94
238.156	80.94
238.39	64.94
238.624	58.94
238.858	85.94
239.091	74.94
239.325	79.94
239.559	72.94
239.793	78.94
240.027	77.94
240.26	74.94
240.494	78.94
240.728	80.94
240.961	85.94
241.195	76.94
241.429	74.94
241.662	79.94
241.896	79.94
242.13	79.94
242.363	96.94
242.597	86.94
242.83	78.94
243.064	75.94
243.298	81.94
243.531	70.94
243.765	83.94
243.998	72.94
244.232	75.94
244.465	80.94
244.699	74.94
244.932	73.94
245.166	68.94
245.399	71.94
245.633	73.94
245.866	75.94
246.099	83.94
246.333	81.94
246.566	78.94
246.8	72.94
247.033	86.94
247.266	81.94
247.5	83.94
247.733	77.94
247.966	83.94
248.2	82.94
248.433	91.94
248.666	71.94
248.899	79.94
249.133	66.94
249.366	78.94
249.599	81.94
249.832	82.94
250.066	79.94
250.299	73.94
250.532	80.94
250.765	78.94
250.998	85.94
251.231	75.94
251.465	82.94
251.698	83.94
251.931	74.94
252.164	83.94
252.397	79.94
252.63	83.94
252.863	73.94
253.096	86.94
253.329	77.94
253.562	70.94
253.795	82.94
254.028	71.94
254.261	86.94
254.494	78.94
254.727	84.94
254.96	72.94
255.193	85.94
255.426	86.94
255.659	78.94
255.892	78.94
256.124	99.94
256.357	81.94
256.59	94.94
256.823	72.94
257.056	81.94
257.289	69.94
257.521	84.94
257.754	80.94
257.987	69.94
258.22	86.94
258.452	87.94
258.685	88.94
258.918	82.94
259.151	74.94
259.383	89.94
259.616	80.94
259.849	72.94
260.081	86.94
260.314	79.94
260.547	90.94
260.779	91.94
261.012	84.94
261.244	74.94
261.477	88.94
261.71	73.94
261.942	82.94
262.175	75.94
262.407	81.94
262.64	79.94
262.872	78.94
263.105	77.94
263.337	94.94
263.57	88.94
263.802	89.94
264.035	75.94
264.267	69.94
264.499	78.94
264.732	73.94
264.964	96.94
265.197	87.94
265.429	91.94
265.661	85.94
265.894	76.94
266.126	80.94
266.358	90.94
266.591	86.94
266.823	88.94
267.055	73.94
267.287	82.94
267.52	91.94
267.752	90.94
267.984	79.94
268.216	73.94
268.448	83.94
268.681	85.94
268.913	83.94
269.145	72.94
269.377	81.94
269.609	81.94
269.841	86.94
270.073	76.94
270.306	75.94
270.538	70.94
270.77	75.94
271.002	70.94
271.234	79.94
271.466	85.94
271.698	76.94
271.93	78.94
272.162	71.94
272.394	93.94
272.626	80.94
272.858	84.94
273.09	71.94
273.322	74.94
273.553	78.94
273.785	81.94
274.017	73.94
274.249	80.94
274.481	82.94
274.713	75.94
274.945	77.94
275.176	70.94
275.408	88.94
275.64	91.94
275.872	81.94
276.104	77.94
276.335	79.94
276.567	97.94
276.799	79.94
277.031	66.94
277.262	78.94
277.494	87.94
277.726	74.94
277.957	66.94
278.189	89.94
278.421	79.94
278.652	86.94
278.884	88.94
279.115	87.94
279.347	75.94
279.579	68.94
279.81	74.94
280.042	82.94
280.273	86.94
280.505	79.94
280.736	75.94
280.968	72.94
281.199	88.94
281.431	98.94
281.662	82.94
281.894	81.94
282.125	89.94
282.356	90.94
282.588	79.94
282.819	87.94
283.051	79.94
283.282	73.94
283.513	77.94
283.745	82.94
283.976	82.94
284.207	88.94
284.439	88.94
284.67	88.94
284.901	76.94
285.132	83.94
285.364	80.94
285.595	67.94
285.826	90.94
286.057	74.94
286.288	86.94
286.52	81.94
286.751	91.94
286.982	83.94
287.213	84.94
287.444	88.94
287.675	75.94
287.906	98.94
288.138	90.94
288.369	85.94
288.6	88.94
288.831	85.94
289.062	94.94
289.293	63.94
289.524	82.94
289.755	91.94
289.986	92.94
290.217	66.94
290.448	66.94
290.679	75.94
290.91	90.94
291.141	77.94
291.371	82.94
291.602	85.94
291.833	88.94
292.064	88.94
292.295	87.94
292.526	79.94
292.757	87.94
292.987	83.94
293.218	89.94
293.449	62.94
293.68	79.94
293.91	81.94
294.141	90.94
294.372	90.94
294.603	89.94
294.833	86.94
295.064	85.94
295.295	88.94
295.525	91.94
295.756	69.94
295.987	107.94
296.217	90.94
296.448	89.94
296.679	81.94
296.909	81.94
297.14	88.94
297.37	87.94
297.601	73.94
297.831	82.94
298.062	98.94
298.292	78.94
298.523	92.94
298.753	90.94
298.984	92.94
299.214	93.94
299.445	78.94
299.675	82.94
299.905	79.94
300.136	75.94
300.366	79.94
300.597	75.94
300.827	74.94
301.057	80.94
301.288	89.94
301.518	79.94
301.748	81.94
301.979	75.94
302.209	82.94
302.439	86.94
302.669	81.94
302.9	89.94
303.13	90.94
303.36	86.94
303.59	81.94
303.82	80.94
304.051	80.94
304.281	81.94
304.511	75.94
304.741	73.94
304.971	75.94
305.201	79.94
305.431	100.94
305.661	82.94
305.891	82.94
306.121	89.94
306.352	89.94
306.582	88.94
306.812	101.94
307.042	85.94
307.272	82.94
307.502	93.94
307.731	76.94
307.961	84.94
308.191	68.94
308.421	88.94
308.651	79.94
308.881	90.94
309.111	93.94
309.341	80.94
309.571	81.94
309.8	82.94
310.03	87.94
310.26	91.94
310.49	78.94
310.72	76.94
310.949	84.94
311.179	89.94
311.409	64.94
311.639	66.94
311.868	85.94
312.098	87.94
312.328	87.94
312.557	81.94
312.787	78.94
313.017	81.94
313.246	87.94
313.476	95.94
313.706	89.94
313.935	96.94
314.165	82.94
314.394	90.94
314.624	82.94
314.853	77.94
315.083	72.94
315.312	87.94
315.542	81.94
315.771	102.94
316.001	73.94
316.23	76.94
316.46	90.94
316.689	82.94
316.919	86.94
317.148	85.94
317.377	102.94
317.607	89.94
317.836	86.94
318.065	85.94
318.295	79.94
318.524	79.94
318.753	71.94
318.983	92.94
319.212	87.94
319.441	97.94
319.67	79.94
319.9	89.94
320.129	100.94
320.358	90.94
320.587	86.94
320.816	87.94
321.046	94.94
321.275	93.94
321.504	87.94
321.733	104.94
321.962	92.94
322.191	93.94
322.42	89.94
322.649	90.94
322.878	83.94
323.108	91.94
323.337	79.94
323.566	78.94
323.795	91.94
324.024	64.94
324.253	79.94
324.482	72.94
324.71	79.94
324.939	87.94
325.168	91.94
325.397	86.94
325.626	82.94
325.855	79.94
326.084	100.94
326.313	76.94
326.542	94.94
326.77	81.94
326.999	83.94
327.228	80.94
327.457	89.94
327.686	83.94
327.914	79.94
328.143	94.94
328.372	77.94
328.6	73.94
328.829	77.94
329.058	80.94
329.287	81.94
329.515	66.94
329.744	79.94
329.972	75.94
330.201	83.94
330.43	97.94
330.658	82.94
330.887	86.94
331.115	72.94
331.344	74.94
331.572	94.94
331.801	99.94
332.03	96.94
332.258	88.94
332.486	103.94
332.715	73.94
332.943	89.94
333.172	83.94
333.4	83.94
333.629	75.94
333.857	85.94
334.085	79.94
334.314	95.94
334.542	75.94
334.771	83.94
334.999	77.94
335.227	85.94
335.455	86.94
335.684	90.94
335.912	79.94
336.14	82.94
336.369	86.94
336.597	88.94
336.825	90.94
337.053	86.94
337.281	96.94
337.51	90.94
337.738	75.94
337.966	93.94
338.194	89.94
338.422	75.94
338.65	93.94
338.878	74.94
339.106	83.94
339.334	88.94
339.562	78.94
339.79	74.94
340.018	82.94
340.246	109.94
340.474	88.94
340.702	85.94
340.93	78.94
341.158	88.94
341.386	95.94
341.614	82.94
341.842	83.94
342.07	90.94
342.298	78.94
342.526	80.94
342.754	73.94
342.981	73.94
343.209	88.94
343.437	85.94
343.665	83.94
343.893	87.94
344.12	94.94
344.348	83.94
344.576	91.94
344.804	80.94
345.031	85.94
345.259	91.94
345.487	93.94
345.714	74.94
345.942	72.94
346.17	79.94
346.397	80.94
346.625	94.94
346.853	81.94
347.08	76.94
347.308	89.94
347.535	81.94
347.763	74.94
347.99	85.94
348.218	84.94
348.445	90.94
348.673	90.94
348.9	83.94
349.128	81.94
349.355	99.94
349.583	74.94
349.81	88.94
350.037	76.94
350.265	70.94
350.492	74.94
350.72	84.94
350.947	72.94
351.174	86.94
351.402	79.94
351.629	85.94
351.856	90.94
352.083	85.94
352.311	75.94
352.538	79.94
352.765	92.94
352.992	94.94
353.22	85.94
353.447	82.94
353.674	81.94
353.901	96.94
354.128	81.94
354.355	99.94
354.583	79.94
354.81	82.94
355.037	71.94
355.264	75.94
355.491	75.94
355.718	93.94
355.945	97.94
356.172	70.94
356.399	75.94
356.626	83.94
356.853	77.94
357.08	90.94
357.307	91.94
357.534	75.94
357.761	76.94
357.988	72.94
358.215	89.94
358.441	83.94
358.668	81.94
358.895	79.94
359.122	75.94
359.349	86.94
359.576	90.94
359.802	86.94
360.029	89.94
360.256	72.94
360.483	79.94
360.709	90.94
360.936	83.94
361.163	82.94
361.39	90.94
361.616	89.94
361.843	84.94
362.07	90.94
362.296	84.94
362.523	89.94
362.749	76.94
362.976	79.94
363.203	94.94
363.429	90.94
363.656	87.94
363.882	79.94
364.109	77.94
364.335	75.94
364.562	98.94
364.788	90.94
365.015	90.94
365.241	78.94
365.468	85.94
365.694	82.94
365.92	79.94
366.147	73.94
366.373	93.94
366.599	73.94
366.826	91.94
367.052	89.94
367.278	89.94
367.505	70.94
367.731	94.94
367.957	79.94
368.184	81.94
368.41	72.94
368.636	85.94
368.862	100.94
369.089	86.94
369.315	74.94
369.541	98.94
369.767	80.94
369.993	90.94
370.219	101.94
370.445	79.94
370.672	98.94
370.898	90.94
371.124	86.94
371.35	87.94
371.576	85.94
371.802	69.94
372.028	72.94
372.254	93.94
372.48	79.94
372.706	88.94
372.932	82.94
373.158	72.94
373.384	87.94
373.61	86.94
373.835	80.94
374.061	82.94
374.287	79.94
374.513	75.94
374.739	77.94
374.965	85.94
375.191	79.94
375.416	81.94
375.642	82.94
375.868	83.94
376.094	73.94
376.319	70.94
376.545	86.94
376.771	97.94
376.997	86.94
377.222	86.94
377.448	87.94
377.674	78.94
377.899	89.94
378.125	85.94
378.35	99.94
378.576	68.94
378.802	82.94
379.027	87.94
379.253	90.94
379.478	85.94
379.704	86.94
379.929	71.94
380.155	72.94
380.38	78.94
380.606	91.94
380.831	86.94
381.057	65.94
381.282	82.94
381.507	82.94
381.733	88.94
381.958	75.94
382.184	85.94
382.409	82.94
382.634	82.94
382.86	82.94
383.085	91.94
383.31	94.94
383.535	81.94
383.761	76.94
383.986	78.94
384.211	76.94
384.436	89.94
384.662	82.94
384.887	85.94
385.112	93.94
385.337	81.94
385.562	83.94
385.787	87.94
386.013	79.94
386.238	96.94
386.463	80.94
386.688	80.94
386.913	96.94
387.138	86.94
387.363	87.94
387.588	93.94
387.813	78.94
388.038	81.94
388.263	97.94
388.488	87.94
388.713	77.94
388.938	95.94
389.163	83.94
389.387	83.94
389.612	78.94
389.837	85.94
390.062	77.94
390.287	74.94
390.512	85.94
390.736	90.94
390.961	79.94
391.186	72.94
391.411	83.94
391.636	79.94
391.86	77.94
392.085	97.94
392.31	100.94
392.534	82.94
392.759	87.94
392.984	79.94
393.208	91.94
393.433	74.94
393.658	78.94
393.882	82.94
394.107	95.94
394.331	82.94
394.556	78.94
394.78	72.94
395.005	81.94
395.229	94.94
395.454	85.94
395.678	95.94
395.903	88.94
396.127	76.94
396.352	84.94
396.576	77.94
396.801	82.94
397.025	77.94
397.249	100.94
397.474	95.94
397.698	88.94
397.922	79.94
398.147	88.94
398.371	87.94
398.595	89.94
398.82	74.94
399.044	83.94
399.268	90.94
399.492	80.94
399.717	87.94
399.941	99.94
400.165	91.94
400.389	91.94
400.613	96.94
400.837	103.94
401.062	86.94
401.286	86.94
401.51	85.94
401.734	76.94
401.958	81.94
402.182	77.94
402.406	97.94
402.63	81.94
402.854	82.94
403.078	79.94
403.302	81.94
403.526	81.94
403.75	94.94
403.974	85.94
404.198	94.94
404.422	94.94
404.645	80.94
404.869	86.94
405.093	72.94
405.317	68.94
405.541	79.94
405.765	93.94
405.988	87.94
406.212	91.94
406.436	89.94
406.66	112.94
406.883	90.94
407.107	78.94
407.331	102.94
407.555	87.94
407.778	81.94
408.002	77.94
408.226	87.94
408.449	80.94
408.673	75.94
408.896	87.94
409.12	77.94
409.344	81.94
409.567	97.94
409.791	87.94
410.014	90.94
410.238	73.94
410.461	77.94
410.685	79.94
410.908	98.94
411.132	83.94
411.355	98.94
411.578	88.94
411.802	92.94
412.025	81.94
412.249	86.94
412.472	82.94
412.695	80.94
412.919	100.94
413.142	99.94
413.365	97.94
413.589	100.94
413.812	97.94
414.035	85.94
414.258	92.94
414.482	83.94
414.705	82.94
414.928	86.94
415.151	83.94
415.374	90.94
415.597	93.94
415.821	107.94
416.044	88.94
416.267	82.94
416.49	88.94
416.713	96.94
416.936	96.94
417.159	98.94
417.382	85.94
417.605	94.94
417.828	92.94
418.051	97.94
418.274	95.94
418.497	102.94
418.72	91.94
418.943	82.94
419.166	86.94
419.389	91.94
419.611	89.94
419.834	83.94
420.057	94.94
420.28	81.94
420.503	102.94
420.726	105.94
420.948	97.94
421.171	107.94
421.394	102.94
421.617	121.94
421.839	98.94
422.062	92.94
422.285	87.94
422.507	110.94
422.73	95.94
422.953	84.94
423.175	84.94
423.398	86.94
423.621	93.94
423.843	103.94
424.066	82.94
424.288	99.94
424.511	92.94
424.733	82.94
424.956	96.94
425.178	89.94
425.401	98.94
425.623	95.94
425.846	87.94
426.068	90.94
426.291	92.94
426.513	111.94
426.735	96.94
426.958	89.94
427.18	102.94
427.402	86.94
427.625	88.94
427.847	98.94
428.069	89.94
428.292	96.94
428.514	104.94
428.736	87.94
428.958	100.94
429.181	93.94
429.403	107.94
429.625	97.94
429.847	85.94
430.069	85.94
430.292	87.94
430.514	89.94
430.736	94.94
430.958	100.94
431.18	101.94
431.402	96.94
431.624	87.94
431.846	85.94
432.068	76.94
432.29	73.94
432.512	89.94
432.734	89.94
432.956	102.94
433.178	102.94
433.4	110.94
433.622	83.94
433.844	81.94
434.066	78.94
434.287	86.94
434.509	79.94
434.731	79.94
434.953	86.94
435.175	85.94
435.397	91.94
435.618	71.94
435.84	85.94
436.062	69.94
436.284	72.94
436.505	88.94
436.727	88.94
436.949	87.94
437.17	101.94
437.392	87.94
437.614	69.94
437.835	85.94
438.057	83.94
438.278	87.94
438.5	92.94
438.721	93.94
438.943	94.94
439.165	87.94
439.386	77.94
439.608	99.94
439.829	101.94
440.05	103.94
440.272	90.94
440.493	102.94
440.715	100.94
440.936	98.94
441.158	102.94
441.379	95.94
441.6	95.94
441.822	88.94
442.043	96.94
442.264	90.94
442.486	86.94
442.707	97.94
442.928	92.94
443.149	108.94
443.371	110.94
443.592	92.94
443.813	102.94
444.034	82.94
444.255	102.94
444.476	102.94
444.698	92.94
444.919	81.94
445.14	198.94
445.361	136.94
445.582	88.94
445.803	94.94
446.024	103.94
446.245	101.94
446.466	96.94
446.687	103.94
446.908	104.94
447.129	111.94
447.35	117.94
447.571	99.94
447.792	95.94
448.013	82.94
448.234	93.94
448.455	110.94
448.675	101.94
448.896	90.94
449.117	103.94
449.338	85.94
449.559	94.94
449.779	99.94
450	97.94
450.221	93.94
450.442	91.94
450.662	93.94
450.883	88.94
451.104	95.94
451.324	84.94
451.545	83.94
451.766	81.94
451.986	91.94
452.207	84.94
452.428	90.94
452.648	85.94
452.869	73.94
453.089	89.94
453.31	82.94
453.53	76.94
453.751	66.94
453.971	86.94
454.192	85.94
454.412	66.94
454.633	97.94
454.853	88.94
455.073	85.94
455.294	85.94
455.514	87.94
455.734	90.94
455.955	99.94
456.175	93.94
456.395	89.94
456.616	89.94
456.836	96.94
457.056	86.94
457.276	85.94
457.497	88.94
457.717	72.94
457.937	89.94
458.157	83.94
458.377	88.94
458.598	96.94
458.818	86.94
459.038	85.94
459.258	84.94
459.478	77.94
459.698	78.94
459.918	87.94
460.138	84.94
460.358	91.94
460.578	74.94
460.798	82.94
461.018	103.94
461.238	82.94
461.458	81.94
461.678	87.94
461.898	92.94
462.118	90.94
462.338	78.94
462.558	78.94
462.777	77.94
462.997	94.94
463.217	91.94
463.437	91.94
463.657	93.94
463.876	85.94
464.096	76.94
464.316	74.94
464.536	86.94
464.755	87.94
464.975	96.94
465.195	87.94
465.414	79.94
465.634	87.94
465.854	89.94
466.073	92.94
466.293	78.94
466.512	95.94
466.732	96.94
466.951	86.94
467.171	90.94
467.391	92.94
467.61	99.94
467.829	83.94
468.049	100.94
468.268	96.94
468.488	104.94
468.707	89.94
468.927	89.94
469.146	84.94
469.365	103.94
469.585	99.94
469.804	102.94
470.023	82.94
470.243	93.94
470.462	77.94
470.681	94.94
470.901	91.94
471.12	94.94
471.339	90.94
471.558	89.94
471.777	93.94
471.997	97.94
472.216	99.94
472.435	83.94
472.654	80.94
472.873	72.94
473.092	89.94
473.311	88.94
473.53	80.94
473.749	94.94
473.968	83.94
474.187	80.94
474.406	78.94
474.625	96.94
474.844	93.94
475.063	98.94
475.282	94.94
475.501	95.94
475.72	95.94
475.939	85.94
476.158	106.94
476.377	101.94
476.596	95.94
476.814	89.94
477.033	102.94
477.252	87.94
477.471	79.94
477.69	105.94
477.908	85.94
478.127	95.94
478.346	74.94
478.564	88.94
478.783	89.94
479.002	84.94
479.22	93.94
479.439	101.94
479.658	87.94
479.876	98.94
480.095	98.94
480.313	78.94
480.532	84.94
480.751	98.94
480.969	88.94
481.188	91.94
481.406	74.94
481.624	83.94
481.843	95.94
482.061	78.94
482.28	91.94
482.498	82.94
482.717	88.94
482.935	86.94
483.153	109.94
483.372	96.94
483.59	106.94
483.808	88.94
484.027	98.94
484.245	102.94
484.463	105.94
484.681	113.94
484.9	104.94
485.118	93.94
485.336	94.94
485.554	109.94
485.772	83.94
485.99	82.94
486.209	97.94
486.427	93.94
486.645	93.94
486.863	103.94
487.081	90.94
487.299	97.94
487.517	102.94
487.735	94.94
487.953	97.94
488.171	111.94
488.389	122.94
488.607	118.94
488.825	105.94
489.043	110.94
489.261	95.94
489.479	89.94
489.696	100.94
489.914	98.94
490.132	91.94
490.35	104.94
490.568	102.94
490.786	106.94
491.003	91.94
491.221	115.94
491.439	104.94
491.657	103.94
491.874	102.94
492.092	115.94
492.31	126.94
492.527	131.94
492.745	114.94
492.963	124.94
493.18	122.94
493.398	104.94
493.615	90.94
493.833	112.94
494.05	107.94
494.268	102.94
494.485	106.94
494.703	109.94
494.92	112.94
495.138	110.94
495.355	101.94
495.573	105.94
495.79	98.94
496.008	106.94
496.225	109.94
496.442	113.94
496.66	107.94
496.877	118.94
497.094	114.94
497.312	114.94
497.529	109.94
497.746	123.94
497.963	102.94
498.181	93.94
498.398	87.94
498.615	103.94
498.832	92.94
499.049	89.94
499.267	84.94
499.484	95.94
499.701	85.94
499.918	93.94
500.135	95.94
500.352	88.94
500.569	94.94
500.786	104.94
501.003	99.94
501.22	93.94
501.437	104.94
501.654	89.94
501.871	99.94
502.088	95.94
502.305	86.94
502.522	103.94
502.739	105.94
502.956	90.94
503.172	91.94
503.389	102.94
503.606	83.94
503.823	97.94
504.04	93.94
504.256	82.94
504.473	93.94
504.69	95.94
504.907	89.94
505.123	91.94
505.34	84.94
505.557	104.94
505.773	91.94
505.99	99.94
506.207	97.94
506.423	82.94
506.64	83.94
506.856	97.94
507.073	89.94
507.289	87.94
507.506	95.94
507.722	96.94
507.939	86.94
508.155	105.94
508.372	85.94
508.588	84.94
508.805	76.94
509.021	97.94
509.238	80.94
509.454	89.94
509.67	91.94
509.887	85.94
510.103	89.94
510.319	70.94
510.536	82.94
510.752	79.94
510.968	85.94
511.184	80.94
511.401	81.94
511.617	80.94
511.833	78.94
512.049	88.94
512.265	79.94
512.481	97.94
512.698	76.94
512.914	71.94
513.13	89.94
513.346	95.94
513.562	100.94
513.778	73.94
513.994	77.94
514.21	94.94
514.426	83.94
514.642	70.94
514.858	87.94
515.074	79.94
515.29	107.94
515.506	85.94
515.721	72.94
515.937	76.94
516.153	89.94
516.369	87.94
516.585	83.94
516.801	92.94
517.016	86.94
517.232	85.94
517.448	82.94
517.664	89.94
