Data from Location4.07152019.Energy5.Lamp.07192019.3%Agarose_HRD10591_15-24-29-576.txt Node
Date: Fri Jul 19 15:24:29 EDT 2019
User: cochatt
Spectrometer: HR+D1059
Trigger mode: 1
Integration Time (sec): 1.000000E-1
Scans to average: 1
Electric dark correction enabled: true
Nonlinearity correction enabled: false
Boxcar width: 0
XAxis mode: Wavelengths
Number of Pixels in Spectrum: 2048
>>>>>Begin Spectral Data<<<<<
223.165	-4.88
223.4	-4.88
223.635	-4.88
223.869	-14.88
224.104	-31.88
224.338	-19.88
224.573	-16.88
224.808	-18.88
225.042	0.12
225.277	-6.88
225.511	-1.88
225.746	10.12
225.98	16.12
226.215	12.12
226.449	2.12
226.683	17.12
226.918	25.12
227.152	33.12
227.387	34.12
227.621	40.12
227.856	45.12
228.09	59.12
228.324	54.12
228.559	58.12
228.793	56.12
229.027	56.12
229.262	62.12
229.496	65.12
229.73	66.12
229.964	64.12
230.199	74.12
230.433	79.12
230.667	74.12
230.901	63.12
231.136	73.12
231.37	65.12
231.604	50.12
231.838	71.12
232.072	90.12
232.306	81.12
232.541	90.12
232.775	80.12
233.009	86.12
233.243	70.12
233.477	93.12
233.711	79.12
233.945	71.12
234.179	75.12
234.413	69.12
234.647	80.12
234.881	76.12
235.115	81.12
235.349	82.12
235.583	79.12
235.817	83.12
236.051	74.12
236.285	77.12
236.519	81.12
236.753	88.12
236.987	83.12
237.221	70.12
237.455	90.12
237.689	93.12
237.922	74.12
238.156	69.12
238.39	81.12
238.624	84.12
238.858	73.12
239.091	79.12
239.325	77.12
239.559	84.12
239.793	68.12
240.027	78.12
240.26	72.12
240.494	79.12
240.728	83.12
240.961	60.12
241.195	81.12
241.429	66.12
241.662	72.12
241.896	88.12
242.13	85.12
242.363	73.12
242.597	77.12
242.83	84.12
243.064	83.12
243.298	78.12
243.531	95.12
243.765	74.12
243.998	81.12
244.232	71.12
244.465	56.12
244.699	61.12
244.932	74.12
245.166	74.12
245.399	80.12
245.633	71.12
245.866	90.12
246.099	77.12
246.333	82.12
246.566	89.12
246.8	77.12
247.033	79.12
247.266	78.12
247.5	92.12
247.733	71.12
247.966	61.12
248.2	75.12
248.433	73.12
248.666	77.12
248.899	85.12
249.133	75.12
249.366	81.12
249.599	80.12
249.832	59.12
250.066	81.12
250.299	85.12
250.532	78.12
250.765	77.12
250.998	77.12
251.231	71.12
251.465	84.12
251.698	78.12
251.931	89.12
252.164	63.12
252.397	73.12
252.63	76.12
252.863	83.12
253.096	101.12
253.329	87.12
253.562	67.12
253.795	71.12
254.028	88.12
254.261	72.12
254.494	80.12
254.727	87.12
254.96	83.12
255.193	64.12
255.426	80.12
255.659	81.12
255.892	88.12
256.124	92.12
256.357	81.12
256.59	67.12
256.823	67.12
257.056	76.12
257.289	81.12
257.521	88.12
257.754	83.12
257.987	95.12
258.22	78.12
258.452	76.12
258.685	75.12
258.918	76.12
259.151	72.12
259.383	85.12
259.616	80.12
259.849	86.12
260.081	79.12
260.314	75.12
260.547	89.12
260.779	81.12
261.012	72.12
261.244	79.12
261.477	80.12
261.71	82.12
261.942	87.12
262.175	84.12
262.407	83.12
262.64	84.12
262.872	92.12
263.105	97.12
263.337	71.12
263.57	78.12
263.802	81.12
264.035	74.12
264.267	78.12
264.499	70.12
264.732	94.12
264.964	73.12
265.197	79.12
265.429	85.12
265.661	72.12
265.894	72.12
266.126	93.12
266.358	80.12
266.591	80.12
266.823	66.12
267.055	79.12
267.287	90.12
267.52	88.12
267.752	81.12
267.984	79.12
268.216	74.12
268.448	74.12
268.681	81.12
268.913	70.12
269.145	78.12
269.377	88.12
269.609	61.12
269.841	89.12
270.073	86.12
270.306	85.12
270.538	74.12
270.77	76.12
271.002	77.12
271.234	72.12
271.466	88.12
271.698	76.12
271.93	91.12
272.162	82.12
272.394	81.12
272.626	74.12
272.858	85.12
273.09	77.12
273.322	83.12
273.553	75.12
273.785	84.12
274.017	84.12
274.249	79.12
274.481	92.12
274.713	74.12
274.945	89.12
275.176	82.12
275.408	80.12
275.64	89.12
275.872	74.12
276.104	88.12
276.335	85.12
276.567	77.12
276.799	92.12
277.031	73.12
277.262	91.12
277.494	96.12
277.726	89.12
277.957	95.12
278.189	92.12
278.421	95.12
278.652	88.12
278.884	83.12
279.115	80.12
279.347	82.12
279.579	82.12
279.81	82.12
280.042	96.12
280.273	76.12
280.505	89.12
280.736	98.12
280.968	80.12
281.199	83.12
281.431	89.12
281.662	81.12
281.894	86.12
282.125	67.12
282.356	79.12
282.588	77.12
282.819	80.12
283.051	90.12
283.282	89.12
283.513	89.12
283.745	83.12
283.976	87.12
284.207	80.12
284.439	81.12
284.67	88.12
284.901	73.12
285.132	72.12
285.364	84.12
285.595	91.12
285.826	91.12
286.057	82.12
286.288	75.12
286.52	78.12
286.751	95.12
286.982	89.12
287.213	85.12
287.444	91.12
287.675	83.12
287.906	86.12
288.138	87.12
288.369	69.12
288.6	82.12
288.831	87.12
289.062	97.12
289.293	79.12
289.524	77.12
289.755	88.12
289.986	75.12
290.217	91.12
290.448	81.12
290.679	89.12
290.91	90.12
291.141	88.12
291.371	86.12
291.602	95.12
291.833	79.12
292.064	81.12
292.295	79.12
292.526	72.12
292.757	93.12
292.987	86.12
293.218	77.12
293.449	67.12
293.68	96.12
293.91	88.12
294.141	92.12
294.372	93.12
294.603	81.12
294.833	91.12
295.064	86.12
295.295	77.12
295.525	75.12
295.756	87.12
295.987	86.12
296.217	93.12
296.448	80.12
296.679	99.12
296.909	100.12
297.14	76.12
297.37	90.12
297.601	78.12
297.831	92.12
298.062	86.12
298.292	76.12
298.523	96.12
298.753	82.12
298.984	91.12
299.214	81.12
299.445	90.12
299.675	89.12
299.905	93.12
300.136	88.12
300.366	81.12
300.597	91.12
300.827	77.12
301.057	89.12
301.288	100.12
301.518	95.12
301.748	87.12
301.979	93.12
302.209	83.12
302.439	83.12
302.669	98.12
302.9	82.12
303.13	87.12
303.36	83.12
303.59	100.12
303.82	80.12
304.051	85.12
304.281	90.12
304.511	90.12
304.741	82.12
304.971	80.12
305.201	81.12
305.431	78.12
305.661	70.12
305.891	88.12
306.121	79.12
306.352	81.12
306.582	78.12
306.812	82.12
307.042	78.12
307.272	87.12
307.502	86.12
307.731	97.12
307.961	89.12
308.191	81.12
308.421	88.12
308.651	91.12
308.881	89.12
309.111	74.12
309.341	84.12
309.571	76.12
309.8	90.12
310.03	87.12
310.26	75.12
310.49	81.12
310.72	79.12
310.949	83.12
311.179	78.12
311.409	74.12
311.639	80.12
311.868	78.12
312.098	100.12
312.328	90.12
312.557	93.12
312.787	81.12
313.017	93.12
313.246	88.12
313.476	78.12
313.706	74.12
313.935	81.12
314.165	90.12
314.394	86.12
314.624	81.12
314.853	91.12
315.083	85.12
315.312	84.12
315.542	75.12
315.771	75.12
316.001	89.12
316.23	80.12
316.46	77.12
316.689	90.12
316.919	103.12
317.148	89.12
317.377	78.12
317.607	88.12
317.836	83.12
318.065	86.12
318.295	79.12
318.524	89.12
318.753	75.12
318.983	85.12
319.212	75.12
319.441	75.12
319.67	90.12
319.9	81.12
320.129	90.12
320.358	88.12
320.587	80.12
320.816	79.12
321.046	69.12
321.275	89.12
321.504	93.12
321.733	92.12
321.962	67.12
322.191	82.12
322.42	90.12
322.649	87.12
322.878	95.12
323.108	81.12
323.337	91.12
323.566	93.12
323.795	81.12
324.024	87.12
324.253	73.12
324.482	80.12
324.71	78.12
324.939	80.12
325.168	98.12
325.397	72.12
325.626	89.12
325.855	87.12
326.084	87.12
326.313	91.12
326.542	87.12
326.77	92.12
326.999	86.12
327.228	87.12
327.457	85.12
327.686	79.12
327.914	73.12
328.143	85.12
328.372	84.12
328.6	87.12
328.829	91.12
329.058	94.12
329.287	77.12
329.515	96.12
329.744	92.12
329.972	81.12
330.201	80.12
330.43	86.12
330.658	79.12
330.887	86.12
331.115	77.12
331.344	71.12
331.572	75.12
331.801	89.12
332.03	83.12
332.258	99.12
332.486	83.12
332.715	79.12
332.943	86.12
333.172	75.12
333.4	90.12
333.629	77.12
333.857	75.12
334.085	83.12
334.314	91.12
334.542	93.12
334.771	83.12
334.999	96.12
335.227	74.12
335.455	86.12
335.684	90.12
335.912	83.12
336.14	86.12
336.369	88.12
336.597	70.12
336.825	98.12
337.053	75.12
337.281	81.12
337.51	87.12
337.738	83.12
337.966	79.12
338.194	68.12
338.422	85.12
338.65	81.12
338.878	89.12
339.106	65.12
339.334	95.12
339.562	93.12
339.79	76.12
340.018	81.12
340.246	76.12
340.474	91.12
340.702	84.12
340.93	83.12
341.158	85.12
341.386	94.12
341.614	88.12
341.842	96.12
342.07	81.12
342.298	80.12
342.526	76.12
342.754	86.12
342.981	89.12
343.209	87.12
343.437	90.12
343.665	83.12
343.893	79.12
344.12	76.12
344.348	84.12
344.576	82.12
344.804	78.12
345.031	62.12
345.259	88.12
345.487	79.12
345.714	84.12
345.942	82.12
346.17	89.12
346.397	85.12
346.625	90.12
346.853	71.12
347.08	61.12
347.308	89.12
347.535	89.12
347.763	80.12
347.99	74.12
348.218	104.12
348.445	81.12
348.673	78.12
348.9	92.12
349.128	90.12
349.355	84.12
349.583	71.12
349.81	87.12
350.037	79.12
350.265	86.12
350.492	73.12
350.72	93.12
350.947	93.12
351.174	88.12
351.402	91.12
351.629	83.12
351.856	83.12
352.083	80.12
352.311	100.12
352.538	95.12
352.765	89.12
352.992	79.12
353.22	72.12
353.447	82.12
353.674	87.12
353.901	84.12
354.128	70.12
354.355	66.12
354.583	89.12
354.81	95.12
355.037	76.12
355.264	88.12
355.491	77.12
355.718	77.12
355.945	84.12
356.172	73.12
356.399	88.12
356.626	78.12
356.853	92.12
357.08	95.12
357.307	94.12
357.534	87.12
357.761	80.12
357.988	93.12
358.215	71.12
358.441	66.12
358.668	72.12
358.895	86.12
359.122	86.12
359.349	83.12
359.576	82.12
359.802	102.12
360.029	87.12
360.256	72.12
360.483	97.12
360.709	83.12
360.936	85.12
361.163	79.12
361.39	82.12
361.616	87.12
361.843	78.12
362.07	88.12
362.296	85.12
362.523	93.12
362.749	83.12
362.976	93.12
363.203	93.12
363.429	79.12
363.656	83.12
363.882	83.12
364.109	82.12
364.335	82.12
364.562	80.12
364.788	86.12
365.015	89.12
365.241	78.12
365.468	82.12
365.694	83.12
365.92	87.12
366.147	80.12
366.373	87.12
366.599	76.12
366.826	82.12
367.052	92.12
367.278	80.12
367.505	88.12
367.731	82.12
367.957	81.12
368.184	84.12
368.41	85.12
368.636	73.12
368.862	90.12
369.089	88.12
369.315	89.12
369.541	86.12
369.767	71.12
369.993	80.12
370.219	83.12
370.445	92.12
370.672	87.12
370.898	78.12
371.124	87.12
371.35	82.12
371.576	79.12
371.802	84.12
372.028	86.12
372.254	79.12
372.48	79.12
372.706	97.12
372.932	99.12
373.158	93.12
373.384	89.12
373.61	79.12
373.835	83.12
374.061	76.12
374.287	90.12
374.513	77.12
374.739	90.12
374.965	78.12
375.191	69.12
375.416	84.12
375.642	96.12
375.868	93.12
376.094	94.12
376.319	108.12
376.545	86.12
376.771	78.12
376.997	94.12
377.222	80.12
377.448	83.12
377.674	80.12
377.899	81.12
378.125	85.12
378.35	86.12
378.576	94.12
378.802	91.12
379.027	91.12
379.253	89.12
379.478	90.12
379.704	79.12
379.929	88.12
380.155	79.12
380.38	88.12
380.606	74.12
380.831	95.12
381.057	90.12
381.282	91.12
381.507	86.12
381.733	89.12
381.958	91.12
382.184	86.12
382.409	80.12
382.634	84.12
382.86	74.12
383.085	94.12
383.31	84.12
383.535	80.12
383.761	79.12
383.986	89.12
384.211	79.12
384.436	102.12
384.662	98.12
384.887	90.12
385.112	83.12
385.337	80.12
385.562	75.12
385.787	83.12
386.013	95.12
386.238	82.12
386.463	76.12
386.688	95.12
386.913	78.12
387.138	96.12
387.363	95.12
387.588	83.12
387.813	93.12
388.038	85.12
388.263	85.12
388.488	81.12
388.713	101.12
388.938	90.12
389.163	94.12
389.387	74.12
389.612	99.12
389.837	75.12
390.062	82.12
390.287	86.12
390.512	84.12
390.736	80.12
390.961	95.12
391.186	99.12
391.411	78.12
391.636	80.12
391.86	82.12
392.085	94.12
392.31	91.12
392.534	95.12
392.759	94.12
392.984	91.12
393.208	85.12
393.433	85.12
393.658	93.12
393.882	87.12
394.107	98.12
394.331	84.12
394.556	83.12
394.78	83.12
395.005	88.12
395.229	78.12
395.454	88.12
395.678	97.12
395.903	85.12
396.127	92.12
396.352	83.12
396.576	91.12
396.801	88.12
397.025	88.12
397.249	78.12
397.474	83.12
397.698	93.12
397.922	104.12
398.147	87.12
398.371	90.12
398.595	96.12
398.82	99.12
399.044	83.12
399.268	84.12
399.492	92.12
399.717	96.12
399.941	90.12
400.165	95.12
400.389	83.12
400.613	85.12
400.837	80.12
401.062	86.12
401.286	86.12
401.51	94.12
401.734	86.12
401.958	92.12
402.182	78.12
402.406	95.12
402.63	93.12
402.854	95.12
403.078	86.12
403.302	75.12
403.526	88.12
403.75	79.12
403.974	99.12
404.198	104.12
404.422	86.12
404.645	77.12
404.869	83.12
405.093	84.12
405.317	85.12
405.541	94.12
405.765	73.12
405.988	89.12
406.212	96.12
406.436	90.12
406.66	98.12
406.883	97.12
407.107	79.12
407.331	90.12
407.555	86.12
407.778	91.12
408.002	91.12
408.226	90.12
408.449	79.12
408.673	88.12
408.896	96.12
409.12	81.12
409.344	77.12
409.567	90.12
409.791	77.12
410.014	98.12
410.238	104.12
410.461	75.12
410.685	85.12
410.908	101.12
411.132	89.12
411.355	83.12
411.578	84.12
411.802	102.12
412.025	83.12
412.249	78.12
412.472	82.12
412.695	99.12
412.919	88.12
413.142	88.12
413.365	80.12
413.589	82.12
413.812	89.12
414.035	80.12
414.258	90.12
414.482	95.12
414.705	93.12
414.928	90.12
415.151	88.12
415.374	93.12
415.597	92.12
415.821	83.12
416.044	92.12
416.267	79.12
416.49	100.12
416.713	92.12
416.936	92.12
417.159	93.12
417.382	96.12
417.605	87.12
417.828	91.12
418.051	96.12
418.274	90.12
418.497	93.12
418.72	81.12
418.943	91.12
419.166	97.12
419.389	107.12
419.611	93.12
419.834	97.12
420.057	98.12
420.28	95.12
420.503	94.12
420.726	95.12
420.948	91.12
421.171	96.12
421.394	97.12
421.617	95.12
421.839	111.12
422.062	101.12
422.285	106.12
422.507	81.12
422.73	83.12
422.953	93.12
423.175	90.12
423.398	87.12
423.621	91.12
423.843	95.12
424.066	97.12
424.288	108.12
424.511	101.12
424.733	85.12
424.956	84.12
425.178	94.12
425.401	94.12
425.623	88.12
425.846	82.12
426.068	96.12
426.291	93.12
426.513	100.12
426.735	94.12
426.958	88.12
427.18	97.12
427.402	88.12
427.625	103.12
427.847	85.12
428.069	85.12
428.292	102.12
428.514	96.12
428.736	96.12
428.958	86.12
429.181	86.12
429.403	86.12
429.625	86.12
429.847	89.12
430.069	92.12
430.292	82.12
430.514	88.12
430.736	78.12
430.958	100.12
431.18	102.12
431.402	104.12
431.624	93.12
431.846	89.12
432.068	74.12
432.29	95.12
432.512	86.12
432.734	97.12
432.956	89.12
433.178	87.12
433.4	99.12
433.622	98.12
433.844	97.12
434.066	88.12
434.287	87.12
434.509	72.12
434.731	90.12
434.953	98.12
435.175	98.12
435.397	94.12
435.618	95.12
435.84	98.12
436.062	94.12
436.284	93.12
436.505	98.12
436.727	98.12
436.949	100.12
437.17	102.12
437.392	72.12
437.614	81.12
437.835	73.12
438.057	92.12
438.278	81.12
438.5	85.12
438.721	80.12
438.943	87.12
439.165	87.12
439.386	81.12
439.608	96.12
439.829	95.12
440.05	87.12
440.272	102.12
440.493	83.12
440.715	99.12
440.936	97.12
441.158	110.12
441.379	99.12
441.6	106.12
441.822	113.12
442.043	104.12
442.264	106.12
442.486	94.12
442.707	100.12
442.928	100.12
443.149	101.12
443.371	99.12
443.592	92.12
443.813	92.12
444.034	106.12
444.255	86.12
444.476	85.12
444.698	89.12
444.919	90.12
445.14	230.12
445.361	146.12
445.582	99.12
445.803	95.12
446.024	96.12
446.245	105.12
446.466	92.12
446.687	79.12
446.908	101.12
447.129	103.12
447.35	90.12
447.571	99.12
447.792	91.12
448.013	112.12
448.234	83.12
448.455	99.12
448.675	102.12
448.896	84.12
449.117	92.12
449.338	74.12
449.559	87.12
449.779	87.12
450	94.12
450.221	91.12
450.442	85.12
450.662	90.12
450.883	112.12
451.104	87.12
451.324	87.12
451.545	99.12
451.766	90.12
451.986	89.12
452.207	109.12
452.428	85.12
452.648	101.12
452.869	83.12
453.089	83.12
453.31	89.12
453.53	94.12
453.751	98.12
453.971	93.12
454.192	84.12
454.412	85.12
454.633	87.12
454.853	93.12
455.073	82.12
455.294	94.12
455.514	93.12
455.734	97.12
455.955	91.12
456.175	103.12
456.395	95.12
456.616	96.12
456.836	106.12
457.056	90.12
457.276	95.12
457.497	82.12
457.717	82.12
457.937	92.12
458.157	84.12
458.377	77.12
458.598	94.12
458.818	97.12
459.038	78.12
459.258	88.12
459.478	72.12
459.698	97.12
459.918	94.12
460.138	89.12
460.358	91.12
460.578	104.12
460.798	93.12
461.018	83.12
461.238	85.12
461.458	90.12
461.678	88.12
461.898	86.12
462.118	86.12
462.338	81.12
462.558	94.12
462.777	87.12
462.997	91.12
463.217	73.12
463.437	80.12
463.657	93.12
463.876	92.12
464.096	90.12
464.316	89.12
464.536	90.12
464.755	93.12
464.975	85.12
465.195	96.12
465.414	114.12
465.634	93.12
465.854	83.12
466.073	85.12
466.293	85.12
466.512	89.12
466.732	97.12
466.951	101.12
467.171	84.12
467.391	99.12
467.61	87.12
467.829	78.12
468.049	91.12
468.268	102.12
468.488	95.12
468.707	100.12
468.927	90.12
469.146	94.12
469.365	98.12
469.585	94.12
469.804	105.12
470.023	94.12
470.243	94.12
470.462	96.12
470.681	91.12
470.901	95.12
471.12	87.12
471.339	94.12
471.558	90.12
471.777	88.12
471.997	100.12
472.216	78.12
472.435	86.12
472.654	81.12
472.873	73.12
473.092	83.12
473.311	92.12
473.53	97.12
473.749	92.12
473.968	88.12
474.187	105.12
474.406	102.12
474.625	94.12
474.844	86.12
475.063	98.12
475.282	84.12
475.501	99.12
475.72	106.12
475.939	85.12
476.158	82.12
476.377	93.12
476.596	82.12
476.814	93.12
477.033	73.12
477.252	84.12
477.471	93.12
477.69	89.12
477.908	95.12
478.127	88.12
478.346	94.12
478.564	95.12
478.783	93.12
479.002	90.12
479.22	113.12
479.439	102.12
479.658	93.12
479.876	84.12
480.095	91.12
480.313	86.12
480.532	94.12
480.751	90.12
480.969	83.12
481.188	74.12
481.406	96.12
481.624	75.12
481.843	77.12
482.061	89.12
482.28	92.12
482.498	95.12
482.717	90.12
482.935	90.12
483.153	111.12
483.372	96.12
483.59	87.12
483.808	90.12
484.027	90.12
484.245	97.12
484.463	101.12
484.681	102.12
484.9	93.12
485.118	83.12
485.336	77.12
485.554	83.12
485.772	98.12
485.99	80.12
486.209	90.12
486.427	81.12
486.645	105.12
486.863	110.12
487.081	87.12
487.299	96.12
487.517	107.12
487.735	114.12
487.953	115.12
488.171	115.12
488.389	112.12
488.607	98.12
488.825	92.12
489.043	99.12
489.261	90.12
489.479	95.12
489.696	86.12
489.914	94.12
490.132	97.12
490.35	82.12
490.568	114.12
490.786	103.12
491.003	95.12
491.221	89.12
491.439	118.12
491.657	107.12
491.874	121.12
492.092	115.12
492.31	131.12
492.527	127.12
492.745	115.12
492.963	115.12
493.18	113.12
493.398	113.12
493.615	117.12
493.833	112.12
494.05	118.12
494.268	104.12
494.485	111.12
494.703	95.12
494.92	90.12
495.138	108.12
495.355	102.12
495.573	99.12
495.79	99.12
496.008	118.12
496.225	111.12
496.442	99.12
496.66	104.12
496.877	119.12
497.094	103.12
497.312	108.12
497.529	102.12
497.746	96.12
497.963	93.12
498.181	104.12
498.398	95.12
498.615	97.12
498.832	87.12
499.049	87.12
499.267	97.12
499.484	94.12
499.701	87.12
499.918	81.12
500.135	91.12
500.352	90.12
500.569	96.12
500.786	100.12
501.003	83.12
501.22	87.12
501.437	98.12
501.654	113.12
501.871	89.12
502.088	99.12
502.305	97.12
502.522	106.12
502.739	106.12
502.956	80.12
503.172	90.12
503.389	85.12
503.606	103.12
503.823	83.12
504.04	84.12
504.256	81.12
504.473	87.12
504.69	98.12
504.907	92.12
505.123	92.12
505.34	87.12
505.557	94.12
505.773	111.12
505.99	93.12
506.207	92.12
506.423	106.12
506.64	93.12
506.856	99.12
507.073	86.12
507.289	91.12
507.506	92.12
507.722	94.12
507.939	89.12
508.155	89.12
508.372	93.12
508.588	94.12
508.805	98.12
509.021	96.12
509.238	96.12
509.454	93.12
509.67	83.12
509.887	70.12
510.103	90.12
510.319	87.12
510.536	86.12
510.752	86.12
510.968	81.12
511.184	71.12
511.401	72.12
511.617	84.12
511.833	89.12
512.049	80.12
512.265	75.12
512.481	85.12
512.698	92.12
512.914	92.12
513.13	106.12
513.346	64.12
513.562	79.12
513.778	91.12
513.994	61.12
514.21	90.12
514.426	83.12
514.642	75.12
514.858	77.12
515.074	81.12
515.29	84.12
515.506	82.12
515.721	82.12
515.937	82.12
516.153	95.12
516.369	73.12
516.585	86.12
516.801	86.12
517.016	84.12
517.232	76.12
517.448	74.12
517.664	82.12
517.879	91.12
