Data from Location4.07152019.Energy5.Lamp.07192019.3%Agarose_HRD10591_15-24-42-577.txt Node
Date: Fri Jul 19 15:24:42 EDT 2019
User: cochatt
Spectrometer: HR+D1059
Trigger mode: 1
Integration Time (sec): 1.000000E-1
Scans to average: 1
Electric dark correction enabled: true
Nonlinearity correction enabled: false
Boxcar width: 0
XAxis mode: Wavelengths
Number of Pixels in Spectrum: 2048
>>>>>Begin Spectral Data<<<<<
223.165	-16.81
223.4	-16.81
223.635	-16.81
223.869	2.19
224.104	-16.81
224.338	-9.81
224.573	-17.81
224.808	-9.81
225.042	-12.81
225.277	-20.81
225.511	-2.81
225.746	-0.81
225.98	-5.81
226.215	12.19
226.449	17.19
226.683	14.19
226.918	29.19
227.152	39.19
227.387	35.19
227.621	33.19
227.856	38.19
228.09	39.19
228.324	42.19
228.559	60.19
228.793	54.19
229.027	66.19
229.262	64.19
229.496	75.19
229.73	68.19
229.964	78.19
230.199	81.19
230.433	81.19
230.667	71.19
230.901	62.19
231.136	67.19
231.37	81.19
231.604	66.19
231.838	88.19
232.072	93.19
232.306	83.19
232.541	87.19
232.775	84.19
233.009	91.19
233.243	84.19
233.477	72.19
233.711	90.19
233.945	83.19
234.179	74.19
234.413	104.19
234.647	76.19
234.881	88.19
235.115	81.19
235.349	89.19
235.583	70.19
235.817	87.19
236.051	81.19
236.285	76.19
236.519	83.19
236.753	82.19
236.987	74.19
237.221	66.19
237.455	67.19
237.689	74.19
237.922	70.19
238.156	79.19
238.39	75.19
238.624	87.19
238.858	80.19
239.091	79.19
239.325	79.19
239.559	82.19
239.793	97.19
240.027	89.19
240.26	79.19
240.494	72.19
240.728	69.19
240.961	72.19
241.195	86.19
241.429	79.19
241.662	67.19
241.896	87.19
242.13	83.19
242.363	73.19
242.597	72.19
242.83	70.19
243.064	80.19
243.298	76.19
243.531	87.19
243.765	82.19
243.998	74.19
244.232	74.19
244.465	80.19
244.699	75.19
244.932	66.19
245.166	76.19
245.399	77.19
245.633	81.19
245.866	89.19
246.099	78.19
246.333	79.19
246.566	86.19
246.8	96.19
247.033	84.19
247.266	89.19
247.5	81.19
247.733	84.19
247.966	78.19
248.2	81.19
248.433	76.19
248.666	86.19
248.899	87.19
249.133	83.19
249.366	93.19
249.599	86.19
249.832	74.19
250.066	89.19
250.299	73.19
250.532	77.19
250.765	76.19
250.998	86.19
251.231	85.19
251.465	83.19
251.698	85.19
251.931	74.19
252.164	78.19
252.397	80.19
252.63	80.19
252.863	74.19
253.096	73.19
253.329	72.19
253.562	56.19
253.795	72.19
254.028	88.19
254.261	74.19
254.494	74.19
254.727	74.19
254.96	75.19
255.193	83.19
255.426	87.19
255.659	79.19
255.892	74.19
256.124	84.19
256.357	62.19
256.59	84.19
256.823	75.19
257.056	73.19
257.289	92.19
257.521	85.19
257.754	80.19
257.987	91.19
258.22	84.19
258.452	75.19
258.685	84.19
258.918	72.19
259.151	74.19
259.383	76.19
259.616	68.19
259.849	85.19
260.081	94.19
260.314	74.19
260.547	87.19
260.779	72.19
261.012	72.19
261.244	82.19
261.477	84.19
261.71	80.19
261.942	90.19
262.175	77.19
262.407	90.19
262.64	86.19
262.872	81.19
263.105	82.19
263.337	84.19
263.57	79.19
263.802	81.19
264.035	77.19
264.267	82.19
264.499	72.19
264.732	82.19
264.964	75.19
265.197	82.19
265.429	94.19
265.661	82.19
265.894	82.19
266.126	93.19
266.358	100.19
266.591	91.19
266.823	91.19
267.055	70.19
267.287	73.19
267.52	89.19
267.752	75.19
267.984	79.19
268.216	93.19
268.448	78.19
268.681	84.19
268.913	93.19
269.145	85.19
269.377	86.19
269.609	75.19
269.841	90.19
270.073	86.19
270.306	86.19
270.538	85.19
270.77	79.19
271.002	80.19
271.234	80.19
271.466	80.19
271.698	76.19
271.93	90.19
272.162	80.19
272.394	90.19
272.626	88.19
272.858	78.19
273.09	84.19
273.322	112.19
273.553	84.19
273.785	88.19
274.017	101.19
274.249	103.19
274.481	79.19
274.713	92.19
274.945	91.19
275.176	86.19
275.408	70.19
275.64	83.19
275.872	91.19
276.104	92.19
276.335	69.19
276.567	86.19
276.799	82.19
277.031	77.19
277.262	87.19
277.494	73.19
277.726	84.19
277.957	82.19
278.189	82.19
278.421	81.19
278.652	97.19
278.884	71.19
279.115	83.19
279.347	91.19
279.579	78.19
279.81	99.19
280.042	75.19
280.273	57.19
280.505	86.19
280.736	81.19
280.968	82.19
281.199	91.19
281.431	92.19
281.662	77.19
281.894	76.19
282.125	85.19
282.356	75.19
282.588	89.19
282.819	80.19
283.051	72.19
283.282	96.19
283.513	86.19
283.745	83.19
283.976	71.19
284.207	80.19
284.439	93.19
284.67	81.19
284.901	93.19
285.132	98.19
285.364	78.19
285.595	86.19
285.826	93.19
286.057	81.19
286.288	80.19
286.52	95.19
286.751	75.19
286.982	86.19
287.213	104.19
287.444	82.19
287.675	72.19
287.906	87.19
288.138	95.19
288.369	88.19
288.6	84.19
288.831	86.19
289.062	104.19
289.293	94.19
289.524	75.19
289.755	81.19
289.986	91.19
290.217	91.19
290.448	94.19
290.679	76.19
290.91	79.19
291.141	104.19
291.371	89.19
291.602	84.19
291.833	87.19
292.064	83.19
292.295	83.19
292.526	92.19
292.757	87.19
292.987	86.19
293.218	81.19
293.449	101.19
293.68	85.19
293.91	72.19
294.141	74.19
294.372	94.19
294.603	86.19
294.833	84.19
295.064	90.19
295.295	83.19
295.525	83.19
295.756	90.19
295.987	89.19
296.217	85.19
296.448	85.19
296.679	86.19
296.909	81.19
297.14	94.19
297.37	75.19
297.601	83.19
297.831	83.19
298.062	83.19
298.292	97.19
298.523	80.19
298.753	82.19
298.984	82.19
299.214	83.19
299.445	69.19
299.675	76.19
299.905	82.19
300.136	81.19
300.366	86.19
300.597	76.19
300.827	84.19
301.057	76.19
301.288	82.19
301.518	81.19
301.748	85.19
301.979	87.19
302.209	71.19
302.439	84.19
302.669	95.19
302.9	76.19
303.13	80.19
303.36	89.19
303.59	89.19
303.82	85.19
304.051	92.19
304.281	82.19
304.511	85.19
304.741	86.19
304.971	90.19
305.201	96.19
305.431	89.19
305.661	89.19
305.891	93.19
306.121	99.19
306.352	91.19
306.582	84.19
306.812	81.19
307.042	95.19
307.272	98.19
307.502	83.19
307.731	68.19
307.961	74.19
308.191	79.19
308.421	92.19
308.651	89.19
308.881	73.19
309.111	97.19
309.341	87.19
309.571	86.19
309.8	82.19
310.03	89.19
310.26	80.19
310.49	86.19
310.72	86.19
310.949	84.19
311.179	78.19
311.409	71.19
311.639	91.19
311.868	83.19
312.098	95.19
312.328	82.19
312.557	78.19
312.787	97.19
313.017	94.19
313.246	96.19
313.476	67.19
313.706	81.19
313.935	89.19
314.165	84.19
314.394	84.19
314.624	88.19
314.853	84.19
315.083	86.19
315.312	95.19
315.542	104.19
315.771	95.19
316.001	90.19
316.23	83.19
316.46	86.19
316.689	90.19
316.919	87.19
317.148	97.19
317.377	90.19
317.607	90.19
317.836	65.19
318.065	61.19
318.295	97.19
318.524	87.19
318.753	89.19
318.983	79.19
319.212	88.19
319.441	82.19
319.67	99.19
319.9	83.19
320.129	83.19
320.358	91.19
320.587	76.19
320.816	86.19
321.046	95.19
321.275	79.19
321.504	90.19
321.733	83.19
321.962	88.19
322.191	84.19
322.42	86.19
322.649	81.19
322.878	97.19
323.108	84.19
323.337	92.19
323.566	90.19
323.795	84.19
324.024	89.19
324.253	88.19
324.482	72.19
324.71	87.19
324.939	96.19
325.168	80.19
325.397	87.19
325.626	83.19
325.855	88.19
326.084	92.19
326.313	88.19
326.542	83.19
326.77	86.19
326.999	83.19
327.228	88.19
327.457	100.19
327.686	87.19
327.914	97.19
328.143	77.19
328.372	81.19
328.6	86.19
328.829	89.19
329.058	93.19
329.287	84.19
329.515	92.19
329.744	96.19
329.972	85.19
330.201	92.19
330.43	89.19
330.658	84.19
330.887	83.19
331.115	94.19
331.344	89.19
331.572	92.19
331.801	66.19
332.03	84.19
332.258	89.19
332.486	93.19
332.715	88.19
332.943	92.19
333.172	83.19
333.4	92.19
333.629	84.19
333.857	84.19
334.085	96.19
334.314	79.19
334.542	75.19
334.771	86.19
334.999	86.19
335.227	87.19
335.455	95.19
335.684	89.19
335.912	82.19
336.14	90.19
336.369	91.19
336.597	77.19
336.825	94.19
337.053	77.19
337.281	82.19
337.51	100.19
337.738	88.19
337.966	88.19
338.194	80.19
338.422	70.19
338.65	85.19
338.878	90.19
339.106	82.19
339.334	87.19
339.562	82.19
339.79	99.19
340.018	82.19
340.246	92.19
340.474	92.19
340.702	94.19
340.93	81.19
341.158	81.19
341.386	90.19
341.614	82.19
341.842	86.19
342.07	89.19
342.298	87.19
342.526	82.19
342.754	82.19
342.981	73.19
343.209	101.19
343.437	85.19
343.665	81.19
343.893	103.19
344.12	82.19
344.348	83.19
344.576	89.19
344.804	79.19
345.031	94.19
345.259	80.19
345.487	77.19
345.714	74.19
345.942	91.19
346.17	89.19
346.397	85.19
346.625	82.19
346.853	92.19
347.08	79.19
347.308	86.19
347.535	84.19
347.763	77.19
347.99	83.19
348.218	78.19
348.445	91.19
348.673	82.19
348.9	79.19
349.128	89.19
349.355	82.19
349.583	73.19
349.81	80.19
350.037	77.19
350.265	97.19
350.492	94.19
350.72	76.19
350.947	87.19
351.174	97.19
351.402	81.19
351.629	81.19
351.856	92.19
352.083	101.19
352.311	83.19
352.538	86.19
352.765	82.19
352.992	97.19
353.22	86.19
353.447	74.19
353.674	75.19
353.901	77.19
354.128	95.19
354.355	83.19
354.583	78.19
354.81	76.19
355.037	71.19
355.264	74.19
355.491	73.19
355.718	84.19
355.945	92.19
356.172	75.19
356.399	76.19
356.626	72.19
356.853	78.19
357.08	79.19
357.307	75.19
357.534	69.19
357.761	84.19
357.988	68.19
358.215	78.19
358.441	83.19
358.668	83.19
358.895	83.19
359.122	89.19
359.349	79.19
359.576	85.19
359.802	92.19
360.029	87.19
360.256	79.19
360.483	86.19
360.709	66.19
360.936	87.19
361.163	75.19
361.39	74.19
361.616	86.19
361.843	83.19
362.07	63.19
362.296	88.19
362.523	86.19
362.749	76.19
362.976	82.19
363.203	74.19
363.429	91.19
363.656	83.19
363.882	73.19
364.109	83.19
364.335	87.19
364.562	75.19
364.788	88.19
365.015	93.19
365.241	92.19
365.468	79.19
365.694	79.19
365.92	72.19
366.147	76.19
366.373	70.19
366.599	80.19
366.826	88.19
367.052	78.19
367.278	83.19
367.505	81.19
367.731	85.19
367.957	84.19
368.184	84.19
368.41	78.19
368.636	78.19
368.862	81.19
369.089	70.19
369.315	80.19
369.541	97.19
369.767	86.19
369.993	81.19
370.219	91.19
370.445	102.19
370.672	82.19
370.898	95.19
371.124	81.19
371.35	84.19
371.576	98.19
371.802	76.19
372.028	91.19
372.254	94.19
372.48	77.19
372.706	75.19
372.932	88.19
373.158	76.19
373.384	88.19
373.61	70.19
373.835	77.19
374.061	84.19
374.287	74.19
374.513	90.19
374.739	60.19
374.965	81.19
375.191	80.19
375.416	84.19
375.642	78.19
375.868	88.19
376.094	82.19
376.319	76.19
376.545	78.19
376.771	91.19
376.997	92.19
377.222	100.19
377.448	91.19
377.674	80.19
377.899	65.19
378.125	92.19
378.35	90.19
378.576	82.19
378.802	102.19
379.027	84.19
379.253	82.19
379.478	76.19
379.704	86.19
379.929	92.19
380.155	76.19
380.38	74.19
380.606	79.19
380.831	88.19
381.057	94.19
381.282	80.19
381.507	86.19
381.733	74.19
381.958	90.19
382.184	89.19
382.409	92.19
382.634	89.19
382.86	97.19
383.085	86.19
383.31	88.19
383.535	80.19
383.761	84.19
383.986	82.19
384.211	84.19
384.436	93.19
384.662	84.19
384.887	69.19
385.112	80.19
385.337	83.19
385.562	80.19
385.787	87.19
386.013	83.19
386.238	84.19
386.463	87.19
386.688	71.19
386.913	85.19
387.138	88.19
387.363	90.19
387.588	78.19
387.813	84.19
388.038	93.19
388.263	97.19
388.488	90.19
388.713	81.19
388.938	97.19
389.163	84.19
389.387	88.19
389.612	88.19
389.837	84.19
390.062	90.19
390.287	82.19
390.512	80.19
390.736	95.19
390.961	84.19
391.186	91.19
391.411	80.19
391.636	89.19
391.86	94.19
392.085	76.19
392.31	75.19
392.534	89.19
392.759	74.19
392.984	90.19
393.208	92.19
393.433	91.19
393.658	75.19
393.882	86.19
394.107	80.19
394.331	70.19
394.556	85.19
394.78	86.19
395.005	86.19
395.229	83.19
395.454	79.19
395.678	77.19
395.903	86.19
396.127	86.19
396.352	76.19
396.576	83.19
396.801	91.19
397.025	83.19
397.249	79.19
397.474	90.19
397.698	86.19
397.922	86.19
398.147	79.19
398.371	76.19
398.595	96.19
398.82	100.19
399.044	96.19
399.268	97.19
399.492	99.19
399.717	88.19
399.941	99.19
400.165	97.19
400.389	91.19
400.613	77.19
400.837	69.19
401.062	83.19
401.286	87.19
401.51	82.19
401.734	94.19
401.958	76.19
402.182	79.19
402.406	83.19
402.63	83.19
402.854	84.19
403.078	88.19
403.302	82.19
403.526	83.19
403.75	80.19
403.974	93.19
404.198	106.19
404.422	91.19
404.645	82.19
404.869	89.19
405.093	82.19
405.317	83.19
405.541	88.19
405.765	90.19
405.988	90.19
406.212	100.19
406.436	86.19
406.66	87.19
406.883	86.19
407.107	91.19
407.331	97.19
407.555	91.19
407.778	80.19
408.002	95.19
408.226	85.19
408.449	80.19
408.673	84.19
408.896	98.19
409.12	93.19
409.344	97.19
409.567	82.19
409.791	82.19
410.014	97.19
410.238	82.19
410.461	71.19
410.685	80.19
410.908	83.19
411.132	83.19
411.355	96.19
411.578	86.19
411.802	86.19
412.025	98.19
412.249	104.19
412.472	83.19
412.695	90.19
412.919	87.19
413.142	89.19
413.365	90.19
413.589	89.19
413.812	84.19
414.035	103.19
414.258	87.19
414.482	95.19
414.705	94.19
414.928	88.19
415.151	91.19
415.374	94.19
415.597	78.19
415.821	96.19
416.044	87.19
416.267	83.19
416.49	94.19
416.713	84.19
416.936	106.19
417.159	93.19
417.382	91.19
417.605	74.19
417.828	95.19
418.051	79.19
418.274	83.19
418.497	82.19
418.72	75.19
418.943	116.19
419.166	101.19
419.389	104.19
419.611	102.19
419.834	106.19
420.057	93.19
420.28	102.19
420.503	84.19
420.726	75.19
420.948	96.19
421.171	93.19
421.394	99.19
421.617	105.19
421.839	102.19
422.062	100.19
422.285	102.19
422.507	85.19
422.73	94.19
422.953	80.19
423.175	90.19
423.398	95.19
423.621	83.19
423.843	100.19
424.066	115.19
424.288	100.19
424.511	94.19
424.733	92.19
424.956	105.19
425.178	91.19
425.401	95.19
425.623	90.19
425.846	74.19
426.068	110.19
426.291	90.19
426.513	83.19
426.735	93.19
426.958	80.19
427.18	85.19
427.402	107.19
427.625	98.19
427.847	89.19
428.069	104.19
428.292	80.19
428.514	91.19
428.736	104.19
428.958	78.19
429.181	91.19
429.403	93.19
429.625	73.19
429.847	76.19
430.069	82.19
430.292	83.19
430.514	89.19
430.736	92.19
430.958	100.19
431.18	107.19
431.402	92.19
431.624	86.19
431.846	87.19
432.068	77.19
432.29	86.19
432.512	92.19
432.734	80.19
432.956	89.19
433.178	101.19
433.4	95.19
433.622	97.19
433.844	84.19
434.066	84.19
434.287	95.19
434.509	88.19
434.731	92.19
434.953	87.19
435.175	92.19
435.397	76.19
435.618	95.19
435.84	90.19
436.062	87.19
436.284	97.19
436.505	102.19
436.727	93.19
436.949	94.19
437.17	94.19
437.392	92.19
437.614	98.19
437.835	83.19
438.057	101.19
438.278	87.19
438.5	95.19
438.721	95.19
438.943	99.19
439.165	90.19
439.386	87.19
439.608	110.19
439.829	114.19
440.05	96.19
440.272	104.19
440.493	89.19
440.715	99.19
440.936	87.19
441.158	97.19
441.379	100.19
441.6	106.19
441.822	107.19
442.043	96.19
442.264	102.19
442.486	101.19
442.707	91.19
442.928	83.19
443.149	94.19
443.371	89.19
443.592	97.19
443.813	104.19
444.034	87.19
444.255	92.19
444.476	92.19
444.698	107.19
444.919	95.19
445.14	229.19
445.361	160.19
445.582	107.19
445.803	93.19
446.024	96.19
446.245	111.19
446.466	104.19
446.687	98.19
446.908	97.19
447.129	123.19
447.35	102.19
447.571	104.19
447.792	89.19
448.013	110.19
448.234	86.19
448.455	92.19
448.675	94.19
448.896	94.19
449.117	97.19
449.338	94.19
449.559	90.19
449.779	85.19
450	108.19
450.221	95.19
450.442	102.19
450.662	102.19
450.883	98.19
451.104	98.19
451.324	86.19
451.545	84.19
451.766	94.19
451.986	100.19
452.207	96.19
452.428	89.19
452.648	102.19
452.869	90.19
453.089	88.19
453.31	88.19
453.53	90.19
453.751	99.19
453.971	81.19
454.192	76.19
454.412	98.19
454.633	80.19
454.853	97.19
455.073	93.19
455.294	103.19
455.514	96.19
455.734	83.19
455.955	87.19
456.175	81.19
456.395	93.19
456.616	89.19
456.836	98.19
457.056	98.19
457.276	95.19
457.497	76.19
457.717	76.19
457.937	83.19
458.157	88.19
458.377	99.19
458.598	94.19
458.818	80.19
459.038	85.19
459.258	74.19
459.478	82.19
459.698	86.19
459.918	93.19
460.138	75.19
460.358	81.19
460.578	85.19
460.798	84.19
461.018	88.19
461.238	94.19
461.458	84.19
461.678	104.19
461.898	90.19
462.118	81.19
462.338	106.19
462.558	85.19
462.777	86.19
462.997	103.19
463.217	83.19
463.437	91.19
463.657	87.19
463.876	80.19
464.096	84.19
464.316	86.19
464.536	79.19
464.755	101.19
464.975	85.19
465.195	96.19
465.414	92.19
465.634	95.19
465.854	93.19
466.073	99.19
466.293	94.19
466.512	96.19
466.732	104.19
466.951	102.19
467.171	92.19
467.391	86.19
467.61	83.19
467.829	100.19
468.049	87.19
468.268	96.19
468.488	90.19
468.707	99.19
468.927	107.19
469.146	95.19
469.365	94.19
469.585	96.19
469.804	82.19
470.023	96.19
470.243	98.19
470.462	82.19
470.681	89.19
470.901	89.19
471.12	93.19
471.339	98.19
471.558	81.19
471.777	86.19
471.997	116.19
472.216	92.19
472.435	95.19
472.654	86.19
472.873	97.19
473.092	89.19
473.311	99.19
473.53	91.19
473.749	101.19
473.968	85.19
474.187	92.19
474.406	86.19
474.625	84.19
474.844	124.19
475.063	97.19
475.282	98.19
475.501	88.19
475.72	93.19
475.939	110.19
476.158	100.19
476.377	104.19
476.596	96.19
476.814	82.19
477.033	78.19
477.252	83.19
477.471	90.19
477.69	103.19
477.908	110.19
478.127	107.19
478.346	88.19
478.564	96.19
478.783	105.19
479.002	100.19
479.22	91.19
479.439	98.19
479.658	96.19
479.876	72.19
480.095	91.19
480.313	104.19
480.532	94.19
480.751	87.19
480.969	87.19
481.188	90.19
481.406	91.19
481.624	85.19
481.843	84.19
482.061	78.19
482.28	93.19
482.498	86.19
482.717	78.19
482.935	92.19
483.153	79.19
483.372	96.19
483.59	99.19
483.808	98.19
484.027	107.19
484.245	95.19
484.463	107.19
484.681	100.19
484.9	95.19
485.118	91.19
485.336	88.19
485.554	92.19
485.772	71.19
485.99	90.19
486.209	88.19
486.427	85.19
486.645	97.19
486.863	88.19
487.081	89.19
487.299	94.19
487.517	102.19
487.735	98.19
487.953	108.19
488.171	111.19
488.389	92.19
488.607	123.19
488.825	97.19
489.043	84.19
489.261	86.19
489.479	91.19
489.696	82.19
489.914	104.19
490.132	115.19
490.35	112.19
490.568	98.19
490.786	104.19
491.003	117.19
491.221	110.19
491.439	119.19
491.657	115.19
491.874	124.19
492.092	127.19
492.31	116.19
492.527	134.19
492.745	115.19
492.963	103.19
493.18	126.19
493.398	107.19
493.615	124.19
493.833	108.19
494.05	102.19
494.268	100.19
494.485	116.19
494.703	112.19
494.92	114.19
495.138	100.19
495.355	102.19
495.573	104.19
495.79	105.19
496.008	94.19
496.225	115.19
496.442	103.19
496.66	122.19
496.877	91.19
497.094	98.19
497.312	92.19
497.529	110.19
497.746	91.19
497.963	104.19
498.181	106.19
498.398	80.19
498.615	81.19
498.832	80.19
499.049	85.19
499.267	98.19
499.484	99.19
499.701	108.19
499.918	94.19
500.135	105.19
500.352	99.19
500.569	108.19
500.786	103.19
501.003	100.19
501.22	97.19
501.437	102.19
501.654	107.19
501.871	101.19
502.088	97.19
502.305	103.19
502.522	93.19
502.739	96.19
502.956	94.19
503.172	88.19
503.389	100.19
503.606	95.19
503.823	88.19
504.04	102.19
504.256	92.19
504.473	89.19
504.69	87.19
504.907	100.19
505.123	87.19
505.34	91.19
505.557	93.19
505.773	89.19
505.99	95.19
506.207	93.19
506.423	101.19
506.64	105.19
506.856	95.19
507.073	99.19
507.289	92.19
507.506	99.19
507.722	101.19
507.939	99.19
508.155	87.19
508.372	93.19
508.588	78.19
508.805	92.19
509.021	89.19
509.238	88.19
509.454	75.19
509.67	75.19
509.887	84.19
510.103	91.19
510.319	90.19
510.536	90.19
510.752	76.19
510.968	82.19
511.184	88.19
511.401	76.19
511.617	81.19
511.833	91.19
512.049	86.19
512.265	82.19
512.481	92.19
512.698	95.19
512.914	88.19
513.13	102.19
513.346	85.19
513.562	80.19
513.778	76.19
513.994	87.19
514.21	96.19
514.426	98.19
514.642	77.19
514.858	80.19
515.074	90.19
515.29	72.19
515.506	90.19
515.721	70.19
515.937	81.19
516.153	87.19
516.369	74.19
516.585	85.19
516.801	100.19
517.016	78.19
517.232	78.19
517.448	88.19
