Data from Location4.07152019.Energy5.Lamp.07192019.3%Agarose_HRD10591_15-24-47-577.txt Node
Date: Fri Jul 19 15:24:47 EDT 2019
User: cochatt
Spectrometer: HR+D1059
Trigger mode: 1
Integration Time (sec): 1.000000E-1
Scans to average: 1
Electric dark correction enabled: true
Nonlinearity correction enabled: false
Boxcar width: 0
XAxis mode: Wavelengths
Number of Pixels in Spectrum: 2048
>>>>>Begin Spectral Data<<<<<
223.165	-25.88
223.4	-25.88
223.635	-25.88
223.869	-8.88
224.104	-13.88
224.338	-14.88
224.573	-14.88
224.808	-24.88
225.042	1.12
225.277	-19.88
225.511	-1.88
225.746	18.12
225.98	1.12
226.215	7.12
226.449	26.12
226.683	15.12
226.918	18.12
227.152	38.12
227.387	48.12
227.621	43.12
227.856	40.12
228.09	60.12
228.324	41.12
228.559	57.12
228.793	50.12
229.027	52.12
229.262	67.12
229.496	50.12
229.73	57.12
229.964	59.12
230.199	77.12
230.433	60.12
230.667	77.12
230.901	78.12
231.136	78.12
231.37	76.12
231.604	80.12
231.838	74.12
232.072	67.12
232.306	76.12
232.541	81.12
232.775	65.12
233.009	77.12
233.243	75.12
233.477	83.12
233.711	91.12
233.945	76.12
234.179	87.12
234.413	84.12
234.647	74.12
234.881	82.12
235.115	67.12
235.349	77.12
235.583	87.12
235.817	68.12
236.051	75.12
236.285	66.12
236.519	74.12
236.753	71.12
236.987	59.12
237.221	70.12
237.455	80.12
237.689	76.12
237.922	76.12
238.156	75.12
238.39	74.12
238.624	87.12
238.858	80.12
239.091	66.12
239.325	66.12
239.559	75.12
239.793	82.12
240.027	82.12
240.26	84.12
240.494	70.12
240.728	71.12
240.961	76.12
241.195	77.12
241.429	71.12
241.662	76.12
241.896	77.12
242.13	64.12
242.363	82.12
242.597	74.12
242.83	84.12
243.064	74.12
243.298	79.12
243.531	82.12
243.765	78.12
243.998	68.12
244.232	85.12
244.465	81.12
244.699	73.12
244.932	86.12
245.166	63.12
245.399	80.12
245.633	96.12
245.866	91.12
246.099	81.12
246.333	83.12
246.566	82.12
246.8	81.12
247.033	67.12
247.266	78.12
247.5	75.12
247.733	87.12
247.966	72.12
248.2	86.12
248.433	77.12
248.666	79.12
248.899	95.12
249.133	56.12
249.366	86.12
249.599	75.12
249.832	67.12
250.066	73.12
250.299	80.12
250.532	74.12
250.765	63.12
250.998	65.12
251.231	74.12
251.465	79.12
251.698	93.12
251.931	71.12
252.164	79.12
252.397	88.12
252.63	73.12
252.863	83.12
253.096	87.12
253.329	89.12
253.562	66.12
253.795	72.12
254.028	78.12
254.261	90.12
254.494	78.12
254.727	76.12
254.96	59.12
255.193	86.12
255.426	76.12
255.659	80.12
255.892	85.12
256.124	83.12
256.357	79.12
256.59	94.12
256.823	72.12
257.056	78.12
257.289	70.12
257.521	75.12
257.754	80.12
257.987	72.12
258.22	86.12
258.452	76.12
258.685	88.12
258.918	94.12
259.151	63.12
259.383	80.12
259.616	84.12
259.849	87.12
260.081	89.12
260.314	76.12
260.547	71.12
260.779	79.12
261.012	88.12
261.244	73.12
261.477	89.12
261.71	82.12
261.942	78.12
262.175	78.12
262.407	83.12
262.64	71.12
262.872	70.12
263.105	83.12
263.337	79.12
263.57	79.12
263.802	70.12
264.035	80.12
264.267	75.12
264.499	75.12
264.732	73.12
264.964	70.12
265.197	81.12
265.429	97.12
265.661	82.12
265.894	82.12
266.126	82.12
266.358	74.12
266.591	89.12
266.823	82.12
267.055	92.12
267.287	63.12
267.52	61.12
267.752	77.12
267.984	97.12
268.216	69.12
268.448	89.12
268.681	92.12
268.913	87.12
269.145	64.12
269.377	90.12
269.609	87.12
269.841	100.12
270.073	89.12
270.306	85.12
270.538	81.12
270.77	98.12
271.002	71.12
271.234	78.12
271.466	89.12
271.698	76.12
271.93	78.12
272.162	89.12
272.394	79.12
272.626	75.12
272.858	81.12
273.09	75.12
273.322	83.12
273.553	80.12
273.785	74.12
274.017	75.12
274.249	84.12
274.481	78.12
274.713	80.12
274.945	87.12
275.176	72.12
275.408	74.12
275.64	84.12
275.872	75.12
276.104	80.12
276.335	88.12
276.567	88.12
276.799	76.12
277.031	83.12
277.262	78.12
277.494	87.12
277.726	73.12
277.957	95.12
278.189	54.12
278.421	91.12
278.652	65.12
278.884	60.12
279.115	86.12
279.347	79.12
279.579	85.12
279.81	79.12
280.042	92.12
280.273	92.12
280.505	90.12
280.736	74.12
280.968	75.12
281.199	76.12
281.431	76.12
281.662	92.12
281.894	88.12
282.125	91.12
282.356	89.12
282.588	75.12
282.819	91.12
283.051	70.12
283.282	96.12
283.513	75.12
283.745	87.12
283.976	88.12
284.207	85.12
284.439	78.12
284.67	73.12
284.901	81.12
285.132	83.12
285.364	82.12
285.595	85.12
285.826	87.12
286.057	77.12
286.288	81.12
286.52	92.12
286.751	80.12
286.982	79.12
287.213	98.12
287.444	94.12
287.675	101.12
287.906	94.12
288.138	82.12
288.369	89.12
288.6	83.12
288.831	76.12
289.062	74.12
289.293	80.12
289.524	88.12
289.755	77.12
289.986	71.12
290.217	75.12
290.448	93.12
290.679	78.12
290.91	79.12
291.141	99.12
291.371	80.12
291.602	84.12
291.833	67.12
292.064	77.12
292.295	87.12
292.526	79.12
292.757	76.12
292.987	97.12
293.218	86.12
293.449	86.12
293.68	88.12
293.91	84.12
294.141	77.12
294.372	94.12
294.603	77.12
294.833	83.12
295.064	86.12
295.295	85.12
295.525	83.12
295.756	106.12
295.987	84.12
296.217	83.12
296.448	94.12
296.679	82.12
296.909	96.12
297.14	70.12
297.37	74.12
297.601	79.12
297.831	83.12
298.062	86.12
298.292	87.12
298.523	76.12
298.753	90.12
298.984	86.12
299.214	97.12
299.445	75.12
299.675	84.12
299.905	83.12
300.136	75.12
300.366	84.12
300.597	72.12
300.827	82.12
301.057	96.12
301.288	67.12
301.518	83.12
301.748	88.12
301.979	77.12
302.209	76.12
302.439	80.12
302.669	76.12
302.9	84.12
303.13	90.12
303.36	79.12
303.59	79.12
303.82	88.12
304.051	91.12
304.281	98.12
304.511	88.12
304.741	84.12
304.971	73.12
305.201	86.12
305.431	91.12
305.661	79.12
305.891	85.12
306.121	83.12
306.352	86.12
306.582	80.12
306.812	95.12
307.042	88.12
307.272	90.12
307.502	93.12
307.731	72.12
307.961	80.12
308.191	83.12
308.421	68.12
308.651	98.12
308.881	79.12
309.111	82.12
309.341	83.12
309.571	96.12
309.8	87.12
310.03	85.12
310.26	108.12
310.49	75.12
310.72	75.12
310.949	74.12
311.179	81.12
311.409	79.12
311.639	91.12
311.868	82.12
312.098	70.12
312.328	86.12
312.557	72.12
312.787	82.12
313.017	97.12
313.246	90.12
313.476	87.12
313.706	74.12
313.935	73.12
314.165	96.12
314.394	88.12
314.624	90.12
314.853	81.12
315.083	78.12
315.312	85.12
315.542	82.12
315.771	89.12
316.001	94.12
316.23	85.12
316.46	90.12
316.689	76.12
316.919	84.12
317.148	64.12
317.377	84.12
317.607	80.12
317.836	90.12
318.065	90.12
318.295	76.12
318.524	88.12
318.753	95.12
318.983	86.12
319.212	82.12
319.441	82.12
319.67	78.12
319.9	92.12
320.129	90.12
320.358	85.12
320.587	84.12
320.816	92.12
321.046	104.12
321.275	94.12
321.504	83.12
321.733	84.12
321.962	84.12
322.191	88.12
322.42	80.12
322.649	90.12
322.878	87.12
323.108	95.12
323.337	96.12
323.566	94.12
323.795	84.12
324.024	86.12
324.253	68.12
324.482	81.12
324.71	90.12
324.939	87.12
325.168	86.12
325.397	74.12
325.626	80.12
325.855	78.12
326.084	79.12
326.313	70.12
326.542	91.12
326.77	98.12
326.999	84.12
327.228	81.12
327.457	88.12
327.686	77.12
327.914	76.12
328.143	84.12
328.372	86.12
328.6	72.12
328.829	78.12
329.058	98.12
329.287	78.12
329.515	82.12
329.744	81.12
329.972	80.12
330.201	88.12
330.43	90.12
330.658	91.12
330.887	103.12
331.115	95.12
331.344	77.12
331.572	80.12
331.801	83.12
332.03	85.12
332.258	83.12
332.486	72.12
332.715	64.12
332.943	82.12
333.172	81.12
333.4	88.12
333.629	98.12
333.857	88.12
334.085	88.12
334.314	83.12
334.542	86.12
334.771	89.12
334.999	86.12
335.227	79.12
335.455	77.12
335.684	82.12
335.912	84.12
336.14	75.12
336.369	75.12
336.597	85.12
336.825	88.12
337.053	99.12
337.281	95.12
337.51	78.12
337.738	88.12
337.966	104.12
338.194	110.12
338.422	97.12
338.65	83.12
338.878	83.12
339.106	84.12
339.334	94.12
339.562	83.12
339.79	81.12
340.018	66.12
340.246	70.12
340.474	83.12
340.702	78.12
340.93	82.12
341.158	90.12
341.386	84.12
341.614	85.12
341.842	72.12
342.07	95.12
342.298	77.12
342.526	81.12
342.754	83.12
342.981	96.12
343.209	73.12
343.437	80.12
343.665	89.12
343.893	77.12
344.12	70.12
344.348	80.12
344.576	81.12
344.804	88.12
345.031	70.12
345.259	89.12
345.487	90.12
345.714	80.12
345.942	78.12
346.17	83.12
346.397	97.12
346.625	86.12
346.853	91.12
347.08	91.12
347.308	85.12
347.535	80.12
347.763	72.12
347.99	76.12
348.218	79.12
348.445	73.12
348.673	68.12
348.9	80.12
349.128	89.12
349.355	86.12
349.583	79.12
349.81	96.12
350.037	98.12
350.265	89.12
350.492	87.12
350.72	83.12
350.947	79.12
351.174	87.12
351.402	79.12
351.629	87.12
351.856	68.12
352.083	77.12
352.311	82.12
352.538	82.12
352.765	78.12
352.992	81.12
353.22	71.12
353.447	97.12
353.674	82.12
353.901	96.12
354.128	85.12
354.355	92.12
354.583	80.12
354.81	70.12
355.037	84.12
355.264	89.12
355.491	83.12
355.718	66.12
355.945	91.12
356.172	94.12
356.399	82.12
356.626	80.12
356.853	91.12
357.08	88.12
357.307	88.12
357.534	80.12
357.761	87.12
357.988	104.12
358.215	83.12
358.441	74.12
358.668	80.12
358.895	91.12
359.122	67.12
359.349	85.12
359.576	95.12
359.802	79.12
360.029	86.12
360.256	78.12
360.483	79.12
360.709	89.12
360.936	79.12
361.163	82.12
361.39	85.12
361.616	80.12
361.843	95.12
362.07	83.12
362.296	80.12
362.523	81.12
362.749	84.12
362.976	89.12
363.203	93.12
363.429	87.12
363.656	88.12
363.882	88.12
364.109	90.12
364.335	76.12
364.562	92.12
364.788	82.12
365.015	74.12
365.241	94.12
365.468	87.12
365.694	79.12
365.92	89.12
366.147	86.12
366.373	79.12
366.599	83.12
366.826	82.12
367.052	82.12
367.278	82.12
367.505	94.12
367.731	77.12
367.957	81.12
368.184	98.12
368.41	93.12
368.636	86.12
368.862	82.12
369.089	86.12
369.315	91.12
369.541	82.12
369.767	84.12
369.993	88.12
370.219	79.12
370.445	84.12
370.672	82.12
370.898	74.12
371.124	73.12
371.35	94.12
371.576	87.12
371.802	95.12
372.028	80.12
372.254	93.12
372.48	92.12
372.706	84.12
372.932	82.12
373.158	79.12
373.384	80.12
373.61	88.12
373.835	75.12
374.061	91.12
374.287	87.12
374.513	76.12
374.739	87.12
374.965	94.12
375.191	98.12
375.416	71.12
375.642	83.12
375.868	91.12
376.094	70.12
376.319	101.12
376.545	90.12
376.771	100.12
376.997	82.12
377.222	85.12
377.448	71.12
377.674	78.12
377.899	77.12
378.125	92.12
378.35	80.12
378.576	84.12
378.802	70.12
379.027	92.12
379.253	75.12
379.478	65.12
379.704	74.12
379.929	79.12
380.155	95.12
380.38	96.12
380.606	76.12
380.831	81.12
381.057	92.12
381.282	89.12
381.507	75.12
381.733	88.12
381.958	85.12
382.184	95.12
382.409	75.12
382.634	78.12
382.86	88.12
383.085	83.12
383.31	90.12
383.535	88.12
383.761	75.12
383.986	74.12
384.211	96.12
384.436	95.12
384.662	76.12
384.887	80.12
385.112	95.12
385.337	88.12
385.562	88.12
385.787	79.12
386.013	91.12
386.238	95.12
386.463	100.12
386.688	84.12
386.913	96.12
387.138	77.12
387.363	90.12
387.588	84.12
387.813	89.12
388.038	91.12
388.263	86.12
388.488	76.12
388.713	91.12
388.938	73.12
389.163	89.12
389.387	89.12
389.612	94.12
389.837	103.12
390.062	88.12
390.287	83.12
390.512	88.12
390.736	85.12
390.961	62.12
391.186	73.12
391.411	81.12
391.636	85.12
391.86	83.12
392.085	95.12
392.31	76.12
392.534	84.12
392.759	94.12
392.984	72.12
393.208	86.12
393.433	85.12
393.658	87.12
393.882	72.12
394.107	84.12
394.331	82.12
394.556	86.12
394.78	95.12
395.005	104.12
395.229	76.12
395.454	76.12
395.678	83.12
395.903	74.12
396.127	87.12
396.352	86.12
396.576	76.12
396.801	94.12
397.025	96.12
397.249	93.12
397.474	80.12
397.698	87.12
397.922	83.12
398.147	92.12
398.371	94.12
398.595	95.12
398.82	86.12
399.044	89.12
399.268	75.12
399.492	84.12
399.717	84.12
399.941	84.12
400.165	70.12
400.389	75.12
400.613	79.12
400.837	92.12
401.062	94.12
401.286	92.12
401.51	99.12
401.734	83.12
401.958	81.12
402.182	97.12
402.406	81.12
402.63	94.12
402.854	88.12
403.078	79.12
403.302	92.12
403.526	83.12
403.75	84.12
403.974	92.12
404.198	95.12
404.422	80.12
404.645	91.12
404.869	92.12
405.093	79.12
405.317	88.12
405.541	87.12
405.765	100.12
405.988	83.12
406.212	85.12
406.436	81.12
406.66	82.12
406.883	100.12
407.107	81.12
407.331	84.12
407.555	80.12
407.778	74.12
408.002	77.12
408.226	87.12
408.449	98.12
408.673	83.12
408.896	87.12
409.12	83.12
409.344	87.12
409.567	77.12
409.791	97.12
410.014	75.12
410.238	74.12
410.461	100.12
410.685	90.12
410.908	90.12
411.132	95.12
411.355	96.12
411.578	91.12
411.802	82.12
412.025	99.12
412.249	82.12
412.472	90.12
412.695	92.12
412.919	84.12
413.142	88.12
413.365	87.12
413.589	84.12
413.812	94.12
414.035	96.12
414.258	85.12
414.482	84.12
414.705	91.12
414.928	96.12
415.151	91.12
415.374	101.12
415.597	97.12
415.821	87.12
416.044	80.12
416.267	82.12
416.49	83.12
416.713	102.12
416.936	104.12
417.159	98.12
417.382	85.12
417.605	103.12
417.828	95.12
418.051	88.12
418.274	100.12
418.497	94.12
418.72	83.12
418.943	95.12
419.166	91.12
419.389	96.12
419.611	88.12
419.834	73.12
420.057	89.12
420.28	90.12
420.503	81.12
420.726	94.12
420.948	96.12
421.171	98.12
421.394	104.12
421.617	94.12
421.839	73.12
422.062	102.12
422.285	96.12
422.507	89.12
422.73	76.12
422.953	86.12
423.175	88.12
423.398	81.12
423.621	86.12
423.843	96.12
424.066	89.12
424.288	86.12
424.511	112.12
424.733	106.12
424.956	102.12
425.178	115.12
425.401	97.12
425.623	105.12
425.846	95.12
426.068	83.12
426.291	90.12
426.513	81.12
426.735	92.12
426.958	89.12
427.18	89.12
427.402	96.12
427.625	103.12
427.847	102.12
428.069	95.12
428.292	86.12
428.514	93.12
428.736	91.12
428.958	87.12
429.181	92.12
429.403	101.12
429.625	90.12
429.847	91.12
430.069	84.12
430.292	98.12
430.514	95.12
430.736	104.12
430.958	91.12
431.18	82.12
431.402	99.12
431.624	76.12
431.846	94.12
432.068	81.12
432.29	92.12
432.512	96.12
432.734	77.12
432.956	82.12
433.178	79.12
433.4	93.12
433.622	99.12
433.844	95.12
434.066	87.12
434.287	88.12
434.509	82.12
434.731	71.12
434.953	90.12
435.175	100.12
435.397	101.12
435.618	95.12
435.84	90.12
436.062	87.12
436.284	98.12
436.505	87.12
436.727	96.12
436.949	90.12
437.17	88.12
437.392	95.12
437.614	80.12
437.835	95.12
438.057	86.12
438.278	80.12
438.5	92.12
438.721	97.12
438.943	110.12
439.165	99.12
439.386	91.12
439.608	95.12
439.829	87.12
440.05	94.12
440.272	89.12
440.493	90.12
440.715	100.12
440.936	97.12
441.158	93.12
441.379	103.12
441.6	98.12
441.822	79.12
442.043	90.12
442.264	91.12
442.486	106.12
442.707	95.12
442.928	112.12
443.149	92.12
443.371	96.12
443.592	101.12
443.813	78.12
444.034	95.12
444.255	96.12
444.476	101.12
444.698	89.12
444.919	97.12
445.14	226.12
445.361	135.12
445.582	97.12
445.803	100.12
446.024	96.12
446.245	97.12
446.466	98.12
446.687	90.12
446.908	96.12
447.129	106.12
447.35	93.12
447.571	93.12
447.792	95.12
448.013	106.12
448.234	107.12
448.455	94.12
448.675	106.12
448.896	90.12
449.117	87.12
449.338	99.12
449.559	92.12
449.779	83.12
450	83.12
450.221	96.12
450.442	86.12
450.662	85.12
450.883	92.12
451.104	97.12
451.324	70.12
451.545	94.12
451.766	93.12
451.986	84.12
452.207	97.12
452.428	94.12
452.648	88.12
452.869	82.12
453.089	79.12
453.31	90.12
453.53	84.12
453.751	90.12
453.971	107.12
454.192	88.12
454.412	89.12
454.633	98.12
454.853	98.12
455.073	90.12
455.294	89.12
455.514	104.12
455.734	98.12
455.955	87.12
456.175	88.12
456.395	87.12
456.616	74.12
456.836	85.12
457.056	92.12
457.276	68.12
457.497	87.12
457.717	84.12
457.937	88.12
458.157	100.12
458.377	94.12
458.598	77.12
458.818	77.12
459.038	75.12
459.258	100.12
459.478	86.12
459.698	78.12
459.918	78.12
460.138	76.12
460.358	93.12
460.578	91.12
460.798	99.12
461.018	100.12
461.238	79.12
461.458	82.12
461.678	88.12
461.898	83.12
462.118	95.12
462.338	93.12
462.558	86.12
462.777	93.12
462.997	86.12
463.217	80.12
463.437	84.12
463.657	86.12
463.876	88.12
464.096	74.12
464.316	84.12
464.536	90.12
464.755	93.12
464.975	90.12
465.195	90.12
465.414	96.12
465.634	86.12
465.854	78.12
466.073	90.12
466.293	96.12
466.512	95.12
466.732	99.12
466.951	95.12
467.171	81.12
467.391	96.12
467.61	95.12
467.829	97.12
468.049	99.12
468.268	89.12
468.488	103.12
468.707	66.12
468.927	88.12
469.146	90.12
469.365	110.12
469.585	94.12
469.804	88.12
470.023	107.12
470.243	95.12
470.462	95.12
470.681	99.12
470.901	101.12
471.12	110.12
471.339	87.12
471.558	104.12
471.777	95.12
471.997	84.12
472.216	92.12
472.435	97.12
472.654	86.12
472.873	97.12
473.092	83.12
473.311	90.12
473.53	109.12
473.749	87.12
473.968	102.12
474.187	88.12
474.406	101.12
474.625	85.12
474.844	96.12
475.063	89.12
475.282	92.12
475.501	92.12
475.72	102.12
475.939	100.12
476.158	93.12
476.377	80.12
476.596	85.12
476.814	96.12
477.033	82.12
477.252	87.12
477.471	90.12
477.69	88.12
477.908	92.12
478.127	94.12
478.346	107.12
478.564	84.12
478.783	109.12
479.002	111.12
479.22	98.12
479.439	94.12
479.658	99.12
479.876	97.12
480.095	94.12
480.313	102.12
480.532	97.12
480.751	96.12
480.969	86.12
481.188	78.12
481.406	90.12
481.624	77.12
481.843	102.12
482.061	84.12
482.28	80.12
482.498	82.12
482.717	80.12
482.935	95.12
483.153	78.12
483.372	99.12
483.59	95.12
483.808	116.12
484.027	102.12
484.245	98.12
484.463	106.12
484.681	94.12
484.9	97.12
485.118	80.12
485.336	80.12
485.554	89.12
485.772	103.12
485.99	83.12
486.209	96.12
486.427	82.12
486.645	95.12
486.863	110.12
487.081	114.12
487.299	84.12
487.517	90.12
487.735	100.12
487.953	110.12
488.171	92.12
488.389	105.12
488.607	111.12
488.825	110.12
489.043	106.12
489.261	91.12
489.479	89.12
489.696	106.12
489.914	99.12
490.132	86.12
490.35	104.12
490.568	117.12
490.786	96.12
491.003	110.12
491.221	103.12
491.439	99.12
491.657	122.12
491.874	115.12
492.092	126.12
492.31	126.12
492.527	127.12
492.745	119.12
492.963	102.12
493.18	112.12
493.398	108.12
493.615	104.12
493.833	107.12
494.05	101.12
494.268	111.12
494.485	113.12
494.703	99.12
494.92	112.12
495.138	97.12
495.355	99.12
495.573	101.12
495.79	90.12
496.008	113.12
496.225	107.12
496.442	111.12
496.66	110.12
496.877	106.12
497.094	101.12
497.312	107.12
497.529	86.12
497.746	105.12
497.963	85.12
498.181	92.12
498.398	113.12
498.615	94.12
498.832	96.12
499.049	96.12
499.267	86.12
499.484	102.12
499.701	95.12
499.918	97.12
500.135	86.12
500.352	98.12
500.569	99.12
500.786	91.12
501.003	99.12
501.22	117.12
501.437	84.12
501.654	105.12
501.871	99.12
502.088	89.12
502.305	93.12
502.522	98.12
502.739	99.12
502.956	91.12
503.172	89.12
503.389	77.12
503.606	97.12
503.823	89.12
504.04	102.12
504.256	87.12
504.473	94.12
504.69	87.12
504.907	98.12
505.123	78.12
505.34	100.12
505.557	93.12
505.773	103.12
505.99	106.12
506.207	94.12
506.423	97.12
506.64	96.12
506.856	95.12
507.073	111.12
507.289	88.12
507.506	93.12
507.722	90.12
507.939	90.12
508.155	96.12
508.372	74.12
508.588	92.12
508.805	88.12
509.021	80.12
509.238	91.12
509.454	86.12
509.67	72.12
509.887	83.12
510.103	58.12
510.319	80.12
510.536	89.12
510.752	104.12
510.968	88.12
511.184	85.12
511.401	73.12
511.617	88.12
511.833	91.12
512.049	70.12
512.265	85.12
512.481	84.12
512.698	95.12
512.914	87.12
513.13	98.12
513.346	86.12
513.562	89.12
513.778	94.12
513.994	82.12
514.21	91.12
514.426	73.12
514.642	82.12
514.858	83.12
515.074	78.12
515.29	80.12
515.506	89.12
515.721	84.12
515.937	87.12
516.153	76.12
516.369	81.12
516.585	81.12
516.801	94.12
517.016	98.12
517.232	82.12
517.448	83.12
517.664	68.12
517.879	100.12
