Data from Location4.07152019.Energy5.Lamp.07192019.3%Agarose_HRD10591_15-23-55-577.txt Node
Date: Fri Jul 19 15:23:55 EDT 2019
User: cochatt
Spectrometer: HR+D1059
Trigger mode: 1
Integration Time (sec): 1.000000E-1
Scans to average: 1
Electric dark correction enabled: true
Nonlinearity correction enabled: false
Boxcar width: 0
XAxis mode: Wavelengths
Number of Pixels in Spectrum: 2048
>>>>>Begin Spectral Data<<<<<
223.165	-12.38
223.4	-12.38
223.635	-12.38
223.869	-16.38
224.104	-11.38
224.338	-3.38
224.573	-14.38
224.808	-11.38
225.042	-1.38
225.277	-11.38
225.511	-1.38
225.746	3.62
225.98	4.62
226.215	7.62
226.449	16.62
226.683	7.62
226.918	16.62
227.152	26.62
227.387	31.62
227.621	41.62
227.856	50.62
228.09	60.62
228.324	51.62
228.559	44.62
228.793	65.62
229.027	54.62
229.262	60.62
229.496	64.62
229.73	66.62
229.964	70.62
230.199	69.62
230.433	66.62
230.667	81.62
230.901	73.62
231.136	66.62
231.37	76.62
231.604	64.62
231.838	89.62
232.072	75.62
232.306	79.62
232.541	83.62
232.775	81.62
233.009	73.62
233.243	80.62
233.477	75.62
233.711	88.62
233.945	79.62
234.179	90.62
234.413	89.62
234.647	85.62
234.881	83.62
235.115	81.62
235.349	74.62
235.583	83.62
235.817	83.62
236.051	85.62
236.285	72.62
236.519	84.62
236.753	75.62
236.987	85.62
237.221	70.62
237.455	78.62
237.689	79.62
237.922	75.62
238.156	79.62
238.39	78.62
238.624	60.62
238.858	81.62
239.091	92.62
239.325	81.62
239.559	72.62
239.793	67.62
240.027	84.62
240.26	87.62
240.494	81.62
240.728	95.62
240.961	77.62
241.195	77.62
241.429	71.62
241.662	73.62
241.896	71.62
242.13	77.62
242.363	78.62
242.597	74.62
242.83	75.62
243.064	80.62
243.298	82.62
243.531	68.62
243.765	73.62
243.998	77.62
244.232	72.62
244.465	71.62
244.699	74.62
244.932	88.62
245.166	78.62
245.399	80.62
245.633	81.62
245.866	73.62
246.099	75.62
246.333	79.62
246.566	85.62
246.8	68.62
247.033	72.62
247.266	73.62
247.5	77.62
247.733	77.62
247.966	70.62
248.2	67.62
248.433	67.62
248.666	85.62
248.899	89.62
249.133	68.62
249.366	71.62
249.599	70.62
249.832	69.62
250.066	78.62
250.299	67.62
250.532	68.62
250.765	77.62
250.998	78.62
251.231	71.62
251.465	68.62
251.698	79.62
251.931	76.62
252.164	61.62
252.397	78.62
252.63	70.62
252.863	84.62
253.096	78.62
253.329	79.62
253.562	76.62
253.795	82.62
254.028	68.62
254.261	70.62
254.494	85.62
254.727	71.62
254.96	83.62
255.193	76.62
255.426	78.62
255.659	69.62
255.892	82.62
256.124	84.62
256.357	80.62
256.59	86.62
256.823	81.62
257.056	68.62
257.289	79.62
257.521	91.62
257.754	81.62
257.987	82.62
258.22	80.62
258.452	74.62
258.685	80.62
258.918	79.62
259.151	79.62
259.383	66.62
259.616	83.62
259.849	70.62
260.081	70.62
260.314	80.62
260.547	78.62
260.779	78.62
261.012	83.62
261.244	63.62
261.477	71.62
261.71	70.62
261.942	66.62
262.175	83.62
262.407	86.62
262.64	66.62
262.872	86.62
263.105	87.62
263.337	82.62
263.57	71.62
263.802	79.62
264.035	73.62
264.267	62.62
264.499	73.62
264.732	80.62
264.964	79.62
265.197	69.62
265.429	83.62
265.661	79.62
265.894	79.62
266.126	83.62
266.358	85.62
266.591	93.62
266.823	77.62
267.055	92.62
267.287	84.62
267.52	84.62
267.752	80.62
267.984	86.62
268.216	79.62
268.448	95.62
268.681	84.62
268.913	88.62
269.145	78.62
269.377	85.62
269.609	71.62
269.841	88.62
270.073	93.62
270.306	82.62
270.538	91.62
270.77	81.62
271.002	84.62
271.234	83.62
271.466	76.62
271.698	78.62
271.93	77.62
272.162	74.62
272.394	71.62
272.626	94.62
272.858	80.62
273.09	78.62
273.322	88.62
273.553	72.62
273.785	76.62
274.017	80.62
274.249	88.62
274.481	96.62
274.713	87.62
274.945	66.62
275.176	74.62
275.408	79.62
275.64	78.62
275.872	85.62
276.104	92.62
276.335	79.62
276.567	84.62
276.799	81.62
277.031	80.62
277.262	72.62
277.494	80.62
277.726	84.62
277.957	80.62
278.189	69.62
278.421	76.62
278.652	94.62
278.884	60.62
279.115	84.62
279.347	90.62
279.579	80.62
279.81	82.62
280.042	79.62
280.273	82.62
280.505	77.62
280.736	74.62
280.968	90.62
281.199	81.62
281.431	85.62
281.662	80.62
281.894	82.62
282.125	81.62
282.356	81.62
282.588	84.62
282.819	85.62
283.051	84.62
283.282	82.62
283.513	87.62
283.745	71.62
283.976	76.62
284.207	88.62
284.439	81.62
284.67	84.62
284.901	80.62
285.132	95.62
285.364	86.62
285.595	84.62
285.826	75.62
286.057	86.62
286.288	80.62
286.52	77.62
286.751	90.62
286.982	93.62
287.213	85.62
287.444	65.62
287.675	93.62
287.906	78.62
288.138	88.62
288.369	73.62
288.6	73.62
288.831	86.62
289.062	90.62
289.293	74.62
289.524	80.62
289.755	56.62
289.986	90.62
290.217	81.62
290.448	75.62
290.679	85.62
290.91	90.62
291.141	76.62
291.371	95.62
291.602	96.62
291.833	73.62
292.064	83.62
292.295	82.62
292.526	90.62
292.757	86.62
292.987	81.62
293.218	70.62
293.449	86.62
293.68	89.62
293.91	76.62
294.141	72.62
294.372	86.62
294.603	84.62
294.833	73.62
295.064	73.62
295.295	72.62
295.525	68.62
295.756	92.62
295.987	74.62
296.217	80.62
296.448	65.62
296.679	71.62
296.909	103.62
297.14	74.62
297.37	90.62
297.601	87.62
297.831	82.62
298.062	68.62
298.292	84.62
298.523	98.62
298.753	69.62
298.984	75.62
299.214	81.62
299.445	86.62
299.675	86.62
299.905	80.62
300.136	68.62
300.366	81.62
300.597	91.62
300.827	88.62
301.057	95.62
301.288	85.62
301.518	76.62
301.748	73.62
301.979	81.62
302.209	78.62
302.439	88.62
302.669	81.62
302.9	93.62
303.13	72.62
303.36	81.62
303.59	85.62
303.82	71.62
304.051	72.62
304.281	99.62
304.511	90.62
304.741	72.62
304.971	73.62
305.201	85.62
305.431	78.62
305.661	85.62
305.891	81.62
306.121	88.62
306.352	66.62
306.582	93.62
306.812	85.62
307.042	89.62
307.272	64.62
307.502	89.62
307.731	83.62
307.961	70.62
308.191	82.62
308.421	66.62
308.651	78.62
308.881	76.62
309.111	69.62
309.341	90.62
309.571	97.62
309.8	81.62
310.03	77.62
310.26	85.62
310.49	85.62
310.72	90.62
310.949	83.62
311.179	77.62
311.409	71.62
311.639	72.62
311.868	71.62
312.098	84.62
312.328	80.62
312.557	90.62
312.787	74.62
313.017	81.62
313.246	78.62
313.476	73.62
313.706	69.62
313.935	58.62
314.165	88.62
314.394	80.62
314.624	85.62
314.853	85.62
315.083	85.62
315.312	84.62
315.542	78.62
315.771	76.62
316.001	78.62
316.23	80.62
316.46	78.62
316.689	81.62
316.919	87.62
317.148	88.62
317.377	77.62
317.607	77.62
317.836	95.62
318.065	98.62
318.295	79.62
318.524	73.62
318.753	78.62
318.983	86.62
319.212	86.62
319.441	84.62
319.67	82.62
319.9	77.62
320.129	85.62
320.358	80.62
320.587	87.62
320.816	86.62
321.046	84.62
321.275	79.62
321.504	86.62
321.733	86.62
321.962	77.62
322.191	86.62
322.42	84.62
322.649	86.62
322.878	77.62
323.108	76.62
323.337	77.62
323.566	85.62
323.795	76.62
324.024	83.62
324.253	89.62
324.482	78.62
324.71	97.62
324.939	98.62
325.168	69.62
325.397	80.62
325.626	84.62
325.855	89.62
326.084	78.62
326.313	77.62
326.542	76.62
326.77	92.62
326.999	84.62
327.228	85.62
327.457	88.62
327.686	66.62
327.914	92.62
328.143	82.62
328.372	76.62
328.6	90.62
328.829	79.62
329.058	90.62
329.287	85.62
329.515	80.62
329.744	77.62
329.972	76.62
330.201	92.62
330.43	85.62
330.658	78.62
330.887	77.62
331.115	93.62
331.344	91.62
331.572	81.62
331.801	92.62
332.03	81.62
332.258	73.62
332.486	85.62
332.715	85.62
332.943	85.62
333.172	71.62
333.4	79.62
333.629	70.62
333.857	69.62
334.085	73.62
334.314	85.62
334.542	72.62
334.771	76.62
334.999	89.62
335.227	89.62
335.455	79.62
335.684	70.62
335.912	80.62
336.14	88.62
336.369	86.62
336.597	95.62
336.825	84.62
337.053	81.62
337.281	87.62
337.51	76.62
337.738	82.62
337.966	75.62
338.194	80.62
338.422	77.62
338.65	80.62
338.878	70.62
339.106	79.62
339.334	88.62
339.562	85.62
339.79	92.62
340.018	80.62
340.246	77.62
340.474	93.62
340.702	86.62
340.93	76.62
341.158	78.62
341.386	86.62
341.614	87.62
341.842	83.62
342.07	80.62
342.298	74.62
342.526	94.62
342.754	80.62
342.981	64.62
343.209	64.62
343.437	64.62
343.665	87.62
343.893	78.62
344.12	88.62
344.348	79.62
344.576	78.62
344.804	80.62
345.031	88.62
345.259	85.62
345.487	90.62
345.714	73.62
345.942	79.62
346.17	79.62
346.397	68.62
346.625	81.62
346.853	84.62
347.08	89.62
347.308	94.62
347.535	77.62
347.763	82.62
347.99	88.62
348.218	74.62
348.445	74.62
348.673	76.62
348.9	78.62
349.128	82.62
349.355	79.62
349.583	79.62
349.81	82.62
350.037	82.62
350.265	77.62
350.492	101.62
350.72	84.62
350.947	77.62
351.174	80.62
351.402	78.62
351.629	71.62
351.856	91.62
352.083	88.62
352.311	86.62
352.538	74.62
352.765	80.62
352.992	78.62
353.22	81.62
353.447	85.62
353.674	86.62
353.901	87.62
354.128	78.62
354.355	89.62
354.583	78.62
354.81	88.62
355.037	74.62
355.264	84.62
355.491	72.62
355.718	88.62
355.945	78.62
356.172	86.62
356.399	78.62
356.626	83.62
356.853	74.62
357.08	84.62
357.307	90.62
357.534	78.62
357.761	78.62
357.988	95.62
358.215	81.62
358.441	79.62
358.668	78.62
358.895	70.62
359.122	84.62
359.349	84.62
359.576	85.62
359.802	73.62
360.029	70.62
360.256	74.62
360.483	82.62
360.709	81.62
360.936	94.62
361.163	83.62
361.39	82.62
361.616	79.62
361.843	76.62
362.07	78.62
362.296	101.62
362.523	95.62
362.749	100.62
362.976	78.62
363.203	76.62
363.429	88.62
363.656	86.62
363.882	80.62
364.109	94.62
364.335	87.62
364.562	81.62
364.788	84.62
365.015	84.62
365.241	81.62
365.468	74.62
365.694	82.62
365.92	94.62
366.147	84.62
366.373	74.62
366.599	76.62
366.826	64.62
367.052	78.62
367.278	87.62
367.505	72.62
367.731	74.62
367.957	81.62
368.184	72.62
368.41	73.62
368.636	83.62
368.862	84.62
369.089	79.62
369.315	98.62
369.541	74.62
369.767	85.62
369.993	97.62
370.219	80.62
370.445	75.62
370.672	84.62
370.898	81.62
371.124	80.62
371.35	82.62
371.576	95.62
371.802	70.62
372.028	76.62
372.254	70.62
372.48	86.62
372.706	74.62
372.932	97.62
373.158	93.62
373.384	69.62
373.61	90.62
373.835	79.62
374.061	85.62
374.287	72.62
374.513	77.62
374.739	86.62
374.965	88.62
375.191	78.62
375.416	97.62
375.642	85.62
375.868	76.62
376.094	82.62
376.319	89.62
376.545	84.62
376.771	74.62
376.997	74.62
377.222	77.62
377.448	72.62
377.674	70.62
377.899	86.62
378.125	83.62
378.35	96.62
378.576	78.62
378.802	86.62
379.027	77.62
379.253	80.62
379.478	88.62
379.704	86.62
379.929	78.62
380.155	79.62
380.38	85.62
380.606	71.62
380.831	80.62
381.057	93.62
381.282	75.62
381.507	76.62
381.733	87.62
381.958	77.62
382.184	81.62
382.409	70.62
382.634	95.62
382.86	93.62
383.085	74.62
383.31	85.62
383.535	83.62
383.761	74.62
383.986	77.62
384.211	81.62
384.436	93.62
384.662	88.62
384.887	87.62
385.112	61.62
385.337	80.62
385.562	84.62
385.787	79.62
386.013	81.62
386.238	70.62
386.463	79.62
386.688	81.62
386.913	84.62
387.138	90.62
387.363	81.62
387.588	84.62
387.813	68.62
388.038	81.62
388.263	76.62
388.488	78.62
388.713	93.62
388.938	82.62
389.163	92.62
389.387	94.62
389.612	85.62
389.837	97.62
390.062	97.62
390.287	89.62
390.512	74.62
390.736	77.62
390.961	81.62
391.186	75.62
391.411	95.62
391.636	75.62
391.86	85.62
392.085	87.62
392.31	81.62
392.534	74.62
392.759	83.62
392.984	69.62
393.208	75.62
393.433	74.62
393.658	78.62
393.882	89.62
394.107	75.62
394.331	78.62
394.556	90.62
394.78	101.62
395.005	91.62
395.229	80.62
395.454	79.62
395.678	65.62
395.903	78.62
396.127	82.62
396.352	86.62
396.576	91.62
396.801	78.62
397.025	84.62
397.249	73.62
397.474	82.62
397.698	94.62
397.922	90.62
398.147	78.62
398.371	80.62
398.595	92.62
398.82	82.62
399.044	85.62
399.268	94.62
399.492	92.62
399.717	83.62
399.941	79.62
400.165	91.62
400.389	95.62
400.613	80.62
400.837	99.62
401.062	90.62
401.286	92.62
401.51	82.62
401.734	98.62
401.958	82.62
402.182	88.62
402.406	102.62
402.63	66.62
402.854	76.62
403.078	78.62
403.302	92.62
403.526	87.62
403.75	80.62
403.974	95.62
404.198	90.62
404.422	96.62
404.645	97.62
404.869	90.62
405.093	94.62
405.317	103.62
405.541	89.62
405.765	89.62
405.988	85.62
406.212	87.62
406.436	103.62
406.66	98.62
406.883	83.62
407.107	89.62
407.331	84.62
407.555	80.62
407.778	82.62
408.002	98.62
408.226	101.62
408.449	87.62
408.673	80.62
408.896	80.62
409.12	85.62
409.344	92.62
409.567	81.62
409.791	84.62
410.014	89.62
410.238	85.62
410.461	89.62
410.685	84.62
410.908	82.62
411.132	100.62
411.355	93.62
411.578	89.62
411.802	96.62
412.025	85.62
412.249	77.62
412.472	92.62
412.695	74.62
412.919	78.62
413.142	72.62
413.365	79.62
413.589	84.62
413.812	77.62
414.035	86.62
414.258	100.62
414.482	89.62
414.705	85.62
414.928	84.62
415.151	99.62
415.374	91.62
415.597	95.62
415.821	90.62
416.044	85.62
416.267	85.62
416.49	84.62
416.713	81.62
416.936	79.62
417.159	72.62
417.382	87.62
417.605	95.62
417.828	93.62
418.051	90.62
418.274	80.62
418.497	80.62
418.72	99.62
418.943	86.62
419.166	82.62
419.389	88.62
419.611	88.62
419.834	92.62
420.057	94.62
420.28	99.62
420.503	85.62
420.726	91.62
420.948	83.62
421.171	91.62
421.394	84.62
421.617	97.62
421.839	102.62
422.062	93.62
422.285	85.62
422.507	77.62
422.73	94.62
422.953	91.62
423.175	102.62
423.398	93.62
423.621	81.62
423.843	94.62
424.066	100.62
424.288	91.62
424.511	83.62
424.733	100.62
424.956	98.62
425.178	97.62
425.401	103.62
425.623	90.62
425.846	99.62
426.068	93.62
426.291	102.62
426.513	91.62
426.735	95.62
426.958	90.62
427.18	91.62
427.402	101.62
427.625	94.62
427.847	84.62
428.069	100.62
428.292	99.62
428.514	96.62
428.736	93.62
428.958	88.62
429.181	88.62
429.403	106.62
429.625	98.62
429.847	87.62
430.069	97.62
430.292	92.62
430.514	85.62
430.736	103.62
430.958	98.62
431.18	95.62
431.402	98.62
431.624	85.62
431.846	95.62
432.068	87.62
432.29	88.62
432.512	71.62
432.734	83.62
432.956	89.62
433.178	100.62
433.4	90.62
433.622	93.62
433.844	98.62
434.066	99.62
434.287	83.62
434.509	92.62
434.731	96.62
434.953	74.62
435.175	78.62
435.397	96.62
435.618	95.62
435.84	84.62
436.062	91.62
436.284	96.62
436.505	95.62
436.727	94.62
436.949	95.62
437.17	94.62
437.392	88.62
437.614	84.62
437.835	84.62
438.057	102.62
438.278	105.62
438.5	93.62
438.721	94.62
438.943	77.62
439.165	87.62
439.386	100.62
439.608	91.62
439.829	100.62
440.05	109.62
440.272	94.62
440.493	112.62
440.715	114.62
440.936	105.62
441.158	102.62
441.379	85.62
441.6	102.62
441.822	108.62
442.043	90.62
442.264	89.62
442.486	83.62
442.707	95.62
442.928	89.62
443.149	100.62
443.371	99.62
443.592	95.62
443.813	99.62
444.034	92.62
444.255	104.62
444.476	91.62
444.698	103.62
444.919	85.62
445.14	166.62
445.361	132.62
445.582	98.62
445.803	107.62
446.024	89.62
446.245	89.62
446.466	87.62
446.687	103.62
446.908	102.62
447.129	94.62
447.35	100.62
447.571	84.62
447.792	81.62
448.013	109.62
448.234	89.62
448.455	102.62
448.675	95.62
448.896	90.62
449.117	94.62
449.338	105.62
449.559	86.62
449.779	99.62
450	92.62
450.221	81.62
450.442	89.62
450.662	97.62
450.883	102.62
451.104	94.62
451.324	82.62
451.545	82.62
451.766	93.62
451.986	101.62
452.207	90.62
452.428	96.62
452.648	92.62
452.869	85.62
453.089	90.62
453.31	86.62
453.53	86.62
453.751	89.62
453.971	87.62
454.192	82.62
454.412	81.62
454.633	87.62
454.853	98.62
455.073	83.62
455.294	92.62
455.514	88.62
455.734	80.62
455.955	82.62
456.175	94.62
456.395	88.62
456.616	79.62
456.836	100.62
457.056	88.62
457.276	65.62
457.497	88.62
457.717	92.62
457.937	88.62
458.157	82.62
458.377	99.62
458.598	76.62
458.818	78.62
459.038	85.62
459.258	64.62
459.478	86.62
459.698	77.62
459.918	78.62
460.138	101.62
460.358	78.62
460.578	102.62
460.798	87.62
461.018	103.62
461.238	92.62
461.458	76.62
461.678	84.62
461.898	86.62
462.118	88.62
462.338	91.62
462.558	85.62
462.777	98.62
462.997	83.62
463.217	99.62
463.437	78.62
463.657	86.62
463.876	92.62
464.096	92.62
464.316	87.62
464.536	90.62
464.755	82.62
464.975	98.62
465.195	110.62
465.414	86.62
465.634	78.62
465.854	98.62
466.073	99.62
466.293	90.62
466.512	96.62
466.732	94.62
466.951	93.62
467.171	96.62
467.391	103.62
467.61	89.62
467.829	90.62
468.049	108.62
468.268	94.62
468.488	103.62
468.707	103.62
468.927	105.62
469.146	94.62
469.365	95.62
469.585	103.62
469.804	81.62
470.023	80.62
470.243	95.62
470.462	96.62
470.681	95.62
470.901	83.62
471.12	83.62
471.339	96.62
471.558	95.62
471.777	85.62
471.997	89.62
472.216	105.62
472.435	96.62
472.654	79.62
472.873	83.62
473.092	92.62
473.311	86.62
473.53	102.62
473.749	103.62
473.968	91.62
474.187	90.62
474.406	81.62
474.625	99.62
474.844	93.62
475.063	93.62
475.282	86.62
475.501	91.62
475.72	98.62
475.939	90.62
476.158	80.62
476.377	92.62
476.596	88.62
476.814	97.62
477.033	89.62
477.252	92.62
477.471	81.62
477.69	88.62
477.908	87.62
478.127	71.62
478.346	110.62
478.564	88.62
478.783	100.62
479.002	106.62
479.22	88.62
479.439	96.62
479.658	81.62
479.876	94.62
480.095	75.62
480.313	84.62
480.532	76.62
480.751	83.62
480.969	87.62
481.188	76.62
481.406	89.62
481.624	89.62
481.843	81.62
482.061	101.62
482.28	95.62
482.498	92.62
482.717	87.62
482.935	88.62
483.153	86.62
483.372	104.62
483.59	101.62
483.808	109.62
484.027	97.62
484.245	87.62
484.463	86.62
484.681	102.62
484.9	98.62
485.118	100.62
485.336	88.62
485.554	88.62
485.772	82.62
485.99	78.62
486.209	81.62
486.427	74.62
486.645	85.62
486.863	86.62
487.081	90.62
487.299	95.62
487.517	99.62
487.735	112.62
487.953	116.62
488.171	113.62
488.389	106.62
488.607	98.62
488.825	109.62
489.043	92.62
489.261	91.62
489.479	108.62
489.696	89.62
489.914	103.62
490.132	95.62
490.35	112.62
490.568	108.62
490.786	98.62
491.003	112.62
491.221	106.62
491.439	112.62
491.657	111.62
491.874	100.62
492.092	121.62
492.31	132.62
492.527	128.62
492.745	120.62
492.963	118.62
493.18	117.62
493.398	100.62
493.615	97.62
493.833	108.62
494.05	106.62
494.268	113.62
494.485	114.62
494.703	88.62
494.92	101.62
495.138	102.62
495.355	109.62
495.573	103.62
495.79	105.62
496.008	111.62
496.225	104.62
496.442	110.62
496.66	112.62
496.877	101.62
497.094	112.62
497.312	94.62
497.529	110.62
497.746	98.62
497.963	99.62
498.181	92.62
498.398	93.62
498.615	108.62
498.832	87.62
499.049	85.62
499.267	97.62
499.484	89.62
499.701	81.62
499.918	84.62
500.135	95.62
500.352	103.62
500.569	85.62
500.786	78.62
501.003	104.62
501.22	109.62
501.437	108.62
501.654	105.62
501.871	75.62
502.088	85.62
502.305	102.62
502.522	100.62
502.739	87.62
502.956	91.62
503.172	89.62
503.389	105.62
503.606	104.62
503.823	88.62
504.04	92.62
504.256	94.62
504.473	103.62
504.69	99.62
504.907	97.62
505.123	92.62
505.34	89.62
505.557	81.62
505.773	89.62
505.99	100.62
506.207	77.62
506.423	86.62
506.64	88.62
506.856	91.62
507.073	86.62
507.289	75.62
507.506	99.62
507.722	86.62
507.939	98.62
508.155	92.62
508.372	87.62
508.588	94.62
508.805	90.62
509.021	79.62
509.238	82.62
509.454	89.62
509.67	90.62
509.887	76.62
510.103	80.62
510.319	85.62
510.536	93.62
510.752	74.62
510.968	81.62
511.184	78.62
511.401	94.62
511.617	73.62
511.833	85.62
512.049	82.62
512.265	98.62
512.481	80.62
512.698	93.62
512.914	88.62
513.13	95.62
513.346	107.62
513.562	81.62
513.778	77.62
513.994	97.62
514.21	93.62
514.426	81.62
514.642	88.62
514.858	67.62
515.074	84.62
515.29	76.62
515.506	96.62
515.721	84.62
515.937	90.62
516.153	85.62
516.369	79.62
516.585	73.62
516.801	85.62
517.016	91.62
517.232	95.62
517.448	82.62
517.664	91.62
517.879	87.62
