Data from Location4.07152019.Energy5.Lamp.07192019.3%Agarose_HRD10591_15-24-56-577.txt Node
Date: Fri Jul 19 15:24:56 EDT 2019
User: cochatt
Spectrometer: HR+D1059
Trigger mode: 1
Integration Time (sec): 1.000000E-1
Scans to average: 1
Electric dark correction enabled: true
Nonlinearity correction enabled: false
Boxcar width: 0
XAxis mode: Wavelengths
Number of Pixels in Spectrum: 2048
>>>>>Begin Spectral Data<<<<<
223.165	-20.44
223.4	-20.44
223.635	-20.44
223.869	-20.44
224.104	-20.44
224.338	-8.44
224.573	-16.44
224.808	-8.44
225.042	-0.44
225.277	6.56
225.511	3.56
225.746	-11.44
225.98	4.56
226.215	-4.44
226.449	20.56
226.683	15.56
226.918	31.56
227.152	28.56
227.387	43.56
227.621	24.56
227.856	30.56
228.09	21.56
228.324	42.56
228.559	52.56
228.793	71.56
229.027	67.56
229.262	68.56
229.496	80.56
229.73	79.56
229.964	77.56
230.199	72.56
230.433	69.56
230.667	70.56
230.901	72.56
231.136	76.56
231.37	78.56
231.604	80.56
231.838	76.56
232.072	76.56
232.306	73.56
232.541	79.56
232.775	80.56
233.009	67.56
233.243	83.56
233.477	85.56
233.711	80.56
233.945	81.56
234.179	77.56
234.413	81.56
234.647	79.56
234.881	90.56
235.115	76.56
235.349	74.56
235.583	76.56
235.817	71.56
236.051	63.56
236.285	87.56
236.519	86.56
236.753	74.56
236.987	85.56
237.221	75.56
237.455	75.56
237.689	82.56
237.922	73.56
238.156	87.56
238.39	79.56
238.624	73.56
238.858	82.56
239.091	78.56
239.325	79.56
239.559	73.56
239.793	82.56
240.027	67.56
240.26	88.56
240.494	76.56
240.728	80.56
240.961	75.56
241.195	83.56
241.429	83.56
241.662	87.56
241.896	79.56
242.13	75.56
242.363	70.56
242.597	71.56
242.83	75.56
243.064	78.56
243.298	80.56
243.531	79.56
243.765	77.56
243.998	67.56
244.232	72.56
244.465	69.56
244.699	74.56
244.932	83.56
245.166	74.56
245.399	82.56
245.633	86.56
245.866	82.56
246.099	72.56
246.333	87.56
246.566	81.56
246.8	82.56
247.033	94.56
247.266	67.56
247.5	67.56
247.733	72.56
247.966	80.56
248.2	100.56
248.433	90.56
248.666	91.56
248.899	79.56
249.133	60.56
249.366	83.56
249.599	70.56
249.832	90.56
250.066	75.56
250.299	78.56
250.532	74.56
250.765	71.56
250.998	84.56
251.231	79.56
251.465	72.56
251.698	77.56
251.931	77.56
252.164	73.56
252.397	94.56
252.63	91.56
252.863	77.56
253.096	62.56
253.329	79.56
253.562	86.56
253.795	75.56
254.028	82.56
254.261	83.56
254.494	85.56
254.727	83.56
254.96	74.56
255.193	80.56
255.426	79.56
255.659	78.56
255.892	86.56
256.124	76.56
256.357	82.56
256.59	91.56
256.823	77.56
257.056	78.56
257.289	90.56
257.521	81.56
257.754	77.56
257.987	72.56
258.22	73.56
258.452	73.56
258.685	85.56
258.918	92.56
259.151	97.56
259.383	77.56
259.616	74.56
259.849	91.56
260.081	79.56
260.314	73.56
260.547	90.56
260.779	80.56
261.012	70.56
261.244	75.56
261.477	86.56
261.71	71.56
261.942	94.56
262.175	85.56
262.407	78.56
262.64	72.56
262.872	76.56
263.105	87.56
263.337	72.56
263.57	86.56
263.802	75.56
264.035	73.56
264.267	90.56
264.499	83.56
264.732	86.56
264.964	97.56
265.197	77.56
265.429	69.56
265.661	86.56
265.894	72.56
266.126	78.56
266.358	68.56
266.591	74.56
266.823	74.56
267.055	81.56
267.287	97.56
267.52	79.56
267.752	90.56
267.984	97.56
268.216	91.56
268.448	95.56
268.681	75.56
268.913	88.56
269.145	72.56
269.377	98.56
269.609	86.56
269.841	88.56
270.073	97.56
270.306	78.56
270.538	71.56
270.77	89.56
271.002	84.56
271.234	82.56
271.466	92.56
271.698	75.56
271.93	67.56
272.162	83.56
272.394	87.56
272.626	67.56
272.858	81.56
273.09	86.56
273.322	86.56
273.553	92.56
273.785	75.56
274.017	84.56
274.249	79.56
274.481	70.56
274.713	85.56
274.945	86.56
275.176	79.56
275.408	75.56
275.64	90.56
275.872	74.56
276.104	80.56
276.335	96.56
276.567	90.56
276.799	79.56
277.031	78.56
277.262	80.56
277.494	85.56
277.726	75.56
277.957	86.56
278.189	81.56
278.421	87.56
278.652	71.56
278.884	88.56
279.115	75.56
279.347	90.56
279.579	98.56
279.81	69.56
280.042	83.56
280.273	88.56
280.505	86.56
280.736	77.56
280.968	90.56
281.199	71.56
281.431	82.56
281.662	80.56
281.894	76.56
282.125	80.56
282.356	92.56
282.588	71.56
282.819	91.56
283.051	89.56
283.282	79.56
283.513	78.56
283.745	96.56
283.976	81.56
284.207	85.56
284.439	84.56
284.67	97.56
284.901	75.56
285.132	87.56
285.364	76.56
285.595	88.56
285.826	95.56
286.057	96.56
286.288	83.56
286.52	89.56
286.751	77.56
286.982	88.56
287.213	87.56
287.444	80.56
287.675	87.56
287.906	76.56
288.138	81.56
288.369	78.56
288.6	83.56
288.831	86.56
289.062	84.56
289.293	91.56
289.524	86.56
289.755	89.56
289.986	86.56
290.217	80.56
290.448	74.56
290.679	80.56
290.91	95.56
291.141	90.56
291.371	84.56
291.602	94.56
291.833	93.56
292.064	88.56
292.295	87.56
292.526	91.56
292.757	90.56
292.987	88.56
293.218	86.56
293.449	93.56
293.68	80.56
293.91	84.56
294.141	80.56
294.372	77.56
294.603	79.56
294.833	81.56
295.064	97.56
295.295	82.56
295.525	81.56
295.756	107.56
295.987	74.56
296.217	91.56
296.448	82.56
296.679	81.56
296.909	72.56
297.14	85.56
297.37	83.56
297.601	79.56
297.831	74.56
298.062	100.56
298.292	76.56
298.523	82.56
298.753	80.56
298.984	80.56
299.214	83.56
299.445	95.56
299.675	87.56
299.905	86.56
300.136	86.56
300.366	91.56
300.597	85.56
300.827	86.56
301.057	74.56
301.288	85.56
301.518	100.56
301.748	86.56
301.979	87.56
302.209	65.56
302.439	84.56
302.669	80.56
302.9	86.56
303.13	92.56
303.36	83.56
303.59	87.56
303.82	89.56
304.051	78.56
304.281	85.56
304.511	74.56
304.741	83.56
304.971	86.56
305.201	81.56
305.431	87.56
305.661	72.56
305.891	87.56
306.121	69.56
306.352	73.56
306.582	89.56
306.812	84.56
307.042	71.56
307.272	87.56
307.502	77.56
307.731	74.56
307.961	95.56
308.191	88.56
308.421	82.56
308.651	71.56
308.881	83.56
309.111	64.56
309.341	81.56
309.571	94.56
309.8	98.56
310.03	74.56
310.26	96.56
310.49	92.56
310.72	76.56
310.949	79.56
311.179	81.56
311.409	80.56
311.639	85.56
311.868	71.56
312.098	95.56
312.328	81.56
312.557	88.56
312.787	76.56
313.017	82.56
313.246	86.56
313.476	88.56
313.706	74.56
313.935	92.56
314.165	72.56
314.394	81.56
314.624	86.56
314.853	108.56
315.083	106.56
315.312	93.56
315.542	87.56
315.771	76.56
316.001	83.56
316.23	84.56
316.46	91.56
316.689	74.56
316.919	74.56
317.148	78.56
317.377	88.56
317.607	65.56
317.836	91.56
318.065	85.56
318.295	82.56
318.524	80.56
318.753	95.56
318.983	86.56
319.212	96.56
319.441	88.56
319.67	76.56
319.9	97.56
320.129	73.56
320.358	91.56
320.587	97.56
320.816	73.56
321.046	90.56
321.275	87.56
321.504	89.56
321.733	88.56
321.962	89.56
322.191	76.56
322.42	76.56
322.649	96.56
322.878	84.56
323.108	87.56
323.337	83.56
323.566	86.56
323.795	85.56
324.024	91.56
324.253	79.56
324.482	87.56
324.71	71.56
324.939	84.56
325.168	88.56
325.397	89.56
325.626	86.56
325.855	91.56
326.084	101.56
326.313	75.56
326.542	89.56
326.77	87.56
326.999	81.56
327.228	90.56
327.457	86.56
327.686	74.56
327.914	89.56
328.143	78.56
328.372	81.56
328.6	76.56
328.829	83.56
329.058	86.56
329.287	88.56
329.515	90.56
329.744	92.56
329.972	83.56
330.201	96.56
330.43	85.56
330.658	87.56
330.887	83.56
331.115	84.56
331.344	93.56
331.572	99.56
331.801	87.56
332.03	93.56
332.258	85.56
332.486	97.56
332.715	70.56
332.943	81.56
333.172	85.56
333.4	78.56
333.629	93.56
333.857	102.56
334.085	86.56
334.314	86.56
334.542	77.56
334.771	85.56
334.999	84.56
335.227	83.56
335.455	83.56
335.684	76.56
335.912	87.56
336.14	91.56
336.369	87.56
336.597	91.56
336.825	68.56
337.053	90.56
337.281	95.56
337.51	90.56
337.738	92.56
337.966	70.56
338.194	87.56
338.422	77.56
338.65	86.56
338.878	86.56
339.106	77.56
339.334	82.56
339.562	83.56
339.79	78.56
340.018	97.56
340.246	75.56
340.474	78.56
340.702	73.56
340.93	83.56
341.158	91.56
341.386	95.56
341.614	98.56
341.842	84.56
342.07	93.56
342.298	86.56
342.526	72.56
342.754	82.56
342.981	87.56
343.209	74.56
343.437	77.56
343.665	71.56
343.893	77.56
344.12	96.56
344.348	73.56
344.576	81.56
344.804	81.56
345.031	83.56
345.259	95.56
345.487	98.56
345.714	80.56
345.942	83.56
346.17	78.56
346.397	75.56
346.625	81.56
346.853	83.56
347.08	75.56
347.308	98.56
347.535	74.56
347.763	90.56
347.99	98.56
348.218	68.56
348.445	67.56
348.673	83.56
348.9	95.56
349.128	95.56
349.355	86.56
349.583	74.56
349.81	88.56
350.037	76.56
350.265	71.56
350.492	82.56
350.72	87.56
350.947	83.56
351.174	89.56
351.402	81.56
351.629	79.56
351.856	88.56
352.083	87.56
352.311	90.56
352.538	102.56
352.765	77.56
352.992	106.56
353.22	82.56
353.447	87.56
353.674	74.56
353.901	82.56
354.128	89.56
354.355	81.56
354.583	72.56
354.81	90.56
355.037	84.56
355.264	87.56
355.491	76.56
355.718	80.56
355.945	89.56
356.172	78.56
356.399	76.56
356.626	83.56
356.853	103.56
357.08	101.56
357.307	89.56
357.534	86.56
357.761	71.56
357.988	85.56
358.215	88.56
358.441	87.56
358.668	88.56
358.895	83.56
359.122	89.56
359.349	76.56
359.576	84.56
359.802	89.56
360.029	92.56
360.256	90.56
360.483	80.56
360.709	90.56
360.936	96.56
361.163	89.56
361.39	77.56
361.616	72.56
361.843	94.56
362.07	77.56
362.296	85.56
362.523	83.56
362.749	86.56
362.976	76.56
363.203	83.56
363.429	89.56
363.656	79.56
363.882	80.56
364.109	81.56
364.335	75.56
364.562	82.56
364.788	88.56
365.015	87.56
365.241	77.56
365.468	70.56
365.694	95.56
365.92	82.56
366.147	80.56
366.373	84.56
366.599	74.56
366.826	88.56
367.052	75.56
367.278	98.56
367.505	89.56
367.731	94.56
367.957	83.56
368.184	71.56
368.41	91.56
368.636	88.56
368.862	86.56
369.089	72.56
369.315	63.56
369.541	72.56
369.767	92.56
369.993	76.56
370.219	86.56
370.445	94.56
370.672	88.56
370.898	95.56
371.124	83.56
371.35	90.56
371.576	80.56
371.802	89.56
372.028	94.56
372.254	88.56
372.48	85.56
372.706	81.56
372.932	81.56
373.158	85.56
373.384	94.56
373.61	82.56
373.835	79.56
374.061	86.56
374.287	104.56
374.513	94.56
374.739	89.56
374.965	75.56
375.191	81.56
375.416	103.56
375.642	94.56
375.868	95.56
376.094	77.56
376.319	79.56
376.545	75.56
376.771	89.56
376.997	81.56
377.222	74.56
377.448	85.56
377.674	80.56
377.899	98.56
378.125	77.56
378.35	91.56
378.576	88.56
378.802	82.56
379.027	85.56
379.253	101.56
379.478	96.56
379.704	83.56
379.929	73.56
380.155	83.56
380.38	71.56
380.606	90.56
380.831	76.56
381.057	84.56
381.282	76.56
381.507	80.56
381.733	89.56
381.958	84.56
382.184	74.56
382.409	75.56
382.634	91.56
382.86	90.56
383.085	101.56
383.31	82.56
383.535	94.56
383.761	84.56
383.986	82.56
384.211	91.56
384.436	84.56
384.662	79.56
384.887	73.56
385.112	86.56
385.337	88.56
385.562	67.56
385.787	89.56
386.013	83.56
386.238	78.56
386.463	75.56
386.688	86.56
386.913	72.56
387.138	86.56
387.363	67.56
387.588	85.56
387.813	87.56
388.038	67.56
388.263	87.56
388.488	90.56
388.713	74.56
388.938	90.56
389.163	76.56
389.387	86.56
389.612	87.56
389.837	80.56
390.062	84.56
390.287	73.56
390.512	80.56
390.736	90.56
390.961	95.56
391.186	94.56
391.411	86.56
391.636	86.56
391.86	96.56
392.085	88.56
392.31	74.56
392.534	75.56
392.759	94.56
392.984	99.56
393.208	93.56
393.433	83.56
393.658	87.56
393.882	89.56
394.107	84.56
394.331	91.56
394.556	85.56
394.78	85.56
395.005	87.56
395.229	90.56
395.454	87.56
395.678	96.56
395.903	88.56
396.127	86.56
396.352	101.56
396.576	104.56
396.801	87.56
397.025	80.56
397.249	96.56
397.474	106.56
397.698	93.56
397.922	94.56
398.147	73.56
398.371	79.56
398.595	91.56
398.82	82.56
399.044	91.56
399.268	71.56
399.492	98.56
399.717	92.56
399.941	86.56
400.165	90.56
400.389	95.56
400.613	94.56
400.837	70.56
401.062	86.56
401.286	106.56
401.51	90.56
401.734	79.56
401.958	100.56
402.182	90.56
402.406	82.56
402.63	91.56
402.854	99.56
403.078	80.56
403.302	88.56
403.526	97.56
403.75	80.56
403.974	82.56
404.198	88.56
404.422	70.56
404.645	90.56
404.869	81.56
405.093	85.56
405.317	81.56
405.541	99.56
405.765	92.56
405.988	99.56
406.212	92.56
406.436	80.56
406.66	99.56
406.883	73.56
407.107	87.56
407.331	84.56
407.555	95.56
407.778	93.56
408.002	102.56
408.226	84.56
408.449	94.56
408.673	93.56
408.896	82.56
409.12	84.56
409.344	85.56
409.567	93.56
409.791	84.56
410.014	76.56
410.238	90.56
410.461	94.56
410.685	95.56
410.908	96.56
411.132	91.56
411.355	75.56
411.578	80.56
411.802	96.56
412.025	87.56
412.249	106.56
412.472	92.56
412.695	90.56
412.919	102.56
413.142	92.56
413.365	94.56
413.589	102.56
413.812	95.56
414.035	100.56
414.258	89.56
414.482	94.56
414.705	80.56
414.928	91.56
415.151	104.56
415.374	94.56
415.597	90.56
415.821	93.56
416.044	97.56
416.267	90.56
416.49	98.56
416.713	78.56
416.936	77.56
417.159	82.56
417.382	73.56
417.605	92.56
417.828	99.56
418.051	101.56
418.274	104.56
418.497	109.56
418.72	107.56
418.943	101.56
419.166	102.56
419.389	83.56
419.611	88.56
419.834	78.56
420.057	91.56
420.28	95.56
420.503	91.56
420.726	90.56
420.948	105.56
421.171	91.56
421.394	94.56
421.617	92.56
421.839	97.56
422.062	97.56
422.285	72.56
422.507	88.56
422.73	88.56
422.953	83.56
423.175	82.56
423.398	87.56
423.621	101.56
423.843	99.56
424.066	103.56
424.288	90.56
424.511	86.56
424.733	86.56
424.956	107.56
425.178	90.56
425.401	79.56
425.623	97.56
425.846	99.56
426.068	97.56
426.291	99.56
426.513	87.56
426.735	99.56
426.958	89.56
427.18	101.56
427.402	99.56
427.625	92.56
427.847	89.56
428.069	85.56
428.292	89.56
428.514	97.56
428.736	92.56
428.958	90.56
429.181	97.56
429.403	86.56
429.625	93.56
429.847	104.56
430.069	84.56
430.292	98.56
430.514	90.56
430.736	94.56
430.958	91.56
431.18	90.56
431.402	85.56
431.624	97.56
431.846	94.56
432.068	104.56
432.29	100.56
432.512	75.56
432.734	90.56
432.956	100.56
433.178	106.56
433.4	100.56
433.622	86.56
433.844	88.56
434.066	90.56
434.287	91.56
434.509	66.56
434.731	95.56
434.953	96.56
435.175	92.56
435.397	102.56
435.618	104.56
435.84	90.56
436.062	90.56
436.284	94.56
436.505	99.56
436.727	86.56
436.949	102.56
437.17	100.56
437.392	102.56
437.614	89.56
437.835	87.56
438.057	87.56
438.278	94.56
438.5	82.56
438.721	85.56
438.943	92.56
439.165	90.56
439.386	95.56
439.608	89.56
439.829	100.56
440.05	106.56
440.272	97.56
440.493	100.56
440.715	97.56
440.936	92.56
441.158	101.56
441.379	96.56
441.6	99.56
441.822	84.56
442.043	94.56
442.264	108.56
442.486	88.56
442.707	81.56
442.928	84.56
443.149	99.56
443.371	97.56
443.592	98.56
443.813	87.56
444.034	91.56
444.255	84.56
444.476	91.56
444.698	100.56
444.919	102.56
445.14	208.56
445.361	140.56
445.582	116.56
445.803	97.56
446.024	99.56
446.245	79.56
446.466	93.56
446.687	85.56
446.908	102.56
447.129	102.56
447.35	97.56
447.571	108.56
447.792	91.56
448.013	94.56
448.234	90.56
448.455	100.56
448.675	109.56
448.896	92.56
449.117	91.56
449.338	90.56
449.559	99.56
449.779	88.56
450	107.56
450.221	86.56
450.442	76.56
450.662	97.56
450.883	105.56
451.104	96.56
451.324	98.56
451.545	98.56
451.766	85.56
451.986	91.56
452.207	86.56
452.428	97.56
452.648	92.56
452.869	82.56
453.089	96.56
453.31	84.56
453.53	76.56
453.751	99.56
453.971	84.56
454.192	99.56
454.412	97.56
454.633	96.56
454.853	94.56
455.073	92.56
455.294	80.56
455.514	93.56
455.734	89.56
455.955	99.56
456.175	82.56
456.395	85.56
456.616	103.56
456.836	94.56
457.056	83.56
457.276	83.56
457.497	88.56
457.717	91.56
457.937	80.56
458.157	82.56
458.377	91.56
458.598	92.56
458.818	85.56
459.038	92.56
459.258	75.56
459.478	84.56
459.698	83.56
459.918	73.56
460.138	90.56
460.358	79.56
460.578	81.56
460.798	98.56
461.018	87.56
461.238	95.56
461.458	90.56
461.678	95.56
461.898	87.56
462.118	97.56
462.338	87.56
462.558	85.56
462.777	80.56
462.997	84.56
463.217	78.56
463.437	93.56
463.657	87.56
463.876	99.56
464.096	91.56
464.316	95.56
464.536	84.56
464.755	101.56
464.975	102.56
465.195	91.56
465.414	80.56
465.634	89.56
465.854	99.56
466.073	97.56
466.293	83.56
466.512	79.56
466.732	102.56
466.951	94.56
467.171	98.56
467.391	100.56
467.61	88.56
467.829	97.56
468.049	94.56
468.268	113.56
468.488	82.56
468.707	82.56
468.927	84.56
469.146	101.56
469.365	109.56
469.585	100.56
469.804	91.56
470.023	96.56
470.243	99.56
470.462	87.56
470.681	99.56
470.901	98.56
471.12	99.56
471.339	86.56
471.558	88.56
471.777	87.56
471.997	102.56
472.216	99.56
472.435	97.56
472.654	96.56
472.873	86.56
473.092	97.56
473.311	102.56
473.53	99.56
473.749	91.56
473.968	100.56
474.187	88.56
474.406	89.56
474.625	94.56
474.844	92.56
475.063	96.56
475.282	85.56
475.501	94.56
475.72	96.56
475.939	101.56
476.158	101.56
476.377	93.56
476.596	91.56
476.814	64.56
477.033	85.56
477.252	86.56
477.471	71.56
477.69	99.56
477.908	88.56
478.127	99.56
478.346	89.56
478.564	85.56
478.783	105.56
479.002	97.56
479.22	102.56
479.439	94.56
479.658	94.56
479.876	91.56
480.095	90.56
480.313	106.56
480.532	101.56
480.751	99.56
480.969	81.56
481.188	91.56
481.406	96.56
481.624	80.56
481.843	87.56
482.061	85.56
482.28	94.56
482.498	102.56
482.717	100.56
482.935	89.56
483.153	83.56
483.372	90.56
483.59	98.56
483.808	87.56
484.027	92.56
484.245	98.56
484.463	80.56
484.681	106.56
484.9	110.56
485.118	96.56
485.336	110.56
485.554	106.56
485.772	85.56
485.99	99.56
486.209	88.56
486.427	94.56
486.645	90.56
486.863	113.56
487.081	109.56
487.299	100.56
487.517	105.56
487.735	88.56
487.953	106.56
488.171	108.56
488.389	116.56
488.607	99.56
488.825	109.56
489.043	116.56
489.261	93.56
489.479	105.56
489.696	96.56
489.914	101.56
490.132	102.56
490.35	107.56
490.568	96.56
490.786	112.56
491.003	126.56
491.221	117.56
491.439	107.56
491.657	121.56
491.874	115.56
492.092	121.56
492.31	122.56
492.527	114.56
492.745	114.56
492.963	116.56
493.18	116.56
493.398	115.56
493.615	121.56
493.833	100.56
494.05	122.56
494.268	117.56
494.485	104.56
494.703	105.56
494.92	103.56
495.138	106.56
495.355	126.56
495.573	110.56
495.79	115.56
496.008	112.56
496.225	103.56
496.442	116.56
496.66	100.56
496.877	101.56
497.094	120.56
497.312	104.56
497.529	107.56
497.746	102.56
497.963	93.56
498.181	89.56
498.398	91.56
498.615	84.56
498.832	93.56
499.049	93.56
499.267	95.56
499.484	99.56
499.701	101.56
499.918	106.56
500.135	92.56
500.352	93.56
500.569	91.56
500.786	89.56
501.003	103.56
501.22	101.56
501.437	103.56
501.654	91.56
501.871	87.56
502.088	102.56
502.305	88.56
502.522	94.56
502.739	93.56
502.956	86.56
503.172	89.56
503.389	96.56
503.606	95.56
503.823	90.56
504.04	88.56
504.256	87.56
504.473	99.56
504.69	104.56
504.907	111.56
505.123	112.56
505.34	80.56
505.557	91.56
505.773	87.56
505.99	93.56
506.207	95.56
506.423	98.56
506.64	96.56
506.856	81.56
507.073	98.56
507.289	96.56
507.506	91.56
507.722	94.56
507.939	94.56
508.155	86.56
508.372	87.56
508.588	96.56
508.805	84.56
509.021	92.56
509.238	87.56
509.454	91.56
509.67	96.56
509.887	91.56
510.103	83.56
510.319	92.56
510.536	94.56
510.752	78.56
510.968	88.56
511.184	79.56
511.401	84.56
511.617	92.56
511.833	89.56
512.049	90.56
512.265	77.56
512.481	87.56
512.698	87.56
512.914	93.56
513.13	76.56
513.346	76.56
513.562	88.56
513.778	91.56
513.994	96.56
514.21	77.56
514.426	81.56
514.642	85.56
514.858	99.56
515.074	95.56
515.29	90.56
515.506	81.56
515.721	79.56
515.937	96.56
516.153	91.56
516.369	96.56
516.585	86.56
516.801	86.56
517.016	87.56
517.232	82.56
517.448	64.56
