Data from Location4.07152019.Energy5.Lamp.07192019.3%Agarose_HRD10591_15-25-16-577.txt Node
Date: Fri Jul 19 15:25:16 EDT 2019
User: cochatt
Spectrometer: HR+D1059
Trigger mode: 1
Integration Time (sec): 1.000000E-1
Scans to average: 1
Electric dark correction enabled: true
Nonlinearity correction enabled: false
Boxcar width: 0
XAxis mode: Wavelengths
Number of Pixels in Spectrum: 2048
>>>>>Begin Spectral Data<<<<<
223.165	-13.81
223.4	-13.81
223.635	-13.81
223.869	-11.81
224.104	-17.81
224.338	-7.81
224.573	-15.81
224.808	-0.81
225.042	-2.81
225.277	-5.81
225.511	-11.81
225.746	0.19
225.98	12.19
226.215	10.19
226.449	2.19
226.683	16.19
226.918	27.19
227.152	20.19
227.387	25.19
227.621	27.19
227.856	39.19
228.09	35.19
228.324	51.19
228.559	62.19
228.793	61.19
229.027	53.19
229.262	53.19
229.496	68.19
229.73	81.19
229.964	84.19
230.199	76.19
230.433	77.19
230.667	73.19
230.901	67.19
231.136	82.19
231.37	65.19
231.604	77.19
231.838	92.19
232.072	80.19
232.306	78.19
232.541	71.19
232.775	82.19
233.009	74.19
233.243	69.19
233.477	83.19
233.711	66.19
233.945	75.19
234.179	83.19
234.413	81.19
234.647	89.19
234.881	67.19
235.115	71.19
235.349	87.19
235.583	79.19
235.817	82.19
236.051	86.19
236.285	88.19
236.519	95.19
236.753	73.19
236.987	79.19
237.221	80.19
237.455	87.19
237.689	73.19
237.922	82.19
238.156	87.19
238.39	78.19
238.624	66.19
238.858	77.19
239.091	90.19
239.325	70.19
239.559	70.19
239.793	74.19
240.027	82.19
240.26	89.19
240.494	89.19
240.728	82.19
240.961	78.19
241.195	74.19
241.429	79.19
241.662	75.19
241.896	75.19
242.13	77.19
242.363	71.19
242.597	79.19
242.83	75.19
243.064	76.19
243.298	65.19
243.531	79.19
243.765	72.19
243.998	77.19
244.232	83.19
244.465	69.19
244.699	74.19
244.932	77.19
245.166	78.19
245.399	78.19
245.633	78.19
245.866	70.19
246.099	80.19
246.333	81.19
246.566	79.19
246.8	63.19
247.033	80.19
247.266	68.19
247.5	85.19
247.733	57.19
247.966	77.19
248.2	82.19
248.433	89.19
248.666	89.19
248.899	90.19
249.133	85.19
249.366	74.19
249.599	90.19
249.832	85.19
250.066	75.19
250.299	70.19
250.532	77.19
250.765	81.19
250.998	60.19
251.231	89.19
251.465	73.19
251.698	88.19
251.931	79.19
252.164	84.19
252.397	79.19
252.63	67.19
252.863	77.19
253.096	77.19
253.329	68.19
253.562	71.19
253.795	74.19
254.028	77.19
254.261	79.19
254.494	80.19
254.727	80.19
254.96	71.19
255.193	75.19
255.426	84.19
255.659	85.19
255.892	89.19
256.124	85.19
256.357	83.19
256.59	77.19
256.823	73.19
257.056	76.19
257.289	79.19
257.521	89.19
257.754	87.19
257.987	72.19
258.22	80.19
258.452	81.19
258.685	73.19
258.918	69.19
259.151	78.19
259.383	81.19
259.616	77.19
259.849	68.19
260.081	82.19
260.314	97.19
260.547	83.19
260.779	85.19
261.012	91.19
261.244	74.19
261.477	74.19
261.71	73.19
261.942	85.19
262.175	83.19
262.407	86.19
262.64	80.19
262.872	87.19
263.105	72.19
263.337	73.19
263.57	78.19
263.802	89.19
264.035	81.19
264.267	94.19
264.499	81.19
264.732	90.19
264.964	81.19
265.197	89.19
265.429	72.19
265.661	82.19
265.894	81.19
266.126	65.19
266.358	86.19
266.591	72.19
266.823	75.19
267.055	88.19
267.287	86.19
267.52	86.19
267.752	79.19
267.984	76.19
268.216	87.19
268.448	77.19
268.681	75.19
268.913	81.19
269.145	81.19
269.377	81.19
269.609	80.19
269.841	96.19
270.073	70.19
270.306	91.19
270.538	97.19
270.77	82.19
271.002	80.19
271.234	78.19
271.466	71.19
271.698	76.19
271.93	79.19
272.162	87.19
272.394	84.19
272.626	68.19
272.858	81.19
273.09	84.19
273.322	85.19
273.553	75.19
273.785	84.19
274.017	97.19
274.249	91.19
274.481	93.19
274.713	79.19
274.945	81.19
275.176	70.19
275.408	81.19
275.64	82.19
275.872	72.19
276.104	75.19
276.335	72.19
276.567	70.19
276.799	90.19
277.031	73.19
277.262	85.19
277.494	72.19
277.726	91.19
277.957	79.19
278.189	73.19
278.421	77.19
278.652	80.19
278.884	87.19
279.115	77.19
279.347	93.19
279.579	81.19
279.81	83.19
280.042	85.19
280.273	80.19
280.505	86.19
280.736	74.19
280.968	86.19
281.199	89.19
281.431	79.19
281.662	90.19
281.894	77.19
282.125	71.19
282.356	80.19
282.588	79.19
282.819	79.19
283.051	82.19
283.282	95.19
283.513	77.19
283.745	89.19
283.976	72.19
284.207	80.19
284.439	87.19
284.67	77.19
284.901	85.19
285.132	78.19
285.364	83.19
285.595	89.19
285.826	81.19
286.057	86.19
286.288	88.19
286.52	82.19
286.751	82.19
286.982	86.19
287.213	81.19
287.444	87.19
287.675	82.19
287.906	91.19
288.138	83.19
288.369	90.19
288.6	75.19
288.831	81.19
289.062	75.19
289.293	82.19
289.524	84.19
289.755	77.19
289.986	81.19
290.217	73.19
290.448	79.19
290.679	72.19
290.91	85.19
291.141	79.19
291.371	80.19
291.602	91.19
291.833	87.19
292.064	90.19
292.295	82.19
292.526	83.19
292.757	86.19
292.987	80.19
293.218	74.19
293.449	97.19
293.68	95.19
293.91	74.19
294.141	79.19
294.372	105.19
294.603	76.19
294.833	79.19
295.064	83.19
295.295	85.19
295.525	81.19
295.756	82.19
295.987	79.19
296.217	86.19
296.448	79.19
296.679	85.19
296.909	88.19
297.14	75.19
297.37	82.19
297.601	87.19
297.831	86.19
298.062	82.19
298.292	75.19
298.523	82.19
298.753	87.19
298.984	80.19
299.214	98.19
299.445	80.19
299.675	85.19
299.905	88.19
300.136	89.19
300.366	93.19
300.597	87.19
300.827	86.19
301.057	90.19
301.288	80.19
301.518	100.19
301.748	87.19
301.979	86.19
302.209	91.19
302.439	83.19
302.669	80.19
302.9	100.19
303.13	75.19
303.36	75.19
303.59	76.19
303.82	90.19
304.051	89.19
304.281	78.19
304.511	99.19
304.741	88.19
304.971	79.19
305.201	85.19
305.431	74.19
305.661	75.19
305.891	77.19
306.121	79.19
306.352	85.19
306.582	81.19
306.812	77.19
307.042	79.19
307.272	80.19
307.502	73.19
307.731	91.19
307.961	81.19
308.191	86.19
308.421	71.19
308.651	76.19
308.881	94.19
309.111	82.19
309.341	93.19
309.571	73.19
309.8	94.19
310.03	81.19
310.26	86.19
310.49	79.19
310.72	79.19
310.949	93.19
311.179	82.19
311.409	94.19
311.639	85.19
311.868	95.19
312.098	87.19
312.328	89.19
312.557	78.19
312.787	82.19
313.017	82.19
313.246	84.19
313.476	79.19
313.706	73.19
313.935	55.19
314.165	80.19
314.394	79.19
314.624	87.19
314.853	91.19
315.083	81.19
315.312	80.19
315.542	84.19
315.771	83.19
316.001	82.19
316.23	86.19
316.46	74.19
316.689	91.19
316.919	80.19
317.148	87.19
317.377	98.19
317.607	89.19
317.836	75.19
318.065	78.19
318.295	92.19
318.524	89.19
318.753	77.19
318.983	89.19
319.212	95.19
319.441	76.19
319.67	93.19
319.9	83.19
320.129	90.19
320.358	87.19
320.587	91.19
320.816	78.19
321.046	95.19
321.275	74.19
321.504	84.19
321.733	80.19
321.962	75.19
322.191	85.19
322.42	69.19
322.649	97.19
322.878	84.19
323.108	77.19
323.337	82.19
323.566	98.19
323.795	85.19
324.024	76.19
324.253	81.19
324.482	83.19
324.71	70.19
324.939	86.19
325.168	78.19
325.397	85.19
325.626	85.19
325.855	80.19
326.084	87.19
326.313	85.19
326.542	77.19
326.77	77.19
326.999	73.19
327.228	90.19
327.457	85.19
327.686	86.19
327.914	90.19
328.143	85.19
328.372	83.19
328.6	84.19
328.829	85.19
329.058	92.19
329.287	71.19
329.515	84.19
329.744	74.19
329.972	97.19
330.201	88.19
330.43	81.19
330.658	91.19
330.887	86.19
331.115	89.19
331.344	91.19
331.572	85.19
331.801	86.19
332.03	65.19
332.258	79.19
332.486	79.19
332.715	73.19
332.943	97.19
333.172	75.19
333.4	70.19
333.629	68.19
333.857	78.19
334.085	89.19
334.314	71.19
334.542	85.19
334.771	74.19
334.999	81.19
335.227	59.19
335.455	71.19
335.684	88.19
335.912	82.19
336.14	81.19
336.369	74.19
336.597	88.19
336.825	87.19
337.053	78.19
337.281	96.19
337.51	78.19
337.738	85.19
337.966	91.19
338.194	83.19
338.422	77.19
338.65	81.19
338.878	80.19
339.106	77.19
339.334	89.19
339.562	81.19
339.79	85.19
340.018	80.19
340.246	84.19
340.474	90.19
340.702	78.19
340.93	79.19
341.158	76.19
341.386	85.19
341.614	83.19
341.842	80.19
342.07	87.19
342.298	86.19
342.526	90.19
342.754	82.19
342.981	83.19
343.209	79.19
343.437	82.19
343.665	60.19
343.893	77.19
344.12	82.19
344.348	93.19
344.576	95.19
344.804	90.19
345.031	79.19
345.259	87.19
345.487	87.19
345.714	74.19
345.942	87.19
346.17	83.19
346.397	81.19
346.625	82.19
346.853	78.19
347.08	68.19
347.308	82.19
347.535	81.19
347.763	63.19
347.99	93.19
348.218	80.19
348.445	79.19
348.673	84.19
348.9	91.19
349.128	97.19
349.355	81.19
349.583	88.19
349.81	77.19
350.037	80.19
350.265	77.19
350.492	75.19
350.72	83.19
350.947	101.19
351.174	82.19
351.402	95.19
351.629	75.19
351.856	73.19
352.083	83.19
352.311	84.19
352.538	63.19
352.765	83.19
352.992	78.19
353.22	91.19
353.447	73.19
353.674	73.19
353.901	73.19
354.128	88.19
354.355	79.19
354.583	82.19
354.81	83.19
355.037	91.19
355.264	77.19
355.491	78.19
355.718	83.19
355.945	95.19
356.172	87.19
356.399	88.19
356.626	89.19
356.853	80.19
357.08	85.19
357.307	85.19
357.534	80.19
357.761	85.19
357.988	81.19
358.215	92.19
358.441	75.19
358.668	74.19
358.895	82.19
359.122	75.19
359.349	73.19
359.576	73.19
359.802	63.19
360.029	82.19
360.256	81.19
360.483	87.19
360.709	81.19
360.936	87.19
361.163	71.19
361.39	91.19
361.616	65.19
361.843	98.19
362.07	88.19
362.296	85.19
362.523	92.19
362.749	80.19
362.976	89.19
363.203	95.19
363.429	77.19
363.656	85.19
363.882	87.19
364.109	92.19
364.335	75.19
364.562	90.19
364.788	87.19
365.015	73.19
365.241	81.19
365.468	88.19
365.694	81.19
365.92	66.19
366.147	75.19
366.373	73.19
366.599	96.19
366.826	94.19
367.052	98.19
367.278	85.19
367.505	73.19
367.731	73.19
367.957	65.19
368.184	80.19
368.41	76.19
368.636	81.19
368.862	65.19
369.089	87.19
369.315	82.19
369.541	85.19
369.767	76.19
369.993	82.19
370.219	80.19
370.445	93.19
370.672	89.19
370.898	90.19
371.124	81.19
371.35	81.19
371.576	82.19
371.802	84.19
372.028	84.19
372.254	86.19
372.48	90.19
372.706	80.19
372.932	91.19
373.158	97.19
373.384	74.19
373.61	95.19
373.835	81.19
374.061	79.19
374.287	89.19
374.513	77.19
374.739	88.19
374.965	82.19
375.191	83.19
375.416	89.19
375.642	84.19
375.868	93.19
376.094	67.19
376.319	82.19
376.545	77.19
376.771	73.19
376.997	78.19
377.222	72.19
377.448	89.19
377.674	77.19
377.899	80.19
378.125	67.19
378.35	83.19
378.576	89.19
378.802	80.19
379.027	73.19
379.253	80.19
379.478	80.19
379.704	83.19
379.929	73.19
380.155	79.19
380.38	100.19
380.606	75.19
380.831	84.19
381.057	86.19
381.282	88.19
381.507	79.19
381.733	77.19
381.958	75.19
382.184	85.19
382.409	70.19
382.634	76.19
382.86	70.19
383.085	81.19
383.31	73.19
383.535	93.19
383.761	84.19
383.986	86.19
384.211	93.19
384.436	90.19
384.662	93.19
384.887	89.19
385.112	79.19
385.337	86.19
385.562	87.19
385.787	72.19
386.013	89.19
386.238	74.19
386.463	68.19
386.688	101.19
386.913	89.19
387.138	85.19
387.363	95.19
387.588	94.19
387.813	90.19
388.038	86.19
388.263	97.19
388.488	86.19
388.713	79.19
388.938	91.19
389.163	77.19
389.387	85.19
389.612	81.19
389.837	77.19
390.062	89.19
390.287	99.19
390.512	79.19
390.736	84.19
390.961	93.19
391.186	90.19
391.411	90.19
391.636	81.19
391.86	75.19
392.085	80.19
392.31	75.19
392.534	94.19
392.759	88.19
392.984	90.19
393.208	84.19
393.433	88.19
393.658	87.19
393.882	81.19
394.107	81.19
394.331	92.19
394.556	79.19
394.78	102.19
395.005	77.19
395.229	90.19
395.454	100.19
395.678	75.19
395.903	95.19
396.127	87.19
396.352	86.19
396.576	82.19
396.801	86.19
397.025	71.19
397.249	79.19
397.474	72.19
397.698	79.19
397.922	96.19
398.147	82.19
398.371	99.19
398.595	93.19
398.82	85.19
399.044	80.19
399.268	88.19
399.492	82.19
399.717	100.19
399.941	84.19
400.165	75.19
400.389	82.19
400.613	89.19
400.837	80.19
401.062	90.19
401.286	92.19
401.51	76.19
401.734	82.19
401.958	81.19
402.182	73.19
402.406	90.19
402.63	79.19
402.854	83.19
403.078	82.19
403.302	74.19
403.526	103.19
403.75	80.19
403.974	92.19
404.198	85.19
404.422	85.19
404.645	101.19
404.869	101.19
405.093	87.19
405.317	87.19
405.541	97.19
405.765	77.19
405.988	95.19
406.212	93.19
406.436	81.19
406.66	84.19
406.883	82.19
407.107	85.19
407.331	92.19
407.555	91.19
407.778	86.19
408.002	88.19
408.226	78.19
408.449	77.19
408.673	74.19
408.896	85.19
409.12	100.19
409.344	91.19
409.567	87.19
409.791	78.19
410.014	88.19
410.238	87.19
410.461	81.19
410.685	89.19
410.908	70.19
411.132	85.19
411.355	81.19
411.578	104.19
411.802	86.19
412.025	82.19
412.249	80.19
412.472	78.19
412.695	97.19
412.919	83.19
413.142	93.19
413.365	81.19
413.589	85.19
413.812	89.19
414.035	94.19
414.258	77.19
414.482	98.19
414.705	88.19
414.928	87.19
415.151	83.19
415.374	86.19
415.597	87.19
415.821	82.19
416.044	102.19
416.267	88.19
416.49	87.19
416.713	92.19
416.936	89.19
417.159	90.19
417.382	98.19
417.605	87.19
417.828	91.19
418.051	94.19
418.274	91.19
418.497	93.19
418.72	92.19
418.943	90.19
419.166	92.19
419.389	89.19
419.611	96.19
419.834	87.19
420.057	88.19
420.28	85.19
420.503	86.19
420.726	91.19
420.948	85.19
421.171	92.19
421.394	80.19
421.617	88.19
421.839	90.19
422.062	99.19
422.285	105.19
422.507	101.19
422.73	87.19
422.953	94.19
423.175	79.19
423.398	101.19
423.621	94.19
423.843	85.19
424.066	102.19
424.288	103.19
424.511	100.19
424.733	87.19
424.956	81.19
425.178	92.19
425.401	93.19
425.623	95.19
425.846	92.19
426.068	96.19
426.291	98.19
426.513	89.19
426.735	87.19
426.958	91.19
427.18	93.19
427.402	87.19
427.625	87.19
427.847	86.19
428.069	87.19
428.292	84.19
428.514	106.19
428.736	107.19
428.958	93.19
429.181	112.19
429.403	93.19
429.625	90.19
429.847	79.19
430.069	78.19
430.292	85.19
430.514	95.19
430.736	77.19
430.958	96.19
431.18	77.19
431.402	91.19
431.624	94.19
431.846	94.19
432.068	67.19
432.29	87.19
432.512	90.19
432.734	102.19
432.956	100.19
433.178	101.19
433.4	82.19
433.622	90.19
433.844	93.19
434.066	91.19
434.287	92.19
434.509	88.19
434.731	76.19
434.953	91.19
435.175	78.19
435.397	96.19
435.618	88.19
435.84	89.19
436.062	85.19
436.284	98.19
436.505	91.19
436.727	100.19
436.949	99.19
437.17	92.19
437.392	78.19
437.614	98.19
437.835	89.19
438.057	80.19
438.278	105.19
438.5	81.19
438.721	90.19
438.943	86.19
439.165	99.19
439.386	103.19
439.608	109.19
439.829	89.19
440.05	92.19
440.272	92.19
440.493	98.19
440.715	82.19
440.936	83.19
441.158	88.19
441.379	91.19
441.6	92.19
441.822	104.19
442.043	97.19
442.264	104.19
442.486	93.19
442.707	82.19
442.928	108.19
443.149	88.19
443.371	98.19
443.592	97.19
443.813	97.19
444.034	103.19
444.255	95.19
444.476	94.19
444.698	101.19
444.919	90.19
445.14	231.19
445.361	148.19
445.582	104.19
445.803	104.19
446.024	106.19
446.245	94.19
446.466	104.19
446.687	88.19
446.908	80.19
447.129	102.19
447.35	80.19
447.571	113.19
447.792	101.19
448.013	88.19
448.234	105.19
448.455	104.19
448.675	87.19
448.896	89.19
449.117	93.19
449.338	84.19
449.559	98.19
449.779	98.19
450	80.19
450.221	78.19
450.442	96.19
450.662	97.19
450.883	100.19
451.104	86.19
451.324	96.19
451.545	88.19
451.766	99.19
451.986	93.19
452.207	92.19
452.428	89.19
452.648	94.19
452.869	86.19
453.089	78.19
453.31	90.19
453.53	76.19
453.751	89.19
453.971	72.19
454.192	97.19
454.412	87.19
454.633	95.19
454.853	87.19
455.073	83.19
455.294	99.19
455.514	83.19
455.734	88.19
455.955	91.19
456.175	75.19
456.395	85.19
456.616	89.19
456.836	96.19
457.056	96.19
457.276	86.19
457.497	82.19
457.717	83.19
457.937	85.19
458.157	92.19
458.377	79.19
458.598	73.19
458.818	86.19
459.038	98.19
459.258	94.19
459.478	77.19
459.698	90.19
459.918	99.19
460.138	85.19
460.358	87.19
460.578	91.19
460.798	91.19
461.018	101.19
461.238	89.19
461.458	78.19
461.678	93.19
461.898	80.19
462.118	87.19
462.338	85.19
462.558	86.19
462.777	81.19
462.997	79.19
463.217	75.19
463.437	84.19
463.657	78.19
463.876	103.19
464.096	96.19
464.316	84.19
464.536	90.19
464.755	98.19
464.975	88.19
465.195	83.19
465.414	83.19
465.634	85.19
465.854	89.19
466.073	90.19
466.293	91.19
466.512	86.19
466.732	78.19
466.951	91.19
467.171	91.19
467.391	93.19
467.61	97.19
467.829	82.19
468.049	89.19
468.268	97.19
468.488	86.19
468.707	98.19
468.927	90.19
469.146	94.19
469.365	114.19
469.585	95.19
469.804	93.19
470.023	96.19
470.243	96.19
470.462	91.19
470.681	91.19
470.901	94.19
471.12	89.19
471.339	93.19
471.558	99.19
471.777	93.19
471.997	86.19
472.216	94.19
472.435	104.19
472.654	85.19
472.873	94.19
473.092	84.19
473.311	91.19
473.53	96.19
473.749	104.19
473.968	102.19
474.187	102.19
474.406	98.19
474.625	94.19
474.844	96.19
475.063	101.19
475.282	79.19
475.501	89.19
475.72	91.19
475.939	96.19
476.158	88.19
476.377	99.19
476.596	86.19
476.814	93.19
477.033	85.19
477.252	91.19
477.471	94.19
477.69	82.19
477.908	92.19
478.127	106.19
478.346	111.19
478.564	100.19
478.783	111.19
479.002	91.19
479.22	100.19
479.439	90.19
479.658	94.19
479.876	96.19
480.095	80.19
480.313	87.19
480.532	89.19
480.751	96.19
480.969	72.19
481.188	78.19
481.406	96.19
481.624	72.19
481.843	83.19
482.061	89.19
482.28	82.19
482.498	88.19
482.717	84.19
482.935	82.19
483.153	104.19
483.372	107.19
483.59	101.19
483.808	96.19
484.027	93.19
484.245	85.19
484.463	85.19
484.681	102.19
484.9	85.19
485.118	102.19
485.336	75.19
485.554	87.19
485.772	78.19
485.99	75.19
486.209	87.19
486.427	93.19
486.645	86.19
486.863	86.19
487.081	91.19
487.299	99.19
487.517	92.19
487.735	101.19
487.953	99.19
488.171	85.19
488.389	103.19
488.607	111.19
488.825	101.19
489.043	98.19
489.261	98.19
489.479	113.19
489.696	109.19
489.914	99.19
490.132	88.19
490.35	98.19
490.568	106.19
490.786	102.19
491.003	114.19
491.221	108.19
491.439	113.19
491.657	120.19
491.874	134.19
492.092	115.19
492.31	121.19
492.527	115.19
492.745	103.19
492.963	109.19
493.18	105.19
493.398	107.19
493.615	102.19
493.833	111.19
494.05	96.19
494.268	105.19
494.485	101.19
494.703	113.19
494.92	114.19
495.138	100.19
495.355	97.19
495.573	117.19
495.79	122.19
496.008	114.19
496.225	102.19
496.442	93.19
496.66	119.19
496.877	110.19
497.094	103.19
497.312	101.19
497.529	93.19
497.746	89.19
497.963	94.19
498.181	105.19
498.398	99.19
498.615	93.19
498.832	94.19
499.049	89.19
499.267	95.19
499.484	82.19
499.701	84.19
499.918	82.19
500.135	82.19
500.352	102.19
500.569	90.19
500.786	109.19
501.003	97.19
501.22	111.19
501.437	78.19
501.654	90.19
501.871	91.19
502.088	88.19
502.305	110.19
502.522	86.19
502.739	89.19
502.956	94.19
503.172	83.19
503.389	84.19
503.606	103.19
503.823	92.19
504.04	89.19
504.256	87.19
504.473	93.19
504.69	82.19
504.907	90.19
505.123	96.19
505.34	97.19
505.557	94.19
505.773	84.19
505.99	81.19
506.207	92.19
506.423	91.19
506.64	90.19
506.856	97.19
507.073	79.19
507.289	90.19
507.506	79.19
507.722	78.19
507.939	81.19
508.155	83.19
508.372	94.19
508.588	79.19
508.805	82.19
509.021	84.19
509.238	92.19
509.454	83.19
509.67	87.19
509.887	87.19
510.103	85.19
510.319	87.19
510.536	89.19
510.752	84.19
510.968	86.19
511.184	84.19
511.401	68.19
511.617	78.19
511.833	80.19
512.049	82.19
512.265	70.19
512.481	89.19
512.698	84.19
512.914	66.19
513.13	80.19
513.346	69.19
513.562	90.19
513.778	88.19
513.994	91.19
514.21	82.19
514.426	77.19
514.642	85.19
514.858	84.19
515.074	86.19
515.29	78.19
515.506	94.19
515.721	82.19
515.937	81.19
516.153	79.19
516.369	72.19
516.585	84.19
516.801	94.19
517.016	89.19
517.232	81.19
517.448	77.19
517.664	80.19
517.879	90.19
518.095	95.19
