Data from Location4.07152019.Energy5.Lamp.07192019.3%Agarose_HRD10591_15-23-26-576.txt Node
Date: Fri Jul 19 15:23:26 EDT 2019
User: cochatt
Spectrometer: HR+D1059
Trigger mode: 1
Integration Time (sec): 1.000000E-1
Scans to average: 1
Electric dark correction enabled: true
Nonlinearity correction enabled: false
Boxcar width: 0
XAxis mode: Wavelengths
Number of Pixels in Spectrum: 2048
>>>>>Begin Spectral Data<<<<<
223.165	-15.38
223.4	-15.38
223.635	-15.38
223.869	-15.38
224.104	-17.38
224.338	2.62
224.573	-21.38
224.808	-14.38
225.042	-2.38
225.277	6.62
225.511	-12.38
225.746	4.62
225.98	7.62
226.215	7.62
226.449	12.62
226.683	18.62
226.918	21.62
227.152	16.62
227.387	24.62
227.621	31.62
227.856	40.62
228.09	37.62
228.324	47.62
228.559	58.62
228.793	56.62
229.027	58.62
229.262	74.62
229.496	76.62
229.73	58.62
229.964	59.62
230.199	81.62
230.433	75.62
230.667	84.62
230.901	78.62
231.136	89.62
231.37	87.62
231.604	78.62
231.838	86.62
232.072	74.62
232.306	76.62
232.541	82.62
232.775	82.62
233.009	96.62
233.243	89.62
233.477	78.62
233.711	81.62
233.945	101.62
234.179	85.62
234.413	74.62
234.647	60.62
234.881	73.62
235.115	83.62
235.349	78.62
235.583	94.62
235.817	70.62
236.051	91.62
236.285	88.62
236.519	94.62
236.753	80.62
236.987	69.62
237.221	87.62
237.455	86.62
237.689	82.62
237.922	71.62
238.156	83.62
238.39	69.62
238.624	73.62
238.858	75.62
239.091	79.62
239.325	78.62
239.559	70.62
239.793	57.62
240.027	80.62
240.26	77.62
240.494	75.62
240.728	81.62
240.961	76.62
241.195	84.62
241.429	72.62
241.662	70.62
241.896	72.62
242.13	71.62
242.363	80.62
242.597	68.62
242.83	78.62
243.064	85.62
243.298	83.62
243.531	83.62
243.765	74.62
243.998	70.62
244.232	79.62
244.465	81.62
244.699	71.62
244.932	78.62
245.166	79.62
245.399	83.62
245.633	84.62
245.866	75.62
246.099	85.62
246.333	58.62
246.566	64.62
246.8	88.62
247.033	59.62
247.266	62.62
247.5	79.62
247.733	59.62
247.966	69.62
248.2	81.62
248.433	77.62
248.666	81.62
248.899	86.62
249.133	81.62
249.366	91.62
249.599	75.62
249.832	79.62
250.066	74.62
250.299	84.62
250.532	80.62
250.765	73.62
250.998	87.62
251.231	71.62
251.465	80.62
251.698	80.62
251.931	75.62
252.164	86.62
252.397	82.62
252.63	79.62
252.863	74.62
253.096	79.62
253.329	76.62
253.562	75.62
253.795	82.62
254.028	82.62
254.261	62.62
254.494	72.62
254.727	81.62
254.96	81.62
255.193	62.62
255.426	73.62
255.659	59.62
255.892	87.62
256.124	84.62
256.357	83.62
256.59	92.62
256.823	80.62
257.056	91.62
257.289	79.62
257.521	82.62
257.754	67.62
257.987	83.62
258.22	73.62
258.452	70.62
258.685	72.62
258.918	92.62
259.151	85.62
259.383	91.62
259.616	80.62
259.849	79.62
260.081	84.62
260.314	78.62
260.547	76.62
260.779	82.62
261.012	95.62
261.244	74.62
261.477	77.62
261.71	70.62
261.942	88.62
262.175	82.62
262.407	75.62
262.64	79.62
262.872	82.62
263.105	76.62
263.337	97.62
263.57	75.62
263.802	79.62
264.035	76.62
264.267	75.62
264.499	73.62
264.732	88.62
264.964	79.62
265.197	87.62
265.429	80.62
265.661	92.62
265.894	84.62
266.126	73.62
266.358	98.62
266.591	88.62
266.823	92.62
267.055	70.62
267.287	79.62
267.52	88.62
267.752	80.62
267.984	88.62
268.216	71.62
268.448	87.62
268.681	87.62
268.913	82.62
269.145	90.62
269.377	72.62
269.609	71.62
269.841	85.62
270.073	74.62
270.306	82.62
270.538	79.62
270.77	86.62
271.002	75.62
271.234	98.62
271.466	94.62
271.698	75.62
271.93	78.62
272.162	79.62
272.394	79.62
272.626	72.62
272.858	75.62
273.09	89.62
273.322	81.62
273.553	66.62
273.785	79.62
274.017	89.62
274.249	83.62
274.481	94.62
274.713	73.62
274.945	79.62
275.176	84.62
275.408	84.62
275.64	86.62
275.872	70.62
276.104	86.62
276.335	80.62
276.567	90.62
276.799	79.62
277.031	86.62
277.262	82.62
277.494	86.62
277.726	91.62
277.957	72.62
278.189	78.62
278.421	93.62
278.652	97.62
278.884	82.62
279.115	85.62
279.347	73.62
279.579	62.62
279.81	77.62
280.042	89.62
280.273	84.62
280.505	87.62
280.736	85.62
280.968	68.62
281.199	70.62
281.431	75.62
281.662	86.62
281.894	75.62
282.125	71.62
282.356	86.62
282.588	93.62
282.819	76.62
283.051	84.62
283.282	84.62
283.513	74.62
283.745	84.62
283.976	82.62
284.207	86.62
284.439	90.62
284.67	74.62
284.901	83.62
285.132	78.62
285.364	80.62
285.595	73.62
285.826	74.62
286.057	89.62
286.288	92.62
286.52	96.62
286.751	73.62
286.982	82.62
287.213	85.62
287.444	87.62
287.675	76.62
287.906	89.62
288.138	84.62
288.369	86.62
288.6	89.62
288.831	82.62
289.062	100.62
289.293	84.62
289.524	100.62
289.755	79.62
289.986	82.62
290.217	73.62
290.448	72.62
290.679	78.62
290.91	84.62
291.141	82.62
291.371	97.62
291.602	76.62
291.833	84.62
292.064	76.62
292.295	81.62
292.526	90.62
292.757	80.62
292.987	71.62
293.218	96.62
293.449	83.62
293.68	74.62
293.91	92.62
294.141	88.62
294.372	70.62
294.603	96.62
294.833	81.62
295.064	80.62
295.295	77.62
295.525	84.62
295.756	74.62
295.987	81.62
296.217	81.62
296.448	83.62
296.679	73.62
296.909	76.62
297.14	89.62
297.37	93.62
297.601	99.62
297.831	87.62
298.062	95.62
298.292	71.62
298.523	90.62
298.753	84.62
298.984	90.62
299.214	93.62
299.445	80.62
299.675	83.62
299.905	80.62
300.136	97.62
300.366	81.62
300.597	92.62
300.827	77.62
301.057	84.62
301.288	82.62
301.518	90.62
301.748	85.62
301.979	86.62
302.209	75.62
302.439	82.62
302.669	84.62
302.9	91.62
303.13	87.62
303.36	94.62
303.59	73.62
303.82	87.62
304.051	76.62
304.281	99.62
304.511	71.62
304.741	73.62
304.971	72.62
305.201	88.62
305.431	74.62
305.661	75.62
305.891	77.62
306.121	84.62
306.352	94.62
306.582	98.62
306.812	79.62
307.042	65.62
307.272	79.62
307.502	82.62
307.731	87.62
307.961	80.62
308.191	84.62
308.421	82.62
308.651	84.62
308.881	90.62
309.111	87.62
309.341	90.62
309.571	102.62
309.8	85.62
310.03	82.62
310.26	80.62
310.49	66.62
310.72	80.62
310.949	77.62
311.179	97.62
311.409	89.62
311.639	84.62
311.868	96.62
312.098	92.62
312.328	87.62
312.557	87.62
312.787	81.62
313.017	76.62
313.246	90.62
313.476	85.62
313.706	79.62
313.935	86.62
314.165	64.62
314.394	77.62
314.624	67.62
314.853	79.62
315.083	92.62
315.312	79.62
315.542	84.62
315.771	90.62
316.001	86.62
316.23	74.62
316.46	73.62
316.689	77.62
316.919	78.62
317.148	83.62
317.377	91.62
317.607	74.62
317.836	82.62
318.065	84.62
318.295	90.62
318.524	96.62
318.753	94.62
318.983	71.62
319.212	94.62
319.441	74.62
319.67	88.62
319.9	80.62
320.129	79.62
320.358	85.62
320.587	89.62
320.816	92.62
321.046	83.62
321.275	87.62
321.504	69.62
321.733	82.62
321.962	89.62
322.191	83.62
322.42	98.62
322.649	85.62
322.878	89.62
323.108	88.62
323.337	89.62
323.566	81.62
323.795	74.62
324.024	81.62
324.253	85.62
324.482	97.62
324.71	83.62
324.939	87.62
325.168	101.62
325.397	86.62
325.626	112.62
325.855	80.62
326.084	70.62
326.313	80.62
326.542	80.62
326.77	84.62
326.999	82.62
327.228	85.62
327.457	73.62
327.686	78.62
327.914	93.62
328.143	75.62
328.372	85.62
328.6	69.62
328.829	71.62
329.058	70.62
329.287	93.62
329.515	80.62
329.744	87.62
329.972	93.62
330.201	75.62
330.43	75.62
330.658	70.62
330.887	71.62
331.115	76.62
331.344	82.62
331.572	82.62
331.801	87.62
332.03	91.62
332.258	78.62
332.486	79.62
332.715	86.62
332.943	91.62
333.172	80.62
333.4	72.62
333.629	86.62
333.857	84.62
334.085	76.62
334.314	77.62
334.542	93.62
334.771	80.62
334.999	80.62
335.227	80.62
335.455	90.62
335.684	89.62
335.912	95.62
336.14	98.62
336.369	92.62
336.597	73.62
336.825	70.62
337.053	70.62
337.281	89.62
337.51	83.62
337.738	80.62
337.966	88.62
338.194	88.62
338.422	81.62
338.65	95.62
338.878	83.62
339.106	73.62
339.334	95.62
339.562	90.62
339.79	83.62
340.018	84.62
340.246	87.62
340.474	75.62
340.702	87.62
340.93	88.62
341.158	82.62
341.386	91.62
341.614	74.62
341.842	86.62
342.07	83.62
342.298	82.62
342.526	87.62
342.754	86.62
342.981	92.62
343.209	83.62
343.437	86.62
343.665	87.62
343.893	66.62
344.12	74.62
344.348	74.62
344.576	92.62
344.804	82.62
345.031	95.62
345.259	72.62
345.487	86.62
345.714	75.62
345.942	82.62
346.17	90.62
346.397	85.62
346.625	74.62
346.853	79.62
347.08	82.62
347.308	76.62
347.535	91.62
347.763	80.62
347.99	86.62
348.218	81.62
348.445	82.62
348.673	72.62
348.9	89.62
349.128	91.62
349.355	96.62
349.583	75.62
349.81	67.62
350.037	80.62
350.265	86.62
350.492	87.62
350.72	95.62
350.947	84.62
351.174	84.62
351.402	75.62
351.629	88.62
351.856	80.62
352.083	82.62
352.311	84.62
352.538	80.62
352.765	75.62
352.992	94.62
353.22	95.62
353.447	75.62
353.674	83.62
353.901	82.62
354.128	88.62
354.355	74.62
354.583	76.62
354.81	85.62
355.037	96.62
355.264	82.62
355.491	77.62
355.718	84.62
355.945	78.62
356.172	85.62
356.399	88.62
356.626	81.62
356.853	88.62
357.08	86.62
357.307	79.62
357.534	84.62
357.761	77.62
357.988	83.62
358.215	91.62
358.441	66.62
358.668	86.62
358.895	83.62
359.122	79.62
359.349	75.62
359.576	72.62
359.802	77.62
360.029	79.62
360.256	74.62
360.483	89.62
360.709	89.62
360.936	86.62
361.163	97.62
361.39	81.62
361.616	79.62
361.843	74.62
362.07	88.62
362.296	75.62
362.523	74.62
362.749	86.62
362.976	71.62
363.203	86.62
363.429	87.62
363.656	92.62
363.882	73.62
364.109	84.62
364.335	89.62
364.562	82.62
364.788	72.62
365.015	76.62
365.241	86.62
365.468	81.62
365.694	89.62
365.92	91.62
366.147	75.62
366.373	79.62
366.599	82.62
366.826	95.62
367.052	82.62
367.278	76.62
367.505	86.62
367.731	86.62
367.957	85.62
368.184	86.62
368.41	90.62
368.636	80.62
368.862	86.62
369.089	87.62
369.315	91.62
369.541	94.62
369.767	90.62
369.993	75.62
370.219	80.62
370.445	97.62
370.672	90.62
370.898	76.62
371.124	81.62
371.35	95.62
371.576	74.62
371.802	81.62
372.028	84.62
372.254	85.62
372.48	76.62
372.706	82.62
372.932	85.62
373.158	84.62
373.384	89.62
373.61	93.62
373.835	90.62
374.061	84.62
374.287	81.62
374.513	86.62
374.739	95.62
374.965	87.62
375.191	78.62
375.416	85.62
375.642	86.62
375.868	73.62
376.094	89.62
376.319	78.62
376.545	85.62
376.771	91.62
376.997	83.62
377.222	94.62
377.448	86.62
377.674	75.62
377.899	84.62
378.125	78.62
378.35	85.62
378.576	90.62
378.802	98.62
379.027	95.62
379.253	99.62
379.478	90.62
379.704	76.62
379.929	80.62
380.155	81.62
380.38	82.62
380.606	91.62
380.831	83.62
381.057	100.62
381.282	97.62
381.507	81.62
381.733	87.62
381.958	88.62
382.184	91.62
382.409	103.62
382.634	83.62
382.86	78.62
383.085	78.62
383.31	75.62
383.535	81.62
383.761	84.62
383.986	84.62
384.211	80.62
384.436	82.62
384.662	81.62
384.887	76.62
385.112	84.62
385.337	75.62
385.562	86.62
385.787	85.62
386.013	87.62
386.238	87.62
386.463	95.62
386.688	71.62
386.913	84.62
387.138	87.62
387.363	80.62
387.588	101.62
387.813	76.62
388.038	96.62
388.263	98.62
388.488	80.62
388.713	94.62
388.938	77.62
389.163	92.62
389.387	99.62
389.612	85.62
389.837	87.62
390.062	82.62
390.287	94.62
390.512	91.62
390.736	94.62
390.961	82.62
391.186	88.62
391.411	86.62
391.636	83.62
391.86	88.62
392.085	88.62
392.31	84.62
392.534	90.62
392.759	101.62
392.984	77.62
393.208	87.62
393.433	91.62
393.658	85.62
393.882	80.62
394.107	84.62
394.331	77.62
394.556	103.62
394.78	84.62
395.005	74.62
395.229	88.62
395.454	94.62
395.678	86.62
395.903	81.62
396.127	84.62
396.352	82.62
396.576	82.62
396.801	87.62
397.025	88.62
397.249	94.62
397.474	80.62
397.698	83.62
397.922	86.62
398.147	97.62
398.371	93.62
398.595	111.62
398.82	86.62
399.044	82.62
399.268	85.62
399.492	95.62
399.717	90.62
399.941	85.62
400.165	83.62
400.389	89.62
400.613	89.62
400.837	89.62
401.062	79.62
401.286	96.62
401.51	86.62
401.734	90.62
401.958	82.62
402.182	98.62
402.406	92.62
402.63	93.62
402.854	87.62
403.078	92.62
403.302	83.62
403.526	96.62
403.75	88.62
403.974	86.62
404.198	87.62
404.422	92.62
404.645	92.62
404.869	78.62
405.093	94.62
405.317	79.62
405.541	89.62
405.765	92.62
405.988	83.62
406.212	98.62
406.436	80.62
406.66	93.62
406.883	91.62
407.107	80.62
407.331	91.62
407.555	77.62
407.778	90.62
408.002	89.62
408.226	100.62
408.449	86.62
408.673	83.62
408.896	108.62
409.12	93.62
409.344	99.62
409.567	94.62
409.791	87.62
410.014	87.62
410.238	71.62
410.461	88.62
410.685	92.62
410.908	75.62
411.132	90.62
411.355	94.62
411.578	97.62
411.802	78.62
412.025	90.62
412.249	96.62
412.472	100.62
412.695	95.62
412.919	89.62
413.142	88.62
413.365	96.62
413.589	90.62
413.812	124.62
414.035	103.62
414.258	89.62
414.482	89.62
414.705	87.62
414.928	84.62
415.151	95.62
415.374	79.62
415.597	87.62
415.821	77.62
416.044	83.62
416.267	100.62
416.49	83.62
416.713	91.62
416.936	91.62
417.159	81.62
417.382	96.62
417.605	90.62
417.828	91.62
418.051	85.62
418.274	90.62
418.497	89.62
418.72	95.62
418.943	94.62
419.166	102.62
419.389	81.62
419.611	83.62
419.834	90.62
420.057	96.62
420.28	87.62
420.503	95.62
420.726	80.62
420.948	108.62
421.171	89.62
421.394	100.62
421.617	80.62
421.839	105.62
422.062	78.62
422.285	94.62
422.507	91.62
422.73	100.62
422.953	102.62
423.175	91.62
423.398	86.62
423.621	110.62
423.843	97.62
424.066	84.62
424.288	101.62
424.511	92.62
424.733	97.62
424.956	104.62
425.178	84.62
425.401	88.62
425.623	90.62
425.846	90.62
426.068	90.62
426.291	97.62
426.513	104.62
426.735	106.62
426.958	86.62
427.18	92.62
427.402	100.62
427.625	86.62
427.847	98.62
428.069	91.62
428.292	96.62
428.514	87.62
428.736	91.62
428.958	87.62
429.181	84.62
429.403	104.62
429.625	86.62
429.847	95.62
430.069	103.62
430.292	95.62
430.514	93.62
430.736	96.62
430.958	74.62
431.18	90.62
431.402	84.62
431.624	96.62
431.846	86.62
432.068	85.62
432.29	90.62
432.512	95.62
432.734	90.62
432.956	113.62
433.178	94.62
433.4	98.62
433.622	83.62
433.844	83.62
434.066	92.62
434.287	104.62
434.509	83.62
434.731	78.62
434.953	81.62
435.175	89.62
435.397	89.62
435.618	98.62
435.84	98.62
436.062	89.62
436.284	88.62
436.505	107.62
436.727	103.62
436.949	90.62
437.17	103.62
437.392	94.62
437.614	82.62
437.835	96.62
438.057	95.62
438.278	81.62
438.5	93.62
438.721	100.62
438.943	97.62
439.165	100.62
439.386	97.62
439.608	96.62
439.829	87.62
440.05	91.62
440.272	100.62
440.493	93.62
440.715	88.62
440.936	105.62
441.158	90.62
441.379	99.62
441.6	106.62
441.822	84.62
442.043	104.62
442.264	92.62
442.486	107.62
442.707	95.62
442.928	99.62
443.149	98.62
443.371	90.62
443.592	84.62
443.813	90.62
444.034	115.62
444.255	80.62
444.476	88.62
444.698	100.62
444.919	98.62
445.14	178.62
445.361	139.62
445.582	112.62
445.803	97.62
446.024	99.62
446.245	100.62
446.466	101.62
446.687	91.62
446.908	110.62
447.129	110.62
447.35	91.62
447.571	92.62
447.792	89.62
448.013	93.62
448.234	89.62
448.455	82.62
448.675	86.62
448.896	83.62
449.117	96.62
449.338	91.62
449.559	109.62
449.779	84.62
450	91.62
450.221	90.62
450.442	91.62
450.662	90.62
450.883	95.62
451.104	104.62
451.324	96.62
451.545	92.62
451.766	111.62
451.986	87.62
452.207	90.62
452.428	85.62
452.648	86.62
452.869	91.62
453.089	92.62
453.31	97.62
453.53	84.62
453.751	76.62
453.971	91.62
454.192	86.62
454.412	88.62
454.633	90.62
454.853	108.62
455.073	84.62
455.294	89.62
455.514	89.62
455.734	99.62
455.955	90.62
456.175	86.62
456.395	87.62
456.616	89.62
456.836	82.62
457.056	89.62
457.276	83.62
457.497	84.62
457.717	92.62
457.937	101.62
458.157	75.62
458.377	92.62
458.598	87.62
458.818	79.62
459.038	76.62
459.258	73.62
459.478	78.62
459.698	92.62
459.918	93.62
460.138	84.62
460.358	86.62
460.578	91.62
460.798	89.62
461.018	87.62
461.238	88.62
461.458	77.62
461.678	88.62
461.898	87.62
462.118	79.62
462.338	81.62
462.558	95.62
462.777	98.62
462.997	82.62
463.217	91.62
463.437	97.62
463.657	86.62
463.876	88.62
464.096	84.62
464.316	85.62
464.536	86.62
464.755	87.62
464.975	94.62
465.195	84.62
465.414	102.62
465.634	87.62
465.854	77.62
466.073	97.62
466.293	98.62
466.512	95.62
466.732	91.62
466.951	100.62
467.171	104.62
467.391	94.62
467.61	96.62
467.829	111.62
468.049	96.62
468.268	82.62
468.488	90.62
468.707	103.62
468.927	93.62
469.146	91.62
469.365	94.62
469.585	92.62
469.804	104.62
470.023	87.62
470.243	94.62
470.462	107.62
470.681	88.62
470.901	99.62
471.12	95.62
471.339	101.62
471.558	86.62
471.777	100.62
471.997	94.62
472.216	96.62
472.435	82.62
472.654	71.62
472.873	88.62
473.092	91.62
473.311	106.62
473.53	90.62
473.749	98.62
473.968	90.62
474.187	85.62
474.406	96.62
474.625	96.62
474.844	98.62
475.063	106.62
475.282	89.62
475.501	106.62
475.72	92.62
475.939	89.62
476.158	95.62
476.377	93.62
476.596	102.62
476.814	96.62
477.033	83.62
477.252	75.62
477.471	83.62
477.69	79.62
477.908	112.62
478.127	103.62
478.346	89.62
478.564	99.62
478.783	89.62
479.002	110.62
479.22	83.62
479.439	105.62
479.658	119.62
479.876	86.62
480.095	74.62
480.313	81.62
480.532	88.62
480.751	93.62
480.969	85.62
481.188	102.62
481.406	86.62
481.624	88.62
481.843	94.62
482.061	97.62
482.28	93.62
482.498	100.62
482.717	89.62
482.935	90.62
483.153	92.62
483.372	108.62
483.59	95.62
483.808	112.62
484.027	91.62
484.245	104.62
484.463	106.62
484.681	94.62
484.9	103.62
485.118	103.62
485.336	89.62
485.554	92.62
485.772	85.62
485.99	84.62
486.209	88.62
486.427	96.62
486.645	95.62
486.863	99.62
487.081	101.62
487.299	84.62
487.517	99.62
487.735	103.62
487.953	86.62
488.171	102.62
488.389	108.62
488.607	119.62
488.825	106.62
489.043	100.62
489.261	86.62
489.479	101.62
489.696	95.62
489.914	105.62
490.132	104.62
490.35	110.62
490.568	97.62
490.786	107.62
491.003	106.62
491.221	114.62
491.439	96.62
491.657	102.62
491.874	111.62
492.092	116.62
492.31	125.62
492.527	126.62
492.745	124.62
492.963	115.62
493.18	106.62
493.398	108.62
493.615	95.62
493.833	94.62
494.05	90.62
494.268	99.62
494.485	99.62
494.703	104.62
494.92	117.62
495.138	117.62
495.355	116.62
495.573	101.62
495.79	105.62
496.008	124.62
496.225	96.62
496.442	120.62
496.66	95.62
496.877	116.62
497.094	126.62
497.312	111.62
497.529	107.62
497.746	101.62
497.963	90.62
498.181	98.62
498.398	89.62
498.615	98.62
498.832	85.62
499.049	79.62
499.267	91.62
499.484	98.62
499.701	99.62
499.918	116.62
500.135	96.62
500.352	86.62
500.569	94.62
500.786	96.62
501.003	97.62
501.22	98.62
501.437	96.62
501.654	98.62
501.871	97.62
502.088	102.62
502.305	98.62
502.522	94.62
502.739	92.62
502.956	113.62
503.172	86.62
503.389	92.62
503.606	106.62
503.823	94.62
504.04	88.62
504.256	79.62
504.473	86.62
504.69	101.62
504.907	88.62
505.123	91.62
505.34	80.62
505.557	84.62
505.773	98.62
505.99	96.62
506.207	89.62
506.423	96.62
506.64	82.62
506.856	98.62
507.073	87.62
507.289	107.62
507.506	98.62
507.722	95.62
507.939	86.62
508.155	90.62
508.372	103.62
508.588	94.62
508.805	95.62
509.021	87.62
509.238	81.62
509.454	86.62
509.67	95.62
509.887	92.62
510.103	75.62
510.319	85.62
510.536	89.62
510.752	76.62
510.968	75.62
511.184	79.62
511.401	87.62
511.617	70.62
511.833	93.62
512.049	98.62
512.265	85.62
512.481	89.62
512.698	83.62
512.914	92.62
513.13	82.62
513.346	95.62
513.562	78.62
513.778	86.62
513.994	86.62
514.21	82.62
514.426	83.62
514.642	100.62
514.858	96.62
515.074	83.62
515.29	72.62
515.506	92.62
515.721	74.62
515.937	99.62
516.153	83.62
516.369	76.62
516.585	89.62
516.801	82.62
517.016	98.62
517.232	97.62
517.448	94.62
517.664	83.62
