Data from Location4.07152019.Energy5.Lamp.07192019.3%Agarose_HRD10591_15-25-31-579.txt Node
Date: Fri Jul 19 15:25:31 EDT 2019
User: cochatt
Spectrometer: HR+D1059
Trigger mode: 1
Integration Time (sec): 1.000000E-1
Scans to average: 1
Electric dark correction enabled: true
Nonlinearity correction enabled: false
Boxcar width: 0
XAxis mode: Wavelengths
Number of Pixels in Spectrum: 2048
>>>>>Begin Spectral Data<<<<<
223.165	-24.5
223.4	-24.5
223.635	-24.5
223.869	-2.5
224.104	-20.5
224.338	-9.5
224.573	-21.5
224.808	-17.5
225.042	-2.5
225.277	-9.5
225.511	0.5
225.746	6.5
225.98	10.5
226.215	13.5
226.449	12.5
226.683	13.5
226.918	25.5
227.152	25.5
227.387	34.5
227.621	45.5
227.856	43.5
228.09	37.5
228.324	57.5
228.559	61.5
228.793	61.5
229.027	53.5
229.262	73.5
229.496	77.5
229.73	67.5
229.964	74.5
230.199	62.5
230.433	60.5
230.667	78.5
230.901	82.5
231.136	77.5
231.37	90.5
231.604	69.5
231.838	72.5
232.072	81.5
232.306	70.5
232.541	79.5
232.775	68.5
233.009	90.5
233.243	94.5
233.477	76.5
233.711	100.5
233.945	81.5
234.179	90.5
234.413	77.5
234.647	78.5
234.881	83.5
235.115	86.5
235.349	89.5
235.583	79.5
235.817	81.5
236.051	96.5
236.285	65.5
236.519	84.5
236.753	96.5
236.987	71.5
237.221	77.5
237.455	87.5
237.689	91.5
237.922	80.5
238.156	76.5
238.39	76.5
238.624	78.5
238.858	86.5
239.091	77.5
239.325	88.5
239.559	88.5
239.793	77.5
240.027	86.5
240.26	79.5
240.494	76.5
240.728	86.5
240.961	90.5
241.195	77.5
241.429	75.5
241.662	76.5
241.896	81.5
242.13	77.5
242.363	63.5
242.597	79.5
242.83	92.5
243.064	84.5
243.298	87.5
243.531	93.5
243.765	79.5
243.998	69.5
244.232	79.5
244.465	91.5
244.699	75.5
244.932	77.5
245.166	79.5
245.399	84.5
245.633	86.5
245.866	75.5
246.099	87.5
246.333	93.5
246.566	72.5
246.8	65.5
247.033	67.5
247.266	75.5
247.5	69.5
247.733	79.5
247.966	81.5
248.2	89.5
248.433	71.5
248.666	87.5
248.899	83.5
249.133	69.5
249.366	74.5
249.599	88.5
249.832	90.5
250.066	61.5
250.299	86.5
250.532	75.5
250.765	75.5
250.998	76.5
251.231	82.5
251.465	72.5
251.698	78.5
251.931	84.5
252.164	90.5
252.397	88.5
252.63	72.5
252.863	72.5
253.096	82.5
253.329	92.5
253.562	78.5
253.795	75.5
254.028	74.5
254.261	86.5
254.494	69.5
254.727	94.5
254.96	82.5
255.193	91.5
255.426	84.5
255.659	90.5
255.892	97.5
256.124	74.5
256.357	90.5
256.59	92.5
256.823	83.5
257.056	73.5
257.289	68.5
257.521	82.5
257.754	70.5
257.987	93.5
258.22	83.5
258.452	75.5
258.685	81.5
258.918	83.5
259.151	88.5
259.383	91.5
259.616	91.5
259.849	86.5
260.081	95.5
260.314	88.5
260.547	82.5
260.779	80.5
261.012	81.5
261.244	90.5
261.477	89.5
261.71	69.5
261.942	85.5
262.175	85.5
262.407	94.5
262.64	107.5
262.872	80.5
263.105	95.5
263.337	84.5
263.57	86.5
263.802	85.5
264.035	84.5
264.267	89.5
264.499	78.5
264.732	86.5
264.964	88.5
265.197	86.5
265.429	85.5
265.661	91.5
265.894	87.5
266.126	92.5
266.358	98.5
266.591	85.5
266.823	92.5
267.055	85.5
267.287	85.5
267.52	89.5
267.752	82.5
267.984	104.5
268.216	88.5
268.448	78.5
268.681	81.5
268.913	93.5
269.145	77.5
269.377	97.5
269.609	89.5
269.841	92.5
270.073	85.5
270.306	82.5
270.538	83.5
270.77	84.5
271.002	90.5
271.234	92.5
271.466	93.5
271.698	88.5
271.93	72.5
272.162	91.5
272.394	82.5
272.626	84.5
272.858	94.5
273.09	86.5
273.322	79.5
273.553	89.5
273.785	85.5
274.017	99.5
274.249	87.5
274.481	79.5
274.713	82.5
274.945	77.5
275.176	77.5
275.408	110.5
275.64	83.5
275.872	78.5
276.104	91.5
276.335	86.5
276.567	77.5
276.799	85.5
277.031	80.5
277.262	88.5
277.494	85.5
277.726	79.5
277.957	73.5
278.189	82.5
278.421	92.5
278.652	87.5
278.884	84.5
279.115	83.5
279.347	89.5
279.579	94.5
279.81	81.5
280.042	89.5
280.273	95.5
280.505	89.5
280.736	96.5
280.968	91.5
281.199	71.5
281.431	92.5
281.662	92.5
281.894	92.5
282.125	79.5
282.356	85.5
282.588	72.5
282.819	81.5
283.051	89.5
283.282	84.5
283.513	97.5
283.745	83.5
283.976	80.5
284.207	85.5
284.439	96.5
284.67	78.5
284.901	74.5
285.132	74.5
285.364	74.5
285.595	68.5
285.826	86.5
286.057	90.5
286.288	101.5
286.52	93.5
286.751	91.5
286.982	86.5
287.213	85.5
287.444	86.5
287.675	83.5
287.906	81.5
288.138	91.5
288.369	90.5
288.6	91.5
288.831	90.5
289.062	91.5
289.293	100.5
289.524	77.5
289.755	93.5
289.986	76.5
290.217	89.5
290.448	89.5
290.679	87.5
290.91	104.5
291.141	93.5
291.371	99.5
291.602	102.5
291.833	100.5
292.064	84.5
292.295	101.5
292.526	94.5
292.757	87.5
292.987	91.5
293.218	75.5
293.449	87.5
293.68	81.5
293.91	90.5
294.141	101.5
294.372	78.5
294.603	84.5
294.833	82.5
295.064	88.5
295.295	81.5
295.525	96.5
295.756	90.5
295.987	84.5
296.217	83.5
296.448	71.5
296.679	103.5
296.909	101.5
297.14	90.5
297.37	100.5
297.601	90.5
297.831	77.5
298.062	91.5
298.292	90.5
298.523	85.5
298.753	84.5
298.984	80.5
299.214	93.5
299.445	99.5
299.675	85.5
299.905	86.5
300.136	85.5
300.366	93.5
300.597	88.5
300.827	78.5
301.057	78.5
301.288	79.5
301.518	74.5
301.748	96.5
301.979	88.5
302.209	90.5
302.439	69.5
302.669	86.5
302.9	94.5
303.13	84.5
303.36	99.5
303.59	90.5
303.82	93.5
304.051	83.5
304.281	101.5
304.511	94.5
304.741	83.5
304.971	81.5
305.201	99.5
305.431	89.5
305.661	91.5
305.891	92.5
306.121	84.5
306.352	82.5
306.582	83.5
306.812	74.5
307.042	92.5
307.272	76.5
307.502	90.5
307.731	86.5
307.961	84.5
308.191	88.5
308.421	77.5
308.651	81.5
308.881	90.5
309.111	88.5
309.341	90.5
309.571	91.5
309.8	89.5
310.03	77.5
310.26	86.5
310.49	84.5
310.72	90.5
310.949	92.5
311.179	94.5
311.409	86.5
311.639	93.5
311.868	94.5
312.098	79.5
312.328	94.5
312.557	89.5
312.787	82.5
313.017	84.5
313.246	93.5
313.476	91.5
313.706	100.5
313.935	106.5
314.165	78.5
314.394	82.5
314.624	87.5
314.853	85.5
315.083	87.5
315.312	88.5
315.542	81.5
315.771	85.5
316.001	78.5
316.23	82.5
316.46	93.5
316.689	89.5
316.919	77.5
317.148	86.5
317.377	101.5
317.607	98.5
317.836	101.5
318.065	85.5
318.295	88.5
318.524	86.5
318.753	71.5
318.983	94.5
319.212	93.5
319.441	95.5
319.67	99.5
319.9	86.5
320.129	96.5
320.358	101.5
320.587	92.5
320.816	89.5
321.046	76.5
321.275	79.5
321.504	94.5
321.733	93.5
321.962	83.5
322.191	87.5
322.42	87.5
322.649	90.5
322.878	90.5
323.108	88.5
323.337	81.5
323.566	86.5
323.795	80.5
324.024	86.5
324.253	95.5
324.482	82.5
324.71	90.5
324.939	92.5
325.168	62.5
325.397	79.5
325.626	102.5
325.855	101.5
326.084	85.5
326.313	94.5
326.542	80.5
326.77	74.5
326.999	86.5
327.228	75.5
327.457	85.5
327.686	96.5
327.914	109.5
328.143	80.5
328.372	85.5
328.6	90.5
328.829	73.5
329.058	85.5
329.287	79.5
329.515	85.5
329.744	89.5
329.972	86.5
330.201	84.5
330.43	83.5
330.658	97.5
330.887	71.5
331.115	94.5
331.344	90.5
331.572	90.5
331.801	93.5
332.03	92.5
332.258	87.5
332.486	86.5
332.715	86.5
332.943	90.5
333.172	95.5
333.4	89.5
333.629	90.5
333.857	97.5
334.085	78.5
334.314	77.5
334.542	94.5
334.771	82.5
334.999	90.5
335.227	83.5
335.455	83.5
335.684	86.5
335.912	81.5
336.14	90.5
336.369	87.5
336.597	77.5
336.825	89.5
337.053	68.5
337.281	91.5
337.51	82.5
337.738	93.5
337.966	79.5
338.194	87.5
338.422	100.5
338.65	97.5
338.878	98.5
339.106	91.5
339.334	79.5
339.562	82.5
339.79	91.5
340.018	85.5
340.246	91.5
340.474	89.5
340.702	85.5
340.93	85.5
341.158	80.5
341.386	87.5
341.614	88.5
341.842	93.5
342.07	93.5
342.298	75.5
342.526	84.5
342.754	85.5
342.981	81.5
343.209	94.5
343.437	101.5
343.665	88.5
343.893	85.5
344.12	92.5
344.348	90.5
344.576	80.5
344.804	91.5
345.031	87.5
345.259	96.5
345.487	79.5
345.714	85.5
345.942	102.5
346.17	85.5
346.397	76.5
346.625	84.5
346.853	93.5
347.08	70.5
347.308	85.5
347.535	82.5
347.763	96.5
347.99	90.5
348.218	95.5
348.445	90.5
348.673	88.5
348.9	92.5
349.128	85.5
349.355	89.5
349.583	77.5
349.81	93.5
350.037	87.5
350.265	96.5
350.492	90.5
350.72	95.5
350.947	86.5
351.174	91.5
351.402	95.5
351.629	77.5
351.856	86.5
352.083	86.5
352.311	90.5
352.538	93.5
352.765	83.5
352.992	67.5
353.22	78.5
353.447	85.5
353.674	74.5
353.901	90.5
354.128	87.5
354.355	73.5
354.583	81.5
354.81	79.5
355.037	102.5
355.264	94.5
355.491	83.5
355.718	89.5
355.945	87.5
356.172	90.5
356.399	88.5
356.626	71.5
356.853	99.5
357.08	90.5
357.307	89.5
357.534	70.5
357.761	78.5
357.988	84.5
358.215	97.5
358.441	88.5
358.668	76.5
358.895	89.5
359.122	98.5
359.349	85.5
359.576	79.5
359.802	76.5
360.029	94.5
360.256	80.5
360.483	83.5
360.709	102.5
360.936	89.5
361.163	102.5
361.39	75.5
361.616	76.5
361.843	91.5
362.07	85.5
362.296	95.5
362.523	92.5
362.749	82.5
362.976	94.5
363.203	87.5
363.429	89.5
363.656	85.5
363.882	86.5
364.109	71.5
364.335	92.5
364.562	98.5
364.788	90.5
365.015	79.5
365.241	80.5
365.468	88.5
365.694	86.5
365.92	70.5
366.147	86.5
366.373	82.5
366.599	84.5
366.826	97.5
367.052	79.5
367.278	86.5
367.505	88.5
367.731	83.5
367.957	84.5
368.184	74.5
368.41	93.5
368.636	83.5
368.862	91.5
369.089	85.5
369.315	84.5
369.541	101.5
369.767	85.5
369.993	92.5
370.219	92.5
370.445	101.5
370.672	89.5
370.898	87.5
371.124	75.5
371.35	88.5
371.576	83.5
371.802	92.5
372.028	98.5
372.254	73.5
372.48	84.5
372.706	82.5
372.932	85.5
373.158	77.5
373.384	101.5
373.61	83.5
373.835	83.5
374.061	78.5
374.287	90.5
374.513	94.5
374.739	79.5
374.965	84.5
375.191	75.5
375.416	71.5
375.642	97.5
375.868	87.5
376.094	82.5
376.319	90.5
376.545	89.5
376.771	77.5
376.997	83.5
377.222	66.5
377.448	81.5
377.674	94.5
377.899	91.5
378.125	96.5
378.35	102.5
378.576	93.5
378.802	100.5
379.027	83.5
379.253	79.5
379.478	89.5
379.704	84.5
379.929	89.5
380.155	83.5
380.38	98.5
380.606	97.5
380.831	69.5
381.057	68.5
381.282	82.5
381.507	87.5
381.733	87.5
381.958	78.5
382.184	84.5
382.409	83.5
382.634	89.5
382.86	92.5
383.085	93.5
383.31	82.5
383.535	85.5
383.761	97.5
383.986	95.5
384.211	90.5
384.436	92.5
384.662	93.5
384.887	70.5
385.112	75.5
385.337	91.5
385.562	89.5
385.787	97.5
386.013	87.5
386.238	84.5
386.463	90.5
386.688	88.5
386.913	93.5
387.138	84.5
387.363	87.5
387.588	86.5
387.813	93.5
388.038	84.5
388.263	85.5
388.488	84.5
388.713	91.5
388.938	94.5
389.163	91.5
389.387	85.5
389.612	99.5
389.837	107.5
390.062	93.5
390.287	78.5
390.512	100.5
390.736	101.5
390.961	77.5
391.186	92.5
391.411	93.5
391.636	81.5
391.86	89.5
392.085	103.5
392.31	93.5
392.534	100.5
392.759	86.5
392.984	100.5
393.208	100.5
393.433	85.5
393.658	101.5
393.882	79.5
394.107	86.5
394.331	99.5
394.556	84.5
394.78	83.5
395.005	88.5
395.229	92.5
395.454	99.5
395.678	91.5
395.903	94.5
396.127	83.5
396.352	93.5
396.576	94.5
396.801	86.5
397.025	90.5
397.249	93.5
397.474	98.5
397.698	82.5
397.922	86.5
398.147	89.5
398.371	99.5
398.595	86.5
398.82	99.5
399.044	105.5
399.268	75.5
399.492	98.5
399.717	103.5
399.941	75.5
400.165	100.5
400.389	85.5
400.613	84.5
400.837	92.5
401.062	81.5
401.286	98.5
401.51	102.5
401.734	94.5
401.958	91.5
402.182	97.5
402.406	94.5
402.63	89.5
402.854	88.5
403.078	96.5
403.302	102.5
403.526	91.5
403.75	83.5
403.974	88.5
404.198	70.5
404.422	90.5
404.645	90.5
404.869	91.5
405.093	101.5
405.317	95.5
405.541	85.5
405.765	95.5
405.988	96.5
406.212	90.5
406.436	95.5
406.66	100.5
406.883	96.5
407.107	91.5
407.331	104.5
407.555	96.5
407.778	95.5
408.002	105.5
408.226	110.5
408.449	88.5
408.673	90.5
408.896	84.5
409.12	91.5
409.344	90.5
409.567	92.5
409.791	90.5
410.014	89.5
410.238	94.5
410.461	89.5
410.685	97.5
410.908	92.5
411.132	95.5
411.355	95.5
411.578	87.5
411.802	82.5
412.025	83.5
412.249	94.5
412.472	79.5
412.695	94.5
412.919	89.5
413.142	84.5
413.365	101.5
413.589	91.5
413.812	96.5
414.035	105.5
414.258	88.5
414.482	89.5
414.705	87.5
414.928	90.5
415.151	88.5
415.374	87.5
415.597	84.5
415.821	100.5
416.044	95.5
416.267	92.5
416.49	106.5
416.713	92.5
416.936	106.5
417.159	101.5
417.382	99.5
417.605	87.5
417.828	105.5
418.051	94.5
418.274	87.5
418.497	101.5
418.72	109.5
418.943	111.5
419.166	90.5
419.389	91.5
419.611	87.5
419.834	97.5
420.057	97.5
420.28	85.5
420.503	87.5
420.726	83.5
420.948	85.5
421.171	104.5
421.394	96.5
421.617	98.5
421.839	93.5
422.062	105.5
422.285	105.5
422.507	93.5
422.73	106.5
422.953	100.5
423.175	103.5
423.398	94.5
423.621	103.5
423.843	112.5
424.066	92.5
424.288	92.5
424.511	87.5
424.733	107.5
424.956	109.5
425.178	85.5
425.401	99.5
425.623	100.5
425.846	89.5
426.068	92.5
426.291	119.5
426.513	93.5
426.735	98.5
426.958	90.5
427.18	94.5
427.402	89.5
427.625	103.5
427.847	98.5
428.069	96.5
428.292	87.5
428.514	89.5
428.736	85.5
428.958	92.5
429.181	92.5
429.403	93.5
429.625	102.5
429.847	96.5
430.069	99.5
430.292	92.5
430.514	90.5
430.736	95.5
430.958	101.5
431.18	93.5
431.402	96.5
431.624	94.5
431.846	92.5
432.068	92.5
432.29	85.5
432.512	92.5
432.734	104.5
432.956	92.5
433.178	88.5
433.4	90.5
433.622	99.5
433.844	109.5
434.066	82.5
434.287	80.5
434.509	86.5
434.731	84.5
434.953	75.5
435.175	96.5
435.397	103.5
435.618	91.5
435.84	96.5
436.062	91.5
436.284	95.5
436.505	95.5
436.727	92.5
436.949	98.5
437.17	89.5
437.392	100.5
437.614	99.5
437.835	81.5
438.057	75.5
438.278	83.5
438.5	98.5
438.721	93.5
438.943	88.5
439.165	103.5
439.386	110.5
439.608	99.5
439.829	89.5
440.05	100.5
440.272	113.5
440.493	102.5
440.715	95.5
440.936	101.5
441.158	103.5
441.379	105.5
441.6	103.5
441.822	84.5
442.043	109.5
442.264	104.5
442.486	99.5
442.707	92.5
442.928	76.5
443.149	109.5
443.371	88.5
443.592	91.5
443.813	89.5
444.034	99.5
444.255	109.5
444.476	102.5
444.698	94.5
444.919	92.5
445.14	243.5
445.361	162.5
445.582	99.5
445.803	88.5
446.024	94.5
446.245	93.5
446.466	102.5
446.687	96.5
446.908	113.5
447.129	101.5
447.35	111.5
447.571	83.5
447.792	93.5
448.013	100.5
448.234	98.5
448.455	101.5
448.675	90.5
448.896	94.5
449.117	88.5
449.338	100.5
449.559	110.5
449.779	103.5
450	102.5
450.221	89.5
450.442	101.5
450.662	88.5
450.883	102.5
451.104	95.5
451.324	116.5
451.545	97.5
451.766	93.5
451.986	110.5
452.207	98.5
452.428	96.5
452.648	93.5
452.869	96.5
453.089	94.5
453.31	101.5
453.53	95.5
453.751	76.5
453.971	85.5
454.192	81.5
454.412	83.5
454.633	93.5
454.853	95.5
455.073	95.5
455.294	92.5
455.514	99.5
455.734	101.5
455.955	97.5
456.175	100.5
456.395	85.5
456.616	90.5
456.836	81.5
457.056	92.5
457.276	74.5
457.497	82.5
457.717	94.5
457.937	94.5
458.157	84.5
458.377	100.5
458.598	74.5
458.818	87.5
459.038	79.5
459.258	90.5
459.478	90.5
459.698	77.5
459.918	83.5
460.138	95.5
460.358	91.5
460.578	100.5
460.798	101.5
461.018	96.5
461.238	95.5
461.458	85.5
461.678	89.5
461.898	82.5
462.118	82.5
462.338	106.5
462.558	100.5
462.777	99.5
462.997	92.5
463.217	94.5
463.437	83.5
463.657	87.5
463.876	91.5
464.096	97.5
464.316	94.5
464.536	84.5
464.755	90.5
464.975	84.5
465.195	91.5
465.414	99.5
465.634	96.5
465.854	87.5
466.073	89.5
466.293	89.5
466.512	80.5
466.732	81.5
466.951	115.5
467.171	96.5
467.391	84.5
467.61	95.5
467.829	98.5
468.049	103.5
468.268	98.5
468.488	96.5
468.707	108.5
468.927	97.5
469.146	92.5
469.365	95.5
469.585	116.5
469.804	100.5
470.023	97.5
470.243	101.5
470.462	85.5
470.681	99.5
470.901	88.5
471.12	110.5
471.339	100.5
471.558	105.5
471.777	100.5
471.997	98.5
472.216	100.5
472.435	93.5
472.654	85.5
472.873	98.5
473.092	96.5
473.311	86.5
473.53	88.5
473.749	108.5
473.968	94.5
474.187	78.5
474.406	102.5
474.625	70.5
474.844	97.5
475.063	98.5
475.282	93.5
475.501	91.5
475.72	91.5
475.939	84.5
476.158	96.5
476.377	102.5
476.596	97.5
476.814	93.5
477.033	104.5
477.252	93.5
477.471	93.5
477.69	106.5
477.908	98.5
478.127	103.5
478.346	99.5
478.564	94.5
478.783	87.5
479.002	98.5
479.22	97.5
479.439	89.5
479.658	93.5
479.876	107.5
480.095	91.5
480.313	87.5
480.532	96.5
480.751	94.5
480.969	87.5
481.188	90.5
481.406	85.5
481.624	87.5
481.843	87.5
482.061	95.5
482.28	109.5
482.498	101.5
482.717	104.5
482.935	97.5
483.153	91.5
483.372	98.5
483.59	113.5
483.808	105.5
484.027	113.5
484.245	100.5
484.463	90.5
484.681	103.5
484.9	105.5
485.118	106.5
485.336	97.5
485.554	85.5
485.772	93.5
485.99	97.5
486.209	94.5
486.427	86.5
486.645	93.5
486.863	106.5
487.081	102.5
487.299	98.5
487.517	91.5
487.735	106.5
487.953	123.5
488.171	106.5
488.389	123.5
488.607	102.5
488.825	91.5
489.043	92.5
489.261	102.5
489.479	94.5
489.696	98.5
489.914	101.5
490.132	101.5
490.35	97.5
490.568	106.5
490.786	120.5
491.003	109.5
491.221	111.5
491.439	115.5
491.657	109.5
491.874	125.5
492.092	122.5
492.31	127.5
492.527	126.5
492.745	135.5
492.963	117.5
493.18	91.5
493.398	104.5
493.615	113.5
493.833	114.5
494.05	124.5
494.268	104.5
494.485	89.5
494.703	106.5
494.92	111.5
495.138	113.5
495.355	101.5
495.573	119.5
495.79	117.5
496.008	114.5
496.225	105.5
496.442	118.5
496.66	121.5
496.877	111.5
497.094	115.5
497.312	100.5
497.529	113.5
497.746	101.5
497.963	96.5
498.181	100.5
498.398	95.5
498.615	99.5
498.832	94.5
499.049	88.5
499.267	93.5
499.484	99.5
499.701	105.5
499.918	102.5
500.135	102.5
500.352	104.5
500.569	94.5
500.786	103.5
501.003	99.5
501.22	97.5
501.437	98.5
501.654	103.5
501.871	95.5
502.088	113.5
502.305	97.5
502.522	115.5
502.739	103.5
502.956	93.5
503.172	91.5
503.389	100.5
503.606	105.5
503.823	104.5
504.04	108.5
504.256	92.5
504.473	95.5
504.69	98.5
504.907	96.5
505.123	95.5
505.34	100.5
505.557	104.5
505.773	101.5
505.99	110.5
506.207	107.5
506.423	100.5
506.64	94.5
506.856	95.5
507.073	89.5
507.289	108.5
507.506	101.5
507.722	110.5
507.939	92.5
508.155	98.5
508.372	93.5
508.588	92.5
508.805	90.5
509.021	91.5
509.238	105.5
509.454	78.5
509.67	85.5
509.887	81.5
510.103	84.5
510.319	57.5
510.536	74.5
510.752	94.5
510.968	88.5
511.184	82.5
511.401	96.5
511.617	97.5
511.833	92.5
512.049	95.5
512.265	96.5
512.481	82.5
512.698	89.5
512.914	87.5
513.13	100.5
513.346	80.5
513.562	93.5
513.778	96.5
513.994	90.5
514.21	84.5
514.426	98.5
514.642	92.5
514.858	78.5
515.074	87.5
515.29	89.5
515.506	87.5
515.721	89.5
515.937	71.5
516.153	83.5
516.369	85.5
516.585	86.5
516.801	85.5
517.016	89.5
517.232	89.5
517.448	95.5
517.664	94.5
517.879	93.5
518.095	85.5
518.311	82.5
518.527	85.5
518.742	86.5
518.958	95.5
519.173	110.5
519.389	97.5
519.605	93.5
519.82	106.5
520.036	86.5
520.251	74.5
520.467	77.5
520.682	77.5
520.898	91.5
521.113	77.5
521.329	78.5
521.544	89.5
521.76	90.5
521.975	97.5
522.19	89.5
522.406	93.5
522.621	80.5
522.836	93.5
523.052	85.5
523.267	93.5
523.482	86.5
523.698	105.5
523.913	97.5
524.128	89.5
524.343	91.5
524.559	93.5
524.774	116.5
524.989	92.5
525.204	94.5
525.419	102.5
525.634	78.5
525.849	97.5
526.064	95.5
526.28	91.5
526.495	81.5
526.71	94.5
526.925	67.5
527.14	81.5
527.355	82.5
527.57	92.5
527.785	71.5
527.999	84.5
528.214	73.5
528.429	93.5
528.644	89.5
528.859	102.5
529.074	107.5
529.289	93.5
529.503	86.5
529.718	102.5
529.933	96.5
530.148	89.5
530.363	89.5
530.577	80.5
530.792	80.5
531.007	86.5
531.221	94.5
531.436	89.5
531.651	76.5
531.865	97.5
532.08	82.5
532.295	83.5
532.509	86.5
532.724	72.5
532.938	83.5
533.153	92.5
533.367	90.5
533.582	96.5
533.796	83.5
534.011	98.5
534.225	88.5
534.44	84.5
534.654	87.5
534.868	89.5
535.083	85.5
535.297	84.5
535.511	89.5
535.726	102.5
535.94	82.5
536.154	90.5
536.369	95.5
536.583	96.5
