Data from Location4.07152019.Energy5.Lamp.07192019.3%Agarose_HRD10591_15-24-03-577.txt Node
Date: Fri Jul 19 15:24:03 EDT 2019
User: cochatt
Spectrometer: HR+D1059
Trigger mode: 1
Integration Time (sec): 1.000000E-1
Scans to average: 1
Electric dark correction enabled: true
Nonlinearity correction enabled: false
Boxcar width: 0
XAxis mode: Wavelengths
Number of Pixels in Spectrum: 2048
>>>>>Begin Spectral Data<<<<<
223.165	-18.75
223.4	-18.75
223.635	-18.75
223.869	-24.75
224.104	-35.75
224.338	-16.75
224.573	-13.75
224.808	-4.75
225.042	-10.75
225.277	5.25
225.511	-0.75
225.746	13.25
225.98	4.25
226.215	15.25
226.449	16.25
226.683	19.25
226.918	27.25
227.152	25.25
227.387	34.25
227.621	34.25
227.856	33.25
228.09	36.25
228.324	46.25
228.559	49.25
228.793	54.25
229.027	68.25
229.262	68.25
229.496	61.25
229.73	72.25
229.964	77.25
230.199	69.25
230.433	61.25
230.667	75.25
230.901	49.25
231.136	70.25
231.37	75.25
231.604	76.25
231.838	74.25
232.072	72.25
232.306	63.25
232.541	77.25
232.775	64.25
233.009	79.25
233.243	92.25
233.477	63.25
233.711	83.25
233.945	77.25
234.179	85.25
234.413	87.25
234.647	85.25
234.881	63.25
235.115	68.25
235.349	81.25
235.583	80.25
235.817	77.25
236.051	79.25
236.285	66.25
236.519	82.25
236.753	78.25
236.987	68.25
237.221	72.25
237.455	70.25
237.689	67.25
237.922	75.25
238.156	74.25
238.39	70.25
238.624	83.25
238.858	61.25
239.091	68.25
239.325	68.25
239.559	61.25
239.793	83.25
240.027	85.25
240.26	84.25
240.494	74.25
240.728	71.25
240.961	62.25
241.195	84.25
241.429	68.25
241.662	73.25
241.896	76.25
242.13	62.25
242.363	79.25
242.597	75.25
242.83	76.25
243.064	71.25
243.298	79.25
243.531	76.25
243.765	88.25
243.998	84.25
244.232	88.25
244.465	76.25
244.699	59.25
244.932	74.25
245.166	64.25
245.399	69.25
245.633	66.25
245.866	91.25
246.099	85.25
246.333	71.25
246.566	79.25
246.8	71.25
247.033	68.25
247.266	74.25
247.5	66.25
247.733	79.25
247.966	70.25
248.2	74.25
248.433	77.25
248.666	85.25
248.899	59.25
249.133	78.25
249.366	87.25
249.599	79.25
249.832	69.25
250.066	72.25
250.299	85.25
250.532	79.25
250.765	73.25
250.998	81.25
251.231	86.25
251.465	96.25
251.698	88.25
251.931	74.25
252.164	69.25
252.397	72.25
252.63	78.25
252.863	78.25
253.096	86.25
253.329	76.25
253.562	77.25
253.795	69.25
254.028	70.25
254.261	79.25
254.494	77.25
254.727	84.25
254.96	78.25
255.193	71.25
255.426	63.25
255.659	76.25
255.892	75.25
256.124	78.25
256.357	67.25
256.59	70.25
256.823	72.25
257.056	83.25
257.289	83.25
257.521	70.25
257.754	67.25
257.987	71.25
258.22	66.25
258.452	59.25
258.685	77.25
258.918	81.25
259.151	77.25
259.383	85.25
259.616	94.25
259.849	90.25
260.081	80.25
260.314	79.25
260.547	78.25
260.779	71.25
261.012	62.25
261.244	71.25
261.477	76.25
261.71	73.25
261.942	90.25
262.175	74.25
262.407	83.25
262.64	94.25
262.872	81.25
263.105	59.25
263.337	75.25
263.57	74.25
263.802	77.25
264.035	68.25
264.267	83.25
264.499	69.25
264.732	86.25
264.964	71.25
265.197	89.25
265.429	66.25
265.661	83.25
265.894	65.25
266.126	79.25
266.358	76.25
266.591	64.25
266.823	71.25
267.055	70.25
267.287	90.25
267.52	83.25
267.752	69.25
267.984	70.25
268.216	81.25
268.448	58.25
268.681	80.25
268.913	70.25
269.145	80.25
269.377	69.25
269.609	74.25
269.841	81.25
270.073	84.25
270.306	75.25
270.538	76.25
270.77	87.25
271.002	79.25
271.234	83.25
271.466	81.25
271.698	81.25
271.93	65.25
272.162	91.25
272.394	71.25
272.626	79.25
272.858	82.25
273.09	76.25
273.322	80.25
273.553	79.25
273.785	77.25
274.017	61.25
274.249	82.25
274.481	87.25
274.713	90.25
274.945	75.25
275.176	68.25
275.408	85.25
275.64	88.25
275.872	74.25
276.104	67.25
276.335	81.25
276.567	81.25
276.799	80.25
277.031	80.25
277.262	82.25
277.494	72.25
277.726	70.25
277.957	67.25
278.189	72.25
278.421	84.25
278.652	96.25
278.884	76.25
279.115	74.25
279.347	71.25
279.579	90.25
279.81	77.25
280.042	91.25
280.273	72.25
280.505	90.25
280.736	78.25
280.968	84.25
281.199	80.25
281.431	75.25
281.662	77.25
281.894	62.25
282.125	69.25
282.356	88.25
282.588	91.25
282.819	100.25
283.051	78.25
283.282	88.25
283.513	69.25
283.745	77.25
283.976	77.25
284.207	82.25
284.439	75.25
284.67	83.25
284.901	55.25
285.132	91.25
285.364	82.25
285.595	66.25
285.826	75.25
286.057	74.25
286.288	86.25
286.52	88.25
286.751	102.25
286.982	78.25
287.213	79.25
287.444	80.25
287.675	89.25
287.906	81.25
288.138	78.25
288.369	62.25
288.6	83.25
288.831	83.25
289.062	81.25
289.293	83.25
289.524	81.25
289.755	91.25
289.986	81.25
290.217	95.25
290.448	73.25
290.679	99.25
290.91	85.25
291.141	81.25
291.371	86.25
291.602	81.25
291.833	81.25
292.064	72.25
292.295	81.25
292.526	72.25
292.757	82.25
292.987	73.25
293.218	81.25
293.449	77.25
293.68	81.25
293.91	76.25
294.141	89.25
294.372	75.25
294.603	78.25
294.833	79.25
295.064	83.25
295.295	81.25
295.525	75.25
295.756	83.25
295.987	71.25
296.217	70.25
296.448	67.25
296.679	81.25
296.909	89.25
297.14	77.25
297.37	80.25
297.601	81.25
297.831	87.25
298.062	85.25
298.292	90.25
298.523	77.25
298.753	91.25
298.984	80.25
299.214	80.25
299.445	86.25
299.675	85.25
299.905	87.25
300.136	78.25
300.366	81.25
300.597	89.25
300.827	76.25
301.057	78.25
301.288	77.25
301.518	75.25
301.748	82.25
301.979	70.25
302.209	83.25
302.439	83.25
302.669	81.25
302.9	84.25
303.13	85.25
303.36	89.25
303.59	88.25
303.82	81.25
304.051	91.25
304.281	81.25
304.511	94.25
304.741	73.25
304.971	84.25
305.201	80.25
305.431	65.25
305.661	84.25
305.891	78.25
306.121	77.25
306.352	90.25
306.582	90.25
306.812	91.25
307.042	80.25
307.272	75.25
307.502	86.25
307.731	70.25
307.961	82.25
308.191	71.25
308.421	81.25
308.651	75.25
308.881	83.25
309.111	75.25
309.341	67.25
309.571	73.25
309.8	74.25
310.03	81.25
310.26	79.25
310.49	81.25
310.72	74.25
310.949	65.25
311.179	82.25
311.409	84.25
311.639	76.25
311.868	89.25
312.098	82.25
312.328	90.25
312.557	62.25
312.787	71.25
313.017	85.25
313.246	78.25
313.476	75.25
313.706	77.25
313.935	62.25
314.165	84.25
314.394	88.25
314.624	94.25
314.853	91.25
315.083	77.25
315.312	70.25
315.542	77.25
315.771	83.25
316.001	69.25
316.23	64.25
316.46	79.25
316.689	78.25
316.919	74.25
317.148	78.25
317.377	75.25
317.607	85.25
317.836	78.25
318.065	76.25
318.295	85.25
318.524	85.25
318.753	83.25
318.983	80.25
319.212	88.25
319.441	75.25
319.67	77.25
319.9	83.25
320.129	93.25
320.358	86.25
320.587	77.25
320.816	85.25
321.046	88.25
321.275	86.25
321.504	56.25
321.733	85.25
321.962	98.25
322.191	87.25
322.42	77.25
322.649	78.25
322.878	92.25
323.108	79.25
323.337	63.25
323.566	87.25
323.795	85.25
324.024	76.25
324.253	89.25
324.482	89.25
324.71	80.25
324.939	81.25
325.168	79.25
325.397	76.25
325.626	73.25
325.855	77.25
326.084	83.25
326.313	87.25
326.542	80.25
326.77	88.25
326.999	77.25
327.228	96.25
327.457	69.25
327.686	74.25
327.914	75.25
328.143	87.25
328.372	93.25
328.6	76.25
328.829	84.25
329.058	81.25
329.287	76.25
329.515	68.25
329.744	81.25
329.972	71.25
330.201	78.25
330.43	74.25
330.658	84.25
330.887	79.25
331.115	69.25
331.344	72.25
331.572	81.25
331.801	77.25
332.03	74.25
332.258	77.25
332.486	86.25
332.715	83.25
332.943	97.25
333.172	69.25
333.4	87.25
333.629	79.25
333.857	86.25
334.085	66.25
334.314	84.25
334.542	81.25
334.771	88.25
334.999	84.25
335.227	70.25
335.455	76.25
335.684	65.25
335.912	70.25
336.14	74.25
336.369	75.25
336.597	70.25
336.825	78.25
337.053	83.25
337.281	70.25
337.51	84.25
337.738	71.25
337.966	81.25
338.194	89.25
338.422	61.25
338.65	69.25
338.878	68.25
339.106	90.25
339.334	91.25
339.562	68.25
339.79	77.25
340.018	93.25
340.246	78.25
340.474	74.25
340.702	83.25
340.93	83.25
341.158	67.25
341.386	85.25
341.614	83.25
341.842	82.25
342.07	82.25
342.298	69.25
342.526	71.25
342.754	71.25
342.981	74.25
343.209	70.25
343.437	66.25
343.665	69.25
343.893	89.25
344.12	88.25
344.348	73.25
344.576	75.25
344.804	81.25
345.031	87.25
345.259	73.25
345.487	83.25
345.714	76.25
345.942	68.25
346.17	86.25
346.397	79.25
346.625	88.25
346.853	81.25
347.08	76.25
347.308	81.25
347.535	85.25
347.763	78.25
347.99	67.25
348.218	82.25
348.445	84.25
348.673	84.25
348.9	57.25
349.128	85.25
349.355	81.25
349.583	55.25
349.81	80.25
350.037	72.25
350.265	78.25
350.492	72.25
350.72	75.25
350.947	71.25
351.174	84.25
351.402	75.25
351.629	75.25
351.856	79.25
352.083	64.25
352.311	78.25
352.538	82.25
352.765	78.25
352.992	77.25
353.22	83.25
353.447	85.25
353.674	79.25
353.901	85.25
354.128	83.25
354.355	83.25
354.583	82.25
354.81	74.25
355.037	84.25
355.264	66.25
355.491	73.25
355.718	71.25
355.945	89.25
356.172	81.25
356.399	83.25
356.626	70.25
356.853	62.25
357.08	96.25
357.307	78.25
357.534	78.25
357.761	86.25
357.988	81.25
358.215	79.25
358.441	86.25
358.668	70.25
358.895	88.25
359.122	59.25
359.349	82.25
359.576	68.25
359.802	86.25
360.029	76.25
360.256	75.25
360.483	80.25
360.709	69.25
360.936	88.25
361.163	78.25
361.39	77.25
361.616	67.25
361.843	67.25
362.07	75.25
362.296	67.25
362.523	66.25
362.749	70.25
362.976	77.25
363.203	77.25
363.429	81.25
363.656	83.25
363.882	80.25
364.109	81.25
364.335	83.25
364.562	81.25
364.788	68.25
365.015	78.25
365.241	77.25
365.468	84.25
365.694	74.25
365.92	71.25
366.147	70.25
366.373	83.25
366.599	71.25
366.826	85.25
367.052	70.25
367.278	69.25
367.505	76.25
367.731	84.25
367.957	76.25
368.184	79.25
368.41	93.25
368.636	75.25
368.862	90.25
369.089	77.25
369.315	64.25
369.541	67.25
369.767	67.25
369.993	73.25
370.219	76.25
370.445	68.25
370.672	73.25
370.898	82.25
371.124	73.25
371.35	77.25
371.576	82.25
371.802	81.25
372.028	72.25
372.254	66.25
372.48	75.25
372.706	77.25
372.932	71.25
373.158	87.25
373.384	70.25
373.61	79.25
373.835	79.25
374.061	77.25
374.287	73.25
374.513	80.25
374.739	77.25
374.965	87.25
375.191	77.25
375.416	79.25
375.642	90.25
375.868	81.25
376.094	68.25
376.319	79.25
376.545	81.25
376.771	81.25
376.997	83.25
377.222	82.25
377.448	91.25
377.674	86.25
377.899	76.25
378.125	82.25
378.35	88.25
378.576	69.25
378.802	77.25
379.027	83.25
379.253	85.25
379.478	73.25
379.704	92.25
379.929	92.25
380.155	98.25
380.38	83.25
380.606	81.25
380.831	94.25
381.057	97.25
381.282	80.25
381.507	77.25
381.733	77.25
381.958	81.25
382.184	71.25
382.409	74.25
382.634	71.25
382.86	61.25
383.085	73.25
383.31	66.25
383.535	81.25
383.761	82.25
383.986	80.25
384.211	82.25
384.436	90.25
384.662	86.25
384.887	86.25
385.112	77.25
385.337	76.25
385.562	60.25
385.787	73.25
386.013	93.25
386.238	82.25
386.463	89.25
386.688	84.25
386.913	85.25
387.138	76.25
387.363	74.25
387.588	86.25
387.813	70.25
388.038	73.25
388.263	81.25
388.488	70.25
388.713	92.25
388.938	82.25
389.163	80.25
389.387	77.25
389.612	93.25
389.837	70.25
390.062	82.25
390.287	78.25
390.512	89.25
390.736	91.25
390.961	87.25
391.186	89.25
391.411	81.25
391.636	66.25
391.86	67.25
392.085	83.25
392.31	89.25
392.534	80.25
392.759	80.25
392.984	87.25
393.208	89.25
393.433	73.25
393.658	84.25
393.882	77.25
394.107	75.25
394.331	76.25
394.556	74.25
394.78	77.25
395.005	85.25
395.229	74.25
395.454	81.25
395.678	79.25
395.903	81.25
396.127	80.25
396.352	68.25
396.576	79.25
396.801	92.25
397.025	76.25
397.249	77.25
397.474	84.25
397.698	81.25
397.922	86.25
398.147	78.25
398.371	88.25
398.595	65.25
398.82	73.25
399.044	79.25
399.268	81.25
399.492	94.25
399.717	93.25
399.941	82.25
400.165	70.25
400.389	80.25
400.613	90.25
400.837	76.25
401.062	95.25
401.286	85.25
401.51	84.25
401.734	74.25
401.958	71.25
402.182	80.25
402.406	73.25
402.63	73.25
402.854	90.25
403.078	86.25
403.302	69.25
403.526	74.25
403.75	77.25
403.974	79.25
404.198	87.25
404.422	85.25
404.645	79.25
404.869	78.25
405.093	73.25
405.317	73.25
405.541	77.25
405.765	94.25
405.988	74.25
406.212	76.25
406.436	83.25
406.66	93.25
406.883	86.25
407.107	77.25
407.331	91.25
407.555	80.25
407.778	94.25
408.002	82.25
408.226	94.25
408.449	84.25
408.673	80.25
408.896	81.25
409.12	92.25
409.344	75.25
409.567	85.25
409.791	82.25
410.014	81.25
410.238	73.25
410.461	89.25
410.685	85.25
410.908	86.25
411.132	84.25
411.355	106.25
411.578	80.25
411.802	86.25
412.025	82.25
412.249	81.25
412.472	83.25
412.695	78.25
412.919	91.25
413.142	101.25
413.365	79.25
413.589	82.25
413.812	89.25
414.035	84.25
414.258	77.25
414.482	87.25
414.705	82.25
414.928	83.25
415.151	94.25
415.374	85.25
415.597	65.25
415.821	77.25
416.044	77.25
416.267	80.25
416.49	89.25
416.713	90.25
416.936	90.25
417.159	89.25
417.382	89.25
417.605	92.25
417.828	87.25
418.051	74.25
418.274	87.25
418.497	92.25
418.72	94.25
418.943	88.25
419.166	86.25
419.389	84.25
419.611	88.25
419.834	94.25
420.057	97.25
420.28	96.25
420.503	104.25
420.726	95.25
420.948	86.25
421.171	92.25
421.394	83.25
421.617	98.25
421.839	98.25
422.062	82.25
422.285	87.25
422.507	91.25
422.73	91.25
422.953	96.25
423.175	87.25
423.398	85.25
423.621	86.25
423.843	92.25
424.066	99.25
424.288	83.25
424.511	101.25
424.733	89.25
424.956	83.25
425.178	99.25
425.401	74.25
425.623	87.25
425.846	87.25
426.068	80.25
426.291	86.25
426.513	64.25
426.735	101.25
426.958	91.25
427.18	86.25
427.402	85.25
427.625	84.25
427.847	97.25
428.069	109.25
428.292	96.25
428.514	84.25
428.736	90.25
428.958	88.25
429.181	88.25
429.403	90.25
429.625	86.25
429.847	93.25
430.069	83.25
430.292	84.25
430.514	92.25
430.736	86.25
430.958	96.25
431.18	97.25
431.402	94.25
431.624	77.25
431.846	80.25
432.068	65.25
432.29	77.25
432.512	85.25
432.734	90.25
432.956	84.25
433.178	93.25
433.4	86.25
433.622	94.25
433.844	88.25
434.066	68.25
434.287	100.25
434.509	90.25
434.731	77.25
434.953	90.25
435.175	76.25
435.397	79.25
435.618	91.25
435.84	76.25
436.062	85.25
436.284	84.25
436.505	95.25
436.727	76.25
436.949	93.25
437.17	100.25
437.392	96.25
437.614	82.25
437.835	89.25
438.057	78.25
438.278	85.25
438.5	87.25
438.721	90.25
438.943	88.25
439.165	93.25
439.386	80.25
439.608	87.25
439.829	92.25
440.05	89.25
440.272	99.25
440.493	80.25
440.715	90.25
440.936	94.25
441.158	99.25
441.379	91.25
441.6	101.25
441.822	90.25
442.043	86.25
442.264	89.25
442.486	81.25
442.707	87.25
442.928	87.25
443.149	76.25
443.371	69.25
443.592	74.25
443.813	71.25
444.034	75.25
444.255	107.25
444.476	95.25
444.698	102.25
444.919	90.25
445.14	225.25
445.361	132.25
445.582	96.25
445.803	93.25
446.024	107.25
446.245	90.25
446.466	102.25
446.687	82.25
446.908	94.25
447.129	102.25
447.35	102.25
447.571	94.25
447.792	101.25
448.013	92.25
448.234	92.25
448.455	85.25
448.675	96.25
448.896	79.25
449.117	80.25
449.338	100.25
449.559	87.25
449.779	89.25
450	79.25
450.221	81.25
450.442	97.25
450.662	98.25
450.883	95.25
451.104	88.25
451.324	88.25
451.545	85.25
451.766	87.25
451.986	83.25
452.207	93.25
452.428	97.25
452.648	92.25
452.869	81.25
453.089	85.25
453.31	84.25
453.53	80.25
453.751	89.25
453.971	79.25
454.192	81.25
454.412	82.25
454.633	70.25
454.853	81.25
455.073	75.25
455.294	92.25
455.514	79.25
455.734	89.25
455.955	101.25
456.175	86.25
456.395	95.25
456.616	81.25
456.836	87.25
457.056	93.25
457.276	80.25
457.497	82.25
457.717	90.25
457.937	84.25
458.157	96.25
458.377	101.25
458.598	85.25
458.818	80.25
459.038	84.25
459.258	59.25
459.478	73.25
459.698	91.25
459.918	86.25
460.138	81.25
460.358	94.25
460.578	86.25
460.798	71.25
461.018	75.25
461.238	88.25
461.458	92.25
461.678	79.25
461.898	87.25
462.118	85.25
462.338	82.25
462.558	85.25
462.777	75.25
462.997	95.25
463.217	86.25
463.437	91.25
463.657	89.25
463.876	90.25
464.096	90.25
464.316	90.25
464.536	68.25
464.755	93.25
464.975	81.25
465.195	73.25
465.414	93.25
465.634	84.25
465.854	90.25
466.073	84.25
466.293	83.25
466.512	95.25
466.732	78.25
466.951	83.25
467.171	90.25
467.391	88.25
467.61	85.25
467.829	84.25
468.049	95.25
468.268	78.25
468.488	85.25
468.707	86.25
468.927	81.25
469.146	87.25
469.365	86.25
469.585	89.25
469.804	99.25
470.023	82.25
470.243	90.25
470.462	96.25
470.681	89.25
470.901	90.25
471.12	105.25
471.339	92.25
471.558	95.25
471.777	90.25
471.997	91.25
472.216	91.25
472.435	84.25
472.654	88.25
472.873	82.25
473.092	78.25
473.311	88.25
473.53	96.25
473.749	83.25
473.968	108.25
474.187	75.25
474.406	86.25
474.625	86.25
474.844	99.25
475.063	85.25
475.282	76.25
475.501	76.25
475.72	86.25
475.939	79.25
476.158	85.25
476.377	85.25
476.596	88.25
476.814	79.25
477.033	91.25
477.252	87.25
477.471	100.25
477.69	91.25
477.908	98.25
478.127	93.25
478.346	94.25
478.564	101.25
478.783	83.25
479.002	90.25
479.22	96.25
479.439	85.25
479.658	83.25
479.876	91.25
480.095	64.25
480.313	88.25
480.532	81.25
480.751	82.25
480.969	79.25
481.188	84.25
481.406	78.25
481.624	81.25
481.843	80.25
482.061	70.25
482.28	82.25
482.498	85.25
482.717	75.25
482.935	85.25
483.153	90.25
483.372	99.25
483.59	123.25
483.808	91.25
484.027	88.25
484.245	102.25
484.463	94.25
484.681	91.25
484.9	105.25
485.118	89.25
485.336	99.25
485.554	89.25
485.772	91.25
485.99	74.25
486.209	80.25
486.427	92.25
486.645	93.25
486.863	105.25
487.081	90.25
487.299	95.25
487.517	101.25
487.735	102.25
487.953	103.25
488.171	117.25
488.389	102.25
488.607	92.25
488.825	107.25
489.043	108.25
489.261	94.25
489.479	91.25
489.696	83.25
489.914	94.25
490.132	89.25
490.35	81.25
490.568	82.25
490.786	92.25
491.003	98.25
491.221	98.25
491.439	110.25
491.657	110.25
491.874	114.25
492.092	111.25
492.31	111.25
492.527	129.25
492.745	121.25
492.963	112.25
493.18	111.25
493.398	115.25
493.615	103.25
493.833	106.25
494.05	93.25
494.268	98.25
494.485	98.25
494.703	93.25
494.92	85.25
495.138	107.25
495.355	99.25
495.573	106.25
495.79	89.25
496.008	92.25
496.225	91.25
496.442	106.25
496.66	105.25
496.877	109.25
497.094	113.25
497.312	95.25
497.529	95.25
497.746	92.25
497.963	106.25
498.181	97.25
498.398	85.25
498.615	94.25
498.832	77.25
499.049	97.25
499.267	71.25
499.484	93.25
499.701	105.25
499.918	91.25
500.135	88.25
500.352	85.25
500.569	101.25
500.786	91.25
501.003	89.25
501.22	98.25
501.437	97.25
501.654	86.25
501.871	84.25
502.088	82.25
502.305	89.25
502.522	91.25
502.739	90.25
502.956	96.25
503.172	89.25
503.389	91.25
503.606	83.25
503.823	87.25
504.04	96.25
504.256	78.25
504.473	79.25
504.69	90.25
504.907	92.25
505.123	91.25
505.34	82.25
505.557	93.25
505.773	89.25
505.99	100.25
506.207	92.25
506.423	96.25
506.64	82.25
506.856	82.25
507.073	86.25
507.289	88.25
507.506	102.25
507.722	102.25
507.939	89.25
508.155	86.25
508.372	86.25
508.588	85.25
508.805	94.25
509.021	82.25
509.238	86.25
509.454	75.25
509.67	82.25
509.887	72.25
510.103	77.25
510.319	86.25
510.536	83.25
510.752	73.25
510.968	77.25
511.184	83.25
511.401	74.25
511.617	69.25
511.833	83.25
512.049	68.25
512.265	78.25
512.481	91.25
512.698	94.25
512.914	80.25
513.13	72.25
513.346	82.25
513.562	71.25
513.778	66.25
513.994	64.25
514.21	83.25
514.426	91.25
514.642	70.25
514.858	88.25
515.074	88.25
515.29	88.25
515.506	83.25
515.721	79.25
515.937	80.25
516.153	94.25
516.369	76.25
516.585	82.25
516.801	82.25
517.016	83.25
517.232	67.25
517.448	84.25
517.664	75.25
517.879	70.25
518.095	84.25
518.311	71.25
518.527	82.25
518.742	80.25
