Data from Location4.07152019.Energy5.Lamp.07192019.3%Agarose_HRD10591_15-23-28-577.txt Node
Date: Fri Jul 19 15:23:28 EDT 2019
User: cochatt
Spectrometer: HR+D1059
Trigger mode: 1
Integration Time (sec): 1.000000E-1
Scans to average: 1
Electric dark correction enabled: true
Nonlinearity correction enabled: false
Boxcar width: 0
XAxis mode: Wavelengths
Number of Pixels in Spectrum: 2048
>>>>>Begin Spectral Data<<<<<
223.165	-17.56
223.4	-17.56
223.635	-17.56
223.869	-11.56
224.104	-12.56
224.338	-7.56
224.573	-25.56
224.808	-17.56
225.042	-15.56
225.277	-0.56
225.511	-9.56
225.746	4.44
225.98	10.44
226.215	10.44
226.449	30.44
226.683	7.44
226.918	24.44
227.152	30.44
227.387	33.44
227.621	50.44
227.856	45.44
228.09	49.44
228.324	54.44
228.559	60.44
228.793	44.44
229.027	71.44
229.262	49.44
229.496	66.44
229.73	65.44
229.964	67.44
230.199	74.44
230.433	68.44
230.667	78.44
230.901	71.44
231.136	85.44
231.37	93.44
231.604	79.44
231.838	79.44
232.072	87.44
232.306	77.44
232.541	67.44
232.775	84.44
233.009	87.44
233.243	72.44
233.477	79.44
233.711	87.44
233.945	77.44
234.179	77.44
234.413	90.44
234.647	76.44
234.881	90.44
235.115	98.44
235.349	89.44
235.583	89.44
235.817	80.44
236.051	75.44
236.285	77.44
236.519	77.44
236.753	102.44
236.987	81.44
237.221	76.44
237.455	85.44
237.689	80.44
237.922	84.44
238.156	72.44
238.39	66.44
238.624	73.44
238.858	65.44
239.091	83.44
239.325	77.44
239.559	81.44
239.793	89.44
240.027	87.44
240.26	86.44
240.494	92.44
240.728	78.44
240.961	78.44
241.195	68.44
241.429	72.44
241.662	71.44
241.896	90.44
242.13	72.44
242.363	79.44
242.597	81.44
242.83	99.44
243.064	75.44
243.298	82.44
243.531	81.44
243.765	78.44
243.998	88.44
244.232	85.44
244.465	93.44
244.699	68.44
244.932	73.44
245.166	85.44
245.399	78.44
245.633	66.44
245.866	69.44
246.099	72.44
246.333	82.44
246.566	87.44
246.8	75.44
247.033	79.44
247.266	90.44
247.5	73.44
247.733	82.44
247.966	75.44
248.2	73.44
248.433	80.44
248.666	76.44
248.899	77.44
249.133	80.44
249.366	77.44
249.599	86.44
249.832	87.44
250.066	76.44
250.299	82.44
250.532	66.44
250.765	78.44
250.998	77.44
251.231	73.44
251.465	76.44
251.698	89.44
251.931	79.44
252.164	78.44
252.397	78.44
252.63	87.44
252.863	93.44
253.096	93.44
253.329	83.44
253.562	91.44
253.795	94.44
254.028	80.44
254.261	86.44
254.494	88.44
254.727	65.44
254.96	75.44
255.193	61.44
255.426	75.44
255.659	66.44
255.892	92.44
256.124	74.44
256.357	87.44
256.59	83.44
256.823	87.44
257.056	82.44
257.289	70.44
257.521	66.44
257.754	77.44
257.987	83.44
258.22	90.44
258.452	84.44
258.685	82.44
258.918	85.44
259.151	87.44
259.383	89.44
259.616	87.44
259.849	77.44
260.081	85.44
260.314	83.44
260.547	101.44
260.779	83.44
261.012	81.44
261.244	89.44
261.477	78.44
261.71	99.44
261.942	88.44
262.175	78.44
262.407	89.44
262.64	69.44
262.872	79.44
263.105	85.44
263.337	98.44
263.57	96.44
263.802	87.44
264.035	73.44
264.267	81.44
264.499	78.44
264.732	86.44
264.964	87.44
265.197	83.44
265.429	93.44
265.661	81.44
265.894	78.44
266.126	87.44
266.358	81.44
266.591	73.44
266.823	87.44
267.055	97.44
267.287	72.44
267.52	79.44
267.752	78.44
267.984	82.44
268.216	87.44
268.448	97.44
268.681	79.44
268.913	76.44
269.145	78.44
269.377	68.44
269.609	83.44
269.841	92.44
270.073	103.44
270.306	97.44
270.538	83.44
270.77	85.44
271.002	90.44
271.234	77.44
271.466	83.44
271.698	92.44
271.93	88.44
272.162	97.44
272.394	104.44
272.626	93.44
272.858	80.44
273.09	80.44
273.322	76.44
273.553	97.44
273.785	73.44
274.017	90.44
274.249	97.44
274.481	86.44
274.713	75.44
274.945	90.44
275.176	82.44
275.408	87.44
275.64	71.44
275.872	100.44
276.104	72.44
276.335	85.44
276.567	85.44
276.799	77.44
277.031	86.44
277.262	88.44
277.494	91.44
277.726	82.44
277.957	75.44
278.189	88.44
278.421	100.44
278.652	91.44
278.884	98.44
279.115	90.44
279.347	106.44
279.579	94.44
279.81	89.44
280.042	79.44
280.273	85.44
280.505	83.44
280.736	91.44
280.968	76.44
281.199	82.44
281.431	98.44
281.662	81.44
281.894	91.44
282.125	84.44
282.356	105.44
282.588	68.44
282.819	80.44
283.051	85.44
283.282	79.44
283.513	99.44
283.745	90.44
283.976	88.44
284.207	97.44
284.439	94.44
284.67	85.44
284.901	84.44
285.132	87.44
285.364	69.44
285.595	84.44
285.826	86.44
286.057	92.44
286.288	95.44
286.52	86.44
286.751	84.44
286.982	85.44
287.213	91.44
287.444	81.44
287.675	91.44
287.906	80.44
288.138	93.44
288.369	80.44
288.6	96.44
288.831	83.44
289.062	93.44
289.293	83.44
289.524	80.44
289.755	86.44
289.986	89.44
290.217	99.44
290.448	89.44
290.679	81.44
290.91	96.44
291.141	77.44
291.371	70.44
291.602	89.44
291.833	86.44
292.064	87.44
292.295	91.44
292.526	85.44
292.757	94.44
292.987	95.44
293.218	88.44
293.449	86.44
293.68	85.44
293.91	89.44
294.141	84.44
294.372	88.44
294.603	82.44
294.833	93.44
295.064	79.44
295.295	87.44
295.525	83.44
295.756	77.44
295.987	99.44
296.217	89.44
296.448	85.44
296.679	78.44
296.909	88.44
297.14	83.44
297.37	85.44
297.601	98.44
297.831	79.44
298.062	80.44
298.292	83.44
298.523	102.44
298.753	86.44
298.984	87.44
299.214	104.44
299.445	76.44
299.675	75.44
299.905	91.44
300.136	81.44
300.366	86.44
300.597	73.44
300.827	85.44
301.057	78.44
301.288	90.44
301.518	86.44
301.748	76.44
301.979	90.44
302.209	92.44
302.439	68.44
302.669	84.44
302.9	95.44
303.13	82.44
303.36	85.44
303.59	88.44
303.82	94.44
304.051	92.44
304.281	84.44
304.511	86.44
304.741	78.44
304.971	76.44
305.201	97.44
305.431	88.44
305.661	85.44
305.891	88.44
306.121	76.44
306.352	102.44
306.582	80.44
306.812	77.44
307.042	79.44
307.272	85.44
307.502	85.44
307.731	87.44
307.961	88.44
308.191	86.44
308.421	93.44
308.651	83.44
308.881	91.44
309.111	93.44
309.341	82.44
309.571	87.44
309.8	95.44
310.03	89.44
310.26	83.44
310.49	86.44
310.72	108.44
310.949	85.44
311.179	81.44
311.409	93.44
311.639	85.44
311.868	94.44
312.098	89.44
312.328	84.44
312.557	93.44
312.787	89.44
313.017	84.44
313.246	83.44
313.476	97.44
313.706	76.44
313.935	79.44
314.165	86.44
314.394	72.44
314.624	81.44
314.853	79.44
315.083	80.44
315.312	98.44
315.542	85.44
315.771	84.44
316.001	103.44
316.23	87.44
316.46	77.44
316.689	84.44
316.919	81.44
317.148	89.44
317.377	94.44
317.607	98.44
317.836	99.44
318.065	86.44
318.295	92.44
318.524	89.44
318.753	84.44
318.983	86.44
319.212	91.44
319.441	91.44
319.67	95.44
319.9	74.44
320.129	79.44
320.358	100.44
320.587	80.44
320.816	79.44
321.046	89.44
321.275	85.44
321.504	100.44
321.733	82.44
321.962	87.44
322.191	95.44
322.42	94.44
322.649	86.44
322.878	89.44
323.108	94.44
323.337	93.44
323.566	80.44
323.795	76.44
324.024	73.44
324.253	62.44
324.482	86.44
324.71	84.44
324.939	86.44
325.168	88.44
325.397	85.44
325.626	95.44
325.855	92.44
326.084	97.44
326.313	91.44
326.542	84.44
326.77	88.44
326.999	107.44
327.228	94.44
327.457	93.44
327.686	102.44
327.914	95.44
328.143	86.44
328.372	83.44
328.6	90.44
328.829	87.44
329.058	94.44
329.287	81.44
329.515	94.44
329.744	92.44
329.972	71.44
330.201	71.44
330.43	89.44
330.658	82.44
330.887	84.44
331.115	91.44
331.344	92.44
331.572	96.44
331.801	92.44
332.03	84.44
332.258	85.44
332.486	85.44
332.715	91.44
332.943	98.44
333.172	83.44
333.4	92.44
333.629	94.44
333.857	88.44
334.085	84.44
334.314	85.44
334.542	81.44
334.771	77.44
334.999	86.44
335.227	93.44
335.455	87.44
335.684	86.44
335.912	95.44
336.14	82.44
336.369	82.44
336.597	95.44
336.825	86.44
337.053	84.44
337.281	77.44
337.51	89.44
337.738	87.44
337.966	83.44
338.194	82.44
338.422	86.44
338.65	109.44
338.878	82.44
339.106	102.44
339.334	96.44
339.562	82.44
339.79	88.44
340.018	87.44
340.246	79.44
340.474	78.44
340.702	82.44
340.93	98.44
341.158	95.44
341.386	78.44
341.614	78.44
341.842	84.44
342.07	89.44
342.298	93.44
342.526	88.44
342.754	79.44
342.981	91.44
343.209	90.44
343.437	82.44
343.665	97.44
343.893	105.44
344.12	83.44
344.348	95.44
344.576	100.44
344.804	85.44
345.031	79.44
345.259	79.44
345.487	78.44
345.714	88.44
345.942	84.44
346.17	88.44
346.397	98.44
346.625	79.44
346.853	85.44
347.08	95.44
347.308	98.44
347.535	91.44
347.763	82.44
347.99	93.44
348.218	75.44
348.445	91.44
348.673	84.44
348.9	90.44
349.128	91.44
349.355	88.44
349.583	102.44
349.81	94.44
350.037	85.44
350.265	88.44
350.492	91.44
350.72	78.44
350.947	100.44
351.174	105.44
351.402	89.44
351.629	93.44
351.856	95.44
352.083	85.44
352.311	87.44
352.538	75.44
352.765	71.44
352.992	83.44
353.22	82.44
353.447	83.44
353.674	98.44
353.901	92.44
354.128	93.44
354.355	89.44
354.583	95.44
354.81	86.44
355.037	91.44
355.264	90.44
355.491	82.44
355.718	93.44
355.945	81.44
356.172	94.44
356.399	79.44
356.626	79.44
356.853	79.44
357.08	83.44
357.307	83.44
357.534	85.44
357.761	70.44
357.988	86.44
358.215	86.44
358.441	82.44
358.668	85.44
358.895	85.44
359.122	79.44
359.349	89.44
359.576	95.44
359.802	93.44
360.029	89.44
360.256	82.44
360.483	92.44
360.709	89.44
360.936	90.44
361.163	83.44
361.39	82.44
361.616	98.44
361.843	71.44
362.07	103.44
362.296	79.44
362.523	76.44
362.749	97.44
362.976	84.44
363.203	84.44
363.429	78.44
363.656	74.44
363.882	91.44
364.109	87.44
364.335	87.44
364.562	87.44
364.788	82.44
365.015	86.44
365.241	83.44
365.468	79.44
365.694	96.44
365.92	85.44
366.147	79.44
366.373	77.44
366.599	87.44
366.826	78.44
367.052	85.44
367.278	83.44
367.505	82.44
367.731	93.44
367.957	82.44
368.184	89.44
368.41	87.44
368.636	77.44
368.862	92.44
369.089	88.44
369.315	74.44
369.541	85.44
369.767	94.44
369.993	88.44
370.219	81.44
370.445	94.44
370.672	96.44
370.898	82.44
371.124	86.44
371.35	84.44
371.576	83.44
371.802	88.44
372.028	81.44
372.254	92.44
372.48	89.44
372.706	85.44
372.932	82.44
373.158	85.44
373.384	89.44
373.61	87.44
373.835	86.44
374.061	84.44
374.287	88.44
374.513	85.44
374.739	94.44
374.965	85.44
375.191	88.44
375.416	83.44
375.642	93.44
375.868	89.44
376.094	71.44
376.319	91.44
376.545	90.44
376.771	94.44
376.997	79.44
377.222	74.44
377.448	95.44
377.674	85.44
377.899	88.44
378.125	90.44
378.35	86.44
378.576	83.44
378.802	92.44
379.027	95.44
379.253	77.44
379.478	85.44
379.704	83.44
379.929	84.44
380.155	87.44
380.38	84.44
380.606	73.44
380.831	85.44
381.057	98.44
381.282	73.44
381.507	81.44
381.733	94.44
381.958	73.44
382.184	83.44
382.409	96.44
382.634	83.44
382.86	93.44
383.085	81.44
383.31	101.44
383.535	82.44
383.761	95.44
383.986	97.44
384.211	91.44
384.436	92.44
384.662	85.44
384.887	80.44
385.112	83.44
385.337	85.44
385.562	91.44
385.787	84.44
386.013	95.44
386.238	88.44
386.463	82.44
386.688	100.44
386.913	79.44
387.138	108.44
387.363	84.44
387.588	101.44
387.813	84.44
388.038	91.44
388.263	105.44
388.488	84.44
388.713	82.44
388.938	86.44
389.163	84.44
389.387	90.44
389.612	79.44
389.837	79.44
390.062	82.44
390.287	91.44
390.512	96.44
390.736	90.44
390.961	89.44
391.186	82.44
391.411	85.44
391.636	96.44
391.86	74.44
392.085	78.44
392.31	82.44
392.534	79.44
392.759	73.44
392.984	92.44
393.208	87.44
393.433	77.44
393.658	87.44
393.882	79.44
394.107	88.44
394.331	87.44
394.556	92.44
394.78	83.44
395.005	94.44
395.229	90.44
395.454	93.44
395.678	78.44
395.903	94.44
396.127	82.44
396.352	94.44
396.576	89.44
396.801	90.44
397.025	78.44
397.249	70.44
397.474	97.44
397.698	87.44
397.922	84.44
398.147	93.44
398.371	99.44
398.595	79.44
398.82	86.44
399.044	99.44
399.268	85.44
399.492	90.44
399.717	86.44
399.941	100.44
400.165	101.44
400.389	86.44
400.613	91.44
400.837	90.44
401.062	79.44
401.286	91.44
401.51	97.44
401.734	84.44
401.958	88.44
402.182	86.44
402.406	94.44
402.63	93.44
402.854	90.44
403.078	78.44
403.302	86.44
403.526	97.44
403.75	81.44
403.974	86.44
404.198	103.44
404.422	90.44
404.645	92.44
404.869	92.44
405.093	94.44
405.317	109.44
405.541	83.44
405.765	91.44
405.988	93.44
406.212	82.44
406.436	98.44
406.66	95.44
406.883	96.44
407.107	94.44
407.331	87.44
407.555	88.44
407.778	106.44
408.002	84.44
408.226	74.44
408.449	94.44
408.673	83.44
408.896	84.44
409.12	89.44
409.344	97.44
409.567	88.44
409.791	95.44
410.014	98.44
410.238	90.44
410.461	85.44
410.685	96.44
410.908	97.44
411.132	81.44
411.355	101.44
411.578	91.44
411.802	97.44
412.025	91.44
412.249	79.44
412.472	88.44
412.695	97.44
412.919	100.44
413.142	88.44
413.365	86.44
413.589	97.44
413.812	82.44
414.035	99.44
414.258	99.44
414.482	95.44
414.705	100.44
414.928	97.44
415.151	108.44
415.374	101.44
415.597	96.44
415.821	93.44
416.044	89.44
416.267	80.44
416.49	106.44
416.713	92.44
416.936	94.44
417.159	97.44
417.382	81.44
417.605	93.44
417.828	94.44
418.051	111.44
418.274	94.44
418.497	95.44
418.72	104.44
418.943	89.44
419.166	95.44
419.389	100.44
419.611	108.44
419.834	92.44
420.057	93.44
420.28	104.44
420.503	99.44
420.726	94.44
420.948	87.44
421.171	103.44
421.394	91.44
421.617	94.44
421.839	109.44
422.062	93.44
422.285	99.44
422.507	108.44
422.73	92.44
422.953	97.44
423.175	92.44
423.398	86.44
423.621	95.44
423.843	92.44
424.066	100.44
424.288	99.44
424.511	103.44
424.733	110.44
424.956	94.44
425.178	106.44
425.401	99.44
425.623	99.44
425.846	101.44
426.068	91.44
426.291	99.44
426.513	101.44
426.735	106.44
426.958	98.44
427.18	97.44
427.402	92.44
427.625	99.44
427.847	99.44
428.069	85.44
428.292	83.44
428.514	98.44
428.736	99.44
428.958	86.44
429.181	95.44
429.403	92.44
429.625	112.44
429.847	109.44
430.069	76.44
430.292	102.44
430.514	90.44
430.736	79.44
430.958	100.44
431.18	96.44
431.402	85.44
431.624	95.44
431.846	92.44
432.068	79.44
432.29	88.44
432.512	95.44
432.734	94.44
432.956	106.44
433.178	116.44
433.4	102.44
433.622	101.44
433.844	91.44
434.066	101.44
434.287	94.44
434.509	98.44
434.731	90.44
434.953	99.44
435.175	92.44
435.397	100.44
435.618	92.44
435.84	105.44
436.062	115.44
436.284	101.44
436.505	105.44
436.727	105.44
436.949	109.44
437.17	92.44
437.392	89.44
437.614	83.44
437.835	72.44
438.057	87.44
438.278	88.44
438.5	94.44
438.721	84.44
438.943	92.44
439.165	89.44
439.386	76.44
439.608	95.44
439.829	102.44
440.05	101.44
440.272	101.44
440.493	93.44
440.715	103.44
440.936	83.44
441.158	86.44
441.379	96.44
441.6	103.44
441.822	109.44
442.043	94.44
442.264	99.44
442.486	102.44
442.707	89.44
442.928	92.44
443.149	106.44
443.371	102.44
443.592	95.44
443.813	106.44
444.034	105.44
444.255	104.44
444.476	93.44
444.698	106.44
444.919	97.44
445.14	193.44
445.361	135.44
445.582	108.44
445.803	92.44
446.024	92.44
446.245	104.44
446.466	113.44
446.687	98.44
446.908	107.44
447.129	117.44
447.35	81.44
447.571	100.44
447.792	104.44
448.013	93.44
448.234	102.44
448.455	90.44
448.675	84.44
448.896	93.44
449.117	101.44
449.338	86.44
449.559	95.44
449.779	90.44
450	91.44
450.221	107.44
450.442	104.44
450.662	96.44
450.883	94.44
451.104	82.44
451.324	99.44
451.545	91.44
451.766	93.44
451.986	105.44
452.207	92.44
452.428	85.44
452.648	108.44
452.869	111.44
453.089	88.44
453.31	96.44
453.53	105.44
453.751	95.44
453.971	90.44
454.192	86.44
454.412	89.44
454.633	92.44
454.853	98.44
455.073	89.44
455.294	84.44
455.514	86.44
455.734	94.44
455.955	81.44
456.175	97.44
456.395	93.44
456.616	88.44
456.836	102.44
457.056	89.44
457.276	100.44
457.497	94.44
457.717	96.44
457.937	98.44
458.157	92.44
458.377	69.44
458.598	80.44
458.818	81.44
459.038	95.44
459.258	87.44
459.478	82.44
459.698	89.44
459.918	83.44
460.138	86.44
460.358	84.44
460.578	86.44
460.798	90.44
461.018	83.44
461.238	102.44
461.458	86.44
461.678	83.44
461.898	91.44
462.118	99.44
462.338	94.44
462.558	85.44
462.777	77.44
462.997	93.44
463.217	76.44
463.437	95.44
463.657	81.44
463.876	94.44
464.096	81.44
464.316	97.44
464.536	82.44
464.755	96.44
464.975	88.44
465.195	96.44
465.414	89.44
465.634	94.44
465.854	111.44
466.073	96.44
466.293	95.44
466.512	87.44
466.732	82.44
466.951	83.44
467.171	97.44
467.391	104.44
467.61	100.44
467.829	100.44
468.049	89.44
468.268	101.44
468.488	101.44
468.707	91.44
468.927	104.44
469.146	90.44
469.365	82.44
469.585	110.44
469.804	94.44
470.023	100.44
470.243	89.44
470.462	101.44
470.681	100.44
470.901	119.44
471.12	97.44
471.339	103.44
471.558	97.44
471.777	97.44
471.997	92.44
472.216	88.44
472.435	90.44
472.654	86.44
472.873	99.44
473.092	98.44
473.311	94.44
473.53	90.44
473.749	97.44
473.968	92.44
474.187	84.44
474.406	81.44
474.625	91.44
474.844	100.44
475.063	91.44
475.282	92.44
475.501	91.44
475.72	83.44
475.939	93.44
476.158	97.44
476.377	92.44
476.596	94.44
476.814	100.44
477.033	75.44
477.252	95.44
477.471	94.44
477.69	93.44
477.908	92.44
478.127	107.44
478.346	96.44
478.564	108.44
478.783	86.44
479.002	100.44
479.22	95.44
479.439	110.44
479.658	97.44
479.876	81.44
480.095	90.44
480.313	94.44
480.532	84.44
480.751	91.44
480.969	105.44
481.188	79.44
481.406	86.44
481.624	91.44
481.843	81.44
482.061	96.44
482.28	89.44
482.498	95.44
482.717	78.44
482.935	101.44
483.153	100.44
483.372	98.44
483.59	94.44
483.808	97.44
484.027	94.44
484.245	89.44
484.463	94.44
484.681	103.44
484.9	97.44
485.118	108.44
485.336	100.44
485.554	87.44
485.772	100.44
485.99	85.44
486.209	93.44
486.427	107.44
486.645	100.44
486.863	91.44
487.081	98.44
487.299	99.44
487.517	93.44
487.735	117.44
487.953	122.44
488.171	106.44
488.389	105.44
488.607	92.44
488.825	108.44
489.043	92.44
489.261	92.44
489.479	97.44
489.696	99.44
489.914	96.44
490.132	101.44
490.35	107.44
490.568	116.44
490.786	100.44
491.003	98.44
491.221	110.44
491.439	110.44
491.657	113.44
491.874	121.44
492.092	131.44
492.31	129.44
492.527	132.44
492.745	125.44
492.963	121.44
493.18	98.44
493.398	112.44
493.615	119.44
493.833	111.44
494.05	119.44
494.268	121.44
494.485	123.44
494.703	126.44
494.92	109.44
495.138	117.44
495.355	101.44
495.573	98.44
495.79	99.44
496.008	118.44
496.225	125.44
496.442	126.44
496.66	113.44
496.877	107.44
497.094	100.44
497.312	125.44
497.529	108.44
497.746	106.44
497.963	94.44
498.181	97.44
498.398	86.44
498.615	95.44
498.832	88.44
499.049	83.44
499.267	91.44
499.484	97.44
499.701	93.44
499.918	101.44
500.135	107.44
500.352	85.44
500.569	83.44
500.786	102.44
501.003	107.44
501.22	104.44
501.437	105.44
501.654	106.44
501.871	78.44
502.088	81.44
502.305	95.44
502.522	107.44
502.739	100.44
502.956	95.44
503.172	83.44
503.389	101.44
503.606	96.44
503.823	91.44
504.04	102.44
504.256	91.44
504.473	100.44
504.69	88.44
504.907	84.44
505.123	117.44
505.34	88.44
505.557	93.44
505.773	92.44
505.99	101.44
506.207	94.44
506.423	89.44
506.64	99.44
506.856	89.44
507.073	105.44
507.289	91.44
507.506	82.44
507.722	98.44
507.939	96.44
508.155	82.44
508.372	84.44
508.588	85.44
508.805	104.44
509.021	102.44
509.238	94.44
509.454	92.44
509.67	94.44
509.887	87.44
510.103	85.44
510.319	94.44
510.536	79.44
510.752	89.44
510.968	68.44
511.184	92.44
511.401	81.44
511.617	84.44
511.833	91.44
512.049	80.44
512.265	79.44
512.481	85.44
512.698	92.44
512.914	83.44
513.13	86.44
513.346	74.44
513.562	90.44
513.778	86.44
513.994	89.44
514.21	92.44
514.426	89.44
514.642	87.44
514.858	86.44
515.074	95.44
515.29	71.44
515.506	83.44
515.721	88.44
515.937	77.44
516.153	76.44
516.369	76.44
516.585	98.44
516.801	85.44
