Data from Location4.07152019.Energy5.Lamp.07192019.3%Agarose_HRD10591_15-25-01-577.txt Node
Date: Fri Jul 19 15:25:01 EDT 2019
User: cochatt
Spectrometer: HR+D1059
Trigger mode: 1
Integration Time (sec): 1.000000E-1
Scans to average: 1
Electric dark correction enabled: true
Nonlinearity correction enabled: false
Boxcar width: 0
XAxis mode: Wavelengths
Number of Pixels in Spectrum: 2048
>>>>>Begin Spectral Data<<<<<
223.165	-18.12
223.4	-18.12
223.635	-18.12
223.869	-25.12
224.104	-19.12
224.338	-11.12
224.573	-1.12
224.808	-16.12
225.042	2.88
225.277	3.88
225.511	5.88
225.746	-9.12
225.98	-1.12
226.215	9.88
226.449	13.88
226.683	13.88
226.918	13.88
227.152	36.88
227.387	53.88
227.621	36.88
227.856	43.88
228.09	45.88
228.324	43.88
228.559	51.88
228.793	57.88
229.027	61.88
229.262	69.88
229.496	70.88
229.73	67.88
229.964	69.88
230.199	68.88
230.433	70.88
230.667	72.88
230.901	69.88
231.136	85.88
231.37	72.88
231.604	77.88
231.838	71.88
232.072	76.88
232.306	67.88
232.541	79.88
232.775	85.88
233.009	82.88
233.243	82.88
233.477	92.88
233.711	82.88
233.945	82.88
234.179	66.88
234.413	87.88
234.647	75.88
234.881	79.88
235.115	79.88
235.349	83.88
235.583	78.88
235.817	77.88
236.051	93.88
236.285	73.88
236.519	68.88
236.753	60.88
236.987	77.88
237.221	74.88
237.455	63.88
237.689	63.88
237.922	70.88
238.156	64.88
238.39	51.88
238.624	67.88
238.858	69.88
239.091	77.88
239.325	70.88
239.559	84.88
239.793	74.88
240.027	63.88
240.26	86.88
240.494	60.88
240.728	72.88
240.961	70.88
241.195	84.88
241.429	64.88
241.662	72.88
241.896	71.88
242.13	69.88
242.363	61.88
242.597	84.88
242.83	72.88
243.064	61.88
243.298	71.88
243.531	71.88
243.765	78.88
243.998	80.88
244.232	80.88
244.465	81.88
244.699	78.88
244.932	74.88
245.166	61.88
245.399	70.88
245.633	68.88
245.866	71.88
246.099	75.88
246.333	85.88
246.566	82.88
246.8	77.88
247.033	71.88
247.266	65.88
247.5	79.88
247.733	67.88
247.966	81.88
248.2	82.88
248.433	79.88
248.666	67.88
248.899	94.88
249.133	75.88
249.366	85.88
249.599	65.88
249.832	70.88
250.066	83.88
250.299	67.88
250.532	76.88
250.765	75.88
250.998	77.88
251.231	72.88
251.465	69.88
251.698	77.88
251.931	67.88
252.164	70.88
252.397	76.88
252.63	71.88
252.863	86.88
253.096	73.88
253.329	78.88
253.562	78.88
253.795	69.88
254.028	83.88
254.261	76.88
254.494	79.88
254.727	80.88
254.96	77.88
255.193	74.88
255.426	69.88
255.659	84.88
255.892	80.88
256.124	73.88
256.357	80.88
256.59	62.88
256.823	83.88
257.056	77.88
257.289	58.88
257.521	73.88
257.754	81.88
257.987	77.88
258.22	78.88
258.452	76.88
258.685	86.88
258.918	73.88
259.151	80.88
259.383	81.88
259.616	70.88
259.849	79.88
260.081	89.88
260.314	89.88
260.547	85.88
260.779	83.88
261.012	69.88
261.244	71.88
261.477	81.88
261.71	81.88
261.942	62.88
262.175	68.88
262.407	78.88
262.64	72.88
262.872	79.88
263.105	68.88
263.337	67.88
263.57	87.88
263.802	80.88
264.035	85.88
264.267	69.88
264.499	85.88
264.732	90.88
264.964	74.88
265.197	72.88
265.429	92.88
265.661	72.88
265.894	58.88
266.126	79.88
266.358	75.88
266.591	74.88
266.823	76.88
267.055	61.88
267.287	84.88
267.52	74.88
267.752	87.88
267.984	81.88
268.216	74.88
268.448	83.88
268.681	76.88
268.913	83.88
269.145	81.88
269.377	80.88
269.609	81.88
269.841	79.88
270.073	79.88
270.306	61.88
270.538	69.88
270.77	79.88
271.002	83.88
271.234	83.88
271.466	85.88
271.698	84.88
271.93	90.88
272.162	102.88
272.394	83.88
272.626	79.88
272.858	85.88
273.09	83.88
273.322	72.88
273.553	71.88
273.785	80.88
274.017	75.88
274.249	86.88
274.481	85.88
274.713	69.88
274.945	73.88
275.176	74.88
275.408	101.88
275.64	93.88
275.872	76.88
276.104	73.88
276.335	73.88
276.567	70.88
276.799	70.88
277.031	80.88
277.262	84.88
277.494	87.88
277.726	84.88
277.957	79.88
278.189	83.88
278.421	87.88
278.652	90.88
278.884	78.88
279.115	88.88
279.347	87.88
279.579	89.88
279.81	79.88
280.042	68.88
280.273	83.88
280.505	81.88
280.736	73.88
280.968	85.88
281.199	81.88
281.431	73.88
281.662	83.88
281.894	67.88
282.125	74.88
282.356	77.88
282.588	101.88
282.819	78.88
283.051	82.88
283.282	78.88
283.513	90.88
283.745	71.88
283.976	69.88
284.207	84.88
284.439	76.88
284.67	84.88
284.901	82.88
285.132	88.88
285.364	80.88
285.595	79.88
285.826	80.88
286.057	79.88
286.288	77.88
286.52	62.88
286.751	80.88
286.982	88.88
287.213	70.88
287.444	89.88
287.675	92.88
287.906	90.88
288.138	88.88
288.369	75.88
288.6	73.88
288.831	71.88
289.062	65.88
289.293	70.88
289.524	75.88
289.755	74.88
289.986	68.88
290.217	78.88
290.448	97.88
290.679	74.88
290.91	80.88
291.141	58.88
291.371	90.88
291.602	82.88
291.833	73.88
292.064	81.88
292.295	99.88
292.526	82.88
292.757	84.88
292.987	65.88
293.218	91.88
293.449	75.88
293.68	64.88
293.91	84.88
294.141	72.88
294.372	72.88
294.603	99.88
294.833	80.88
295.064	85.88
295.295	88.88
295.525	85.88
295.756	84.88
295.987	77.88
296.217	84.88
296.448	91.88
296.679	82.88
296.909	91.88
297.14	86.88
297.37	93.88
297.601	87.88
297.831	81.88
298.062	88.88
298.292	86.88
298.523	74.88
298.753	72.88
298.984	70.88
299.214	83.88
299.445	93.88
299.675	93.88
299.905	88.88
300.136	82.88
300.366	90.88
300.597	84.88
300.827	77.88
301.057	83.88
301.288	95.88
301.518	80.88
301.748	64.88
301.979	69.88
302.209	88.88
302.439	73.88
302.669	83.88
302.9	73.88
303.13	84.88
303.36	99.88
303.59	80.88
303.82	80.88
304.051	77.88
304.281	85.88
304.511	72.88
304.741	79.88
304.971	73.88
305.201	84.88
305.431	66.88
305.661	84.88
305.891	77.88
306.121	79.88
306.352	80.88
306.582	70.88
306.812	81.88
307.042	81.88
307.272	79.88
307.502	80.88
307.731	85.88
307.961	78.88
308.191	82.88
308.421	71.88
308.651	77.88
308.881	81.88
309.111	71.88
309.341	77.88
309.571	86.88
309.8	86.88
310.03	85.88
310.26	79.88
310.49	99.88
310.72	80.88
310.949	84.88
311.179	89.88
311.409	89.88
311.639	72.88
311.868	81.88
312.098	89.88
312.328	82.88
312.557	76.88
312.787	75.88
313.017	83.88
313.246	73.88
313.476	73.88
313.706	77.88
313.935	81.88
314.165	73.88
314.394	74.88
314.624	78.88
314.853	98.88
315.083	78.88
315.312	97.88
315.542	76.88
315.771	76.88
316.001	93.88
316.23	78.88
316.46	85.88
316.689	77.88
316.919	87.88
317.148	70.88
317.377	85.88
317.607	89.88
317.836	88.88
318.065	89.88
318.295	79.88
318.524	81.88
318.753	80.88
318.983	83.88
319.212	81.88
319.441	78.88
319.67	77.88
319.9	91.88
320.129	74.88
320.358	75.88
320.587	73.88
320.816	82.88
321.046	78.88
321.275	84.88
321.504	77.88
321.733	79.88
321.962	85.88
322.191	80.88
322.42	81.88
322.649	96.88
322.878	77.88
323.108	79.88
323.337	67.88
323.566	78.88
323.795	80.88
324.024	65.88
324.253	74.88
324.482	73.88
324.71	99.88
324.939	83.88
325.168	88.88
325.397	83.88
325.626	77.88
325.855	83.88
326.084	70.88
326.313	77.88
326.542	80.88
326.77	80.88
326.999	90.88
327.228	89.88
327.457	79.88
327.686	74.88
327.914	68.88
328.143	73.88
328.372	78.88
328.6	67.88
328.829	86.88
329.058	79.88
329.287	82.88
329.515	77.88
329.744	80.88
329.972	90.88
330.201	82.88
330.43	78.88
330.658	79.88
330.887	82.88
331.115	83.88
331.344	89.88
331.572	95.88
331.801	77.88
332.03	70.88
332.258	83.88
332.486	80.88
332.715	82.88
332.943	89.88
333.172	96.88
333.4	76.88
333.629	86.88
333.857	75.88
334.085	85.88
334.314	73.88
334.542	79.88
334.771	70.88
334.999	88.88
335.227	81.88
335.455	80.88
335.684	87.88
335.912	73.88
336.14	87.88
336.369	73.88
336.597	77.88
336.825	78.88
337.053	92.88
337.281	84.88
337.51	78.88
337.738	68.88
337.966	88.88
338.194	72.88
338.422	88.88
338.65	68.88
338.878	86.88
339.106	63.88
339.334	85.88
339.562	90.88
339.79	85.88
340.018	77.88
340.246	81.88
340.474	86.88
340.702	88.88
340.93	98.88
341.158	62.88
341.386	89.88
341.614	75.88
341.842	74.88
342.07	85.88
342.298	72.88
342.526	83.88
342.754	72.88
342.981	72.88
343.209	75.88
343.437	79.88
343.665	98.88
343.893	83.88
344.12	77.88
344.348	89.88
344.576	78.88
344.804	88.88
345.031	84.88
345.259	81.88
345.487	85.88
345.714	86.88
345.942	70.88
346.17	84.88
346.397	80.88
346.625	70.88
346.853	74.88
347.08	84.88
347.308	81.88
347.535	85.88
347.763	70.88
347.99	90.88
348.218	82.88
348.445	73.88
348.673	71.88
348.9	89.88
349.128	68.88
349.355	82.88
349.583	77.88
349.81	74.88
350.037	91.88
350.265	72.88
350.492	84.88
350.72	76.88
350.947	77.88
351.174	83.88
351.402	81.88
351.629	93.88
351.856	67.88
352.083	84.88
352.311	82.88
352.538	86.88
352.765	80.88
352.992	89.88
353.22	85.88
353.447	78.88
353.674	83.88
353.901	74.88
354.128	82.88
354.355	56.88
354.583	72.88
354.81	81.88
355.037	76.88
355.264	83.88
355.491	84.88
355.718	65.88
355.945	89.88
356.172	81.88
356.399	81.88
356.626	63.88
356.853	61.88
357.08	72.88
357.307	83.88
357.534	80.88
357.761	64.88
357.988	85.88
358.215	87.88
358.441	74.88
358.668	92.88
358.895	72.88
359.122	84.88
359.349	74.88
359.576	90.88
359.802	80.88
360.029	79.88
360.256	74.88
360.483	88.88
360.709	66.88
360.936	68.88
361.163	77.88
361.39	68.88
361.616	82.88
361.843	79.88
362.07	65.88
362.296	80.88
362.523	81.88
362.749	76.88
362.976	84.88
363.203	82.88
363.429	74.88
363.656	78.88
363.882	78.88
364.109	91.88
364.335	95.88
364.562	72.88
364.788	80.88
365.015	73.88
365.241	71.88
365.468	86.88
365.694	81.88
365.92	86.88
366.147	75.88
366.373	91.88
366.599	88.88
366.826	77.88
367.052	79.88
367.278	75.88
367.505	95.88
367.731	92.88
367.957	71.88
368.184	81.88
368.41	88.88
368.636	71.88
368.862	63.88
369.089	78.88
369.315	92.88
369.541	82.88
369.767	63.88
369.993	77.88
370.219	66.88
370.445	85.88
370.672	73.88
370.898	65.88
371.124	73.88
371.35	68.88
371.576	81.88
371.802	88.88
372.028	87.88
372.254	72.88
372.48	63.88
372.706	84.88
372.932	73.88
373.158	77.88
373.384	88.88
373.61	64.88
373.835	77.88
374.061	72.88
374.287	78.88
374.513	88.88
374.739	77.88
374.965	80.88
375.191	75.88
375.416	74.88
375.642	79.88
375.868	88.88
376.094	86.88
376.319	74.88
376.545	87.88
376.771	70.88
376.997	81.88
377.222	92.88
377.448	86.88
377.674	68.88
377.899	68.88
378.125	84.88
378.35	72.88
378.576	84.88
378.802	92.88
379.027	81.88
379.253	83.88
379.478	77.88
379.704	82.88
379.929	75.88
380.155	88.88
380.38	79.88
380.606	77.88
380.831	79.88
381.057	88.88
381.282	72.88
381.507	73.88
381.733	76.88
381.958	86.88
382.184	72.88
382.409	75.88
382.634	74.88
382.86	76.88
383.085	82.88
383.31	87.88
383.535	88.88
383.761	93.88
383.986	87.88
384.211	73.88
384.436	90.88
384.662	78.88
384.887	81.88
385.112	73.88
385.337	93.88
385.562	86.88
385.787	71.88
386.013	97.88
386.238	71.88
386.463	82.88
386.688	80.88
386.913	85.88
387.138	75.88
387.363	76.88
387.588	70.88
387.813	86.88
388.038	83.88
388.263	86.88
388.488	65.88
388.713	82.88
388.938	93.88
389.163	92.88
389.387	72.88
389.612	84.88
389.837	91.88
390.062	80.88
390.287	70.88
390.512	86.88
390.736	80.88
390.961	76.88
391.186	87.88
391.411	76.88
391.636	80.88
391.86	80.88
392.085	76.88
392.31	68.88
392.534	83.88
392.759	83.88
392.984	87.88
393.208	78.88
393.433	96.88
393.658	92.88
393.882	86.88
394.107	82.88
394.331	81.88
394.556	75.88
394.78	78.88
395.005	85.88
395.229	79.88
395.454	90.88
395.678	80.88
395.903	97.88
396.127	95.88
396.352	83.88
396.576	82.88
396.801	66.88
397.025	71.88
397.249	77.88
397.474	94.88
397.698	89.88
397.922	93.88
398.147	84.88
398.371	85.88
398.595	91.88
398.82	85.88
399.044	83.88
399.268	92.88
399.492	76.88
399.717	95.88
399.941	83.88
400.165	72.88
400.389	85.88
400.613	85.88
400.837	75.88
401.062	67.88
401.286	89.88
401.51	84.88
401.734	82.88
401.958	94.88
402.182	78.88
402.406	79.88
402.63	89.88
402.854	88.88
403.078	92.88
403.302	72.88
403.526	74.88
403.75	88.88
403.974	93.88
404.198	97.88
404.422	97.88
404.645	86.88
404.869	87.88
405.093	100.88
405.317	101.88
405.541	74.88
405.765	71.88
405.988	83.88
406.212	78.88
406.436	78.88
406.66	92.88
406.883	84.88
407.107	85.88
407.331	83.88
407.555	73.88
407.778	97.88
408.002	89.88
408.226	89.88
408.449	92.88
408.673	97.88
408.896	83.88
409.12	84.88
409.344	79.88
409.567	82.88
409.791	83.88
410.014	92.88
410.238	90.88
410.461	81.88
410.685	77.88
410.908	72.88
411.132	94.88
411.355	86.88
411.578	96.88
411.802	97.88
412.025	88.88
412.249	92.88
412.472	83.88
412.695	86.88
412.919	87.88
413.142	86.88
413.365	104.88
413.589	88.88
413.812	83.88
414.035	91.88
414.258	78.88
414.482	82.88
414.705	87.88
414.928	84.88
415.151	77.88
415.374	87.88
415.597	93.88
415.821	87.88
416.044	78.88
416.267	86.88
416.49	73.88
416.713	79.88
416.936	78.88
417.159	88.88
417.382	83.88
417.605	79.88
417.828	87.88
418.051	91.88
418.274	102.88
418.497	87.88
418.72	92.88
418.943	95.88
419.166	72.88
419.389	87.88
419.611	92.88
419.834	99.88
420.057	87.88
420.28	100.88
420.503	84.88
420.726	100.88
420.948	87.88
421.171	82.88
421.394	78.88
421.617	104.88
421.839	93.88
422.062	93.88
422.285	96.88
422.507	98.88
422.73	93.88
422.953	96.88
423.175	82.88
423.398	96.88
423.621	91.88
423.843	92.88
424.066	87.88
424.288	90.88
424.511	92.88
424.733	90.88
424.956	90.88
425.178	88.88
425.401	75.88
425.623	85.88
425.846	74.88
426.068	88.88
426.291	97.88
426.513	82.88
426.735	78.88
426.958	86.88
427.18	79.88
427.402	92.88
427.625	80.88
427.847	84.88
428.069	78.88
428.292	87.88
428.514	78.88
428.736	97.88
428.958	78.88
429.181	98.88
429.403	66.88
429.625	90.88
429.847	82.88
430.069	103.88
430.292	82.88
430.514	91.88
430.736	93.88
430.958	92.88
431.18	82.88
431.402	82.88
431.624	99.88
431.846	69.88
432.068	92.88
432.29	88.88
432.512	85.88
432.734	82.88
432.956	97.88
433.178	83.88
433.4	94.88
433.622	93.88
433.844	84.88
434.066	98.88
434.287	91.88
434.509	83.88
434.731	89.88
434.953	87.88
435.175	100.88
435.397	87.88
435.618	83.88
435.84	95.88
436.062	92.88
436.284	89.88
436.505	89.88
436.727	85.88
436.949	78.88
437.17	97.88
437.392	89.88
437.614	83.88
437.835	85.88
438.057	88.88
438.278	80.88
438.5	88.88
438.721	89.88
438.943	81.88
439.165	88.88
439.386	96.88
439.608	95.88
439.829	92.88
440.05	92.88
440.272	88.88
440.493	107.88
440.715	107.88
440.936	85.88
441.158	96.88
441.379	82.88
441.6	97.88
441.822	104.88
442.043	88.88
442.264	104.88
442.486	80.88
442.707	86.88
442.928	99.88
443.149	89.88
443.371	94.88
443.592	97.88
443.813	87.88
444.034	98.88
444.255	81.88
444.476	92.88
444.698	91.88
444.919	92.88
445.14	205.88
445.361	150.88
445.582	111.88
445.803	87.88
446.024	103.88
446.245	88.88
446.466	95.88
446.687	92.88
446.908	99.88
447.129	98.88
447.35	94.88
447.571	98.88
447.792	103.88
448.013	107.88
448.234	98.88
448.455	104.88
448.675	93.88
448.896	102.88
449.117	103.88
449.338	81.88
449.559	102.88
449.779	93.88
450	81.88
450.221	95.88
450.442	96.88
450.662	87.88
450.883	92.88
451.104	83.88
451.324	84.88
451.545	78.88
451.766	89.88
451.986	93.88
452.207	86.88
452.428	103.88
452.648	95.88
452.869	93.88
453.089	94.88
453.31	78.88
453.53	87.88
453.751	88.88
453.971	80.88
454.192	90.88
454.412	89.88
454.633	96.88
454.853	86.88
455.073	94.88
455.294	94.88
455.514	96.88
455.734	73.88
455.955	93.88
456.175	85.88
456.395	95.88
456.616	86.88
456.836	89.88
457.056	101.88
457.276	90.88
457.497	91.88
457.717	77.88
457.937	95.88
458.157	75.88
458.377	75.88
458.598	71.88
458.818	65.88
459.038	73.88
459.258	80.88
459.478	79.88
459.698	79.88
459.918	73.88
460.138	84.88
460.358	78.88
460.578	87.88
460.798	73.88
461.018	84.88
461.238	112.88
461.458	93.88
461.678	87.88
461.898	96.88
462.118	91.88
462.338	89.88
462.558	79.88
462.777	77.88
462.997	86.88
463.217	95.88
463.437	90.88
463.657	93.88
463.876	95.88
464.096	92.88
464.316	86.88
464.536	76.88
464.755	81.88
464.975	63.88
465.195	79.88
465.414	76.88
465.634	84.88
465.854	67.88
466.073	86.88
466.293	104.88
466.512	90.88
466.732	88.88
466.951	86.88
467.171	79.88
467.391	82.88
467.61	82.88
467.829	96.88
468.049	87.88
468.268	96.88
468.488	81.88
468.707	85.88
468.927	100.88
469.146	81.88
469.365	76.88
469.585	103.88
469.804	102.88
470.023	86.88
470.243	88.88
470.462	98.88
470.681	107.88
470.901	93.88
471.12	78.88
471.339	95.88
471.558	95.88
471.777	95.88
471.997	96.88
472.216	97.88
472.435	83.88
472.654	78.88
472.873	91.88
473.092	77.88
473.311	83.88
473.53	87.88
473.749	89.88
473.968	95.88
474.187	89.88
474.406	96.88
474.625	92.88
474.844	85.88
475.063	94.88
475.282	90.88
475.501	79.88
475.72	83.88
475.939	100.88
476.158	94.88
476.377	88.88
476.596	86.88
476.814	86.88
477.033	88.88
477.252	86.88
477.471	93.88
477.69	87.88
477.908	87.88
478.127	104.88
478.346	99.88
478.564	103.88
478.783	85.88
479.002	99.88
479.22	82.88
479.439	93.88
479.658	87.88
479.876	80.88
480.095	84.88
480.313	91.88
480.532	104.88
480.751	86.88
480.969	84.88
481.188	87.88
481.406	76.88
481.624	81.88
481.843	64.88
482.061	99.88
482.28	96.88
482.498	70.88
482.717	96.88
482.935	87.88
483.153	89.88
483.372	98.88
483.59	90.88
483.808	99.88
484.027	90.88
484.245	100.88
484.463	87.88
484.681	112.88
484.9	108.88
485.118	92.88
485.336	94.88
485.554	86.88
485.772	73.88
485.99	84.88
486.209	87.88
486.427	86.88
486.645	88.88
486.863	93.88
487.081	91.88
487.299	104.88
487.517	83.88
487.735	92.88
487.953	109.88
488.171	112.88
488.389	103.88
488.607	96.88
488.825	92.88
489.043	86.88
489.261	97.88
489.479	81.88
489.696	110.88
489.914	80.88
490.132	98.88
490.35	104.88
490.568	103.88
490.786	112.88
491.003	111.88
491.221	113.88
491.439	112.88
491.657	103.88
491.874	114.88
492.092	121.88
492.31	127.88
492.527	110.88
492.745	127.88
492.963	115.88
493.18	121.88
493.398	109.88
493.615	118.88
493.833	120.88
494.05	103.88
494.268	102.88
494.485	108.88
494.703	111.88
494.92	105.88
495.138	102.88
495.355	114.88
495.573	109.88
495.79	102.88
496.008	107.88
496.225	100.88
496.442	112.88
496.66	116.88
496.877	108.88
497.094	118.88
497.312	99.88
497.529	104.88
497.746	101.88
497.963	107.88
498.181	95.88
498.398	91.88
498.615	93.88
498.832	92.88
499.049	83.88
499.267	86.88
499.484	88.88
499.701	98.88
499.918	96.88
500.135	93.88
500.352	96.88
500.569	97.88
500.786	97.88
501.003	82.88
501.22	89.88
501.437	96.88
501.654	101.88
501.871	98.88
502.088	106.88
502.305	87.88
502.522	85.88
502.739	108.88
502.956	109.88
503.172	88.88
503.389	96.88
503.606	87.88
503.823	84.88
504.04	88.88
504.256	94.88
504.473	86.88
504.69	88.88
504.907	102.88
505.123	89.88
505.34	93.88
505.557	87.88
505.773	93.88
505.99	78.88
506.207	82.88
506.423	101.88
506.64	88.88
506.856	82.88
507.073	84.88
507.289	90.88
507.506	91.88
507.722	102.88
507.939	87.88
508.155	85.88
508.372	90.88
508.588	83.88
508.805	86.88
509.021	94.88
509.238	92.88
509.454	88.88
509.67	78.88
509.887	75.88
510.103	95.88
510.319	79.88
510.536	82.88
510.752	92.88
510.968	77.88
511.184	79.88
511.401	74.88
511.617	77.88
511.833	80.88
512.049	101.88
512.265	98.88
512.481	90.88
512.698	63.88
512.914	89.88
513.13	93.88
513.346	101.88
513.562	84.88
513.778	80.88
513.994	84.88
514.21	78.88
514.426	86.88
514.642	86.88
514.858	77.88
515.074	92.88
515.29	86.88
515.506	87.88
515.721	70.88
515.937	93.88
516.153	81.88
516.369	92.88
516.585	77.88
516.801	74.88
517.016	84.88
517.232	75.88
517.448	88.88
517.664	76.88
517.879	84.88
518.095	82.88
518.311	71.88
