Data from Location4.07152019.Energy5.Lamp.07192019.3%Agarose_HRD10591_15-26-02-577.txt Node
Date: Fri Jul 19 15:26:02 EDT 2019
User: cochatt
Spectrometer: HR+D1059
Trigger mode: 1
Integration Time (sec): 1.000000E-1
Scans to average: 1
Electric dark correction enabled: true
Nonlinearity correction enabled: false
Boxcar width: 0
XAxis mode: Wavelengths
Number of Pixels in Spectrum: 2048
>>>>>Begin Spectral Data<<<<<
223.165	-15.69
223.4	-15.69
223.635	-15.69
223.869	-25.69
224.104	-16.69
224.338	-1.69
224.573	-3.69
224.808	-14.69
225.042	-7.69
225.277	-8.69
225.511	-4.69
225.746	-3.69
225.98	-0.69
226.215	-5.69
226.449	20.31
226.683	28.31
226.918	37.31
227.152	23.31
227.387	31.31
227.621	35.31
227.856	35.31
228.09	32.31
228.324	45.31
228.559	46.31
228.793	54.31
229.027	59.31
229.262	61.31
229.496	65.31
229.73	60.31
229.964	68.31
230.199	80.31
230.433	69.31
230.667	79.31
230.901	68.31
231.136	69.31
231.37	79.31
231.604	76.31
231.838	73.31
232.072	84.31
232.306	82.31
232.541	56.31
232.775	69.31
233.009	81.31
233.243	70.31
233.477	71.31
233.711	79.31
233.945	90.31
234.179	95.31
234.413	78.31
234.647	76.31
234.881	79.31
235.115	75.31
235.349	86.31
235.583	78.31
235.817	79.31
236.051	68.31
236.285	80.31
236.519	85.31
236.753	72.31
236.987	91.31
237.221	72.31
237.455	80.31
237.689	79.31
237.922	87.31
238.156	77.31
238.39	78.31
238.624	73.31
238.858	78.31
239.091	70.31
239.325	76.31
239.559	75.31
239.793	67.31
240.027	80.31
240.26	85.31
240.494	71.31
240.728	67.31
240.961	64.31
241.195	62.31
241.429	79.31
241.662	59.31
241.896	71.31
242.13	77.31
242.363	79.31
242.597	79.31
242.83	82.31
243.064	83.31
243.298	69.31
243.531	93.31
243.765	79.31
243.998	83.31
244.232	73.31
244.465	82.31
244.699	82.31
244.932	69.31
245.166	65.31
245.399	79.31
245.633	69.31
245.866	77.31
246.099	71.31
246.333	65.31
246.566	56.31
246.8	76.31
247.033	62.31
247.266	85.31
247.5	72.31
247.733	66.31
247.966	88.31
248.2	79.31
248.433	77.31
248.666	72.31
248.899	76.31
249.133	59.31
249.366	79.31
249.599	81.31
249.832	82.31
250.066	85.31
250.299	83.31
250.532	78.31
250.765	79.31
250.998	92.31
251.231	87.31
251.465	71.31
251.698	76.31
251.931	84.31
252.164	75.31
252.397	84.31
252.63	79.31
252.863	87.31
253.096	76.31
253.329	78.31
253.562	79.31
253.795	71.31
254.028	80.31
254.261	74.31
254.494	76.31
254.727	84.31
254.96	82.31
255.193	67.31
255.426	71.31
255.659	78.31
255.892	70.31
256.124	69.31
256.357	73.31
256.59	84.31
256.823	74.31
257.056	95.31
257.289	82.31
257.521	75.31
257.754	80.31
257.987	72.31
258.22	73.31
258.452	62.31
258.685	74.31
258.918	78.31
259.151	76.31
259.383	71.31
259.616	61.31
259.849	81.31
260.081	77.31
260.314	79.31
260.547	82.31
260.779	73.31
261.012	85.31
261.244	85.31
261.477	74.31
261.71	62.31
261.942	80.31
262.175	61.31
262.407	75.31
262.64	75.31
262.872	84.31
263.105	83.31
263.337	71.31
263.57	72.31
263.802	85.31
264.035	77.31
264.267	79.31
264.499	66.31
264.732	68.31
264.964	71.31
265.197	74.31
265.429	78.31
265.661	82.31
265.894	78.31
266.126	84.31
266.358	79.31
266.591	82.31
266.823	77.31
267.055	73.31
267.287	85.31
267.52	76.31
267.752	82.31
267.984	75.31
268.216	73.31
268.448	74.31
268.681	75.31
268.913	71.31
269.145	71.31
269.377	84.31
269.609	70.31
269.841	75.31
270.073	64.31
270.306	82.31
270.538	87.31
270.77	80.31
271.002	88.31
271.234	82.31
271.466	82.31
271.698	79.31
271.93	86.31
272.162	86.31
272.394	80.31
272.626	85.31
272.858	76.31
273.09	78.31
273.322	80.31
273.553	70.31
273.785	95.31
274.017	72.31
274.249	88.31
274.481	83.31
274.713	73.31
274.945	80.31
275.176	79.31
275.408	87.31
275.64	82.31
275.872	84.31
276.104	80.31
276.335	78.31
276.567	72.31
276.799	73.31
277.031	94.31
277.262	88.31
277.494	73.31
277.726	92.31
277.957	82.31
278.189	67.31
278.421	92.31
278.652	80.31
278.884	89.31
279.115	68.31
279.347	75.31
279.579	85.31
279.81	85.31
280.042	79.31
280.273	90.31
280.505	82.31
280.736	76.31
280.968	81.31
281.199	85.31
281.431	79.31
281.662	87.31
281.894	85.31
282.125	74.31
282.356	91.31
282.588	82.31
282.819	91.31
283.051	85.31
283.282	85.31
283.513	80.31
283.745	80.31
283.976	81.31
284.207	93.31
284.439	95.31
284.67	91.31
284.901	80.31
285.132	83.31
285.364	71.31
285.595	84.31
285.826	94.31
286.057	82.31
286.288	89.31
286.52	98.31
286.751	99.31
286.982	89.31
287.213	80.31
287.444	93.31
287.675	91.31
287.906	79.31
288.138	84.31
288.369	71.31
288.6	68.31
288.831	77.31
289.062	78.31
289.293	93.31
289.524	86.31
289.755	88.31
289.986	79.31
290.217	67.31
290.448	84.31
290.679	86.31
290.91	90.31
291.141	76.31
291.371	88.31
291.602	84.31
291.833	101.31
292.064	85.31
292.295	91.31
292.526	84.31
292.757	82.31
292.987	76.31
293.218	87.31
293.449	82.31
293.68	82.31
293.91	90.31
294.141	86.31
294.372	74.31
294.603	82.31
294.833	93.31
295.064	92.31
295.295	87.31
295.525	72.31
295.756	76.31
295.987	83.31
296.217	80.31
296.448	98.31
296.679	61.31
296.909	90.31
297.14	85.31
297.37	82.31
297.601	70.31
297.831	88.31
298.062	71.31
298.292	86.31
298.523	81.31
298.753	83.31
298.984	91.31
299.214	67.31
299.445	99.31
299.675	94.31
299.905	74.31
300.136	86.31
300.366	72.31
300.597	80.31
300.827	91.31
301.057	78.31
301.288	78.31
301.518	79.31
301.748	84.31
301.979	77.31
302.209	81.31
302.439	81.31
302.669	73.31
302.9	73.31
303.13	77.31
303.36	72.31
303.59	78.31
303.82	81.31
304.051	74.31
304.281	81.31
304.511	87.31
304.741	84.31
304.971	98.31
305.201	79.31
305.431	76.31
305.661	94.31
305.891	73.31
306.121	83.31
306.352	75.31
306.582	87.31
306.812	85.31
307.042	81.31
307.272	91.31
307.502	79.31
307.731	97.31
307.961	82.31
308.191	92.31
308.421	88.31
308.651	95.31
308.881	65.31
309.111	80.31
309.341	80.31
309.571	90.31
309.8	76.31
310.03	80.31
310.26	78.31
310.49	83.31
310.72	64.31
310.949	76.31
311.179	78.31
311.409	70.31
311.639	84.31
311.868	80.31
312.098	81.31
312.328	78.31
312.557	91.31
312.787	67.31
313.017	79.31
313.246	73.31
313.476	97.31
313.706	92.31
313.935	78.31
314.165	92.31
314.394	85.31
314.624	78.31
314.853	90.31
315.083	84.31
315.312	69.31
315.542	71.31
315.771	79.31
316.001	72.31
316.23	90.31
316.46	84.31
316.689	86.31
316.919	81.31
317.148	95.31
317.377	87.31
317.607	87.31
317.836	92.31
318.065	86.31
318.295	81.31
318.524	89.31
318.753	66.31
318.983	84.31
319.212	87.31
319.441	99.31
319.67	92.31
319.9	89.31
320.129	82.31
320.358	83.31
320.587	79.31
320.816	82.31
321.046	80.31
321.275	74.31
321.504	84.31
321.733	77.31
321.962	76.31
322.191	84.31
322.42	88.31
322.649	94.31
322.878	91.31
323.108	85.31
323.337	94.31
323.566	79.31
323.795	93.31
324.024	89.31
324.253	85.31
324.482	69.31
324.71	88.31
324.939	89.31
325.168	79.31
325.397	89.31
325.626	82.31
325.855	73.31
326.084	85.31
326.313	83.31
326.542	90.31
326.77	80.31
326.999	84.31
327.228	78.31
327.457	79.31
327.686	90.31
327.914	78.31
328.143	74.31
328.372	69.31
328.6	82.31
328.829	79.31
329.058	83.31
329.287	95.31
329.515	78.31
329.744	79.31
329.972	90.31
330.201	81.31
330.43	87.31
330.658	89.31
330.887	86.31
331.115	83.31
331.344	87.31
331.572	84.31
331.801	88.31
332.03	70.31
332.258	93.31
332.486	71.31
332.715	79.31
332.943	77.31
333.172	82.31
333.4	94.31
333.629	93.31
333.857	88.31
334.085	91.31
334.314	92.31
334.542	78.31
334.771	87.31
334.999	70.31
335.227	75.31
335.455	91.31
335.684	77.31
335.912	88.31
336.14	62.31
336.369	80.31
336.597	85.31
336.825	81.31
337.053	82.31
337.281	86.31
337.51	77.31
337.738	82.31
337.966	76.31
338.194	82.31
338.422	77.31
338.65	85.31
338.878	80.31
339.106	87.31
339.334	80.31
339.562	88.31
339.79	90.31
340.018	84.31
340.246	72.31
340.474	76.31
340.702	89.31
340.93	90.31
341.158	85.31
341.386	68.31
341.614	72.31
341.842	86.31
342.07	90.31
342.298	83.31
342.526	79.31
342.754	86.31
342.981	77.31
343.209	83.31
343.437	80.31
343.665	78.31
343.893	82.31
344.12	73.31
344.348	75.31
344.576	87.31
344.804	73.31
345.031	73.31
345.259	73.31
345.487	93.31
345.714	95.31
345.942	82.31
346.17	95.31
346.397	79.31
346.625	78.31
346.853	87.31
347.08	80.31
347.308	80.31
347.535	86.31
347.763	88.31
347.99	65.31
348.218	85.31
348.445	78.31
348.673	61.31
348.9	84.31
349.128	68.31
349.355	71.31
349.583	69.31
349.81	83.31
350.037	76.31
350.265	84.31
350.492	78.31
350.72	82.31
350.947	95.31
351.174	85.31
351.402	81.31
351.629	76.31
351.856	75.31
352.083	86.31
352.311	79.31
352.538	79.31
352.765	77.31
352.992	84.31
353.22	66.31
353.447	78.31
353.674	85.31
353.901	84.31
354.128	81.31
354.355	79.31
354.583	75.31
354.81	78.31
355.037	89.31
355.264	81.31
355.491	77.31
355.718	86.31
355.945	77.31
356.172	84.31
356.399	87.31
356.626	69.31
356.853	86.31
357.08	78.31
357.307	77.31
357.534	71.31
357.761	87.31
357.988	83.31
358.215	84.31
358.441	75.31
358.668	82.31
358.895	75.31
359.122	79.31
359.349	77.31
359.576	75.31
359.802	64.31
360.029	75.31
360.256	77.31
360.483	69.31
360.709	84.31
360.936	82.31
361.163	82.31
361.39	68.31
361.616	67.31
361.843	73.31
362.07	84.31
362.296	83.31
362.523	71.31
362.749	75.31
362.976	91.31
363.203	86.31
363.429	73.31
363.656	71.31
363.882	87.31
364.109	76.31
364.335	74.31
364.562	94.31
364.788	80.31
365.015	72.31
365.241	77.31
365.468	97.31
365.694	87.31
365.92	99.31
366.147	77.31
366.373	76.31
366.599	82.31
366.826	86.31
367.052	86.31
367.278	73.31
367.505	73.31
367.731	97.31
367.957	93.31
368.184	81.31
368.41	78.31
368.636	80.31
368.862	89.31
369.089	78.31
369.315	85.31
369.541	87.31
369.767	78.31
369.993	92.31
370.219	86.31
370.445	81.31
370.672	71.31
370.898	78.31
371.124	73.31
371.35	77.31
371.576	79.31
371.802	81.31
372.028	86.31
372.254	79.31
372.48	78.31
372.706	70.31
372.932	71.31
373.158	73.31
373.384	86.31
373.61	86.31
373.835	85.31
374.061	82.31
374.287	76.31
374.513	83.31
374.739	65.31
374.965	88.31
375.191	80.31
375.416	74.31
375.642	83.31
375.868	91.31
376.094	100.31
376.319	80.31
376.545	75.31
376.771	81.31
376.997	77.31
377.222	82.31
377.448	82.31
377.674	85.31
377.899	88.31
378.125	89.31
378.35	64.31
378.576	72.31
378.802	69.31
379.027	79.31
379.253	87.31
379.478	81.31
379.704	79.31
379.929	77.31
380.155	86.31
380.38	78.31
380.606	65.31
380.831	83.31
381.057	87.31
381.282	77.31
381.507	79.31
381.733	84.31
381.958	78.31
382.184	66.31
382.409	74.31
382.634	75.31
382.86	93.31
383.085	87.31
383.31	82.31
383.535	71.31
383.761	78.31
383.986	71.31
384.211	82.31
384.436	72.31
384.662	73.31
384.887	76.31
385.112	79.31
385.337	84.31
385.562	87.31
385.787	78.31
386.013	85.31
386.238	91.31
386.463	78.31
386.688	92.31
386.913	87.31
387.138	86.31
387.363	83.31
387.588	90.31
387.813	78.31
388.038	88.31
388.263	87.31
388.488	80.31
388.713	76.31
388.938	65.31
389.163	87.31
389.387	72.31
389.612	85.31
389.837	87.31
390.062	80.31
390.287	81.31
390.512	83.31
390.736	73.31
390.961	72.31
391.186	87.31
391.411	80.31
391.636	75.31
391.86	79.31
392.085	87.31
392.31	83.31
392.534	93.31
392.759	84.31
392.984	86.31
393.208	96.31
393.433	81.31
393.658	92.31
393.882	80.31
394.107	90.31
394.331	92.31
394.556	77.31
394.78	87.31
395.005	78.31
395.229	84.31
395.454	75.31
395.678	83.31
395.903	82.31
396.127	82.31
396.352	95.31
396.576	78.31
396.801	100.31
397.025	103.31
397.249	84.31
397.474	88.31
397.698	76.31
397.922	71.31
398.147	80.31
398.371	88.31
398.595	87.31
398.82	82.31
399.044	76.31
399.268	91.31
399.492	92.31
399.717	87.31
399.941	79.31
400.165	89.31
400.389	76.31
400.613	79.31
400.837	89.31
401.062	93.31
401.286	80.31
401.51	94.31
401.734	87.31
401.958	91.31
402.182	71.31
402.406	80.31
402.63	78.31
402.854	84.31
403.078	79.31
403.302	76.31
403.526	91.31
403.75	94.31
403.974	95.31
404.198	97.31
404.422	79.31
404.645	84.31
404.869	66.31
405.093	79.31
405.317	94.31
405.541	79.31
405.765	89.31
405.988	79.31
406.212	84.31
406.436	80.31
406.66	95.31
406.883	96.31
407.107	82.31
407.331	70.31
407.555	93.31
407.778	87.31
408.002	105.31
408.226	83.31
408.449	76.31
408.673	83.31
408.896	86.31
409.12	76.31
409.344	87.31
409.567	88.31
409.791	79.31
410.014	87.31
410.238	84.31
410.461	76.31
410.685	89.31
410.908	98.31
411.132	95.31
411.355	93.31
411.578	80.31
411.802	81.31
412.025	85.31
412.249	72.31
412.472	87.31
412.695	77.31
412.919	78.31
413.142	72.31
413.365	91.31
413.589	88.31
413.812	87.31
414.035	80.31
414.258	95.31
414.482	84.31
414.705	99.31
414.928	93.31
415.151	88.31
415.374	70.31
415.597	81.31
415.821	78.31
416.044	88.31
416.267	85.31
416.49	92.31
416.713	86.31
416.936	94.31
417.159	79.31
417.382	79.31
417.605	87.31
417.828	95.31
418.051	86.31
418.274	96.31
418.497	97.31
418.72	84.31
418.943	88.31
419.166	94.31
419.389	94.31
419.611	94.31
419.834	83.31
420.057	79.31
420.28	88.31
420.503	81.31
420.726	76.31
420.948	99.31
421.171	96.31
421.394	87.31
421.617	84.31
421.839	100.31
422.062	99.31
422.285	93.31
422.507	89.31
422.73	97.31
422.953	86.31
423.175	89.31
423.398	86.31
423.621	92.31
423.843	87.31
424.066	95.31
424.288	86.31
424.511	84.31
424.733	90.31
424.956	95.31
425.178	85.31
425.401	86.31
425.623	84.31
425.846	84.31
426.068	98.31
426.291	83.31
426.513	93.31
426.735	82.31
426.958	93.31
427.18	87.31
427.402	85.31
427.625	73.31
427.847	88.31
428.069	87.31
428.292	91.31
428.514	92.31
428.736	94.31
428.958	90.31
429.181	92.31
429.403	91.31
429.625	85.31
429.847	106.31
430.069	92.31
430.292	94.31
430.514	93.31
430.736	94.31
430.958	109.31
431.18	93.31
431.402	80.31
431.624	84.31
431.846	82.31
432.068	73.31
432.29	87.31
432.512	83.31
432.734	70.31
432.956	93.31
433.178	110.31
433.4	95.31
433.622	89.31
433.844	92.31
434.066	91.31
434.287	92.31
434.509	76.31
434.731	71.31
434.953	88.31
435.175	82.31
435.397	86.31
435.618	90.31
435.84	95.31
436.062	72.31
436.284	83.31
436.505	84.31
436.727	91.31
436.949	99.31
437.17	90.31
437.392	80.31
437.614	90.31
437.835	91.31
438.057	85.31
438.278	77.31
438.5	77.31
438.721	87.31
438.943	92.31
439.165	97.31
439.386	93.31
439.608	87.31
439.829	92.31
440.05	95.31
440.272	99.31
440.493	97.31
440.715	97.31
440.936	98.31
441.158	87.31
441.379	97.31
441.6	92.31
441.822	85.31
442.043	96.31
442.264	90.31
442.486	103.31
442.707	103.31
442.928	93.31
443.149	106.31
443.371	87.31
443.592	94.31
443.813	84.31
444.034	88.31
444.255	103.31
444.476	103.31
444.698	99.31
444.919	90.31
445.14	208.31
445.361	156.31
445.582	110.31
445.803	88.31
446.024	86.31
446.245	91.31
446.466	95.31
446.687	93.31
446.908	101.31
447.129	105.31
447.35	105.31
447.571	107.31
447.792	98.31
448.013	95.31
448.234	82.31
448.455	102.31
448.675	96.31
448.896	90.31
449.117	87.31
449.338	90.31
449.559	113.31
449.779	90.31
450	86.31
450.221	76.31
450.442	91.31
450.662	83.31
450.883	82.31
451.104	93.31
451.324	69.31
451.545	81.31
451.766	87.31
451.986	95.31
452.207	80.31
452.428	92.31
452.648	95.31
452.869	96.31
453.089	97.31
453.31	86.31
453.53	87.31
453.751	76.31
453.971	79.31
454.192	79.31
454.412	87.31
454.633	100.31
454.853	74.31
455.073	71.31
455.294	78.31
455.514	91.31
455.734	99.31
455.955	92.31
456.175	81.31
456.395	84.31
456.616	73.31
456.836	89.31
457.056	93.31
457.276	80.31
457.497	88.31
457.717	80.31
457.937	81.31
458.157	103.31
458.377	79.31
458.598	70.31
458.818	84.31
459.038	73.31
459.258	69.31
459.478	97.31
459.698	72.31
459.918	83.31
460.138	86.31
460.358	87.31
460.578	88.31
460.798	81.31
461.018	76.31
461.238	66.31
461.458	102.31
461.678	89.31
461.898	91.31
462.118	93.31
462.338	79.31
462.558	94.31
462.777	80.31
462.997	92.31
463.217	86.31
463.437	92.31
463.657	87.31
463.876	78.31
464.096	99.31
464.316	95.31
464.536	98.31
464.755	98.31
464.975	101.31
465.195	85.31
465.414	74.31
465.634	94.31
465.854	75.31
466.073	86.31
466.293	85.31
466.512	90.31
466.732	81.31
466.951	100.31
467.171	91.31
467.391	82.31
467.61	83.31
467.829	93.31
468.049	89.31
468.268	94.31
468.488	96.31
468.707	97.31
468.927	103.31
469.146	92.31
469.365	106.31
469.585	94.31
469.804	93.31
470.023	88.31
470.243	101.31
470.462	96.31
470.681	95.31
470.901	92.31
471.12	108.31
471.339	94.31
471.558	82.31
471.777	91.31
471.997	93.31
472.216	84.31
472.435	84.31
472.654	86.31
472.873	95.31
473.092	92.31
473.311	91.31
473.53	97.31
473.749	98.31
473.968	94.31
474.187	93.31
474.406	64.31
474.625	105.31
474.844	92.31
475.063	77.31
475.282	95.31
475.501	89.31
475.72	96.31
475.939	100.31
476.158	102.31
476.377	80.31
476.596	89.31
476.814	72.31
477.033	76.31
477.252	102.31
477.471	95.31
477.69	87.31
477.908	100.31
478.127	97.31
478.346	102.31
478.564	87.31
478.783	89.31
479.002	80.31
479.22	90.31
479.439	112.31
479.658	94.31
479.876	96.31
480.095	82.31
480.313	90.31
480.532	88.31
480.751	94.31
480.969	92.31
481.188	70.31
481.406	72.31
481.624	77.31
481.843	76.31
482.061	85.31
482.28	82.31
482.498	85.31
482.717	89.31
482.935	87.31
483.153	109.31
483.372	98.31
483.59	91.31
483.808	93.31
484.027	91.31
484.245	107.31
484.463	78.31
484.681	101.31
484.9	104.31
485.118	96.31
485.336	77.31
485.554	74.31
485.772	77.31
485.99	75.31
486.209	85.31
486.427	97.31
486.645	89.31
486.863	93.31
487.081	96.31
487.299	101.31
487.517	99.31
487.735	103.31
487.953	97.31
488.171	109.31
488.389	99.31
488.607	103.31
488.825	91.31
489.043	86.31
489.261	85.31
489.479	90.31
489.696	100.31
489.914	87.31
490.132	91.31
490.35	90.31
490.568	103.31
490.786	99.31
491.003	96.31
491.221	112.31
491.439	114.31
491.657	112.31
491.874	119.31
492.092	119.31
492.31	121.31
492.527	128.31
492.745	112.31
492.963	114.31
493.18	111.31
493.398	99.31
493.615	106.31
493.833	98.31
494.05	112.31
494.268	93.31
494.485	114.31
494.703	99.31
494.92	108.31
495.138	95.31
495.355	108.31
495.573	106.31
495.79	94.31
496.008	101.31
496.225	115.31
496.442	91.31
496.66	109.31
496.877	115.31
497.094	106.31
497.312	99.31
497.529	98.31
497.746	93.31
497.963	91.31
498.181	87.31
498.398	87.31
498.615	89.31
498.832	91.31
499.049	86.31
499.267	92.31
499.484	86.31
499.701	86.31
499.918	95.31
500.135	80.31
500.352	104.31
500.569	102.31
500.786	92.31
501.003	89.31
501.22	94.31
501.437	79.31
501.654	92.31
501.871	98.31
502.088	105.31
502.305	98.31
502.522	91.31
502.739	88.31
502.956	113.31
503.172	107.31
503.389	91.31
503.606	111.31
503.823	90.31
504.04	101.31
504.256	104.31
504.473	92.31
504.69	90.31
504.907	91.31
505.123	88.31
505.34	99.31
505.557	102.31
505.773	84.31
505.99	106.31
506.207	97.31
506.423	90.31
506.64	80.31
506.856	96.31
507.073	99.31
507.289	86.31
507.506	83.31
507.722	82.31
507.939	83.31
508.155	80.31
508.372	91.31
508.588	97.31
508.805	86.31
509.021	103.31
509.238	108.31
509.454	95.31
509.67	89.31
509.887	86.31
510.103	83.31
510.319	86.31
510.536	82.31
510.752	80.31
510.968	76.31
511.184	87.31
511.401	99.31
511.617	93.31
511.833	87.31
512.049	95.31
512.265	75.31
512.481	80.31
512.698	94.31
512.914	89.31
513.13	97.31
513.346	92.31
513.562	86.31
513.778	85.31
513.994	77.31
514.21	90.31
514.426	70.31
514.642	76.31
514.858	86.31
515.074	78.31
515.29	72.31
515.506	89.31
515.721	93.31
515.937	97.31
516.153	91.31
516.369	84.31
516.585	85.31
516.801	76.31
517.016	75.31
517.232	68.31
517.448	86.31
517.664	79.31
517.879	81.31
518.095	84.31
518.311	84.31
