Data from Location4.07152019.Energy5.Lamp.07192019.3%Agarose_HRD10591_15-24-54-577.txt Node
Date: Fri Jul 19 15:24:54 EDT 2019
User: cochatt
Spectrometer: HR+D1059
Trigger mode: 1
Integration Time (sec): 1.000000E-1
Scans to average: 1
Electric dark correction enabled: true
Nonlinearity correction enabled: false
Boxcar width: 0
XAxis mode: Wavelengths
Number of Pixels in Spectrum: 2048
>>>>>Begin Spectral Data<<<<<
223.165	-15.69
223.4	-15.69
223.635	-15.69
223.869	-12.69
224.104	-5.69
224.338	-9.69
224.573	-18.69
224.808	-18.69
225.042	-18.69
225.277	-11.69
225.511	-4.69
225.746	0.31
225.98	-1.69
226.215	6.31
226.449	26.31
226.683	28.31
226.918	22.31
227.152	34.31
227.387	40.31
227.621	34.31
227.856	49.31
228.09	45.31
228.324	43.31
228.559	54.31
228.793	60.31
229.027	62.31
229.262	66.31
229.496	72.31
229.73	65.31
229.964	63.31
230.199	76.31
230.433	80.31
230.667	91.31
230.901	88.31
231.136	108.31
231.37	73.31
231.604	81.31
231.838	95.31
232.072	91.31
232.306	83.31
232.541	86.31
232.775	89.31
233.009	82.31
233.243	79.31
233.477	91.31
233.711	89.31
233.945	74.31
234.179	82.31
234.413	76.31
234.647	83.31
234.881	107.31
235.115	77.31
235.349	84.31
235.583	86.31
235.817	90.31
236.051	79.31
236.285	87.31
236.519	83.31
236.753	84.31
236.987	86.31
237.221	74.31
237.455	78.31
237.689	73.31
237.922	71.31
238.156	88.31
238.39	81.31
238.624	74.31
238.858	86.31
239.091	72.31
239.325	68.31
239.559	85.31
239.793	82.31
240.027	77.31
240.26	78.31
240.494	76.31
240.728	73.31
240.961	76.31
241.195	75.31
241.429	83.31
241.662	74.31
241.896	65.31
242.13	76.31
242.363	64.31
242.597	93.31
242.83	84.31
243.064	75.31
243.298	67.31
243.531	77.31
243.765	81.31
243.998	70.31
244.232	91.31
244.465	64.31
244.699	80.31
244.932	79.31
245.166	96.31
245.399	89.31
245.633	88.31
245.866	82.31
246.099	88.31
246.333	83.31
246.566	78.31
246.8	64.31
247.033	76.31
247.266	70.31
247.5	73.31
247.733	82.31
247.966	76.31
248.2	84.31
248.433	91.31
248.666	91.31
248.899	83.31
249.133	93.31
249.366	92.31
249.599	85.31
249.832	79.31
250.066	89.31
250.299	89.31
250.532	72.31
250.765	94.31
250.998	77.31
251.231	77.31
251.465	70.31
251.698	77.31
251.931	79.31
252.164	86.31
252.397	69.31
252.63	77.31
252.863	79.31
253.096	80.31
253.329	74.31
253.562	76.31
253.795	77.31
254.028	75.31
254.261	105.31
254.494	85.31
254.727	81.31
254.96	74.31
255.193	81.31
255.426	75.31
255.659	71.31
255.892	81.31
256.124	77.31
256.357	73.31
256.59	80.31
256.823	78.31
257.056	72.31
257.289	82.31
257.521	56.31
257.754	75.31
257.987	85.31
258.22	94.31
258.452	67.31
258.685	75.31
258.918	72.31
259.151	94.31
259.383	87.31
259.616	91.31
259.849	83.31
260.081	83.31
260.314	91.31
260.547	68.31
260.779	79.31
261.012	83.31
261.244	79.31
261.477	83.31
261.71	75.31
261.942	82.31
262.175	90.31
262.407	88.31
262.64	87.31
262.872	85.31
263.105	90.31
263.337	89.31
263.57	89.31
263.802	72.31
264.035	89.31
264.267	92.31
264.499	82.31
264.732	90.31
264.964	77.31
265.197	82.31
265.429	91.31
265.661	90.31
265.894	95.31
266.126	79.31
266.358	100.31
266.591	81.31
266.823	78.31
267.055	82.31
267.287	84.31
267.52	67.31
267.752	100.31
267.984	79.31
268.216	98.31
268.448	94.31
268.681	85.31
268.913	79.31
269.145	96.31
269.377	66.31
269.609	85.31
269.841	83.31
270.073	74.31
270.306	88.31
270.538	82.31
270.77	84.31
271.002	91.31
271.234	79.31
271.466	78.31
271.698	90.31
271.93	86.31
272.162	75.31
272.394	71.31
272.626	72.31
272.858	89.31
273.09	84.31
273.322	81.31
273.553	89.31
273.785	80.31
274.017	83.31
274.249	74.31
274.481	74.31
274.713	83.31
274.945	95.31
275.176	86.31
275.408	89.31
275.64	81.31
275.872	76.31
276.104	81.31
276.335	100.31
276.567	95.31
276.799	79.31
277.031	97.31
277.262	97.31
277.494	97.31
277.726	84.31
277.957	95.31
278.189	65.31
278.421	89.31
278.652	82.31
278.884	89.31
279.115	85.31
279.347	84.31
279.579	93.31
279.81	79.31
280.042	97.31
280.273	88.31
280.505	92.31
280.736	73.31
280.968	80.31
281.199	77.31
281.431	85.31
281.662	77.31
281.894	78.31
282.125	88.31
282.356	88.31
282.588	88.31
282.819	69.31
283.051	86.31
283.282	89.31
283.513	85.31
283.745	85.31
283.976	92.31
284.207	94.31
284.439	82.31
284.67	98.31
284.901	79.31
285.132	83.31
285.364	79.31
285.595	82.31
285.826	88.31
286.057	92.31
286.288	99.31
286.52	91.31
286.751	81.31
286.982	91.31
287.213	91.31
287.444	86.31
287.675	75.31
287.906	108.31
288.138	82.31
288.369	80.31
288.6	78.31
288.831	84.31
289.062	73.31
289.293	102.31
289.524	93.31
289.755	76.31
289.986	80.31
290.217	83.31
290.448	81.31
290.679	97.31
290.91	94.31
291.141	91.31
291.371	83.31
291.602	85.31
291.833	82.31
292.064	78.31
292.295	81.31
292.526	99.31
292.757	76.31
292.987	100.31
293.218	72.31
293.449	83.31
293.68	95.31
293.91	88.31
294.141	99.31
294.372	86.31
294.603	83.31
294.833	83.31
295.064	94.31
295.295	84.31
295.525	88.31
295.756	86.31
295.987	91.31
296.217	90.31
296.448	85.31
296.679	82.31
296.909	82.31
297.14	90.31
297.37	90.31
297.601	89.31
297.831	80.31
298.062	78.31
298.292	80.31
298.523	97.31
298.753	92.31
298.984	92.31
299.214	70.31
299.445	80.31
299.675	82.31
299.905	79.31
300.136	78.31
300.366	79.31
300.597	91.31
300.827	93.31
301.057	88.31
301.288	86.31
301.518	102.31
301.748	83.31
301.979	84.31
302.209	76.31
302.439	94.31
302.669	94.31
302.9	81.31
303.13	85.31
303.36	92.31
303.59	94.31
303.82	86.31
304.051	75.31
304.281	94.31
304.511	91.31
304.741	94.31
304.971	88.31
305.201	92.31
305.431	82.31
305.661	76.31
305.891	79.31
306.121	85.31
306.352	91.31
306.582	96.31
306.812	84.31
307.042	95.31
307.272	81.31
307.502	79.31
307.731	105.31
307.961	101.31
308.191	90.31
308.421	92.31
308.651	82.31
308.881	79.31
309.111	91.31
309.341	83.31
309.571	88.31
309.8	70.31
310.03	62.31
310.26	92.31
310.49	82.31
310.72	78.31
310.949	81.31
311.179	84.31
311.409	101.31
311.639	82.31
311.868	101.31
312.098	93.31
312.328	84.31
312.557	84.31
312.787	87.31
313.017	78.31
313.246	81.31
313.476	94.31
313.706	81.31
313.935	100.31
314.165	96.31
314.394	77.31
314.624	88.31
314.853	71.31
315.083	74.31
315.312	80.31
315.542	78.31
315.771	82.31
316.001	89.31
316.23	101.31
316.46	71.31
316.689	83.31
316.919	87.31
317.148	78.31
317.377	95.31
317.607	80.31
317.836	86.31
318.065	91.31
318.295	82.31
318.524	92.31
318.753	95.31
318.983	89.31
319.212	89.31
319.441	93.31
319.67	93.31
319.9	90.31
320.129	97.31
320.358	82.31
320.587	85.31
320.816	86.31
321.046	80.31
321.275	86.31
321.504	95.31
321.733	85.31
321.962	93.31
322.191	91.31
322.42	86.31
322.649	90.31
322.878	82.31
323.108	88.31
323.337	89.31
323.566	92.31
323.795	91.31
324.024	97.31
324.253	85.31
324.482	85.31
324.71	88.31
324.939	88.31
325.168	89.31
325.397	89.31
325.626	71.31
325.855	83.31
326.084	92.31
326.313	97.31
326.542	97.31
326.77	93.31
326.999	74.31
327.228	94.31
327.457	92.31
327.686	85.31
327.914	88.31
328.143	103.31
328.372	78.31
328.6	79.31
328.829	82.31
329.058	94.31
329.287	89.31
329.515	81.31
329.744	85.31
329.972	84.31
330.201	91.31
330.43	72.31
330.658	84.31
330.887	66.31
331.115	94.31
331.344	81.31
331.572	88.31
331.801	94.31
332.03	78.31
332.258	83.31
332.486	90.31
332.715	93.31
332.943	98.31
333.172	76.31
333.4	80.31
333.629	85.31
333.857	82.31
334.085	86.31
334.314	82.31
334.542	78.31
334.771	88.31
334.999	76.31
335.227	82.31
335.455	90.31
335.684	92.31
335.912	89.31
336.14	83.31
336.369	103.31
336.597	77.31
336.825	98.31
337.053	97.31
337.281	73.31
337.51	81.31
337.738	93.31
337.966	83.31
338.194	88.31
338.422	84.31
338.65	89.31
338.878	89.31
339.106	83.31
339.334	82.31
339.562	103.31
339.79	98.31
340.018	78.31
340.246	82.31
340.474	86.31
340.702	81.31
340.93	83.31
341.158	78.31
341.386	88.31
341.614	74.31
341.842	92.31
342.07	101.31
342.298	77.31
342.526	77.31
342.754	89.31
342.981	80.31
343.209	93.31
343.437	95.31
343.665	93.31
343.893	82.31
344.12	94.31
344.348	77.31
344.576	88.31
344.804	90.31
345.031	86.31
345.259	94.31
345.487	86.31
345.714	89.31
345.942	91.31
346.17	90.31
346.397	95.31
346.625	91.31
346.853	90.31
347.08	79.31
347.308	81.31
347.535	89.31
347.763	97.31
347.99	90.31
348.218	92.31
348.445	74.31
348.673	85.31
348.9	89.31
349.128	92.31
349.355	79.31
349.583	81.31
349.81	89.31
350.037	82.31
350.265	88.31
350.492	91.31
350.72	84.31
350.947	73.31
351.174	74.31
351.402	97.31
351.629	96.31
351.856	84.31
352.083	97.31
352.311	86.31
352.538	92.31
352.765	97.31
352.992	82.31
353.22	85.31
353.447	91.31
353.674	84.31
353.901	94.31
354.128	85.31
354.355	82.31
354.583	82.31
354.81	88.31
355.037	89.31
355.264	94.31
355.491	95.31
355.718	75.31
355.945	74.31
356.172	82.31
356.399	91.31
356.626	89.31
356.853	75.31
357.08	81.31
357.307	91.31
357.534	86.31
357.761	97.31
357.988	80.31
358.215	83.31
358.441	93.31
358.668	82.31
358.895	79.31
359.122	85.31
359.349	99.31
359.576	80.31
359.802	96.31
360.029	86.31
360.256	82.31
360.483	75.31
360.709	97.31
360.936	83.31
361.163	86.31
361.39	90.31
361.616	82.31
361.843	91.31
362.07	78.31
362.296	81.31
362.523	70.31
362.749	83.31
362.976	79.31
363.203	73.31
363.429	86.31
363.656	83.31
363.882	77.31
364.109	78.31
364.335	99.31
364.562	79.31
364.788	80.31
365.015	83.31
365.241	66.31
365.468	90.31
365.694	77.31
365.92	85.31
366.147	86.31
366.373	72.31
366.599	85.31
366.826	83.31
367.052	86.31
367.278	93.31
367.505	94.31
367.731	92.31
367.957	75.31
368.184	73.31
368.41	97.31
368.636	94.31
368.862	82.31
369.089	86.31
369.315	83.31
369.541	76.31
369.767	92.31
369.993	84.31
370.219	90.31
370.445	85.31
370.672	78.31
370.898	69.31
371.124	89.31
371.35	79.31
371.576	69.31
371.802	73.31
372.028	93.31
372.254	92.31
372.48	89.31
372.706	85.31
372.932	84.31
373.158	74.31
373.384	84.31
373.61	78.31
373.835	88.31
374.061	91.31
374.287	96.31
374.513	85.31
374.739	81.31
374.965	91.31
375.191	82.31
375.416	82.31
375.642	101.31
375.868	83.31
376.094	87.31
376.319	79.31
376.545	97.31
376.771	95.31
376.997	90.31
377.222	96.31
377.448	99.31
377.674	81.31
377.899	84.31
378.125	88.31
378.35	98.31
378.576	93.31
378.802	96.31
379.027	75.31
379.253	77.31
379.478	98.31
379.704	92.31
379.929	84.31
380.155	88.31
380.38	89.31
380.606	82.31
380.831	95.31
381.057	96.31
381.282	90.31
381.507	85.31
381.733	88.31
381.958	82.31
382.184	84.31
382.409	97.31
382.634	86.31
382.86	97.31
383.085	91.31
383.31	86.31
383.535	93.31
383.761	91.31
383.986	101.31
384.211	97.31
384.436	77.31
384.662	77.31
384.887	93.31
385.112	97.31
385.337	93.31
385.562	90.31
385.787	88.31
386.013	88.31
386.238	85.31
386.463	85.31
386.688	88.31
386.913	83.31
387.138	79.31
387.363	84.31
387.588	86.31
387.813	101.31
388.038	97.31
388.263	101.31
388.488	83.31
388.713	76.31
388.938	81.31
389.163	96.31
389.387	75.31
389.612	85.31
389.837	88.31
390.062	111.31
390.287	82.31
390.512	100.31
390.736	78.31
390.961	88.31
391.186	90.31
391.411	95.31
391.636	90.31
391.86	97.31
392.085	84.31
392.31	96.31
392.534	88.31
392.759	102.31
392.984	104.31
393.208	89.31
393.433	84.31
393.658	82.31
393.882	89.31
394.107	94.31
394.331	102.31
394.556	90.31
394.78	99.31
395.005	88.31
395.229	105.31
395.454	100.31
395.678	81.31
395.903	78.31
396.127	79.31
396.352	97.31
396.576	89.31
396.801	95.31
397.025	106.31
397.249	91.31
397.474	100.31
397.698	92.31
397.922	95.31
398.147	70.31
398.371	97.31
398.595	100.31
398.82	104.31
399.044	87.31
399.268	89.31
399.492	100.31
399.717	89.31
399.941	88.31
400.165	87.31
400.389	90.31
400.613	90.31
400.837	91.31
401.062	89.31
401.286	95.31
401.51	94.31
401.734	88.31
401.958	101.31
402.182	82.31
402.406	96.31
402.63	84.31
402.854	88.31
403.078	92.31
403.302	92.31
403.526	91.31
403.75	84.31
403.974	87.31
404.198	97.31
404.422	91.31
404.645	97.31
404.869	84.31
405.093	92.31
405.317	87.31
405.541	82.31
405.765	97.31
405.988	74.31
406.212	113.31
406.436	109.31
406.66	100.31
406.883	78.31
407.107	86.31
407.331	79.31
407.555	91.31
407.778	93.31
408.002	87.31
408.226	101.31
408.449	93.31
408.673	116.31
408.896	96.31
409.12	94.31
409.344	89.31
409.567	93.31
409.791	95.31
410.014	84.31
410.238	84.31
410.461	97.31
410.685	99.31
410.908	90.31
411.132	82.31
411.355	87.31
411.578	92.31
411.802	90.31
412.025	85.31
412.249	80.31
412.472	102.31
412.695	87.31
412.919	101.31
413.142	99.31
413.365	93.31
413.589	84.31
413.812	77.31
414.035	90.31
414.258	91.31
414.482	77.31
414.705	110.31
414.928	98.31
415.151	86.31
415.374	84.31
415.597	91.31
415.821	81.31
416.044	86.31
416.267	94.31
416.49	100.31
416.713	101.31
416.936	91.31
417.159	96.31
417.382	103.31
417.605	88.31
417.828	83.31
418.051	117.31
418.274	90.31
418.497	94.31
418.72	88.31
418.943	97.31
419.166	93.31
419.389	93.31
419.611	82.31
419.834	84.31
420.057	108.31
420.28	87.31
420.503	98.31
420.726	101.31
420.948	101.31
421.171	94.31
421.394	98.31
421.617	84.31
421.839	96.31
422.062	101.31
422.285	80.31
422.507	96.31
422.73	106.31
422.953	76.31
423.175	83.31
423.398	97.31
423.621	106.31
423.843	106.31
424.066	92.31
424.288	90.31
424.511	99.31
424.733	103.31
424.956	101.31
425.178	86.31
425.401	91.31
425.623	92.31
425.846	94.31
426.068	94.31
426.291	89.31
426.513	91.31
426.735	91.31
426.958	92.31
427.18	100.31
427.402	103.31
427.625	95.31
427.847	95.31
428.069	96.31
428.292	94.31
428.514	99.31
428.736	96.31
428.958	107.31
429.181	90.31
429.403	91.31
429.625	88.31
429.847	87.31
430.069	93.31
430.292	105.31
430.514	84.31
430.736	88.31
430.958	89.31
431.18	101.31
431.402	98.31
431.624	102.31
431.846	96.31
432.068	101.31
432.29	81.31
432.512	90.31
432.734	90.31
432.956	100.31
433.178	105.31
433.4	104.31
433.622	99.31
433.844	102.31
434.066	88.31
434.287	78.31
434.509	78.31
434.731	81.31
434.953	81.31
435.175	96.31
435.397	91.31
435.618	90.31
435.84	84.31
436.062	96.31
436.284	92.31
436.505	95.31
436.727	95.31
436.949	99.31
437.17	96.31
437.392	96.31
437.614	99.31
437.835	98.31
438.057	81.31
438.278	79.31
438.5	91.31
438.721	109.31
438.943	95.31
439.165	96.31
439.386	94.31
439.608	102.31
439.829	108.31
440.05	94.31
440.272	103.31
440.493	106.31
440.715	87.31
440.936	110.31
441.158	118.31
441.379	91.31
441.6	95.31
441.822	102.31
442.043	114.31
442.264	95.31
442.486	104.31
442.707	100.31
442.928	108.31
443.149	94.31
443.371	93.31
443.592	91.31
443.813	100.31
444.034	93.31
444.255	104.31
444.476	93.31
444.698	104.31
444.919	102.31
445.14	204.31
445.361	162.31
445.582	112.31
445.803	114.31
446.024	106.31
446.245	100.31
446.466	90.31
446.687	94.31
446.908	121.31
447.129	115.31
447.35	96.31
447.571	99.31
447.792	92.31
448.013	100.31
448.234	108.31
448.455	101.31
448.675	97.31
448.896	90.31
449.117	106.31
449.338	108.31
449.559	93.31
449.779	82.31
450	90.31
450.221	107.31
450.442	93.31
450.662	86.31
450.883	97.31
451.104	106.31
451.324	112.31
451.545	86.31
451.766	104.31
451.986	103.31
452.207	102.31
452.428	97.31
452.648	105.31
452.869	106.31
453.089	105.31
453.31	109.31
453.53	93.31
453.751	101.31
453.971	113.31
454.192	78.31
454.412	82.31
454.633	100.31
454.853	106.31
455.073	97.31
455.294	94.31
455.514	92.31
455.734	83.31
455.955	87.31
456.175	85.31
456.395	70.31
456.616	91.31
456.836	92.31
457.056	85.31
457.276	85.31
457.497	82.31
457.717	97.31
457.937	90.31
458.157	85.31
458.377	88.31
458.598	102.31
458.818	86.31
459.038	74.31
459.258	74.31
459.478	93.31
459.698	89.31
459.918	102.31
460.138	97.31
460.358	105.31
460.578	95.31
460.798	97.31
461.018	88.31
461.238	98.31
461.458	81.31
461.678	91.31
461.898	92.31
462.118	89.31
462.338	92.31
462.558	90.31
462.777	101.31
462.997	96.31
463.217	100.31
463.437	81.31
463.657	88.31
463.876	89.31
464.096	84.31
464.316	97.31
464.536	95.31
464.755	94.31
464.975	85.31
465.195	101.31
465.414	100.31
465.634	105.31
465.854	102.31
466.073	104.31
466.293	110.31
466.512	92.31
466.732	101.31
466.951	99.31
467.171	115.31
467.391	95.31
467.61	96.31
467.829	97.31
468.049	83.31
468.268	92.31
468.488	96.31
468.707	93.31
468.927	96.31
469.146	104.31
469.365	105.31
469.585	93.31
469.804	97.31
470.023	102.31
470.243	109.31
470.462	100.31
470.681	105.31
470.901	86.31
471.12	100.31
471.339	106.31
471.558	102.31
471.777	110.31
471.997	95.31
472.216	100.31
472.435	84.31
472.654	94.31
472.873	80.31
473.092	91.31
473.311	83.31
473.53	96.31
473.749	98.31
473.968	97.31
474.187	92.31
474.406	87.31
474.625	90.31
474.844	102.31
475.063	102.31
475.282	90.31
475.501	97.31
475.72	112.31
475.939	100.31
476.158	80.31
476.377	100.31
476.596	91.31
476.814	101.31
477.033	93.31
477.252	74.31
477.471	90.31
477.69	108.31
477.908	96.31
478.127	102.31
478.346	112.31
478.564	98.31
478.783	106.31
479.002	113.31
479.22	96.31
479.439	89.31
479.658	114.31
479.876	91.31
480.095	85.31
480.313	93.31
480.532	92.31
480.751	95.31
480.969	93.31
481.188	71.31
481.406	84.31
481.624	77.31
481.843	72.31
482.061	103.31
482.28	98.31
482.498	97.31
482.717	88.31
482.935	88.31
483.153	94.31
483.372	88.31
483.59	87.31
483.808	94.31
484.027	92.31
484.245	99.31
484.463	108.31
484.681	116.31
484.9	101.31
485.118	103.31
485.336	84.31
485.554	84.31
485.772	93.31
485.99	90.31
486.209	101.31
486.427	96.31
486.645	91.31
486.863	105.31
487.081	109.31
487.299	107.31
487.517	90.31
487.735	102.31
487.953	106.31
488.171	119.31
488.389	108.31
488.607	109.31
488.825	92.31
489.043	98.31
489.261	100.31
489.479	102.31
489.696	103.31
489.914	88.31
490.132	93.31
490.35	108.31
490.568	117.31
490.786	105.31
491.003	128.31
491.221	106.31
491.439	113.31
491.657	120.31
491.874	116.31
492.092	129.31
492.31	123.31
492.527	124.31
492.745	113.31
492.963	109.31
493.18	120.31
493.398	114.31
493.615	114.31
493.833	119.31
494.05	109.31
494.268	116.31
494.485	105.31
494.703	115.31
494.92	110.31
495.138	99.31
495.355	117.31
495.573	110.31
495.79	100.31
496.008	117.31
496.225	106.31
496.442	111.31
496.66	102.31
496.877	105.31
497.094	127.31
497.312	103.31
497.529	103.31
497.746	98.31
497.963	103.31
498.181	109.31
498.398	94.31
498.615	96.31
498.832	88.31
499.049	98.31
499.267	108.31
499.484	104.31
499.701	102.31
499.918	102.31
500.135	105.31
500.352	95.31
500.569	101.31
500.786	96.31
501.003	105.31
501.22	90.31
501.437	101.31
501.654	96.31
501.871	98.31
502.088	98.31
502.305	96.31
502.522	106.31
502.739	98.31
502.956	94.31
503.172	92.31
503.389	98.31
503.606	91.31
503.823	94.31
504.04	93.31
504.256	92.31
504.473	91.31
504.69	94.31
504.907	103.31
505.123	81.31
505.34	94.31
505.557	97.31
505.773	101.31
505.99	100.31
506.207	108.31
506.423	107.31
506.64	99.31
506.856	94.31
507.073	89.31
507.289	99.31
507.506	91.31
507.722	96.31
507.939	104.31
508.155	91.31
508.372	82.31
508.588	95.31
508.805	101.31
509.021	90.31
509.238	89.31
509.454	94.31
509.67	88.31
509.887	85.31
510.103	83.31
510.319	96.31
510.536	103.31
510.752	82.31
510.968	86.31
511.184	78.31
511.401	81.31
511.617	76.31
511.833	101.31
512.049	87.31
512.265	82.31
512.481	76.31
512.698	98.31
512.914	92.31
513.13	83.31
513.346	92.31
513.562	79.31
513.778	84.31
513.994	85.31
514.21	112.31
514.426	89.31
514.642	75.31
514.858	91.31
515.074	90.31
515.29	86.31
515.506	92.31
515.721	90.31
515.937	78.31
516.153	88.31
516.369	78.31
