Data from Location4.07152019.Energy5.Lamp.07192019.3%Agarose_HRD10591_15-25-10-577.txt Node
Date: Fri Jul 19 15:25:10 EDT 2019
User: cochatt
Spectrometer: HR+D1059
Trigger mode: 1
Integration Time (sec): 1.000000E-1
Scans to average: 1
Electric dark correction enabled: true
Nonlinearity correction enabled: false
Boxcar width: 0
XAxis mode: Wavelengths
Number of Pixels in Spectrum: 2048
>>>>>Begin Spectral Data<<<<<
223.165	-20.81
223.4	-20.81
223.635	-20.81
223.869	-21.81
224.104	-9.81
224.338	-13.81
224.573	-12.81
224.808	-13.81
225.042	-11.81
225.277	3.19
225.511	4.19
225.746	4.19
225.98	0.19
226.215	12.19
226.449	18.19
226.683	7.19
226.918	30.19
227.152	25.19
227.387	21.19
227.621	38.19
227.856	46.19
228.09	46.19
228.324	46.19
228.559	38.19
228.793	54.19
229.027	73.19
229.262	64.19
229.496	65.19
229.73	64.19
229.964	78.19
230.199	69.19
230.433	79.19
230.667	69.19
230.901	83.19
231.136	76.19
231.37	73.19
231.604	85.19
231.838	80.19
232.072	83.19
232.306	76.19
232.541	82.19
232.775	91.19
233.009	78.19
233.243	90.19
233.477	69.19
233.711	80.19
233.945	82.19
234.179	83.19
234.413	76.19
234.647	88.19
234.881	77.19
235.115	77.19
235.349	74.19
235.583	78.19
235.817	76.19
236.051	77.19
236.285	66.19
236.519	67.19
236.753	77.19
236.987	84.19
237.221	68.19
237.455	67.19
237.689	70.19
237.922	72.19
238.156	71.19
238.39	90.19
238.624	94.19
238.858	82.19
239.091	71.19
239.325	88.19
239.559	72.19
239.793	83.19
240.027	62.19
240.26	74.19
240.494	71.19
240.728	69.19
240.961	77.19
241.195	89.19
241.429	73.19
241.662	72.19
241.896	66.19
242.13	87.19
242.363	66.19
242.597	83.19
242.83	70.19
243.064	72.19
243.298	79.19
243.531	85.19
243.765	72.19
243.998	68.19
244.232	87.19
244.465	82.19
244.699	72.19
244.932	70.19
245.166	81.19
245.399	79.19
245.633	81.19
245.866	74.19
246.099	64.19
246.333	80.19
246.566	78.19
246.8	80.19
247.033	67.19
247.266	67.19
247.5	82.19
247.733	82.19
247.966	87.19
248.2	88.19
248.433	74.19
248.666	84.19
248.899	75.19
249.133	85.19
249.366	74.19
249.599	74.19
249.832	80.19
250.066	80.19
250.299	79.19
250.532	81.19
250.765	66.19
250.998	80.19
251.231	70.19
251.465	87.19
251.698	87.19
251.931	74.19
252.164	79.19
252.397	91.19
252.63	81.19
252.863	77.19
253.096	74.19
253.329	79.19
253.562	76.19
253.795	83.19
254.028	75.19
254.261	81.19
254.494	82.19
254.727	84.19
254.96	83.19
255.193	91.19
255.426	75.19
255.659	82.19
255.892	87.19
256.124	78.19
256.357	91.19
256.59	58.19
256.823	76.19
257.056	82.19
257.289	74.19
257.521	74.19
257.754	88.19
257.987	72.19
258.22	87.19
258.452	92.19
258.685	82.19
258.918	85.19
259.151	94.19
259.383	88.19
259.616	76.19
259.849	89.19
260.081	94.19
260.314	71.19
260.547	102.19
260.779	66.19
261.012	80.19
261.244	74.19
261.477	68.19
261.71	97.19
261.942	77.19
262.175	80.19
262.407	82.19
262.64	78.19
262.872	73.19
263.105	63.19
263.337	75.19
263.57	87.19
263.802	81.19
264.035	79.19
264.267	90.19
264.499	74.19
264.732	83.19
264.964	79.19
265.197	91.19
265.429	75.19
265.661	71.19
265.894	89.19
266.126	82.19
266.358	91.19
266.591	85.19
266.823	89.19
267.055	69.19
267.287	86.19
267.52	66.19
267.752	74.19
267.984	71.19
268.216	79.19
268.448	96.19
268.681	74.19
268.913	83.19
269.145	91.19
269.377	87.19
269.609	73.19
269.841	70.19
270.073	86.19
270.306	76.19
270.538	100.19
270.77	79.19
271.002	82.19
271.234	85.19
271.466	71.19
271.698	61.19
271.93	82.19
272.162	84.19
272.394	81.19
272.626	70.19
272.858	91.19
273.09	95.19
273.322	86.19
273.553	83.19
273.785	87.19
274.017	79.19
274.249	89.19
274.481	77.19
274.713	72.19
274.945	80.19
275.176	87.19
275.408	79.19
275.64	95.19
275.872	85.19
276.104	72.19
276.335	85.19
276.567	102.19
276.799	83.19
277.031	77.19
277.262	86.19
277.494	89.19
277.726	100.19
277.957	91.19
278.189	88.19
278.421	82.19
278.652	83.19
278.884	82.19
279.115	98.19
279.347	76.19
279.579	89.19
279.81	83.19
280.042	70.19
280.273	78.19
280.505	90.19
280.736	95.19
280.968	74.19
281.199	99.19
281.431	95.19
281.662	87.19
281.894	67.19
282.125	86.19
282.356	95.19
282.588	97.19
282.819	81.19
283.051	89.19
283.282	78.19
283.513	84.19
283.745	93.19
283.976	97.19
284.207	86.19
284.439	84.19
284.67	91.19
284.901	99.19
285.132	86.19
285.364	88.19
285.595	85.19
285.826	87.19
286.057	91.19
286.288	86.19
286.52	83.19
286.751	73.19
286.982	74.19
287.213	80.19
287.444	86.19
287.675	84.19
287.906	89.19
288.138	66.19
288.369	76.19
288.6	87.19
288.831	80.19
289.062	86.19
289.293	98.19
289.524	79.19
289.755	97.19
289.986	83.19
290.217	75.19
290.448	87.19
290.679	85.19
290.91	91.19
291.141	79.19
291.371	79.19
291.602	99.19
291.833	89.19
292.064	81.19
292.295	76.19
292.526	78.19
292.757	82.19
292.987	75.19
293.218	76.19
293.449	90.19
293.68	88.19
293.91	100.19
294.141	85.19
294.372	93.19
294.603	83.19
294.833	92.19
295.064	86.19
295.295	75.19
295.525	87.19
295.756	95.19
295.987	81.19
296.217	83.19
296.448	95.19
296.679	72.19
296.909	76.19
297.14	89.19
297.37	72.19
297.601	78.19
297.831	80.19
298.062	82.19
298.292	83.19
298.523	95.19
298.753	86.19
298.984	95.19
299.214	78.19
299.445	89.19
299.675	93.19
299.905	80.19
300.136	70.19
300.366	77.19
300.597	86.19
300.827	90.19
301.057	79.19
301.288	82.19
301.518	77.19
301.748	94.19
301.979	86.19
302.209	78.19
302.439	89.19
302.669	70.19
302.9	95.19
303.13	94.19
303.36	74.19
303.59	86.19
303.82	93.19
304.051	79.19
304.281	84.19
304.511	87.19
304.741	83.19
304.971	82.19
305.201	83.19
305.431	86.19
305.661	66.19
305.891	80.19
306.121	99.19
306.352	95.19
306.582	70.19
306.812	86.19
307.042	85.19
307.272	83.19
307.502	70.19
307.731	94.19
307.961	81.19
308.191	81.19
308.421	93.19
308.651	82.19
308.881	88.19
309.111	89.19
309.341	90.19
309.571	96.19
309.8	85.19
310.03	82.19
310.26	75.19
310.49	86.19
310.72	76.19
310.949	84.19
311.179	84.19
311.409	91.19
311.639	83.19
311.868	82.19
312.098	73.19
312.328	82.19
312.557	85.19
312.787	83.19
313.017	75.19
313.246	66.19
313.476	88.19
313.706	83.19
313.935	72.19
314.165	86.19
314.394	80.19
314.624	72.19
314.853	74.19
315.083	85.19
315.312	57.19
315.542	75.19
315.771	82.19
316.001	81.19
316.23	78.19
316.46	89.19
316.689	101.19
316.919	79.19
317.148	90.19
317.377	85.19
317.607	80.19
317.836	81.19
318.065	82.19
318.295	65.19
318.524	91.19
318.753	77.19
318.983	82.19
319.212	94.19
319.441	88.19
319.67	84.19
319.9	80.19
320.129	76.19
320.358	95.19
320.587	95.19
320.816	83.19
321.046	94.19
321.275	82.19
321.504	89.19
321.733	88.19
321.962	77.19
322.191	70.19
322.42	75.19
322.649	82.19
322.878	87.19
323.108	83.19
323.337	78.19
323.566	91.19
323.795	91.19
324.024	89.19
324.253	81.19
324.482	79.19
324.71	68.19
324.939	83.19
325.168	81.19
325.397	95.19
325.626	89.19
325.855	97.19
326.084	84.19
326.313	83.19
326.542	78.19
326.77	88.19
326.999	96.19
327.228	86.19
327.457	91.19
327.686	94.19
327.914	91.19
328.143	88.19
328.372	89.19
328.6	84.19
328.829	88.19
329.058	63.19
329.287	84.19
329.515	77.19
329.744	82.19
329.972	88.19
330.201	85.19
330.43	75.19
330.658	85.19
330.887	76.19
331.115	78.19
331.344	77.19
331.572	87.19
331.801	91.19
332.03	83.19
332.258	82.19
332.486	76.19
332.715	91.19
332.943	77.19
333.172	77.19
333.4	74.19
333.629	81.19
333.857	63.19
334.085	77.19
334.314	62.19
334.542	83.19
334.771	81.19
334.999	83.19
335.227	83.19
335.455	74.19
335.684	83.19
335.912	78.19
336.14	88.19
336.369	78.19
336.597	84.19
336.825	80.19
337.053	79.19
337.281	81.19
337.51	90.19
337.738	90.19
337.966	82.19
338.194	78.19
338.422	64.19
338.65	71.19
338.878	85.19
339.106	88.19
339.334	82.19
339.562	78.19
339.79	92.19
340.018	78.19
340.246	75.19
340.474	85.19
340.702	69.19
340.93	76.19
341.158	89.19
341.386	83.19
341.614	79.19
341.842	89.19
342.07	61.19
342.298	94.19
342.526	93.19
342.754	75.19
342.981	78.19
343.209	95.19
343.437	76.19
343.665	83.19
343.893	91.19
344.12	74.19
344.348	88.19
344.576	87.19
344.804	77.19
345.031	91.19
345.259	81.19
345.487	87.19
345.714	72.19
345.942	83.19
346.17	75.19
346.397	84.19
346.625	82.19
346.853	92.19
347.08	84.19
347.308	86.19
347.535	71.19
347.763	82.19
347.99	85.19
348.218	96.19
348.445	72.19
348.673	75.19
348.9	95.19
349.128	88.19
349.355	78.19
349.583	72.19
349.81	77.19
350.037	80.19
350.265	94.19
350.492	96.19
350.72	82.19
350.947	81.19
351.174	85.19
351.402	77.19
351.629	79.19
351.856	67.19
352.083	90.19
352.311	84.19
352.538	87.19
352.765	82.19
352.992	88.19
353.22	79.19
353.447	81.19
353.674	79.19
353.901	83.19
354.128	68.19
354.355	81.19
354.583	88.19
354.81	83.19
355.037	104.19
355.264	76.19
355.491	86.19
355.718	76.19
355.945	90.19
356.172	96.19
356.399	82.19
356.626	89.19
356.853	92.19
357.08	82.19
357.307	82.19
357.534	82.19
357.761	78.19
357.988	75.19
358.215	75.19
358.441	90.19
358.668	93.19
358.895	78.19
359.122	87.19
359.349	79.19
359.576	81.19
359.802	76.19
360.029	81.19
360.256	76.19
360.483	82.19
360.709	83.19
360.936	92.19
361.163	84.19
361.39	88.19
361.616	99.19
361.843	70.19
362.07	66.19
362.296	94.19
362.523	90.19
362.749	85.19
362.976	76.19
363.203	84.19
363.429	93.19
363.656	97.19
363.882	80.19
364.109	89.19
364.335	90.19
364.562	81.19
364.788	69.19
365.015	76.19
365.241	84.19
365.468	89.19
365.694	89.19
365.92	83.19
366.147	83.19
366.373	88.19
366.599	70.19
366.826	92.19
367.052	73.19
367.278	100.19
367.505	86.19
367.731	96.19
367.957	80.19
368.184	87.19
368.41	86.19
368.636	70.19
368.862	78.19
369.089	90.19
369.315	84.19
369.541	68.19
369.767	79.19
369.993	76.19
370.219	88.19
370.445	79.19
370.672	82.19
370.898	92.19
371.124	82.19
371.35	85.19
371.576	74.19
371.802	83.19
372.028	78.19
372.254	82.19
372.48	98.19
372.706	83.19
372.932	83.19
373.158	90.19
373.384	81.19
373.61	86.19
373.835	86.19
374.061	74.19
374.287	90.19
374.513	90.19
374.739	75.19
374.965	81.19
375.191	75.19
375.416	92.19
375.642	80.19
375.868	86.19
376.094	78.19
376.319	88.19
376.545	83.19
376.771	84.19
376.997	77.19
377.222	87.19
377.448	90.19
377.674	74.19
377.899	95.19
378.125	67.19
378.35	74.19
378.576	81.19
378.802	73.19
379.027	77.19
379.253	88.19
379.478	89.19
379.704	73.19
379.929	80.19
380.155	77.19
380.38	83.19
380.606	95.19
380.831	76.19
381.057	84.19
381.282	96.19
381.507	82.19
381.733	81.19
381.958	84.19
382.184	70.19
382.409	81.19
382.634	74.19
382.86	78.19
383.085	85.19
383.31	75.19
383.535	87.19
383.761	75.19
383.986	71.19
384.211	79.19
384.436	79.19
384.662	92.19
384.887	86.19
385.112	83.19
385.337	82.19
385.562	76.19
385.787	75.19
386.013	93.19
386.238	91.19
386.463	84.19
386.688	87.19
386.913	77.19
387.138	66.19
387.363	74.19
387.588	78.19
387.813	91.19
388.038	86.19
388.263	95.19
388.488	96.19
388.713	82.19
388.938	66.19
389.163	76.19
389.387	90.19
389.612	86.19
389.837	105.19
390.062	88.19
390.287	74.19
390.512	87.19
390.736	70.19
390.961	86.19
391.186	100.19
391.411	79.19
391.636	88.19
391.86	92.19
392.085	75.19
392.31	88.19
392.534	82.19
392.759	89.19
392.984	94.19
393.208	91.19
393.433	80.19
393.658	75.19
393.882	75.19
394.107	75.19
394.331	102.19
394.556	82.19
394.78	88.19
395.005	93.19
395.229	85.19
395.454	71.19
395.678	86.19
395.903	98.19
396.127	92.19
396.352	99.19
396.576	89.19
396.801	81.19
397.025	81.19
397.249	91.19
397.474	84.19
397.698	93.19
397.922	84.19
398.147	82.19
398.371	87.19
398.595	68.19
398.82	85.19
399.044	89.19
399.268	75.19
399.492	85.19
399.717	91.19
399.941	81.19
400.165	89.19
400.389	80.19
400.613	65.19
400.837	100.19
401.062	77.19
401.286	88.19
401.51	89.19
401.734	85.19
401.958	89.19
402.182	97.19
402.406	91.19
402.63	87.19
402.854	96.19
403.078	84.19
403.302	92.19
403.526	68.19
403.75	92.19
403.974	90.19
404.198	88.19
404.422	82.19
404.645	96.19
404.869	93.19
405.093	99.19
405.317	93.19
405.541	93.19
405.765	83.19
405.988	80.19
406.212	93.19
406.436	87.19
406.66	92.19
406.883	82.19
407.107	83.19
407.331	71.19
407.555	92.19
407.778	103.19
408.002	69.19
408.226	92.19
408.449	93.19
408.673	83.19
408.896	85.19
409.12	100.19
409.344	92.19
409.567	69.19
409.791	81.19
410.014	92.19
410.238	98.19
410.461	99.19
410.685	83.19
410.908	86.19
411.132	85.19
411.355	94.19
411.578	88.19
411.802	96.19
412.025	78.19
412.249	86.19
412.472	84.19
412.695	82.19
412.919	80.19
413.142	99.19
413.365	92.19
413.589	86.19
413.812	89.19
414.035	81.19
414.258	89.19
414.482	95.19
414.705	87.19
414.928	84.19
415.151	79.19
415.374	90.19
415.597	104.19
415.821	70.19
416.044	89.19
416.267	77.19
416.49	90.19
416.713	95.19
416.936	96.19
417.159	98.19
417.382	73.19
417.605	84.19
417.828	94.19
418.051	78.19
418.274	79.19
418.497	86.19
418.72	103.19
418.943	87.19
419.166	97.19
419.389	96.19
419.611	103.19
419.834	102.19
420.057	100.19
420.28	92.19
420.503	108.19
420.726	87.19
420.948	100.19
421.171	95.19
421.394	94.19
421.617	94.19
421.839	96.19
422.062	95.19
422.285	103.19
422.507	83.19
422.73	94.19
422.953	87.19
423.175	82.19
423.398	102.19
423.621	102.19
423.843	84.19
424.066	83.19
424.288	73.19
424.511	106.19
424.733	93.19
424.956	90.19
425.178	84.19
425.401	91.19
425.623	106.19
425.846	83.19
426.068	102.19
426.291	103.19
426.513	94.19
426.735	92.19
426.958	96.19
427.18	87.19
427.402	81.19
427.625	96.19
427.847	89.19
428.069	95.19
428.292	82.19
428.514	85.19
428.736	90.19
428.958	88.19
429.181	104.19
429.403	103.19
429.625	103.19
429.847	99.19
430.069	93.19
430.292	89.19
430.514	100.19
430.736	83.19
430.958	83.19
431.18	83.19
431.402	83.19
431.624	91.19
431.846	92.19
432.068	86.19
432.29	88.19
432.512	77.19
432.734	83.19
432.956	84.19
433.178	95.19
433.4	83.19
433.622	101.19
433.844	85.19
434.066	90.19
434.287	75.19
434.509	82.19
434.731	76.19
434.953	85.19
435.175	84.19
435.397	77.19
435.618	98.19
435.84	89.19
436.062	97.19
436.284	99.19
436.505	89.19
436.727	92.19
436.949	98.19
437.17	97.19
437.392	96.19
437.614	90.19
437.835	88.19
438.057	95.19
438.278	88.19
438.5	89.19
438.721	94.19
438.943	91.19
439.165	97.19
439.386	89.19
439.608	83.19
439.829	94.19
440.05	96.19
440.272	102.19
440.493	102.19
440.715	89.19
440.936	92.19
441.158	94.19
441.379	99.19
441.6	99.19
441.822	97.19
442.043	98.19
442.264	90.19
442.486	99.19
442.707	105.19
442.928	92.19
443.149	102.19
443.371	97.19
443.592	116.19
443.813	80.19
444.034	96.19
444.255	94.19
444.476	108.19
444.698	90.19
444.919	93.19
445.14	221.19
445.361	146.19
445.582	110.19
445.803	102.19
446.024	99.19
446.245	106.19
446.466	94.19
446.687	91.19
446.908	90.19
447.129	99.19
447.35	108.19
447.571	107.19
447.792	97.19
448.013	89.19
448.234	95.19
448.455	98.19
448.675	86.19
448.896	89.19
449.117	82.19
449.338	89.19
449.559	102.19
449.779	99.19
450	105.19
450.221	96.19
450.442	102.19
450.662	100.19
450.883	90.19
451.104	90.19
451.324	99.19
451.545	90.19
451.766	82.19
451.986	110.19
452.207	96.19
452.428	83.19
452.648	83.19
452.869	84.19
453.089	95.19
453.31	82.19
453.53	93.19
453.751	99.19
453.971	87.19
454.192	79.19
454.412	98.19
454.633	94.19
454.853	94.19
455.073	91.19
455.294	95.19
455.514	88.19
455.734	76.19
455.955	83.19
456.175	86.19
456.395	86.19
456.616	95.19
456.836	100.19
457.056	83.19
457.276	83.19
457.497	77.19
457.717	81.19
457.937	81.19
458.157	88.19
458.377	71.19
458.598	84.19
458.818	74.19
459.038	83.19
459.258	83.19
459.478	86.19
459.698	87.19
459.918	88.19
460.138	88.19
460.358	84.19
460.578	100.19
460.798	107.19
461.018	94.19
461.238	105.19
461.458	98.19
461.678	105.19
461.898	72.19
462.118	83.19
462.338	80.19
462.558	98.19
462.777	93.19
462.997	76.19
463.217	87.19
463.437	100.19
463.657	82.19
463.876	98.19
464.096	82.19
464.316	76.19
464.536	78.19
464.755	94.19
464.975	95.19
465.195	90.19
465.414	99.19
465.634	72.19
465.854	92.19
466.073	98.19
466.293	91.19
466.512	102.19
466.732	94.19
466.951	89.19
467.171	109.19
467.391	96.19
467.61	88.19
467.829	106.19
468.049	94.19
468.268	99.19
468.488	93.19
468.707	98.19
468.927	97.19
469.146	100.19
469.365	107.19
469.585	106.19
469.804	93.19
470.023	92.19
470.243	112.19
470.462	106.19
470.681	94.19
470.901	90.19
471.12	95.19
471.339	110.19
471.558	94.19
471.777	96.19
471.997	90.19
472.216	75.19
472.435	100.19
472.654	81.19
472.873	83.19
473.092	102.19
473.311	99.19
473.53	101.19
473.749	106.19
473.968	88.19
474.187	84.19
474.406	83.19
474.625	91.19
474.844	100.19
475.063	91.19
475.282	99.19
475.501	83.19
475.72	105.19
475.939	103.19
476.158	83.19
476.377	89.19
476.596	85.19
476.814	81.19
477.033	91.19
477.252	84.19
477.471	90.19
477.69	82.19
477.908	107.19
478.127	98.19
478.346	84.19
478.564	107.19
478.783	94.19
479.002	97.19
479.22	92.19
479.439	69.19
479.658	95.19
479.876	86.19
480.095	83.19
480.313	94.19
480.532	95.19
480.751	96.19
480.969	93.19
481.188	94.19
481.406	90.19
481.624	73.19
481.843	74.19
482.061	89.19
482.28	88.19
482.498	90.19
482.717	90.19
482.935	88.19
483.153	105.19
483.372	94.19
483.59	97.19
483.808	96.19
484.027	79.19
484.245	91.19
484.463	103.19
484.681	107.19
484.9	99.19
485.118	101.19
485.336	95.19
485.554	88.19
485.772	81.19
485.99	95.19
486.209	98.19
486.427	80.19
486.645	91.19
486.863	99.19
487.081	103.19
487.299	100.19
487.517	102.19
487.735	99.19
487.953	111.19
488.171	112.19
488.389	102.19
488.607	100.19
488.825	96.19
489.043	107.19
489.261	108.19
489.479	89.19
489.696	105.19
489.914	96.19
490.132	88.19
490.35	98.19
490.568	121.19
490.786	91.19
491.003	116.19
491.221	108.19
491.439	110.19
491.657	106.19
491.874	113.19
492.092	113.19
492.31	121.19
492.527	124.19
492.745	127.19
492.963	120.19
493.18	115.19
493.398	105.19
493.615	95.19
493.833	119.19
494.05	108.19
494.268	115.19
494.485	101.19
494.703	112.19
494.92	104.19
495.138	114.19
495.355	120.19
495.573	122.19
495.79	101.19
496.008	110.19
496.225	115.19
496.442	106.19
496.66	105.19
496.877	99.19
497.094	106.19
497.312	101.19
497.529	100.19
497.746	102.19
497.963	96.19
498.181	87.19
498.398	83.19
498.615	93.19
498.832	96.19
499.049	93.19
499.267	99.19
499.484	84.19
499.701	84.19
499.918	102.19
500.135	95.19
500.352	91.19
500.569	112.19
500.786	104.19
501.003	110.19
501.22	95.19
501.437	96.19
501.654	89.19
501.871	96.19
502.088	90.19
502.305	99.19
502.522	94.19
502.739	101.19
502.956	79.19
503.172	87.19
503.389	84.19
503.606	83.19
503.823	84.19
504.04	102.19
504.256	89.19
504.473	89.19
504.69	89.19
504.907	92.19
505.123	88.19
505.34	93.19
505.557	94.19
505.773	89.19
505.99	102.19
506.207	87.19
506.423	84.19
506.64	99.19
506.856	85.19
507.073	87.19
507.289	100.19
507.506	103.19
507.722	94.19
507.939	92.19
508.155	82.19
508.372	95.19
508.588	91.19
508.805	92.19
509.021	82.19
509.238	90.19
509.454	85.19
509.67	92.19
509.887	97.19
510.103	92.19
510.319	78.19
510.536	97.19
510.752	84.19
510.968	72.19
511.184	82.19
511.401	73.19
511.617	85.19
511.833	83.19
512.049	71.19
512.265	88.19
512.481	88.19
512.698	96.19
512.914	88.19
513.13	91.19
513.346	95.19
513.562	76.19
513.778	89.19
513.994	88.19
514.21	83.19
514.426	76.19
514.642	92.19
514.858	87.19
515.074	83.19
515.29	99.19
515.506	80.19
515.721	86.19
515.937	91.19
516.153	76.19
516.369	67.19
516.585	95.19
516.801	79.19
517.016	83.19
517.232	80.19
517.448	78.19
517.664	86.19
