Data from Location4.07152019.Energy5.Lamp.07192019.3%Agarose_HRD10591_15-26-10-578.txt Node
Date: Fri Jul 19 15:26:10 EDT 2019
User: cochatt
Spectrometer: HR+D1059
Trigger mode: 1
Integration Time (sec): 1.000000E-1
Scans to average: 1
Electric dark correction enabled: true
Nonlinearity correction enabled: false
Boxcar width: 0
XAxis mode: Wavelengths
Number of Pixels in Spectrum: 2048
>>>>>Begin Spectral Data<<<<<
223.165	-16.69
223.4	-16.69
223.635	-16.69
223.869	-9.69
224.104	-20.69
224.338	-9.69
224.573	-7.69
224.808	-19.69
225.042	-7.69
225.277	-13.69
225.511	-8.69
225.746	20.31
225.98	-9.69
226.215	2.31
226.449	17.31
226.683	27.31
226.918	33.31
227.152	23.31
227.387	18.31
227.621	27.31
227.856	43.31
228.09	43.31
228.324	51.31
228.559	53.31
228.793	42.31
229.027	47.31
229.262	60.31
229.496	76.31
229.73	73.31
229.964	62.31
230.199	83.31
230.433	71.31
230.667	87.31
230.901	75.31
231.136	59.31
231.37	71.31
231.604	71.31
231.838	74.31
232.072	80.31
232.306	98.31
232.541	88.31
232.775	80.31
233.009	63.31
233.243	88.31
233.477	78.31
233.711	80.31
233.945	83.31
234.179	84.31
234.413	66.31
234.647	90.31
234.881	80.31
235.115	82.31
235.349	72.31
235.583	74.31
235.817	80.31
236.051	80.31
236.285	76.31
236.519	84.31
236.753	89.31
236.987	80.31
237.221	77.31
237.455	85.31
237.689	66.31
237.922	75.31
238.156	68.31
238.39	72.31
238.624	70.31
238.858	87.31
239.091	75.31
239.325	76.31
239.559	75.31
239.793	71.31
240.027	83.31
240.26	73.31
240.494	75.31
240.728	67.31
240.961	64.31
241.195	72.31
241.429	71.31
241.662	76.31
241.896	75.31
242.13	66.31
242.363	84.31
242.597	75.31
242.83	89.31
243.064	76.31
243.298	78.31
243.531	67.31
243.765	71.31
243.998	79.31
244.232	75.31
244.465	84.31
244.699	76.31
244.932	72.31
245.166	99.31
245.399	75.31
245.633	82.31
245.866	80.31
246.099	71.31
246.333	76.31
246.566	79.31
246.8	84.31
247.033	98.31
247.266	73.31
247.5	68.31
247.733	69.31
247.966	74.31
248.2	81.31
248.433	83.31
248.666	80.31
248.899	87.31
249.133	78.31
249.366	71.31
249.599	70.31
249.832	90.31
250.066	78.31
250.299	74.31
250.532	77.31
250.765	71.31
250.998	72.31
251.231	76.31
251.465	81.31
251.698	85.31
251.931	73.31
252.164	76.31
252.397	77.31
252.63	80.31
252.863	70.31
253.096	75.31
253.329	76.31
253.562	83.31
253.795	78.31
254.028	81.31
254.261	87.31
254.494	72.31
254.727	69.31
254.96	83.31
255.193	86.31
255.426	82.31
255.659	63.31
255.892	85.31
256.124	74.31
256.357	68.31
256.59	85.31
256.823	74.31
257.056	70.31
257.289	80.31
257.521	81.31
257.754	69.31
257.987	83.31
258.22	76.31
258.452	82.31
258.685	87.31
258.918	85.31
259.151	86.31
259.383	80.31
259.616	79.31
259.849	92.31
260.081	70.31
260.314	84.31
260.547	84.31
260.779	75.31
261.012	84.31
261.244	71.31
261.477	77.31
261.71	72.31
261.942	91.31
262.175	83.31
262.407	79.31
262.64	88.31
262.872	80.31
263.105	75.31
263.337	80.31
263.57	75.31
263.802	70.31
264.035	82.31
264.267	73.31
264.499	84.31
264.732	95.31
264.964	86.31
265.197	87.31
265.429	86.31
265.661	84.31
265.894	74.31
266.126	81.31
266.358	80.31
266.591	95.31
266.823	78.31
267.055	76.31
267.287	76.31
267.52	82.31
267.752	82.31
267.984	77.31
268.216	81.31
268.448	75.31
268.681	73.31
268.913	82.31
269.145	89.31
269.377	68.31
269.609	91.31
269.841	86.31
270.073	72.31
270.306	86.31
270.538	76.31
270.77	93.31
271.002	80.31
271.234	84.31
271.466	88.31
271.698	82.31
271.93	90.31
272.162	83.31
272.394	82.31
272.626	83.31
272.858	99.31
273.09	84.31
273.322	76.31
273.553	70.31
273.785	86.31
274.017	75.31
274.249	74.31
274.481	78.31
274.713	70.31
274.945	89.31
275.176	79.31
275.408	72.31
275.64	80.31
275.872	82.31
276.104	85.31
276.335	82.31
276.567	88.31
276.799	74.31
277.031	72.31
277.262	76.31
277.494	81.31
277.726	103.31
277.957	68.31
278.189	62.31
278.421	76.31
278.652	88.31
278.884	90.31
279.115	83.31
279.347	90.31
279.579	84.31
279.81	82.31
280.042	81.31
280.273	86.31
280.505	69.31
280.736	73.31
280.968	78.31
281.199	78.31
281.431	62.31
281.662	72.31
281.894	80.31
282.125	75.31
282.356	70.31
282.588	75.31
282.819	88.31
283.051	77.31
283.282	78.31
283.513	90.31
283.745	95.31
283.976	103.31
284.207	84.31
284.439	70.31
284.67	81.31
284.901	78.31
285.132	84.31
285.364	72.31
285.595	80.31
285.826	80.31
286.057	77.31
286.288	82.31
286.52	78.31
286.751	78.31
286.982	83.31
287.213	82.31
287.444	91.31
287.675	87.31
287.906	86.31
288.138	92.31
288.369	88.31
288.6	86.31
288.831	95.31
289.062	80.31
289.293	92.31
289.524	91.31
289.755	91.31
289.986	85.31
290.217	87.31
290.448	76.31
290.679	72.31
290.91	82.31
291.141	76.31
291.371	82.31
291.602	88.31
291.833	82.31
292.064	71.31
292.295	86.31
292.526	89.31
292.757	81.31
292.987	92.31
293.218	88.31
293.449	84.31
293.68	98.31
293.91	87.31
294.141	82.31
294.372	98.31
294.603	90.31
294.833	87.31
295.064	89.31
295.295	86.31
295.525	84.31
295.756	87.31
295.987	83.31
296.217	89.31
296.448	94.31
296.679	68.31
296.909	81.31
297.14	84.31
297.37	90.31
297.601	77.31
297.831	69.31
298.062	92.31
298.292	79.31
298.523	80.31
298.753	84.31
298.984	77.31
299.214	81.31
299.445	87.31
299.675	75.31
299.905	76.31
300.136	65.31
300.366	79.31
300.597	85.31
300.827	84.31
301.057	76.31
301.288	86.31
301.518	83.31
301.748	83.31
301.979	82.31
302.209	74.31
302.439	77.31
302.669	86.31
302.9	94.31
303.13	81.31
303.36	67.31
303.59	87.31
303.82	75.31
304.051	98.31
304.281	93.31
304.511	84.31
304.741	93.31
304.971	81.31
305.201	81.31
305.431	73.31
305.661	97.31
305.891	102.31
306.121	68.31
306.352	73.31
306.582	75.31
306.812	88.31
307.042	89.31
307.272	70.31
307.502	66.31
307.731	75.31
307.961	84.31
308.191	83.31
308.421	92.31
308.651	83.31
308.881	86.31
309.111	67.31
309.341	78.31
309.571	98.31
309.8	74.31
310.03	72.31
310.26	90.31
310.49	91.31
310.72	86.31
310.949	81.31
311.179	73.31
311.409	84.31
311.639	78.31
311.868	80.31
312.098	75.31
312.328	74.31
312.557	86.31
312.787	72.31
313.017	77.31
313.246	81.31
313.476	95.31
313.706	83.31
313.935	83.31
314.165	87.31
314.394	86.31
314.624	88.31
314.853	90.31
315.083	84.31
315.312	67.31
315.542	91.31
315.771	78.31
316.001	70.31
316.23	84.31
316.46	92.31
316.689	76.31
316.919	86.31
317.148	86.31
317.377	84.31
317.607	82.31
317.836	74.31
318.065	76.31
318.295	91.31
318.524	70.31
318.753	86.31
318.983	91.31
319.212	85.31
319.441	84.31
319.67	64.31
319.9	86.31
320.129	82.31
320.358	82.31
320.587	97.31
320.816	87.31
321.046	85.31
321.275	80.31
321.504	85.31
321.733	88.31
321.962	69.31
322.191	78.31
322.42	84.31
322.649	80.31
322.878	95.31
323.108	74.31
323.337	83.31
323.566	80.31
323.795	98.31
324.024	90.31
324.253	75.31
324.482	84.31
324.71	70.31
324.939	94.31
325.168	67.31
325.397	81.31
325.626	69.31
325.855	71.31
326.084	83.31
326.313	91.31
326.542	76.31
326.77	77.31
326.999	95.31
327.228	84.31
327.457	86.31
327.686	90.31
327.914	75.31
328.143	72.31
328.372	76.31
328.6	75.31
328.829	75.31
329.058	66.31
329.287	82.31
329.515	92.31
329.744	86.31
329.972	74.31
330.201	77.31
330.43	82.31
330.658	90.31
330.887	83.31
331.115	88.31
331.344	71.31
331.572	81.31
331.801	67.31
332.03	73.31
332.258	87.31
332.486	76.31
332.715	84.31
332.943	89.31
333.172	88.31
333.4	94.31
333.629	82.31
333.857	88.31
334.085	79.31
334.314	75.31
334.542	82.31
334.771	83.31
334.999	81.31
335.227	88.31
335.455	92.31
335.684	95.31
335.912	76.31
336.14	78.31
336.369	80.31
336.597	95.31
336.825	91.31
337.053	79.31
337.281	72.31
337.51	74.31
337.738	70.31
337.966	89.31
338.194	83.31
338.422	81.31
338.65	97.31
338.878	76.31
339.106	85.31
339.334	74.31
339.562	81.31
339.79	82.31
340.018	88.31
340.246	73.31
340.474	79.31
340.702	90.31
340.93	72.31
341.158	76.31
341.386	68.31
341.614	80.31
341.842	91.31
342.07	98.31
342.298	89.31
342.526	83.31
342.754	75.31
342.981	67.31
343.209	86.31
343.437	74.31
343.665	90.31
343.893	72.31
344.12	77.31
344.348	81.31
344.576	73.31
344.804	90.31
345.031	83.31
345.259	77.31
345.487	80.31
345.714	78.31
345.942	84.31
346.17	76.31
346.397	88.31
346.625	80.31
346.853	79.31
347.08	98.31
347.308	91.31
347.535	88.31
347.763	90.31
347.99	96.31
348.218	66.31
348.445	74.31
348.673	75.31
348.9	91.31
349.128	90.31
349.355	96.31
349.583	82.31
349.81	89.31
350.037	84.31
350.265	99.31
350.492	92.31
350.72	88.31
350.947	71.31
351.174	75.31
351.402	70.31
351.629	83.31
351.856	82.31
352.083	81.31
352.311	88.31
352.538	68.31
352.765	87.31
352.992	79.31
353.22	86.31
353.447	63.31
353.674	83.31
353.901	82.31
354.128	84.31
354.355	71.31
354.583	86.31
354.81	72.31
355.037	68.31
355.264	82.31
355.491	96.31
355.718	89.31
355.945	80.31
356.172	79.31
356.399	78.31
356.626	81.31
356.853	91.31
357.08	74.31
357.307	90.31
357.534	75.31
357.761	79.31
357.988	88.31
358.215	95.31
358.441	84.31
358.668	73.31
358.895	97.31
359.122	88.31
359.349	86.31
359.576	75.31
359.802	73.31
360.029	75.31
360.256	80.31
360.483	92.31
360.709	83.31
360.936	100.31
361.163	86.31
361.39	87.31
361.616	87.31
361.843	70.31
362.07	79.31
362.296	69.31
362.523	72.31
362.749	72.31
362.976	76.31
363.203	91.31
363.429	74.31
363.656	76.31
363.882	82.31
364.109	95.31
364.335	92.31
364.562	80.31
364.788	80.31
365.015	82.31
365.241	74.31
365.468	82.31
365.694	81.31
365.92	79.31
366.147	86.31
366.373	64.31
366.599	91.31
366.826	79.31
367.052	84.31
367.278	77.31
367.505	77.31
367.731	75.31
367.957	76.31
368.184	89.31
368.41	79.31
368.636	100.31
368.862	82.31
369.089	86.31
369.315	86.31
369.541	81.31
369.767	91.31
369.993	80.31
370.219	83.31
370.445	71.31
370.672	82.31
370.898	81.31
371.124	77.31
371.35	69.31
371.576	91.31
371.802	77.31
372.028	74.31
372.254	95.31
372.48	95.31
372.706	83.31
372.932	63.31
373.158	86.31
373.384	84.31
373.61	84.31
373.835	91.31
374.061	81.31
374.287	77.31
374.513	98.31
374.739	69.31
374.965	86.31
375.191	72.31
375.416	91.31
375.642	98.31
375.868	91.31
376.094	76.31
376.319	86.31
376.545	75.31
376.771	94.31
376.997	83.31
377.222	80.31
377.448	95.31
377.674	71.31
377.899	77.31
378.125	74.31
378.35	101.31
378.576	83.31
378.802	90.31
379.027	94.31
379.253	90.31
379.478	86.31
379.704	87.31
379.929	65.31
380.155	77.31
380.38	80.31
380.606	76.31
380.831	89.31
381.057	97.31
381.282	83.31
381.507	94.31
381.733	89.31
381.958	78.31
382.184	95.31
382.409	99.31
382.634	96.31
382.86	89.31
383.085	94.31
383.31	95.31
383.535	86.31
383.761	95.31
383.986	80.31
384.211	74.31
384.436	95.31
384.662	91.31
384.887	98.31
385.112	81.31
385.337	91.31
385.562	79.31
385.787	85.31
386.013	104.31
386.238	89.31
386.463	71.31
386.688	89.31
386.913	79.31
387.138	75.31
387.363	93.31
387.588	89.31
387.813	82.31
388.038	79.31
388.263	80.31
388.488	88.31
388.713	70.31
388.938	93.31
389.163	90.31
389.387	88.31
389.612	83.31
389.837	82.31
390.062	94.31
390.287	89.31
390.512	83.31
390.736	100.31
390.961	90.31
391.186	86.31
391.411	97.31
391.636	98.31
391.86	81.31
392.085	99.31
392.31	80.31
392.534	80.31
392.759	67.31
392.984	64.31
393.208	80.31
393.433	83.31
393.658	93.31
393.882	87.31
394.107	87.31
394.331	81.31
394.556	95.31
394.78	83.31
395.005	93.31
395.229	83.31
395.454	84.31
395.678	92.31
395.903	88.31
396.127	84.31
396.352	80.31
396.576	86.31
396.801	100.31
397.025	92.31
397.249	84.31
397.474	82.31
397.698	82.31
397.922	83.31
398.147	96.31
398.371	73.31
398.595	90.31
398.82	81.31
399.044	89.31
399.268	83.31
399.492	84.31
399.717	81.31
399.941	82.31
400.165	90.31
400.389	85.31
400.613	89.31
400.837	96.31
401.062	100.31
401.286	97.31
401.51	96.31
401.734	95.31
401.958	88.31
402.182	87.31
402.406	88.31
402.63	91.31
402.854	89.31
403.078	98.31
403.302	77.31
403.526	93.31
403.75	97.31
403.974	93.31
404.198	104.31
404.422	91.31
404.645	91.31
404.869	89.31
405.093	83.31
405.317	82.31
405.541	97.31
405.765	86.31
405.988	87.31
406.212	87.31
406.436	92.31
406.66	80.31
406.883	83.31
407.107	84.31
407.331	102.31
407.555	85.31
407.778	68.31
408.002	96.31
408.226	88.31
408.449	89.31
408.673	96.31
408.896	110.31
409.12	86.31
409.344	86.31
409.567	102.31
409.791	98.31
410.014	88.31
410.238	80.31
410.461	83.31
410.685	80.31
410.908	99.31
411.132	92.31
411.355	87.31
411.578	84.31
411.802	91.31
412.025	107.31
412.249	92.31
412.472	101.31
412.695	93.31
412.919	80.31
413.142	88.31
413.365	89.31
413.589	86.31
413.812	82.31
414.035	89.31
414.258	85.31
414.482	80.31
414.705	90.31
414.928	104.31
415.151	92.31
415.374	88.31
415.597	83.31
415.821	78.31
416.044	92.31
416.267	90.31
416.49	86.31
416.713	73.31
416.936	95.31
417.159	88.31
417.382	91.31
417.605	86.31
417.828	94.31
418.051	103.31
418.274	97.31
418.497	102.31
418.72	94.31
418.943	99.31
419.166	97.31
419.389	95.31
419.611	93.31
419.834	91.31
420.057	95.31
420.28	107.31
420.503	103.31
420.726	104.31
420.948	107.31
421.171	98.31
421.394	102.31
421.617	111.31
421.839	94.31
422.062	90.31
422.285	104.31
422.507	91.31
422.73	100.31
422.953	77.31
423.175	82.31
423.398	89.31
423.621	102.31
423.843	95.31
424.066	82.31
424.288	87.31
424.511	102.31
424.733	103.31
424.956	91.31
425.178	87.31
425.401	92.31
425.623	106.31
425.846	88.31
426.068	96.31
426.291	97.31
426.513	88.31
426.735	100.31
426.958	91.31
427.18	110.31
427.402	107.31
427.625	86.31
427.847	97.31
428.069	90.31
428.292	86.31
428.514	81.31
428.736	92.31
428.958	88.31
429.181	98.31
429.403	94.31
429.625	79.31
429.847	98.31
430.069	103.31
430.292	107.31
430.514	87.31
430.736	99.31
430.958	82.31
431.18	79.31
431.402	93.31
431.624	79.31
431.846	73.31
432.068	83.31
432.29	90.31
432.512	94.31
432.734	90.31
432.956	84.31
433.178	96.31
433.4	93.31
433.622	103.31
433.844	99.31
434.066	100.31
434.287	91.31
434.509	80.31
434.731	84.31
434.953	89.31
435.175	94.31
435.397	99.31
435.618	90.31
435.84	96.31
436.062	82.31
436.284	92.31
436.505	98.31
436.727	94.31
436.949	106.31
437.17	89.31
437.392	87.31
437.614	91.31
437.835	95.31
438.057	78.31
438.278	74.31
438.5	84.31
438.721	99.31
438.943	96.31
439.165	86.31
439.386	88.31
439.608	98.31
439.829	95.31
440.05	95.31
440.272	104.31
440.493	96.31
440.715	98.31
440.936	95.31
441.158	101.31
441.379	91.31
441.6	115.31
441.822	102.31
442.043	114.31
442.264	86.31
442.486	94.31
442.707	96.31
442.928	101.31
443.149	89.31
443.371	89.31
443.592	81.31
443.813	102.31
444.034	102.31
444.255	97.31
444.476	95.31
444.698	99.31
444.919	96.31
445.14	214.31
445.361	141.31
445.582	114.31
445.803	91.31
446.024	91.31
446.245	97.31
446.466	97.31
446.687	100.31
446.908	100.31
447.129	97.31
447.35	93.31
447.571	97.31
447.792	105.31
448.013	92.31
448.234	92.31
448.455	108.31
448.675	110.31
448.896	102.31
449.117	100.31
449.338	89.31
449.559	98.31
449.779	96.31
450	113.31
450.221	77.31
450.442	99.31
450.662	94.31
450.883	93.31
451.104	106.31
451.324	98.31
451.545	95.31
451.766	92.31
451.986	100.31
452.207	88.31
452.428	89.31
452.648	89.31
452.869	93.31
453.089	89.31
453.31	91.31
453.53	88.31
453.751	94.31
453.971	90.31
454.192	95.31
454.412	90.31
454.633	94.31
454.853	94.31
455.073	100.31
455.294	91.31
455.514	96.31
455.734	94.31
455.955	93.31
456.175	97.31
456.395	93.31
456.616	101.31
456.836	95.31
457.056	83.31
457.276	81.31
457.497	104.31
457.717	80.31
457.937	86.31
458.157	81.31
458.377	88.31
458.598	83.31
458.818	85.31
459.038	77.31
459.258	79.31
459.478	86.31
459.698	81.31
459.918	81.31
460.138	90.31
460.358	82.31
460.578	90.31
460.798	87.31
461.018	87.31
461.238	77.31
461.458	85.31
461.678	84.31
461.898	93.31
462.118	96.31
462.338	92.31
462.558	91.31
462.777	94.31
462.997	98.31
463.217	79.31
463.437	97.31
463.657	88.31
463.876	93.31
464.096	88.31
464.316	92.31
464.536	82.31
464.755	92.31
464.975	94.31
465.195	87.31
465.414	93.31
465.634	99.31
465.854	110.31
466.073	84.31
466.293	85.31
466.512	84.31
466.732	91.31
466.951	89.31
467.171	94.31
467.391	102.31
467.61	99.31
467.829	111.31
468.049	85.31
468.268	88.31
468.488	99.31
468.707	95.31
468.927	104.31
469.146	97.31
469.365	76.31
469.585	89.31
469.804	104.31
470.023	92.31
470.243	86.31
470.462	107.31
470.681	96.31
470.901	108.31
471.12	103.31
471.339	97.31
471.558	87.31
471.777	90.31
471.997	98.31
472.216	100.31
472.435	83.31
472.654	99.31
472.873	96.31
473.092	88.31
473.311	87.31
473.53	87.31
473.749	89.31
473.968	95.31
474.187	86.31
474.406	79.31
474.625	87.31
474.844	86.31
475.063	79.31
475.282	94.31
475.501	81.31
475.72	92.31
475.939	81.31
476.158	74.31
476.377	91.31
476.596	86.31
476.814	87.31
477.033	82.31
477.252	97.31
477.471	84.31
477.69	82.31
477.908	97.31
478.127	84.31
478.346	93.31
478.564	108.31
478.783	97.31
479.002	80.31
479.22	91.31
479.439	112.31
479.658	96.31
479.876	94.31
480.095	86.31
480.313	100.31
480.532	108.31
480.751	96.31
480.969	81.31
481.188	80.31
481.406	85.31
481.624	86.31
481.843	91.31
482.061	86.31
482.28	98.31
482.498	85.31
482.717	98.31
482.935	94.31
483.153	101.31
483.372	102.31
483.59	103.31
483.808	105.31
484.027	95.31
484.245	99.31
484.463	97.31
484.681	98.31
484.9	107.31
485.118	96.31
485.336	83.31
485.554	86.31
485.772	89.31
485.99	105.31
486.209	91.31
486.427	79.31
486.645	80.31
486.863	107.31
487.081	102.31
487.299	96.31
487.517	92.31
487.735	90.31
487.953	117.31
488.171	107.31
488.389	95.31
488.607	112.31
488.825	106.31
489.043	96.31
489.261	95.31
489.479	98.31
489.696	97.31
489.914	90.31
490.132	95.31
490.35	99.31
490.568	99.31
490.786	96.31
491.003	118.31
491.221	112.31
491.439	112.31
491.657	115.31
491.874	118.31
492.092	119.31
492.31	125.31
492.527	126.31
492.745	127.31
492.963	120.31
493.18	107.31
493.398	115.31
493.615	116.31
493.833	104.31
494.05	109.31
494.268	98.31
494.485	105.31
494.703	97.31
494.92	100.31
495.138	105.31
495.355	91.31
495.573	114.31
495.79	117.31
496.008	95.31
496.225	97.31
496.442	95.31
496.66	106.31
496.877	98.31
497.094	107.31
497.312	104.31
497.529	92.31
497.746	100.31
497.963	98.31
498.181	83.31
498.398	96.31
498.615	84.31
498.832	103.31
499.049	93.31
499.267	101.31
499.484	96.31
499.701	106.31
499.918	107.31
500.135	106.31
500.352	98.31
500.569	103.31
500.786	96.31
501.003	104.31
501.22	109.31
501.437	85.31
501.654	88.31
501.871	98.31
502.088	87.31
502.305	95.31
502.522	82.31
502.739	84.31
502.956	94.31
503.172	103.31
503.389	97.31
503.606	89.31
503.823	97.31
504.04	96.31
504.256	83.31
504.473	96.31
504.69	84.31
504.907	84.31
505.123	102.31
505.34	81.31
505.557	92.31
505.773	84.31
505.99	86.31
506.207	98.31
506.423	85.31
506.64	110.31
506.856	80.31
507.073	84.31
507.289	90.31
507.506	86.31
507.722	96.31
507.939	101.31
508.155	75.31
508.372	90.31
508.588	98.31
508.805	94.31
509.021	87.31
509.238	94.31
509.454	89.31
509.67	94.31
509.887	92.31
510.103	79.31
510.319	85.31
510.536	75.31
510.752	60.31
510.968	66.31
511.184	87.31
511.401	81.31
511.617	93.31
511.833	84.31
512.049	79.31
512.265	84.31
512.481	80.31
512.698	79.31
512.914	90.31
513.13	93.31
513.346	80.31
513.562	81.31
513.778	76.31
513.994	76.31
514.21	78.31
514.426	88.31
514.642	88.31
514.858	84.31
515.074	80.31
515.29	76.31
515.506	81.31
515.721	89.31
515.937	79.31
516.153	88.31
516.369	81.31
516.585	94.31
516.801	92.31
517.016	78.31
517.232	79.31
517.448	84.31
517.664	79.31
