Data from Location4.07152019.Energy5.Lamp.07192019.3%Agarose_HRD10591_15-24-26-577.txt Node
Date: Fri Jul 19 15:24:26 EDT 2019
User: cochatt
Spectrometer: HR+D1059
Trigger mode: 1
Integration Time (sec): 1.000000E-1
Scans to average: 1
Electric dark correction enabled: true
Nonlinearity correction enabled: false
Boxcar width: 0
XAxis mode: Wavelengths
Number of Pixels in Spectrum: 2048
>>>>>Begin Spectral Data<<<<<
223.165	-13.19
223.4	-13.19
223.635	-13.19
223.869	-15.19
224.104	-19.19
224.338	-23.19
224.573	-1.19
224.808	-13.19
225.042	-7.19
225.277	1.81
225.511	4.81
225.746	-14.19
225.98	-6.19
226.215	11.81
226.449	17.81
226.683	5.81
226.918	28.81
227.152	41.81
227.387	28.81
227.621	34.81
227.856	31.81
228.09	44.81
228.324	30.81
228.559	51.81
228.793	51.81
229.027	57.81
229.262	81.81
229.496	66.81
229.73	58.81
229.964	84.81
230.199	74.81
230.433	59.81
230.667	77.81
230.901	65.81
231.136	78.81
231.37	88.81
231.604	85.81
231.838	84.81
232.072	62.81
232.306	92.81
232.541	87.81
232.775	76.81
233.009	75.81
233.243	78.81
233.477	81.81
233.711	73.81
233.945	84.81
234.179	80.81
234.413	83.81
234.647	80.81
234.881	72.81
235.115	72.81
235.349	94.81
235.583	74.81
235.817	92.81
236.051	88.81
236.285	68.81
236.519	74.81
236.753	76.81
236.987	67.81
237.221	71.81
237.455	72.81
237.689	72.81
237.922	81.81
238.156	80.81
238.39	77.81
238.624	80.81
238.858	66.81
239.091	84.81
239.325	70.81
239.559	62.81
239.793	77.81
240.027	65.81
240.26	73.81
240.494	82.81
240.728	62.81
240.961	70.81
241.195	86.81
241.429	80.81
241.662	79.81
241.896	59.81
242.13	65.81
242.363	75.81
242.597	81.81
242.83	81.81
243.064	75.81
243.298	70.81
243.531	73.81
243.765	64.81
243.998	74.81
244.232	71.81
244.465	76.81
244.699	74.81
244.932	77.81
245.166	78.81
245.399	77.81
245.633	81.81
245.866	78.81
246.099	77.81
246.333	75.81
246.566	55.81
246.8	81.81
247.033	81.81
247.266	80.81
247.5	79.81
247.733	73.81
247.966	69.81
248.2	79.81
248.433	68.81
248.666	68.81
248.899	66.81
249.133	73.81
249.366	84.81
249.599	80.81
249.832	63.81
250.066	76.81
250.299	85.81
250.532	75.81
250.765	80.81
250.998	72.81
251.231	75.81
251.465	71.81
251.698	81.81
251.931	72.81
252.164	77.81
252.397	67.81
252.63	76.81
252.863	75.81
253.096	80.81
253.329	84.81
253.562	79.81
253.795	86.81
254.028	80.81
254.261	72.81
254.494	80.81
254.727	84.81
254.96	93.81
255.193	79.81
255.426	86.81
255.659	73.81
255.892	79.81
256.124	75.81
256.357	80.81
256.59	85.81
256.823	74.81
257.056	79.81
257.289	77.81
257.521	86.81
257.754	76.81
257.987	77.81
258.22	62.81
258.452	88.81
258.685	86.81
258.918	104.81
259.151	90.81
259.383	66.81
259.616	75.81
259.849	73.81
260.081	74.81
260.314	89.81
260.547	70.81
260.779	80.81
261.012	70.81
261.244	95.81
261.477	77.81
261.71	74.81
261.942	64.81
262.175	64.81
262.407	93.81
262.64	84.81
262.872	81.81
263.105	82.81
263.337	78.81
263.57	80.81
263.802	75.81
264.035	92.81
264.267	80.81
264.499	81.81
264.732	73.81
264.964	79.81
265.197	84.81
265.429	78.81
265.661	78.81
265.894	77.81
266.126	77.81
266.358	89.81
266.591	65.81
266.823	78.81
267.055	72.81
267.287	88.81
267.52	89.81
267.752	63.81
267.984	77.81
268.216	80.81
268.448	85.81
268.681	80.81
268.913	82.81
269.145	76.81
269.377	83.81
269.609	86.81
269.841	73.81
270.073	75.81
270.306	88.81
270.538	74.81
270.77	80.81
271.002	67.81
271.234	68.81
271.466	92.81
271.698	81.81
271.93	71.81
272.162	74.81
272.394	73.81
272.626	73.81
272.858	79.81
273.09	92.81
273.322	77.81
273.553	78.81
273.785	77.81
274.017	80.81
274.249	75.81
274.481	89.81
274.713	86.81
274.945	78.81
275.176	73.81
275.408	85.81
275.64	79.81
275.872	90.81
276.104	82.81
276.335	69.81
276.567	65.81
276.799	73.81
277.031	70.81
277.262	67.81
277.494	85.81
277.726	80.81
277.957	81.81
278.189	88.81
278.421	83.81
278.652	92.81
278.884	74.81
279.115	74.81
279.347	80.81
279.579	84.81
279.81	88.81
280.042	80.81
280.273	83.81
280.505	69.81
280.736	78.81
280.968	81.81
281.199	83.81
281.431	75.81
281.662	87.81
281.894	86.81
282.125	86.81
282.356	86.81
282.588	81.81
282.819	94.81
283.051	80.81
283.282	78.81
283.513	77.81
283.745	69.81
283.976	74.81
284.207	85.81
284.439	69.81
284.67	74.81
284.901	86.81
285.132	86.81
285.364	74.81
285.595	78.81
285.826	96.81
286.057	85.81
286.288	71.81
286.52	83.81
286.751	80.81
286.982	86.81
287.213	68.81
287.444	71.81
287.675	78.81
287.906	78.81
288.138	73.81
288.369	80.81
288.6	73.81
288.831	72.81
289.062	82.81
289.293	79.81
289.524	70.81
289.755	82.81
289.986	74.81
290.217	95.81
290.448	80.81
290.679	84.81
290.91	70.81
291.141	80.81
291.371	82.81
291.602	91.81
291.833	76.81
292.064	65.81
292.295	78.81
292.526	78.81
292.757	86.81
292.987	82.81
293.218	89.81
293.449	80.81
293.68	79.81
293.91	81.81
294.141	63.81
294.372	86.81
294.603	72.81
294.833	78.81
295.064	74.81
295.295	75.81
295.525	82.81
295.756	82.81
295.987	85.81
296.217	82.81
296.448	84.81
296.679	71.81
296.909	87.81
297.14	81.81
297.37	84.81
297.601	96.81
297.831	86.81
298.062	78.81
298.292	71.81
298.523	71.81
298.753	82.81
298.984	81.81
299.214	67.81
299.445	80.81
299.675	87.81
299.905	95.81
300.136	78.81
300.366	74.81
300.597	73.81
300.827	80.81
301.057	78.81
301.288	84.81
301.518	78.81
301.748	80.81
301.979	84.81
302.209	100.81
302.439	72.81
302.669	89.81
302.9	82.81
303.13	80.81
303.36	92.81
303.59	77.81
303.82	68.81
304.051	80.81
304.281	89.81
304.511	88.81
304.741	91.81
304.971	82.81
305.201	92.81
305.431	81.81
305.661	83.81
305.891	87.81
306.121	77.81
306.352	74.81
306.582	71.81
306.812	82.81
307.042	73.81
307.272	86.81
307.502	88.81
307.731	81.81
307.961	87.81
308.191	88.81
308.421	60.81
308.651	88.81
308.881	92.81
309.111	78.81
309.341	77.81
309.571	84.81
309.8	69.81
310.03	64.81
310.26	76.81
310.49	76.81
310.72	74.81
310.949	82.81
311.179	82.81
311.409	74.81
311.639	86.81
311.868	89.81
312.098	100.81
312.328	78.81
312.557	78.81
312.787	81.81
313.017	74.81
313.246	88.81
313.476	88.81
313.706	73.81
313.935	90.81
314.165	85.81
314.394	77.81
314.624	72.81
314.853	68.81
315.083	78.81
315.312	83.81
315.542	78.81
315.771	82.81
316.001	84.81
316.23	83.81
316.46	85.81
316.689	85.81
316.919	83.81
317.148	78.81
317.377	95.81
317.607	79.81
317.836	86.81
318.065	80.81
318.295	84.81
318.524	86.81
318.753	90.81
318.983	70.81
319.212	79.81
319.441	89.81
319.67	79.81
319.9	81.81
320.129	75.81
320.358	76.81
320.587	77.81
320.816	85.81
321.046	77.81
321.275	73.81
321.504	79.81
321.733	73.81
321.962	97.81
322.191	81.81
322.42	71.81
322.649	97.81
322.878	90.81
323.108	88.81
323.337	64.81
323.566	88.81
323.795	79.81
324.024	83.81
324.253	77.81
324.482	74.81
324.71	76.81
324.939	70.81
325.168	68.81
325.397	78.81
325.626	83.81
325.855	76.81
326.084	92.81
326.313	90.81
326.542	81.81
326.77	77.81
326.999	73.81
327.228	79.81
327.457	78.81
327.686	77.81
327.914	80.81
328.143	79.81
328.372	90.81
328.6	79.81
328.829	85.81
329.058	74.81
329.287	78.81
329.515	73.81
329.744	83.81
329.972	89.81
330.201	76.81
330.43	82.81
330.658	81.81
330.887	88.81
331.115	80.81
331.344	78.81
331.572	89.81
331.801	86.81
332.03	71.81
332.258	91.81
332.486	84.81
332.715	101.81
332.943	73.81
333.172	94.81
333.4	84.81
333.629	88.81
333.857	80.81
334.085	84.81
334.314	78.81
334.542	85.81
334.771	80.81
334.999	60.81
335.227	77.81
335.455	84.81
335.684	81.81
335.912	73.81
336.14	77.81
336.369	75.81
336.597	74.81
336.825	88.81
337.053	80.81
337.281	83.81
337.51	92.81
337.738	84.81
337.966	82.81
338.194	76.81
338.422	75.81
338.65	76.81
338.878	72.81
339.106	82.81
339.334	86.81
339.562	81.81
339.79	79.81
340.018	70.81
340.246	69.81
340.474	87.81
340.702	91.81
340.93	73.81
341.158	87.81
341.386	73.81
341.614	84.81
341.842	76.81
342.07	84.81
342.298	79.81
342.526	67.81
342.754	78.81
342.981	89.81
343.209	76.81
343.437	77.81
343.665	73.81
343.893	80.81
344.12	72.81
344.348	88.81
344.576	75.81
344.804	68.81
345.031	84.81
345.259	90.81
345.487	75.81
345.714	87.81
345.942	87.81
346.17	92.81
346.397	84.81
346.625	76.81
346.853	88.81
347.08	89.81
347.308	92.81
347.535	88.81
347.763	90.81
347.99	83.81
348.218	85.81
348.445	70.81
348.673	83.81
348.9	87.81
349.128	81.81
349.355	74.81
349.583	86.81
349.81	71.81
350.037	66.81
350.265	81.81
350.492	67.81
350.72	78.81
350.947	72.81
351.174	88.81
351.402	89.81
351.629	65.81
351.856	84.81
352.083	80.81
352.311	80.81
352.538	77.81
352.765	73.81
352.992	82.81
353.22	78.81
353.447	90.81
353.674	90.81
353.901	87.81
354.128	90.81
354.355	81.81
354.583	89.81
354.81	84.81
355.037	74.81
355.264	74.81
355.491	79.81
355.718	62.81
355.945	82.81
356.172	73.81
356.399	66.81
356.626	83.81
356.853	74.81
357.08	76.81
357.307	85.81
357.534	92.81
357.761	85.81
357.988	84.81
358.215	83.81
358.441	73.81
358.668	78.81
358.895	64.81
359.122	83.81
359.349	86.81
359.576	76.81
359.802	94.81
360.029	84.81
360.256	74.81
360.483	80.81
360.709	91.81
360.936	92.81
361.163	84.81
361.39	87.81
361.616	79.81
361.843	82.81
362.07	83.81
362.296	92.81
362.523	68.81
362.749	75.81
362.976	70.81
363.203	90.81
363.429	94.81
363.656	84.81
363.882	76.81
364.109	83.81
364.335	78.81
364.562	77.81
364.788	75.81
365.015	81.81
365.241	89.81
365.468	85.81
365.694	74.81
365.92	84.81
366.147	74.81
366.373	74.81
366.599	73.81
366.826	84.81
367.052	84.81
367.278	76.81
367.505	64.81
367.731	92.81
367.957	93.81
368.184	79.81
368.41	78.81
368.636	77.81
368.862	73.81
369.089	80.81
369.315	78.81
369.541	92.81
369.767	86.81
369.993	82.81
370.219	74.81
370.445	91.81
370.672	87.81
370.898	80.81
371.124	76.81
371.35	93.81
371.576	87.81
371.802	72.81
372.028	79.81
372.254	78.81
372.48	79.81
372.706	82.81
372.932	80.81
373.158	85.81
373.384	87.81
373.61	87.81
373.835	74.81
374.061	77.81
374.287	74.81
374.513	89.81
374.739	88.81
374.965	74.81
375.191	78.81
375.416	84.81
375.642	82.81
375.868	95.81
376.094	81.81
376.319	85.81
376.545	77.81
376.771	69.81
376.997	85.81
377.222	94.81
377.448	90.81
377.674	86.81
377.899	81.81
378.125	85.81
378.35	88.81
378.576	78.81
378.802	72.81
379.027	97.81
379.253	93.81
379.478	101.81
379.704	91.81
379.929	93.81
380.155	85.81
380.38	83.81
380.606	74.81
380.831	82.81
381.057	84.81
381.282	82.81
381.507	77.81
381.733	74.81
381.958	86.81
382.184	75.81
382.409	82.81
382.634	94.81
382.86	73.81
383.085	74.81
383.31	97.81
383.535	78.81
383.761	81.81
383.986	69.81
384.211	74.81
384.436	83.81
384.662	95.81
384.887	94.81
385.112	84.81
385.337	98.81
385.562	87.81
385.787	87.81
386.013	104.81
386.238	90.81
386.463	72.81
386.688	68.81
386.913	69.81
387.138	80.81
387.363	82.81
387.588	94.81
387.813	78.81
388.038	79.81
388.263	78.81
388.488	72.81
388.713	93.81
388.938	72.81
389.163	62.81
389.387	88.81
389.612	81.81
389.837	91.81
390.062	92.81
390.287	84.81
390.512	98.81
390.736	74.81
390.961	76.81
391.186	78.81
391.411	87.81
391.636	85.81
391.86	81.81
392.085	78.81
392.31	85.81
392.534	88.81
392.759	80.81
392.984	87.81
393.208	79.81
393.433	93.81
393.658	90.81
393.882	82.81
394.107	81.81
394.331	79.81
394.556	77.81
394.78	96.81
395.005	87.81
395.229	77.81
395.454	94.81
395.678	91.81
395.903	62.81
396.127	84.81
396.352	76.81
396.576	95.81
396.801	86.81
397.025	87.81
397.249	85.81
397.474	108.81
397.698	79.81
397.922	84.81
398.147	88.81
398.371	91.81
398.595	91.81
398.82	95.81
399.044	86.81
399.268	85.81
399.492	81.81
399.717	88.81
399.941	76.81
400.165	80.81
400.389	93.81
400.613	90.81
400.837	86.81
401.062	93.81
401.286	93.81
401.51	98.81
401.734	92.81
401.958	75.81
402.182	92.81
402.406	99.81
402.63	81.81
402.854	81.81
403.078	82.81
403.302	81.81
403.526	87.81
403.75	80.81
403.974	93.81
404.198	87.81
404.422	92.81
404.645	93.81
404.869	85.81
405.093	89.81
405.317	80.81
405.541	73.81
405.765	83.81
405.988	92.81
406.212	87.81
406.436	77.81
406.66	91.81
406.883	88.81
407.107	76.81
407.331	96.81
407.555	98.81
407.778	91.81
408.002	90.81
408.226	78.81
408.449	94.81
408.673	80.81
408.896	96.81
409.12	101.81
409.344	88.81
409.567	101.81
409.791	92.81
410.014	88.81
410.238	98.81
410.461	99.81
410.685	89.81
410.908	77.81
411.132	97.81
411.355	87.81
411.578	102.81
411.802	93.81
412.025	82.81
412.249	87.81
412.472	94.81
412.695	84.81
412.919	94.81
413.142	91.81
413.365	90.81
413.589	92.81
413.812	76.81
414.035	80.81
414.258	94.81
414.482	99.81
414.705	94.81
414.928	105.81
415.151	109.81
415.374	86.81
415.597	87.81
415.821	91.81
416.044	93.81
416.267	88.81
416.49	88.81
416.713	88.81
416.936	92.81
417.159	97.81
417.382	88.81
417.605	74.81
417.828	98.81
418.051	79.81
418.274	73.81
418.497	117.81
418.72	98.81
418.943	94.81
419.166	102.81
419.389	106.81
419.611	87.81
419.834	93.81
420.057	77.81
420.28	97.81
420.503	97.81
420.726	85.81
420.948	103.81
421.171	103.81
421.394	91.81
421.617	89.81
421.839	88.81
422.062	96.81
422.285	88.81
422.507	100.81
422.73	97.81
422.953	101.81
423.175	100.81
423.398	93.81
423.621	84.81
423.843	96.81
424.066	100.81
424.288	97.81
424.511	96.81
424.733	103.81
424.956	94.81
425.178	88.81
425.401	102.81
425.623	79.81
425.846	95.81
426.068	81.81
426.291	88.81
426.513	79.81
426.735	87.81
426.958	102.81
427.18	91.81
427.402	96.81
427.625	89.81
427.847	101.81
428.069	92.81
428.292	85.81
428.514	97.81
428.736	94.81
428.958	90.81
429.181	95.81
429.403	84.81
429.625	76.81
429.847	109.81
430.069	85.81
430.292	94.81
430.514	101.81
430.736	89.81
430.958	82.81
431.18	89.81
431.402	84.81
431.624	80.81
431.846	74.81
432.068	80.81
432.29	63.81
432.512	86.81
432.734	93.81
432.956	84.81
433.178	90.81
433.4	102.81
433.622	102.81
433.844	92.81
434.066	81.81
434.287	86.81
434.509	82.81
434.731	81.81
434.953	74.81
435.175	82.81
435.397	97.81
435.618	103.81
435.84	83.81
436.062	89.81
436.284	90.81
436.505	98.81
436.727	88.81
436.949	80.81
437.17	84.81
437.392	88.81
437.614	80.81
437.835	97.81
438.057	82.81
438.278	84.81
438.5	97.81
438.721	86.81
438.943	100.81
439.165	85.81
439.386	81.81
439.608	80.81
439.829	98.81
440.05	96.81
440.272	90.81
440.493	97.81
440.715	89.81
440.936	93.81
441.158	92.81
441.379	100.81
441.6	90.81
441.822	110.81
442.043	84.81
442.264	94.81
442.486	88.81
442.707	90.81
442.928	112.81
443.149	90.81
443.371	102.81
443.592	97.81
443.813	102.81
444.034	88.81
444.255	91.81
444.476	82.81
444.698	92.81
444.919	103.81
445.14	192.81
445.361	139.81
445.582	102.81
445.803	99.81
446.024	103.81
446.245	108.81
446.466	89.81
446.687	103.81
446.908	97.81
447.129	106.81
447.35	101.81
447.571	107.81
447.792	84.81
448.013	92.81
448.234	90.81
448.455	93.81
448.675	101.81
448.896	103.81
449.117	98.81
449.338	81.81
449.559	95.81
449.779	88.81
450	111.81
450.221	95.81
450.442	101.81
450.662	87.81
450.883	87.81
451.104	92.81
451.324	104.81
451.545	97.81
451.766	105.81
451.986	84.81
452.207	92.81
452.428	90.81
452.648	86.81
452.869	92.81
453.089	93.81
453.31	85.81
453.53	90.81
453.751	89.81
453.971	77.81
454.192	89.81
454.412	99.81
454.633	81.81
454.853	98.81
455.073	87.81
455.294	87.81
455.514	89.81
455.734	89.81
455.955	87.81
456.175	84.81
456.395	98.81
456.616	90.81
456.836	75.81
457.056	103.81
457.276	76.81
457.497	84.81
457.717	93.81
457.937	87.81
458.157	74.81
458.377	81.81
458.598	89.81
458.818	81.81
459.038	76.81
459.258	80.81
459.478	83.81
459.698	85.81
459.918	74.81
460.138	90.81
460.358	95.81
460.578	105.81
460.798	76.81
461.018	89.81
461.238	84.81
461.458	89.81
461.678	83.81
461.898	80.81
462.118	92.81
462.338	74.81
462.558	96.81
462.777	93.81
462.997	86.81
463.217	91.81
463.437	90.81
463.657	74.81
463.876	84.81
464.096	80.81
464.316	99.81
464.536	79.81
464.755	85.81
464.975	83.81
465.195	97.81
465.414	100.81
465.634	89.81
465.854	76.81
466.073	74.81
466.293	90.81
466.512	73.81
466.732	88.81
466.951	86.81
467.171	100.81
467.391	88.81
467.61	96.81
467.829	103.81
468.049	84.81
468.268	92.81
468.488	87.81
468.707	98.81
468.927	103.81
469.146	97.81
469.365	89.81
469.585	113.81
469.804	108.81
470.023	86.81
470.243	88.81
470.462	88.81
470.681	111.81
470.901	90.81
471.12	94.81
471.339	101.81
471.558	82.81
471.777	95.81
471.997	89.81
472.216	99.81
472.435	97.81
472.654	72.81
472.873	67.81
473.092	83.81
473.311	97.81
473.53	102.81
473.749	82.81
473.968	94.81
474.187	89.81
474.406	87.81
474.625	86.81
474.844	107.81
475.063	96.81
475.282	96.81
475.501	98.81
475.72	96.81
475.939	92.81
476.158	88.81
476.377	93.81
476.596	85.81
476.814	101.81
477.033	99.81
477.252	87.81
477.471	98.81
477.69	86.81
477.908	106.81
478.127	116.81
478.346	96.81
478.564	91.81
478.783	93.81
479.002	99.81
479.22	110.81
479.439	106.81
479.658	93.81
479.876	87.81
480.095	91.81
480.313	94.81
480.532	93.81
480.751	94.81
480.969	82.81
481.188	70.81
481.406	90.81
481.624	73.81
481.843	83.81
482.061	99.81
482.28	85.81
482.498	90.81
482.717	106.81
482.935	90.81
483.153	108.81
483.372	94.81
483.59	108.81
483.808	93.81
484.027	97.81
484.245	100.81
484.463	96.81
484.681	127.81
484.9	101.81
485.118	91.81
485.336	105.81
485.554	90.81
485.772	86.81
485.99	84.81
486.209	97.81
486.427	73.81
486.645	85.81
486.863	88.81
487.081	97.81
487.299	92.81
487.517	100.81
487.735	93.81
487.953	114.81
488.171	113.81
488.389	107.81
488.607	92.81
488.825	95.81
489.043	91.81
489.261	99.81
489.479	103.81
489.696	96.81
489.914	104.81
490.132	94.81
490.35	87.81
490.568	104.81
490.786	107.81
491.003	107.81
491.221	104.81
491.439	113.81
491.657	117.81
491.874	114.81
492.092	135.81
492.31	131.81
492.527	127.81
492.745	119.81
492.963	102.81
493.18	108.81
493.398	117.81
493.615	90.81
493.833	103.81
494.05	101.81
494.268	100.81
494.485	117.81
494.703	117.81
494.92	105.81
495.138	103.81
495.355	101.81
495.573	113.81
495.79	105.81
496.008	108.81
496.225	102.81
496.442	108.81
496.66	122.81
496.877	106.81
497.094	105.81
497.312	101.81
497.529	93.81
497.746	98.81
497.963	101.81
498.181	91.81
498.398	90.81
498.615	90.81
498.832	85.81
499.049	96.81
499.267	96.81
499.484	89.81
499.701	103.81
499.918	112.81
500.135	81.81
500.352	95.81
500.569	103.81
500.786	97.81
501.003	93.81
501.22	109.81
501.437	94.81
501.654	97.81
501.871	90.81
502.088	89.81
502.305	99.81
502.522	101.81
502.739	90.81
502.956	89.81
503.172	102.81
503.389	86.81
503.606	91.81
503.823	94.81
504.04	92.81
504.256	90.81
504.473	92.81
504.69	84.81
504.907	110.81
505.123	81.81
505.34	107.81
505.557	97.81
505.773	100.81
505.99	90.81
506.207	83.81
506.423	80.81
506.64	90.81
506.856	92.81
507.073	84.81
507.289	113.81
507.506	84.81
507.722	88.81
507.939	100.81
508.155	89.81
508.372	92.81
508.588	98.81
508.805	89.81
509.021	87.81
509.238	81.81
509.454	90.81
509.67	78.81
509.887	66.81
510.103	80.81
510.319	88.81
510.536	80.81
510.752	78.81
510.968	81.81
511.184	62.81
511.401	65.81
511.617	81.81
511.833	96.81
512.049	102.81
512.265	77.81
512.481	87.81
512.698	78.81
512.914	89.81
513.13	88.81
513.346	84.81
513.562	82.81
513.778	90.81
513.994	90.81
514.21	83.81
514.426	87.81
514.642	77.81
514.858	74.81
515.074	79.81
515.29	82.81
515.506	72.81
515.721	88.81
515.937	83.81
516.153	82.81
516.369	72.81
516.585	90.81
516.801	77.81
517.016	101.81
517.232	86.81
517.448	95.81
517.664	84.81
