Data from Location4.07152019.Energy5.Lamp.07192019.3%Agarose_HRD10591_15-23-31-576.txt Node
Date: Fri Jul 19 15:23:31 EDT 2019
User: cochatt
Spectrometer: HR+D1059
Trigger mode: 1
Integration Time (sec): 1.000000E-1
Scans to average: 1
Electric dark correction enabled: true
Nonlinearity correction enabled: false
Boxcar width: 0
XAxis mode: Wavelengths
Number of Pixels in Spectrum: 2048
>>>>>Begin Spectral Data<<<<<
223.165	-9.06
223.4	-9.06
223.635	-9.06
223.869	-24.06
224.104	-28.06
224.338	-16.06
224.573	-4.06
224.808	-13.06
225.042	-17.06
225.277	-14.06
225.511	-4.06
225.746	13.94
225.98	2.94
226.215	9.94
226.449	14.94
226.683	31.94
226.918	26.94
227.152	28.94
227.387	45.94
227.621	27.94
227.856	43.94
228.09	38.94
228.324	38.94
228.559	67.94
228.793	45.94
229.027	57.94
229.262	57.94
229.496	65.94
229.73	74.94
229.964	63.94
230.199	72.94
230.433	57.94
230.667	80.94
230.901	83.94
231.136	69.94
231.37	72.94
231.604	72.94
231.838	63.94
232.072	75.94
232.306	80.94
232.541	75.94
232.775	74.94
233.009	73.94
233.243	59.94
233.477	89.94
233.711	90.94
233.945	72.94
234.179	76.94
234.413	72.94
234.647	61.94
234.881	83.94
235.115	78.94
235.349	80.94
235.583	80.94
235.817	72.94
236.051	81.94
236.285	83.94
236.519	77.94
236.753	78.94
236.987	68.94
237.221	67.94
237.455	83.94
237.689	68.94
237.922	72.94
238.156	74.94
238.39	77.94
238.624	60.94
238.858	73.94
239.091	64.94
239.325	81.94
239.559	63.94
239.793	72.94
240.027	88.94
240.26	79.94
240.494	81.94
240.728	65.94
240.961	73.94
241.195	61.94
241.429	80.94
241.662	70.94
241.896	72.94
242.13	66.94
242.363	70.94
242.597	66.94
242.83	68.94
243.064	71.94
243.298	72.94
243.531	77.94
243.765	76.94
243.998	61.94
244.232	94.94
244.465	72.94
244.699	70.94
244.932	81.94
245.166	79.94
245.399	66.94
245.633	75.94
245.866	85.94
246.099	87.94
246.333	61.94
246.566	84.94
246.8	76.94
247.033	82.94
247.266	73.94
247.5	71.94
247.733	78.94
247.966	62.94
248.2	83.94
248.433	85.94
248.666	75.94
248.899	86.94
249.133	67.94
249.366	88.94
249.599	94.94
249.832	72.94
250.066	83.94
250.299	78.94
250.532	80.94
250.765	64.94
250.998	83.94
251.231	83.94
251.465	80.94
251.698	72.94
251.931	80.94
252.164	69.94
252.397	71.94
252.63	78.94
252.863	89.94
253.096	84.94
253.329	73.94
253.562	86.94
253.795	87.94
254.028	69.94
254.261	80.94
254.494	91.94
254.727	89.94
254.96	84.94
255.193	88.94
255.426	75.94
255.659	70.94
255.892	68.94
256.124	89.94
256.357	67.94
256.59	73.94
256.823	73.94
257.056	84.94
257.289	68.94
257.521	71.94
257.754	87.94
257.987	72.94
258.22	78.94
258.452	66.94
258.685	72.94
258.918	80.94
259.151	68.94
259.383	86.94
259.616	90.94
259.849	70.94
260.081	82.94
260.314	77.94
260.547	91.94
260.779	77.94
261.012	78.94
261.244	77.94
261.477	77.94
261.71	77.94
261.942	69.94
262.175	83.94
262.407	95.94
262.64	71.94
262.872	66.94
263.105	83.94
263.337	91.94
263.57	64.94
263.802	78.94
264.035	82.94
264.267	80.94
264.499	86.94
264.732	78.94
264.964	81.94
265.197	80.94
265.429	65.94
265.661	91.94
265.894	86.94
266.126	83.94
266.358	76.94
266.591	68.94
266.823	88.94
267.055	73.94
267.287	81.94
267.52	103.94
267.752	100.94
267.984	82.94
268.216	85.94
268.448	76.94
268.681	78.94
268.913	82.94
269.145	91.94
269.377	76.94
269.609	87.94
269.841	86.94
270.073	90.94
270.306	83.94
270.538	87.94
270.77	57.94
271.002	79.94
271.234	79.94
271.466	72.94
271.698	72.94
271.93	82.94
272.162	76.94
272.394	85.94
272.626	87.94
272.858	64.94
273.09	67.94
273.322	80.94
273.553	80.94
273.785	81.94
274.017	80.94
274.249	82.94
274.481	69.94
274.713	92.94
274.945	74.94
275.176	90.94
275.408	85.94
275.64	77.94
275.872	77.94
276.104	81.94
276.335	83.94
276.567	79.94
276.799	75.94
277.031	78.94
277.262	87.94
277.494	74.94
277.726	88.94
277.957	76.94
278.189	75.94
278.421	76.94
278.652	78.94
278.884	82.94
279.115	89.94
279.347	78.94
279.579	83.94
279.81	97.94
280.042	74.94
280.273	73.94
280.505	79.94
280.736	86.94
280.968	93.94
281.199	72.94
281.431	73.94
281.662	70.94
281.894	83.94
282.125	98.94
282.356	89.94
282.588	69.94
282.819	85.94
283.051	77.94
283.282	80.94
283.513	84.94
283.745	82.94
283.976	73.94
284.207	74.94
284.439	82.94
284.67	85.94
284.901	82.94
285.132	92.94
285.364	73.94
285.595	76.94
285.826	76.94
286.057	85.94
286.288	84.94
286.52	79.94
286.751	84.94
286.982	71.94
287.213	84.94
287.444	70.94
287.675	91.94
287.906	68.94
288.138	67.94
288.369	75.94
288.6	88.94
288.831	86.94
289.062	80.94
289.293	72.94
289.524	80.94
289.755	82.94
289.986	73.94
290.217	83.94
290.448	73.94
290.679	87.94
290.91	96.94
291.141	84.94
291.371	74.94
291.602	89.94
291.833	77.94
292.064	71.94
292.295	68.94
292.526	76.94
292.757	87.94
292.987	79.94
293.218	79.94
293.449	81.94
293.68	73.94
293.91	66.94
294.141	86.94
294.372	91.94
294.603	79.94
294.833	91.94
295.064	77.94
295.295	93.94
295.525	90.94
295.756	86.94
295.987	84.94
296.217	83.94
296.448	71.94
296.679	87.94
296.909	77.94
297.14	78.94
297.37	84.94
297.601	82.94
297.831	84.94
298.062	73.94
298.292	99.94
298.523	96.94
298.753	89.94
298.984	90.94
299.214	92.94
299.445	85.94
299.675	79.94
299.905	71.94
300.136	94.94
300.366	88.94
300.597	82.94
300.827	81.94
301.057	77.94
301.288	77.94
301.518	86.94
301.748	71.94
301.979	86.94
302.209	80.94
302.439	71.94
302.669	90.94
302.9	69.94
303.13	75.94
303.36	97.94
303.59	89.94
303.82	91.94
304.051	83.94
304.281	85.94
304.511	65.94
304.741	74.94
304.971	69.94
305.201	85.94
305.431	80.94
305.661	80.94
305.891	81.94
306.121	84.94
306.352	89.94
306.582	76.94
306.812	75.94
307.042	78.94
307.272	65.94
307.502	66.94
307.731	71.94
307.961	92.94
308.191	80.94
308.421	77.94
308.651	83.94
308.881	73.94
309.111	76.94
309.341	87.94
309.571	100.94
309.8	82.94
310.03	96.94
310.26	73.94
310.49	81.94
310.72	80.94
310.949	94.94
311.179	74.94
311.409	78.94
311.639	85.94
311.868	94.94
312.098	91.94
312.328	89.94
312.557	74.94
312.787	80.94
313.017	67.94
313.246	90.94
313.476	77.94
313.706	91.94
313.935	85.94
314.165	75.94
314.394	77.94
314.624	73.94
314.853	87.94
315.083	88.94
315.312	82.94
315.542	83.94
315.771	82.94
316.001	73.94
316.23	63.94
316.46	87.94
316.689	83.94
316.919	78.94
317.148	73.94
317.377	95.94
317.607	84.94
317.836	79.94
318.065	86.94
318.295	76.94
318.524	77.94
318.753	78.94
318.983	83.94
319.212	87.94
319.441	72.94
319.67	68.94
319.9	84.94
320.129	85.94
320.358	83.94
320.587	92.94
320.816	89.94
321.046	73.94
321.275	87.94
321.504	85.94
321.733	85.94
321.962	76.94
322.191	65.94
322.42	84.94
322.649	90.94
322.878	77.94
323.108	92.94
323.337	94.94
323.566	74.94
323.795	83.94
324.024	95.94
324.253	88.94
324.482	93.94
324.71	84.94
324.939	91.94
325.168	88.94
325.397	92.94
325.626	73.94
325.855	85.94
326.084	72.94
326.313	81.94
326.542	93.94
326.77	83.94
326.999	78.94
327.228	89.94
327.457	92.94
327.686	77.94
327.914	85.94
328.143	88.94
328.372	70.94
328.6	85.94
328.829	75.94
329.058	80.94
329.287	77.94
329.515	97.94
329.744	103.94
329.972	64.94
330.201	82.94
330.43	72.94
330.658	70.94
330.887	85.94
331.115	89.94
331.344	77.94
331.572	84.94
331.801	88.94
332.03	76.94
332.258	81.94
332.486	80.94
332.715	94.94
332.943	81.94
333.172	71.94
333.4	76.94
333.629	80.94
333.857	77.94
334.085	73.94
334.314	73.94
334.542	63.94
334.771	84.94
334.999	80.94
335.227	75.94
335.455	79.94
335.684	78.94
335.912	74.94
336.14	84.94
336.369	85.94
336.597	87.94
336.825	73.94
337.053	89.94
337.281	81.94
337.51	89.94
337.738	84.94
337.966	74.94
338.194	82.94
338.422	87.94
338.65	82.94
338.878	86.94
339.106	86.94
339.334	96.94
339.562	73.94
339.79	97.94
340.018	72.94
340.246	79.94
340.474	72.94
340.702	86.94
340.93	86.94
341.158	83.94
341.386	92.94
341.614	88.94
341.842	87.94
342.07	84.94
342.298	81.94
342.526	84.94
342.754	81.94
342.981	80.94
343.209	78.94
343.437	73.94
343.665	86.94
343.893	82.94
344.12	84.94
344.348	92.94
344.576	64.94
344.804	90.94
345.031	88.94
345.259	88.94
345.487	81.94
345.714	77.94
345.942	69.94
346.17	88.94
346.397	88.94
346.625	74.94
346.853	83.94
347.08	78.94
347.308	72.94
347.535	93.94
347.763	87.94
347.99	81.94
348.218	79.94
348.445	75.94
348.673	71.94
348.9	78.94
349.128	83.94
349.355	78.94
349.583	90.94
349.81	94.94
350.037	81.94
350.265	83.94
350.492	87.94
350.72	79.94
350.947	79.94
351.174	82.94
351.402	84.94
351.629	86.94
351.856	77.94
352.083	72.94
352.311	79.94
352.538	84.94
352.765	96.94
352.992	86.94
353.22	80.94
353.447	85.94
353.674	71.94
353.901	79.94
354.128	84.94
354.355	91.94
354.583	84.94
354.81	81.94
355.037	75.94
355.264	71.94
355.491	93.94
355.718	84.94
355.945	83.94
356.172	87.94
356.399	83.94
356.626	69.94
356.853	79.94
357.08	87.94
357.307	92.94
357.534	75.94
357.761	79.94
357.988	97.94
358.215	86.94
358.441	78.94
358.668	75.94
358.895	91.94
359.122	85.94
359.349	81.94
359.576	88.94
359.802	88.94
360.029	85.94
360.256	70.94
360.483	85.94
360.709	77.94
360.936	84.94
361.163	82.94
361.39	64.94
361.616	81.94
361.843	86.94
362.07	93.94
362.296	77.94
362.523	61.94
362.749	88.94
362.976	87.94
363.203	73.94
363.429	93.94
363.656	84.94
363.882	85.94
364.109	86.94
364.335	81.94
364.562	78.94
364.788	82.94
365.015	88.94
365.241	97.94
365.468	70.94
365.694	85.94
365.92	81.94
366.147	74.94
366.373	74.94
366.599	85.94
366.826	82.94
367.052	92.94
367.278	97.94
367.505	93.94
367.731	88.94
367.957	64.94
368.184	83.94
368.41	68.94
368.636	76.94
368.862	91.94
369.089	68.94
369.315	68.94
369.541	76.94
369.767	80.94
369.993	89.94
370.219	82.94
370.445	83.94
370.672	83.94
370.898	81.94
371.124	80.94
371.35	77.94
371.576	90.94
371.802	84.94
372.028	92.94
372.254	93.94
372.48	93.94
372.706	86.94
372.932	80.94
373.158	88.94
373.384	74.94
373.61	97.94
373.835	76.94
374.061	80.94
374.287	90.94
374.513	76.94
374.739	89.94
374.965	80.94
375.191	88.94
375.416	83.94
375.642	77.94
375.868	91.94
376.094	81.94
376.319	89.94
376.545	92.94
376.771	79.94
376.997	63.94
377.222	85.94
377.448	102.94
377.674	97.94
377.899	85.94
378.125	79.94
378.35	94.94
378.576	93.94
378.802	98.94
379.027	93.94
379.253	76.94
379.478	92.94
379.704	72.94
379.929	87.94
380.155	97.94
380.38	88.94
380.606	83.94
380.831	87.94
381.057	90.94
381.282	96.94
381.507	84.94
381.733	80.94
381.958	89.94
382.184	94.94
382.409	85.94
382.634	81.94
382.86	74.94
383.085	86.94
383.31	83.94
383.535	91.94
383.761	71.94
383.986	93.94
384.211	63.94
384.436	74.94
384.662	89.94
384.887	74.94
385.112	82.94
385.337	92.94
385.562	75.94
385.787	93.94
386.013	103.94
386.238	86.94
386.463	92.94
386.688	99.94
386.913	81.94
387.138	86.94
387.363	90.94
387.588	75.94
387.813	79.94
388.038	81.94
388.263	85.94
388.488	88.94
388.713	77.94
388.938	77.94
389.163	75.94
389.387	97.94
389.612	79.94
389.837	73.94
390.062	84.94
390.287	80.94
390.512	86.94
390.736	88.94
390.961	86.94
391.186	81.94
391.411	69.94
391.636	83.94
391.86	73.94
392.085	76.94
392.31	85.94
392.534	85.94
392.759	86.94
392.984	87.94
393.208	81.94
393.433	83.94
393.658	84.94
393.882	91.94
394.107	85.94
394.331	70.94
394.556	72.94
394.78	96.94
395.005	80.94
395.229	95.94
395.454	77.94
395.678	81.94
395.903	75.94
396.127	86.94
396.352	79.94
396.576	83.94
396.801	85.94
397.025	75.94
397.249	78.94
397.474	97.94
397.698	90.94
397.922	84.94
398.147	83.94
398.371	84.94
398.595	91.94
398.82	83.94
399.044	84.94
399.268	89.94
399.492	93.94
399.717	101.94
399.941	107.94
400.165	103.94
400.389	83.94
400.613	90.94
400.837	81.94
401.062	85.94
401.286	91.94
401.51	91.94
401.734	87.94
401.958	78.94
402.182	101.94
402.406	92.94
402.63	94.94
402.854	79.94
403.078	89.94
403.302	59.94
403.526	86.94
403.75	92.94
403.974	86.94
404.198	97.94
404.422	96.94
404.645	82.94
404.869	89.94
405.093	94.94
405.317	85.94
405.541	94.94
405.765	81.94
405.988	81.94
406.212	96.94
406.436	82.94
406.66	87.94
406.883	91.94
407.107	82.94
407.331	78.94
407.555	83.94
407.778	82.94
408.002	73.94
408.226	86.94
408.449	88.94
408.673	87.94
408.896	85.94
409.12	82.94
409.344	85.94
409.567	79.94
409.791	79.94
410.014	86.94
410.238	93.94
410.461	97.94
410.685	87.94
410.908	93.94
411.132	103.94
411.355	95.94
411.578	82.94
411.802	86.94
412.025	92.94
412.249	87.94
412.472	78.94
412.695	86.94
412.919	83.94
413.142	83.94
413.365	90.94
413.589	90.94
413.812	89.94
414.035	93.94
414.258	92.94
414.482	80.94
414.705	96.94
414.928	84.94
415.151	92.94
415.374	82.94
415.597	86.94
415.821	97.94
416.044	107.94
416.267	105.94
416.49	99.94
416.713	93.94
416.936	84.94
417.159	93.94
417.382	88.94
417.605	93.94
417.828	81.94
418.051	99.94
418.274	101.94
418.497	92.94
418.72	80.94
418.943	89.94
419.166	96.94
419.389	93.94
419.611	107.94
419.834	88.94
420.057	93.94
420.28	99.94
420.503	89.94
420.726	107.94
420.948	94.94
421.171	88.94
421.394	99.94
421.617	96.94
421.839	98.94
422.062	92.94
422.285	94.94
422.507	96.94
422.73	92.94
422.953	91.94
423.175	80.94
423.398	97.94
423.621	91.94
423.843	99.94
424.066	101.94
424.288	91.94
424.511	85.94
424.733	99.94
424.956	97.94
425.178	108.94
425.401	95.94
425.623	111.94
425.846	92.94
426.068	91.94
426.291	111.94
426.513	91.94
426.735	87.94
426.958	82.94
427.18	91.94
427.402	87.94
427.625	104.94
427.847	103.94
428.069	96.94
428.292	80.94
428.514	89.94
428.736	89.94
428.958	88.94
429.181	88.94
429.403	87.94
429.625	89.94
429.847	87.94
430.069	108.94
430.292	97.94
430.514	84.94
430.736	97.94
430.958	89.94
431.18	97.94
431.402	92.94
431.624	85.94
431.846	96.94
432.068	72.94
432.29	84.94
432.512	89.94
432.734	105.94
432.956	95.94
433.178	98.94
433.4	109.94
433.622	90.94
433.844	81.94
434.066	92.94
434.287	83.94
434.509	94.94
434.731	88.94
434.953	74.94
435.175	98.94
435.397	91.94
435.618	86.94
435.84	87.94
436.062	90.94
436.284	101.94
436.505	94.94
436.727	104.94
436.949	105.94
437.17	88.94
437.392	79.94
437.614	76.94
437.835	80.94
438.057	85.94
438.278	87.94
438.5	89.94
438.721	93.94
438.943	95.94
439.165	81.94
439.386	110.94
439.608	99.94
439.829	82.94
440.05	96.94
440.272	95.94
440.493	93.94
440.715	97.94
440.936	93.94
441.158	100.94
441.379	103.94
441.6	109.94
441.822	98.94
442.043	113.94
442.264	98.94
442.486	100.94
442.707	87.94
442.928	93.94
443.149	95.94
443.371	116.94
443.592	90.94
443.813	98.94
444.034	97.94
444.255	111.94
444.476	86.94
444.698	93.94
444.919	101.94
445.14	162.94
445.361	137.94
445.582	107.94
445.803	95.94
446.024	95.94
446.245	104.94
446.466	113.94
446.687	97.94
446.908	104.94
447.129	94.94
447.35	84.94
447.571	100.94
447.792	99.94
448.013	106.94
448.234	101.94
448.455	85.94
448.675	91.94
448.896	80.94
449.117	90.94
449.338	95.94
449.559	93.94
449.779	79.94
450	100.94
450.221	97.94
450.442	103.94
450.662	92.94
450.883	88.94
451.104	101.94
451.324	105.94
451.545	94.94
451.766	100.94
451.986	93.94
452.207	81.94
452.428	94.94
452.648	94.94
452.869	108.94
453.089	100.94
453.31	91.94
453.53	93.94
453.751	93.94
453.971	88.94
454.192	77.94
454.412	85.94
454.633	91.94
454.853	96.94
455.073	85.94
455.294	86.94
455.514	89.94
455.734	84.94
455.955	89.94
456.175	95.94
456.395	89.94
456.616	85.94
456.836	96.94
457.056	95.94
457.276	86.94
457.497	90.94
457.717	96.94
457.937	92.94
458.157	80.94
458.377	87.94
458.598	88.94
458.818	83.94
459.038	77.94
459.258	83.94
459.478	78.94
459.698	76.94
459.918	76.94
460.138	83.94
460.358	90.94
460.578	101.94
460.798	97.94
461.018	93.94
461.238	95.94
461.458	83.94
461.678	82.94
461.898	91.94
462.118	77.94
462.338	88.94
462.558	86.94
462.777	87.94
462.997	78.94
463.217	81.94
463.437	91.94
463.657	93.94
463.876	81.94
464.096	72.94
464.316	74.94
464.536	93.94
464.755	100.94
464.975	90.94
465.195	88.94
465.414	86.94
465.634	91.94
465.854	79.94
466.073	84.94
466.293	89.94
466.512	100.94
466.732	83.94
466.951	79.94
467.171	92.94
467.391	107.94
467.61	101.94
467.829	93.94
468.049	85.94
468.268	91.94
468.488	99.94
468.707	97.94
468.927	99.94
469.146	81.94
469.365	103.94
469.585	86.94
469.804	95.94
470.023	84.94
470.243	88.94
470.462	85.94
470.681	91.94
470.901	102.94
471.12	107.94
471.339	91.94
471.558	89.94
471.777	94.94
471.997	102.94
472.216	91.94
472.435	74.94
472.654	76.94
472.873	83.94
473.092	109.94
473.311	84.94
473.53	79.94
473.749	90.94
473.968	90.94
474.187	83.94
474.406	77.94
474.625	85.94
474.844	99.94
475.063	88.94
475.282	79.94
475.501	85.94
475.72	85.94
475.939	85.94
476.158	94.94
476.377	99.94
476.596	78.94
476.814	96.94
477.033	90.94
477.252	90.94
477.471	93.94
477.69	84.94
477.908	97.94
478.127	97.94
478.346	100.94
478.564	114.94
478.783	102.94
479.002	83.94
479.22	92.94
479.439	102.94
479.658	84.94
479.876	81.94
480.095	79.94
480.313	83.94
480.532	93.94
480.751	83.94
480.969	77.94
481.188	76.94
481.406	76.94
481.624	97.94
481.843	68.94
482.061	89.94
482.28	92.94
482.498	95.94
482.717	100.94
482.935	86.94
483.153	104.94
483.372	95.94
483.59	88.94
483.808	104.94
484.027	92.94
484.245	92.94
484.463	95.94
484.681	97.94
484.9	95.94
485.118	101.94
485.336	89.94
485.554	73.94
485.772	93.94
485.99	89.94
486.209	89.94
486.427	92.94
486.645	79.94
486.863	88.94
487.081	101.94
487.299	93.94
487.517	92.94
487.735	96.94
487.953	94.94
488.171	111.94
488.389	105.94
488.607	105.94
488.825	95.94
489.043	89.94
489.261	96.94
489.479	94.94
489.696	101.94
489.914	100.94
490.132	92.94
490.35	98.94
490.568	93.94
490.786	109.94
491.003	112.94
491.221	94.94
491.439	120.94
491.657	99.94
491.874	118.94
492.092	127.94
492.31	116.94
492.527	130.94
492.745	115.94
492.963	125.94
493.18	116.94
493.398	114.94
493.615	103.94
493.833	100.94
494.05	105.94
494.268	115.94
494.485	105.94
494.703	110.94
494.92	117.94
495.138	111.94
495.355	109.94
495.573	100.94
495.79	93.94
496.008	109.94
496.225	101.94
496.442	112.94
496.66	119.94
496.877	102.94
497.094	113.94
497.312	93.94
497.529	86.94
497.746	108.94
497.963	97.94
498.181	93.94
498.398	82.94
498.615	89.94
498.832	90.94
499.049	116.94
499.267	88.94
499.484	93.94
499.701	102.94
499.918	87.94
500.135	120.94
500.352	103.94
500.569	96.94
500.786	80.94
501.003	87.94
501.22	111.94
501.437	95.94
501.654	91.94
501.871	92.94
502.088	100.94
502.305	103.94
502.522	83.94
502.739	94.94
502.956	75.94
503.172	95.94
503.389	93.94
503.606	85.94
503.823	92.94
504.04	93.94
504.256	85.94
504.473	98.94
504.69	90.94
504.907	85.94
505.123	75.94
505.34	72.94
505.557	100.94
505.773	100.94
505.99	92.94
506.207	94.94
506.423	106.94
506.64	81.94
506.856	91.94
507.073	81.94
507.289	85.94
507.506	90.94
507.722	88.94
507.939	87.94
508.155	99.94
508.372	95.94
508.588	80.94
508.805	75.94
509.021	85.94
509.238	84.94
509.454	84.94
509.67	80.94
509.887	89.94
510.103	87.94
510.319	70.94
510.536	90.94
510.752	80.94
510.968	78.94
511.184	72.94
511.401	77.94
511.617	73.94
511.833	88.94
512.049	85.94
512.265	81.94
512.481	82.94
512.698	86.94
512.914	79.94
513.13	89.94
513.346	78.94
513.562	77.94
513.778	104.94
513.994	88.94
514.21	71.94
514.426	98.94
514.642	79.94
514.858	88.94
515.074	79.94
515.29	86.94
515.506	87.94
515.721	79.94
515.937	76.94
516.153	91.94
516.369	81.94
516.585	86.94
516.801	97.94
517.016	87.94
517.232	95.94
517.448	86.94
517.664	85.94
517.879	86.94
