Data from Location4.07152019.Energy5.Lamp.07192019.3%Agarose_HRD10591_15-23-49-576.txt Node
Date: Fri Jul 19 15:23:49 EDT 2019
User: cochatt
Spectrometer: HR+D1059
Trigger mode: 1
Integration Time (sec): 1.000000E-1
Scans to average: 1
Electric dark correction enabled: true
Nonlinearity correction enabled: false
Boxcar width: 0
XAxis mode: Wavelengths
Number of Pixels in Spectrum: 2048
>>>>>Begin Spectral Data<<<<<
223.165	-14.75
223.4	-14.75
223.635	-14.75
223.869	-29.75
224.104	-19.75
224.338	-9.75
224.573	-11.75
224.808	-9.75
225.042	-19.75
225.277	-3.75
225.511	-3.75
225.746	9.25
225.98	3.25
226.215	16.25
226.449	12.25
226.683	24.25
226.918	25.25
227.152	32.25
227.387	16.25
227.621	26.25
227.856	53.25
228.09	47.25
228.324	49.25
228.559	60.25
228.793	57.25
229.027	58.25
229.262	59.25
229.496	71.25
229.73	70.25
229.964	76.25
230.199	72.25
230.433	68.25
230.667	78.25
230.901	61.25
231.136	82.25
231.37	80.25
231.604	65.25
231.838	78.25
232.072	88.25
232.306	76.25
232.541	99.25
232.775	87.25
233.009	82.25
233.243	78.25
233.477	77.25
233.711	82.25
233.945	74.25
234.179	76.25
234.413	90.25
234.647	79.25
234.881	75.25
235.115	83.25
235.349	72.25
235.583	83.25
235.817	92.25
236.051	84.25
236.285	83.25
236.519	74.25
236.753	82.25
236.987	82.25
237.221	72.25
237.455	85.25
237.689	70.25
237.922	84.25
238.156	69.25
238.39	73.25
238.624	79.25
238.858	71.25
239.091	89.25
239.325	83.25
239.559	76.25
239.793	75.25
240.027	77.25
240.26	77.25
240.494	88.25
240.728	77.25
240.961	72.25
241.195	83.25
241.429	74.25
241.662	74.25
241.896	80.25
242.13	67.25
242.363	72.25
242.597	75.25
242.83	82.25
243.064	66.25
243.298	82.25
243.531	68.25
243.765	62.25
243.998	72.25
244.232	72.25
244.465	82.25
244.699	77.25
244.932	85.25
245.166	78.25
245.399	84.25
245.633	76.25
245.866	86.25
246.099	90.25
246.333	78.25
246.566	70.25
246.8	77.25
247.033	94.25
247.266	75.25
247.5	95.25
247.733	77.25
247.966	106.25
248.2	86.25
248.433	74.25
248.666	73.25
248.899	62.25
249.133	81.25
249.366	74.25
249.599	75.25
249.832	71.25
250.066	90.25
250.299	72.25
250.532	80.25
250.765	88.25
250.998	71.25
251.231	80.25
251.465	85.25
251.698	75.25
251.931	78.25
252.164	86.25
252.397	72.25
252.63	77.25
252.863	91.25
253.096	84.25
253.329	74.25
253.562	93.25
253.795	90.25
254.028	75.25
254.261	67.25
254.494	86.25
254.727	80.25
254.96	90.25
255.193	79.25
255.426	79.25
255.659	94.25
255.892	92.25
256.124	79.25
256.357	81.25
256.59	84.25
256.823	78.25
257.056	81.25
257.289	85.25
257.521	91.25
257.754	90.25
257.987	75.25
258.22	89.25
258.452	74.25
258.685	71.25
258.918	80.25
259.151	85.25
259.383	92.25
259.616	83.25
259.849	93.25
260.081	89.25
260.314	83.25
260.547	68.25
260.779	81.25
261.012	80.25
261.244	94.25
261.477	91.25
261.71	76.25
261.942	77.25
262.175	88.25
262.407	81.25
262.64	76.25
262.872	83.25
263.105	98.25
263.337	89.25
263.57	77.25
263.802	77.25
264.035	78.25
264.267	80.25
264.499	87.25
264.732	73.25
264.964	87.25
265.197	89.25
265.429	83.25
265.661	87.25
265.894	82.25
266.126	76.25
266.358	69.25
266.591	79.25
266.823	98.25
267.055	75.25
267.287	75.25
267.52	84.25
267.752	90.25
267.984	88.25
268.216	78.25
268.448	68.25
268.681	82.25
268.913	69.25
269.145	72.25
269.377	84.25
269.609	69.25
269.841	72.25
270.073	95.25
270.306	85.25
270.538	82.25
270.77	100.25
271.002	81.25
271.234	82.25
271.466	85.25
271.698	65.25
271.93	86.25
272.162	82.25
272.394	82.25
272.626	86.25
272.858	92.25
273.09	80.25
273.322	90.25
273.553	87.25
273.785	76.25
274.017	86.25
274.249	81.25
274.481	80.25
274.713	69.25
274.945	79.25
275.176	74.25
275.408	88.25
275.64	85.25
275.872	92.25
276.104	90.25
276.335	84.25
276.567	86.25
276.799	91.25
277.031	74.25
277.262	88.25
277.494	83.25
277.726	95.25
277.957	98.25
278.189	80.25
278.421	91.25
278.652	95.25
278.884	84.25
279.115	67.25
279.347	81.25
279.579	89.25
279.81	80.25
280.042	91.25
280.273	79.25
280.505	75.25
280.736	80.25
280.968	88.25
281.199	84.25
281.431	93.25
281.662	92.25
281.894	91.25
282.125	93.25
282.356	79.25
282.588	74.25
282.819	91.25
283.051	74.25
283.282	72.25
283.513	86.25
283.745	83.25
283.976	66.25
284.207	80.25
284.439	78.25
284.67	89.25
284.901	95.25
285.132	88.25
285.364	84.25
285.595	77.25
285.826	74.25
286.057	86.25
286.288	80.25
286.52	83.25
286.751	86.25
286.982	86.25
287.213	74.25
287.444	82.25
287.675	81.25
287.906	90.25
288.138	96.25
288.369	76.25
288.6	80.25
288.831	76.25
289.062	84.25
289.293	72.25
289.524	87.25
289.755	90.25
289.986	75.25
290.217	100.25
290.448	89.25
290.679	89.25
290.91	70.25
291.141	94.25
291.371	91.25
291.602	87.25
291.833	90.25
292.064	93.25
292.295	87.25
292.526	89.25
292.757	88.25
292.987	82.25
293.218	88.25
293.449	84.25
293.68	88.25
293.91	86.25
294.141	75.25
294.372	78.25
294.603	76.25
294.833	87.25
295.064	77.25
295.295	88.25
295.525	80.25
295.756	73.25
295.987	83.25
296.217	60.25
296.448	76.25
296.679	90.25
296.909	82.25
297.14	84.25
297.37	90.25
297.601	80.25
297.831	77.25
298.062	91.25
298.292	81.25
298.523	76.25
298.753	67.25
298.984	94.25
299.214	93.25
299.445	90.25
299.675	94.25
299.905	74.25
300.136	95.25
300.366	68.25
300.597	89.25
300.827	90.25
301.057	80.25
301.288	94.25
301.518	91.25
301.748	93.25
301.979	86.25
302.209	87.25
302.439	86.25
302.669	76.25
302.9	82.25
303.13	79.25
303.36	94.25
303.59	76.25
303.82	92.25
304.051	78.25
304.281	89.25
304.511	86.25
304.741	86.25
304.971	87.25
305.201	82.25
305.431	75.25
305.661	74.25
305.891	80.25
306.121	90.25
306.352	74.25
306.582	81.25
306.812	80.25
307.042	74.25
307.272	74.25
307.502	98.25
307.731	85.25
307.961	89.25
308.191	86.25
308.421	89.25
308.651	89.25
308.881	87.25
309.111	92.25
309.341	84.25
309.571	84.25
309.8	70.25
310.03	85.25
310.26	76.25
310.49	71.25
310.72	93.25
310.949	79.25
311.179	92.25
311.409	82.25
311.639	80.25
311.868	95.25
312.098	80.25
312.328	91.25
312.557	82.25
312.787	83.25
313.017	92.25
313.246	90.25
313.476	65.25
313.706	73.25
313.935	87.25
314.165	76.25
314.394	76.25
314.624	88.25
314.853	79.25
315.083	93.25
315.312	97.25
315.542	87.25
315.771	82.25
316.001	90.25
316.23	92.25
316.46	81.25
316.689	82.25
316.919	85.25
317.148	98.25
317.377	90.25
317.607	70.25
317.836	88.25
318.065	96.25
318.295	92.25
318.524	90.25
318.753	84.25
318.983	84.25
319.212	84.25
319.441	72.25
319.67	84.25
319.9	78.25
320.129	75.25
320.358	85.25
320.587	85.25
320.816	89.25
321.046	74.25
321.275	89.25
321.504	94.25
321.733	90.25
321.962	88.25
322.191	84.25
322.42	82.25
322.649	87.25
322.878	74.25
323.108	76.25
323.337	85.25
323.566	89.25
323.795	84.25
324.024	73.25
324.253	82.25
324.482	76.25
324.71	91.25
324.939	83.25
325.168	80.25
325.397	81.25
325.626	85.25
325.855	87.25
326.084	94.25
326.313	83.25
326.542	89.25
326.77	75.25
326.999	86.25
327.228	88.25
327.457	89.25
327.686	95.25
327.914	84.25
328.143	93.25
328.372	72.25
328.6	64.25
328.829	75.25
329.058	81.25
329.287	96.25
329.515	87.25
329.744	83.25
329.972	87.25
330.201	89.25
330.43	85.25
330.658	78.25
330.887	81.25
331.115	92.25
331.344	87.25
331.572	89.25
331.801	92.25
332.03	88.25
332.258	87.25
332.486	87.25
332.715	81.25
332.943	85.25
333.172	83.25
333.4	75.25
333.629	86.25
333.857	75.25
334.085	94.25
334.314	73.25
334.542	76.25
334.771	80.25
334.999	80.25
335.227	87.25
335.455	85.25
335.684	90.25
335.912	92.25
336.14	82.25
336.369	79.25
336.597	70.25
336.825	94.25
337.053	76.25
337.281	90.25
337.51	88.25
337.738	87.25
337.966	96.25
338.194	86.25
338.422	89.25
338.65	70.25
338.878	86.25
339.106	81.25
339.334	89.25
339.562	88.25
339.79	72.25
340.018	86.25
340.246	87.25
340.474	76.25
340.702	89.25
340.93	90.25
341.158	91.25
341.386	76.25
341.614	90.25
341.842	88.25
342.07	85.25
342.298	89.25
342.526	82.25
342.754	91.25
342.981	82.25
343.209	84.25
343.437	79.25
343.665	88.25
343.893	84.25
344.12	96.25
344.348	78.25
344.576	82.25
344.804	74.25
345.031	81.25
345.259	70.25
345.487	83.25
345.714	68.25
345.942	82.25
346.17	91.25
346.397	90.25
346.625	100.25
346.853	73.25
347.08	76.25
347.308	66.25
347.535	81.25
347.763	63.25
347.99	82.25
348.218	74.25
348.445	82.25
348.673	85.25
348.9	88.25
349.128	90.25
349.355	76.25
349.583	84.25
349.81	83.25
350.037	87.25
350.265	88.25
350.492	98.25
350.72	94.25
350.947	77.25
351.174	74.25
351.402	83.25
351.629	88.25
351.856	96.25
352.083	81.25
352.311	86.25
352.538	76.25
352.765	76.25
352.992	90.25
353.22	81.25
353.447	64.25
353.674	84.25
353.901	82.25
354.128	94.25
354.355	79.25
354.583	87.25
354.81	96.25
355.037	83.25
355.264	77.25
355.491	83.25
355.718	83.25
355.945	78.25
356.172	79.25
356.399	91.25
356.626	93.25
356.853	86.25
357.08	80.25
357.307	75.25
357.534	76.25
357.761	99.25
357.988	82.25
358.215	80.25
358.441	73.25
358.668	82.25
358.895	82.25
359.122	90.25
359.349	89.25
359.576	76.25
359.802	89.25
360.029	93.25
360.256	83.25
360.483	77.25
360.709	92.25
360.936	86.25
361.163	99.25
361.39	78.25
361.616	74.25
361.843	95.25
362.07	87.25
362.296	84.25
362.523	75.25
362.749	89.25
362.976	74.25
363.203	89.25
363.429	63.25
363.656	77.25
363.882	75.25
364.109	74.25
364.335	82.25
364.562	75.25
364.788	80.25
365.015	80.25
365.241	86.25
365.468	86.25
365.694	75.25
365.92	79.25
366.147	92.25
366.373	76.25
366.599	92.25
366.826	73.25
367.052	94.25
367.278	94.25
367.505	75.25
367.731	91.25
367.957	95.25
368.184	74.25
368.41	91.25
368.636	85.25
368.862	83.25
369.089	73.25
369.315	87.25
369.541	96.25
369.767	72.25
369.993	83.25
370.219	85.25
370.445	84.25
370.672	96.25
370.898	79.25
371.124	88.25
371.35	82.25
371.576	83.25
371.802	74.25
372.028	78.25
372.254	83.25
372.48	77.25
372.706	76.25
372.932	88.25
373.158	95.25
373.384	89.25
373.61	78.25
373.835	74.25
374.061	84.25
374.287	84.25
374.513	83.25
374.739	91.25
374.965	78.25
375.191	80.25
375.416	90.25
375.642	88.25
375.868	97.25
376.094	94.25
376.319	89.25
376.545	78.25
376.771	80.25
376.997	85.25
377.222	84.25
377.448	77.25
377.674	92.25
377.899	93.25
378.125	86.25
378.35	76.25
378.576	73.25
378.802	79.25
379.027	79.25
379.253	79.25
379.478	73.25
379.704	83.25
379.929	87.25
380.155	67.25
380.38	85.25
380.606	84.25
380.831	88.25
381.057	82.25
381.282	96.25
381.507	76.25
381.733	84.25
381.958	87.25
382.184	80.25
382.409	81.25
382.634	85.25
382.86	89.25
383.085	88.25
383.31	88.25
383.535	93.25
383.761	87.25
383.986	92.25
384.211	76.25
384.436	86.25
384.662	89.25
384.887	91.25
385.112	92.25
385.337	84.25
385.562	69.25
385.787	77.25
386.013	81.25
386.238	90.25
386.463	83.25
386.688	106.25
386.913	88.25
387.138	78.25
387.363	98.25
387.588	95.25
387.813	94.25
388.038	69.25
388.263	87.25
388.488	94.25
388.713	80.25
388.938	96.25
389.163	99.25
389.387	81.25
389.612	87.25
389.837	87.25
390.062	85.25
390.287	86.25
390.512	84.25
390.736	94.25
390.961	90.25
391.186	90.25
391.411	84.25
391.636	90.25
391.86	83.25
392.085	90.25
392.31	85.25
392.534	88.25
392.759	95.25
392.984	90.25
393.208	79.25
393.433	100.25
393.658	87.25
393.882	83.25
394.107	86.25
394.331	72.25
394.556	77.25
394.78	83.25
395.005	80.25
395.229	84.25
395.454	88.25
395.678	78.25
395.903	80.25
396.127	85.25
396.352	83.25
396.576	93.25
396.801	101.25
397.025	87.25
397.249	97.25
397.474	87.25
397.698	84.25
397.922	80.25
398.147	78.25
398.371	95.25
398.595	84.25
398.82	84.25
399.044	82.25
399.268	71.25
399.492	99.25
399.717	93.25
399.941	88.25
400.165	86.25
400.389	87.25
400.613	88.25
400.837	86.25
401.062	81.25
401.286	81.25
401.51	96.25
401.734	97.25
401.958	94.25
402.182	74.25
402.406	90.25
402.63	73.25
402.854	89.25
403.078	87.25
403.302	82.25
403.526	80.25
403.75	88.25
403.974	93.25
404.198	90.25
404.422	90.25
404.645	95.25
404.869	86.25
405.093	89.25
405.317	84.25
405.541	86.25
405.765	84.25
405.988	93.25
406.212	82.25
406.436	87.25
406.66	84.25
406.883	89.25
407.107	91.25
407.331	75.25
407.555	97.25
407.778	77.25
408.002	83.25
408.226	86.25
408.449	98.25
408.673	81.25
408.896	96.25
409.12	95.25
409.344	79.25
409.567	88.25
409.791	99.25
410.014	78.25
410.238	96.25
410.461	105.25
410.685	82.25
410.908	62.25
411.132	95.25
411.355	76.25
411.578	93.25
411.802	99.25
412.025	88.25
412.249	94.25
412.472	94.25
412.695	118.25
412.919	84.25
413.142	97.25
413.365	92.25
413.589	94.25
413.812	90.25
414.035	95.25
414.258	95.25
414.482	90.25
414.705	87.25
414.928	106.25
415.151	88.25
415.374	114.25
415.597	96.25
415.821	103.25
416.044	92.25
416.267	93.25
416.49	99.25
416.713	87.25
416.936	96.25
417.159	95.25
417.382	92.25
417.605	86.25
417.828	82.25
418.051	96.25
418.274	100.25
418.497	90.25
418.72	86.25
418.943	93.25
419.166	102.25
419.389	92.25
419.611	86.25
419.834	89.25
420.057	98.25
420.28	87.25
420.503	99.25
420.726	88.25
420.948	89.25
421.171	93.25
421.394	94.25
421.617	88.25
421.839	102.25
422.062	92.25
422.285	105.25
422.507	81.25
422.73	90.25
422.953	91.25
423.175	87.25
423.398	101.25
423.621	102.25
423.843	87.25
424.066	83.25
424.288	83.25
424.511	88.25
424.733	87.25
424.956	110.25
425.178	89.25
425.401	86.25
425.623	95.25
425.846	94.25
426.068	96.25
426.291	97.25
426.513	93.25
426.735	100.25
426.958	92.25
427.18	102.25
427.402	91.25
427.625	90.25
427.847	83.25
428.069	92.25
428.292	91.25
428.514	94.25
428.736	90.25
428.958	98.25
429.181	88.25
429.403	91.25
429.625	90.25
429.847	95.25
430.069	82.25
430.292	99.25
430.514	96.25
430.736	95.25
430.958	100.25
431.18	99.25
431.402	84.25
431.624	90.25
431.846	73.25
432.068	76.25
432.29	86.25
432.512	97.25
432.734	98.25
432.956	98.25
433.178	107.25
433.4	100.25
433.622	107.25
433.844	92.25
434.066	97.25
434.287	86.25
434.509	78.25
434.731	74.25
434.953	80.25
435.175	95.25
435.397	104.25
435.618	98.25
435.84	89.25
436.062	92.25
436.284	78.25
436.505	84.25
436.727	94.25
436.949	89.25
437.17	77.25
437.392	99.25
437.614	93.25
437.835	78.25
438.057	74.25
438.278	85.25
438.5	93.25
438.721	94.25
438.943	100.25
439.165	102.25
439.386	96.25
439.608	85.25
439.829	102.25
440.05	101.25
440.272	98.25
440.493	88.25
440.715	87.25
440.936	91.25
441.158	104.25
441.379	97.25
441.6	92.25
441.822	112.25
442.043	90.25
442.264	84.25
442.486	87.25
442.707	90.25
442.928	94.25
443.149	95.25
443.371	85.25
443.592	107.25
443.813	95.25
444.034	91.25
444.255	89.25
444.476	98.25
444.698	95.25
444.919	92.25
445.14	184.25
445.361	134.25
445.582	101.25
445.803	89.25
446.024	110.25
446.245	103.25
446.466	99.25
446.687	97.25
446.908	109.25
447.129	99.25
447.35	114.25
447.571	109.25
447.792	98.25
448.013	107.25
448.234	88.25
448.455	92.25
448.675	97.25
448.896	81.25
449.117	88.25
449.338	98.25
449.559	68.25
449.779	97.25
450	82.25
450.221	92.25
450.442	109.25
450.662	96.25
450.883	86.25
451.104	112.25
451.324	95.25
451.545	99.25
451.766	91.25
451.986	96.25
452.207	95.25
452.428	89.25
452.648	89.25
452.869	101.25
453.089	104.25
453.31	95.25
453.53	86.25
453.751	105.25
453.971	93.25
454.192	88.25
454.412	94.25
454.633	100.25
454.853	97.25
455.073	97.25
455.294	85.25
455.514	90.25
455.734	99.25
455.955	83.25
456.175	88.25
456.395	85.25
456.616	89.25
456.836	85.25
457.056	105.25
457.276	87.25
457.497	95.25
457.717	90.25
457.937	91.25
458.157	78.25
458.377	71.25
458.598	85.25
458.818	81.25
459.038	76.25
459.258	76.25
459.478	84.25
459.698	87.25
459.918	88.25
460.138	81.25
460.358	85.25
460.578	94.25
460.798	97.25
461.018	98.25
461.238	86.25
461.458	106.25
461.678	80.25
461.898	103.25
462.118	87.25
462.338	87.25
462.558	82.25
462.777	82.25
462.997	94.25
463.217	86.25
463.437	89.25
463.657	96.25
463.876	88.25
464.096	90.25
464.316	81.25
464.536	93.25
464.755	84.25
464.975	84.25
465.195	80.25
465.414	90.25
465.634	94.25
465.854	94.25
466.073	91.25
466.293	85.25
466.512	99.25
466.732	96.25
466.951	87.25
467.171	94.25
467.391	94.25
467.61	105.25
467.829	91.25
468.049	87.25
468.268	97.25
468.488	95.25
468.707	101.25
468.927	107.25
469.146	91.25
469.365	101.25
469.585	105.25
469.804	84.25
470.023	95.25
470.243	96.25
470.462	111.25
470.681	95.25
470.901	95.25
471.12	90.25
471.339	104.25
471.558	91.25
471.777	99.25
471.997	90.25
472.216	86.25
472.435	84.25
472.654	87.25
472.873	83.25
473.092	97.25
473.311	96.25
473.53	79.25
473.749	93.25
473.968	82.25
474.187	92.25
474.406	92.25
474.625	102.25
474.844	75.25
475.063	99.25
475.282	88.25
475.501	92.25
475.72	95.25
475.939	93.25
476.158	107.25
476.377	95.25
476.596	89.25
476.814	88.25
477.033	78.25
477.252	83.25
477.471	97.25
477.69	92.25
477.908	91.25
478.127	100.25
478.346	99.25
478.564	92.25
478.783	79.25
479.002	104.25
479.22	102.25
479.439	100.25
479.658	98.25
479.876	84.25
480.095	80.25
480.313	96.25
480.532	90.25
480.751	96.25
480.969	86.25
481.188	95.25
481.406	84.25
481.624	88.25
481.843	82.25
482.061	93.25
482.28	96.25
482.498	105.25
482.717	77.25
482.935	106.25
483.153	97.25
483.372	99.25
483.59	110.25
483.808	91.25
484.027	99.25
484.245	91.25
484.463	90.25
484.681	108.25
484.9	100.25
485.118	105.25
485.336	105.25
485.554	96.25
485.772	94.25
485.99	72.25
486.209	71.25
486.427	75.25
486.645	93.25
486.863	100.25
487.081	98.25
487.299	105.25
487.517	95.25
487.735	110.25
487.953	113.25
488.171	93.25
488.389	122.25
488.607	117.25
488.825	103.25
489.043	94.25
489.261	86.25
489.479	98.25
489.696	111.25
489.914	95.25
490.132	109.25
490.35	100.25
490.568	96.25
490.786	122.25
491.003	92.25
491.221	118.25
491.439	124.25
491.657	137.25
491.874	130.25
492.092	122.25
492.31	123.25
492.527	116.25
492.745	121.25
492.963	124.25
493.18	111.25
493.398	118.25
493.615	110.25
493.833	108.25
494.05	105.25
494.268	105.25
494.485	102.25
494.703	99.25
494.92	96.25
495.138	112.25
495.355	105.25
495.573	120.25
495.79	101.25
496.008	104.25
496.225	99.25
496.442	112.25
496.66	109.25
496.877	114.25
497.094	120.25
497.312	84.25
497.529	110.25
497.746	96.25
497.963	102.25
498.181	101.25
498.398	100.25
498.615	97.25
498.832	95.25
499.049	104.25
499.267	92.25
499.484	89.25
499.701	91.25
499.918	99.25
500.135	86.25
500.352	98.25
500.569	108.25
500.786	91.25
501.003	99.25
501.22	82.25
501.437	94.25
501.654	87.25
501.871	107.25
502.088	87.25
502.305	90.25
502.522	94.25
502.739	96.25
502.956	93.25
503.172	91.25
503.389	92.25
503.606	90.25
503.823	86.25
504.04	97.25
504.256	82.25
504.473	84.25
504.69	95.25
504.907	100.25
505.123	96.25
505.34	90.25
505.557	84.25
505.773	97.25
505.99	90.25
506.207	79.25
506.423	86.25
506.64	92.25
506.856	98.25
507.073	91.25
507.289	104.25
507.506	94.25
507.722	95.25
507.939	89.25
508.155	100.25
508.372	100.25
508.588	103.25
508.805	94.25
509.021	90.25
509.238	92.25
509.454	92.25
509.67	75.25
509.887	105.25
510.103	90.25
510.319	84.25
510.536	89.25
510.752	80.25
510.968	92.25
511.184	84.25
511.401	81.25
511.617	83.25
511.833	84.25
512.049	81.25
512.265	71.25
512.481	85.25
512.698	86.25
512.914	95.25
513.13	84.25
513.346	79.25
513.562	83.25
513.778	79.25
513.994	86.25
514.21	83.25
514.426	83.25
514.642	90.25
514.858	88.25
515.074	74.25
515.29	80.25
515.506	90.25
515.721	94.25
515.937	85.25
516.153	89.25
516.369	80.25
516.585	80.25
516.801	78.25
517.016	86.25
517.232	78.25
517.448	81.25
517.664	97.25
517.879	90.25
