Data from Location4.07152019.Energy5.Lamp.07192019.3%Agarose_HRD10591_15-25-43-577.txt Node
Date: Fri Jul 19 15:25:43 EDT 2019
User: cochatt
Spectrometer: HR+D1059
Trigger mode: 1
Integration Time (sec): 1.000000E-1
Scans to average: 1
Electric dark correction enabled: true
Nonlinearity correction enabled: false
Boxcar width: 0
XAxis mode: Wavelengths
Number of Pixels in Spectrum: 2048
>>>>>Begin Spectral Data<<<<<
223.165	-12.56
223.4	-12.56
223.635	-12.56
223.869	-12.56
224.104	-22.56
224.338	-26.56
224.573	-23.56
224.808	10.44
225.042	-4.56
225.277	-8.56
225.511	4.44
225.746	-0.56
225.98	3.44
226.215	7.44
226.449	17.44
226.683	15.44
226.918	21.44
227.152	31.44
227.387	34.44
227.621	27.44
227.856	46.44
228.09	47.44
228.324	47.44
228.559	62.44
228.793	53.44
229.027	71.44
229.262	68.44
229.496	72.44
229.73	78.44
229.964	55.44
230.199	58.44
230.433	76.44
230.667	85.44
230.901	78.44
231.136	64.44
231.37	83.44
231.604	74.44
231.838	78.44
232.072	74.44
232.306	58.44
232.541	85.44
232.775	79.44
233.009	78.44
233.243	84.44
233.477	90.44
233.711	81.44
233.945	67.44
234.179	93.44
234.413	60.44
234.647	83.44
234.881	76.44
235.115	76.44
235.349	70.44
235.583	84.44
235.817	87.44
236.051	70.44
236.285	86.44
236.519	95.44
236.753	90.44
236.987	69.44
237.221	80.44
237.455	79.44
237.689	78.44
237.922	65.44
238.156	80.44
238.39	82.44
238.624	84.44
238.858	77.44
239.091	60.44
239.325	77.44
239.559	74.44
239.793	72.44
240.027	77.44
240.26	80.44
240.494	83.44
240.728	80.44
240.961	76.44
241.195	80.44
241.429	77.44
241.662	57.44
241.896	75.44
242.13	60.44
242.363	89.44
242.597	69.44
242.83	66.44
243.064	72.44
243.298	67.44
243.531	73.44
243.765	60.44
243.998	77.44
244.232	83.44
244.465	80.44
244.699	82.44
244.932	78.44
245.166	89.44
245.399	80.44
245.633	86.44
245.866	79.44
246.099	69.44
246.333	98.44
246.566	75.44
246.8	85.44
247.033	81.44
247.266	91.44
247.5	68.44
247.733	67.44
247.966	81.44
248.2	72.44
248.433	71.44
248.666	89.44
248.899	83.44
249.133	85.44
249.366	85.44
249.599	68.44
249.832	80.44
250.066	85.44
250.299	74.44
250.532	77.44
250.765	81.44
250.998	74.44
251.231	69.44
251.465	70.44
251.698	74.44
251.931	74.44
252.164	77.44
252.397	70.44
252.63	73.44
252.863	84.44
253.096	75.44
253.329	70.44
253.562	78.44
253.795	75.44
254.028	77.44
254.261	67.44
254.494	82.44
254.727	79.44
254.96	69.44
255.193	78.44
255.426	69.44
255.659	61.44
255.892	80.44
256.124	87.44
256.357	81.44
256.59	90.44
256.823	79.44
257.056	88.44
257.289	75.44
257.521	88.44
257.754	75.44
257.987	79.44
258.22	75.44
258.452	88.44
258.685	83.44
258.918	82.44
259.151	80.44
259.383	82.44
259.616	71.44
259.849	73.44
260.081	79.44
260.314	75.44
260.547	80.44
260.779	71.44
261.012	75.44
261.244	70.44
261.477	79.44
261.71	69.44
261.942	82.44
262.175	93.44
262.407	69.44
262.64	83.44
262.872	80.44
263.105	75.44
263.337	93.44
263.57	95.44
263.802	74.44
264.035	87.44
264.267	91.44
264.499	85.44
264.732	79.44
264.964	78.44
265.197	86.44
265.429	86.44
265.661	80.44
265.894	96.44
266.126	83.44
266.358	77.44
266.591	74.44
266.823	79.44
267.055	75.44
267.287	71.44
267.52	93.44
267.752	79.44
267.984	99.44
268.216	86.44
268.448	86.44
268.681	74.44
268.913	80.44
269.145	84.44
269.377	83.44
269.609	77.44
269.841	93.44
270.073	89.44
270.306	83.44
270.538	98.44
270.77	91.44
271.002	81.44
271.234	74.44
271.466	78.44
271.698	71.44
271.93	94.44
272.162	85.44
272.394	98.44
272.626	68.44
272.858	83.44
273.09	74.44
273.322	79.44
273.553	82.44
273.785	80.44
274.017	83.44
274.249	75.44
274.481	75.44
274.713	87.44
274.945	95.44
275.176	84.44
275.408	87.44
275.64	83.44
275.872	73.44
276.104	74.44
276.335	63.44
276.567	89.44
276.799	80.44
277.031	77.44
277.262	93.44
277.494	99.44
277.726	82.44
277.957	86.44
278.189	88.44
278.421	75.44
278.652	73.44
278.884	84.44
279.115	81.44
279.347	87.44
279.579	90.44
279.81	98.44
280.042	89.44
280.273	79.44
280.505	78.44
280.736	81.44
280.968	83.44
281.199	84.44
281.431	81.44
281.662	92.44
281.894	82.44
282.125	83.44
282.356	80.44
282.588	86.44
282.819	83.44
283.051	98.44
283.282	89.44
283.513	96.44
283.745	90.44
283.976	91.44
284.207	98.44
284.439	93.44
284.67	78.44
284.901	74.44
285.132	75.44
285.364	87.44
285.595	95.44
285.826	71.44
286.057	81.44
286.288	87.44
286.52	84.44
286.751	70.44
286.982	78.44
287.213	90.44
287.444	67.44
287.675	76.44
287.906	106.44
288.138	96.44
288.369	73.44
288.6	72.44
288.831	79.44
289.062	95.44
289.293	70.44
289.524	70.44
289.755	89.44
289.986	65.44
290.217	67.44
290.448	94.44
290.679	90.44
290.91	72.44
291.141	90.44
291.371	88.44
291.602	79.44
291.833	75.44
292.064	63.44
292.295	79.44
292.526	80.44
292.757	82.44
292.987	95.44
293.218	91.44
293.449	76.44
293.68	86.44
293.91	96.44
294.141	92.44
294.372	80.44
294.603	88.44
294.833	92.44
295.064	92.44
295.295	93.44
295.525	87.44
295.756	80.44
295.987	85.44
296.217	87.44
296.448	71.44
296.679	96.44
296.909	78.44
297.14	73.44
297.37	80.44
297.601	72.44
297.831	76.44
298.062	87.44
298.292	87.44
298.523	79.44
298.753	71.44
298.984	95.44
299.214	77.44
299.445	84.44
299.675	83.44
299.905	82.44
300.136	87.44
300.366	87.44
300.597	87.44
300.827	75.44
301.057	79.44
301.288	79.44
301.518	87.44
301.748	80.44
301.979	78.44
302.209	76.44
302.439	81.44
302.669	92.44
302.9	86.44
303.13	87.44
303.36	91.44
303.59	84.44
303.82	88.44
304.051	100.44
304.281	86.44
304.511	93.44
304.741	78.44
304.971	86.44
305.201	94.44
305.431	74.44
305.661	82.44
305.891	87.44
306.121	76.44
306.352	83.44
306.582	84.44
306.812	71.44
307.042	83.44
307.272	85.44
307.502	91.44
307.731	89.44
307.961	99.44
308.191	69.44
308.421	77.44
308.651	71.44
308.881	83.44
309.111	95.44
309.341	79.44
309.571	76.44
309.8	70.44
310.03	87.44
310.26	84.44
310.49	87.44
310.72	86.44
310.949	70.44
311.179	87.44
311.409	81.44
311.639	91.44
311.868	99.44
312.098	96.44
312.328	80.44
312.557	76.44
312.787	75.44
313.017	78.44
313.246	73.44
313.476	77.44
313.706	80.44
313.935	80.44
314.165	77.44
314.394	82.44
314.624	82.44
314.853	88.44
315.083	94.44
315.312	78.44
315.542	78.44
315.771	72.44
316.001	77.44
316.23	86.44
316.46	97.44
316.689	87.44
316.919	85.44
317.148	96.44
317.377	88.44
317.607	78.44
317.836	81.44
318.065	87.44
318.295	73.44
318.524	88.44
318.753	79.44
318.983	85.44
319.212	87.44
319.441	79.44
319.67	86.44
319.9	83.44
320.129	82.44
320.358	86.44
320.587	79.44
320.816	84.44
321.046	81.44
321.275	92.44
321.504	85.44
321.733	82.44
321.962	88.44
322.191	87.44
322.42	78.44
322.649	81.44
322.878	93.44
323.108	98.44
323.337	82.44
323.566	73.44
323.795	80.44
324.024	66.44
324.253	77.44
324.482	80.44
324.71	95.44
324.939	87.44
325.168	92.44
325.397	83.44
325.626	94.44
325.855	84.44
326.084	94.44
326.313	95.44
326.542	86.44
326.77	80.44
326.999	86.44
327.228	84.44
327.457	76.44
327.686	90.44
327.914	71.44
328.143	84.44
328.372	79.44
328.6	77.44
328.829	96.44
329.058	85.44
329.287	87.44
329.515	82.44
329.744	90.44
329.972	86.44
330.201	83.44
330.43	81.44
330.658	82.44
330.887	80.44
331.115	79.44
331.344	75.44
331.572	95.44
331.801	89.44
332.03	85.44
332.258	87.44
332.486	93.44
332.715	88.44
332.943	89.44
333.172	75.44
333.4	83.44
333.629	81.44
333.857	82.44
334.085	86.44
334.314	81.44
334.542	95.44
334.771	78.44
334.999	82.44
335.227	96.44
335.455	90.44
335.684	89.44
335.912	83.44
336.14	92.44
336.369	94.44
336.597	96.44
336.825	84.44
337.053	82.44
337.281	82.44
337.51	82.44
337.738	85.44
337.966	80.44
338.194	81.44
338.422	87.44
338.65	94.44
338.878	94.44
339.106	83.44
339.334	83.44
339.562	94.44
339.79	70.44
340.018	102.44
340.246	80.44
340.474	77.44
340.702	82.44
340.93	78.44
341.158	79.44
341.386	91.44
341.614	89.44
341.842	77.44
342.07	83.44
342.298	71.44
342.526	73.44
342.754	83.44
342.981	92.44
343.209	98.44
343.437	78.44
343.665	82.44
343.893	72.44
344.12	81.44
344.348	76.44
344.576	85.44
344.804	89.44
345.031	93.44
345.259	88.44
345.487	91.44
345.714	76.44
345.942	84.44
346.17	82.44
346.397	81.44
346.625	79.44
346.853	86.44
347.08	86.44
347.308	96.44
347.535	76.44
347.763	75.44
347.99	82.44
348.218	95.44
348.445	74.44
348.673	85.44
348.9	88.44
349.128	95.44
349.355	65.44
349.583	80.44
349.81	82.44
350.037	94.44
350.265	93.44
350.492	81.44
350.72	80.44
350.947	83.44
351.174	89.44
351.402	79.44
351.629	74.44
351.856	92.44
352.083	86.44
352.311	75.44
352.538	92.44
352.765	80.44
352.992	86.44
353.22	81.44
353.447	81.44
353.674	75.44
353.901	67.44
354.128	83.44
354.355	76.44
354.583	68.44
354.81	94.44
355.037	78.44
355.264	86.44
355.491	74.44
355.718	74.44
355.945	78.44
356.172	91.44
356.399	63.44
356.626	92.44
356.853	87.44
357.08	90.44
357.307	86.44
357.534	79.44
357.761	81.44
357.988	87.44
358.215	79.44
358.441	81.44
358.668	76.44
358.895	63.44
359.122	96.44
359.349	59.44
359.576	79.44
359.802	88.44
360.029	75.44
360.256	85.44
360.483	79.44
360.709	80.44
360.936	102.44
361.163	93.44
361.39	102.44
361.616	77.44
361.843	81.44
362.07	75.44
362.296	87.44
362.523	91.44
362.749	81.44
362.976	79.44
363.203	82.44
363.429	80.44
363.656	65.44
363.882	84.44
364.109	79.44
364.335	91.44
364.562	81.44
364.788	92.44
365.015	80.44
365.241	62.44
365.468	88.44
365.694	94.44
365.92	92.44
366.147	77.44
366.373	80.44
366.599	80.44
366.826	89.44
367.052	84.44
367.278	79.44
367.505	81.44
367.731	79.44
367.957	82.44
368.184	79.44
368.41	72.44
368.636	92.44
368.862	95.44
369.089	79.44
369.315	89.44
369.541	88.44
369.767	80.44
369.993	83.44
370.219	74.44
370.445	91.44
370.672	81.44
370.898	74.44
371.124	74.44
371.35	78.44
371.576	77.44
371.802	75.44
372.028	68.44
372.254	91.44
372.48	87.44
372.706	70.44
372.932	86.44
373.158	77.44
373.384	86.44
373.61	81.44
373.835	73.44
374.061	81.44
374.287	94.44
374.513	83.44
374.739	88.44
374.965	103.44
375.191	91.44
375.416	78.44
375.642	83.44
375.868	86.44
376.094	73.44
376.319	81.44
376.545	83.44
376.771	59.44
376.997	90.44
377.222	70.44
377.448	88.44
377.674	78.44
377.899	82.44
378.125	77.44
378.35	82.44
378.576	92.44
378.802	77.44
379.027	82.44
379.253	75.44
379.478	88.44
379.704	67.44
379.929	85.44
380.155	78.44
380.38	86.44
380.606	82.44
380.831	72.44
381.057	97.44
381.282	81.44
381.507	86.44
381.733	85.44
381.958	78.44
382.184	85.44
382.409	98.44
382.634	87.44
382.86	91.44
383.085	84.44
383.31	87.44
383.535	93.44
383.761	83.44
383.986	84.44
384.211	94.44
384.436	77.44
384.662	65.44
384.887	73.44
385.112	82.44
385.337	88.44
385.562	81.44
385.787	82.44
386.013	97.44
386.238	96.44
386.463	100.44
386.688	87.44
386.913	86.44
387.138	73.44
387.363	64.44
387.588	74.44
387.813	85.44
388.038	83.44
388.263	98.44
388.488	103.44
388.713	84.44
388.938	87.44
389.163	79.44
389.387	69.44
389.612	76.44
389.837	77.44
390.062	102.44
390.287	87.44
390.512	82.44
390.736	80.44
390.961	74.44
391.186	79.44
391.411	83.44
391.636	70.44
391.86	89.44
392.085	93.44
392.31	88.44
392.534	85.44
392.759	86.44
392.984	85.44
393.208	88.44
393.433	91.44
393.658	77.44
393.882	73.44
394.107	82.44
394.331	102.44
394.556	75.44
394.78	97.44
395.005	99.44
395.229	86.44
395.454	93.44
395.678	89.44
395.903	97.44
396.127	77.44
396.352	97.44
396.576	86.44
396.801	93.44
397.025	83.44
397.249	98.44
397.474	84.44
397.698	79.44
397.922	86.44
398.147	85.44
398.371	87.44
398.595	90.44
398.82	86.44
399.044	91.44
399.268	86.44
399.492	95.44
399.717	87.44
399.941	89.44
400.165	91.44
400.389	86.44
400.613	84.44
400.837	82.44
401.062	77.44
401.286	83.44
401.51	84.44
401.734	90.44
401.958	80.44
402.182	102.44
402.406	96.44
402.63	89.44
402.854	83.44
403.078	95.44
403.302	83.44
403.526	88.44
403.75	97.44
403.974	80.44
404.198	78.44
404.422	80.44
404.645	86.44
404.869	92.44
405.093	83.44
405.317	83.44
405.541	95.44
405.765	84.44
405.988	91.44
406.212	88.44
406.436	81.44
406.66	82.44
406.883	85.44
407.107	92.44
407.331	88.44
407.555	80.44
407.778	89.44
408.002	90.44
408.226	89.44
408.449	85.44
408.673	84.44
408.896	82.44
409.12	74.44
409.344	84.44
409.567	97.44
409.791	93.44
410.014	99.44
410.238	92.44
410.461	80.44
410.685	78.44
410.908	88.44
411.132	68.44
411.355	96.44
411.578	88.44
411.802	97.44
412.025	83.44
412.249	96.44
412.472	97.44
412.695	83.44
412.919	103.44
413.142	72.44
413.365	84.44
413.589	88.44
413.812	84.44
414.035	82.44
414.258	93.44
414.482	95.44
414.705	100.44
414.928	89.44
415.151	93.44
415.374	93.44
415.597	82.44
415.821	82.44
416.044	95.44
416.267	96.44
416.49	117.44
416.713	91.44
416.936	86.44
417.159	87.44
417.382	83.44
417.605	77.44
417.828	91.44
418.051	90.44
418.274	112.44
418.497	101.44
418.72	90.44
418.943	99.44
419.166	87.44
419.389	90.44
419.611	84.44
419.834	94.44
420.057	84.44
420.28	109.44
420.503	85.44
420.726	91.44
420.948	82.44
421.171	80.44
421.394	66.44
421.617	105.44
421.839	99.44
422.062	90.44
422.285	109.44
422.507	86.44
422.73	89.44
422.953	95.44
423.175	85.44
423.398	98.44
423.621	93.44
423.843	110.44
424.066	96.44
424.288	95.44
424.511	93.44
424.733	86.44
424.956	92.44
425.178	98.44
425.401	74.44
425.623	93.44
425.846	87.44
426.068	88.44
426.291	101.44
426.513	86.44
426.735	88.44
426.958	103.44
427.18	87.44
427.402	105.44
427.625	98.44
427.847	84.44
428.069	90.44
428.292	106.44
428.514	77.44
428.736	87.44
428.958	96.44
429.181	87.44
429.403	84.44
429.625	84.44
429.847	89.44
430.069	110.44
430.292	90.44
430.514	85.44
430.736	100.44
430.958	81.44
431.18	104.44
431.402	101.44
431.624	95.44
431.846	86.44
432.068	76.44
432.29	71.44
432.512	90.44
432.734	75.44
432.956	99.44
433.178	88.44
433.4	86.44
433.622	85.44
433.844	101.44
434.066	94.44
434.287	104.44
434.509	79.44
434.731	74.44
434.953	95.44
435.175	102.44
435.397	80.44
435.618	73.44
435.84	81.44
436.062	89.44
436.284	101.44
436.505	110.44
436.727	97.44
436.949	91.44
437.17	87.44
437.392	92.44
437.614	81.44
437.835	83.44
438.057	81.44
438.278	86.44
438.5	91.44
438.721	86.44
438.943	106.44
439.165	103.44
439.386	94.44
439.608	98.44
439.829	94.44
440.05	102.44
440.272	103.44
440.493	91.44
440.715	80.44
440.936	83.44
441.158	83.44
441.379	101.44
441.6	105.44
441.822	104.44
442.043	106.44
442.264	91.44
442.486	113.44
442.707	94.44
442.928	97.44
443.149	99.44
443.371	104.44
443.592	95.44
443.813	93.44
444.034	92.44
444.255	87.44
444.476	106.44
444.698	88.44
444.919	105.44
445.14	234.44
445.361	172.44
445.582	85.44
445.803	101.44
446.024	99.44
446.245	106.44
446.466	93.44
446.687	91.44
446.908	105.44
447.129	97.44
447.35	106.44
447.571	102.44
447.792	92.44
448.013	103.44
448.234	87.44
448.455	98.44
448.675	96.44
448.896	81.44
449.117	85.44
449.338	92.44
449.559	90.44
449.779	90.44
450	105.44
450.221	90.44
450.442	103.44
450.662	95.44
450.883	99.44
451.104	93.44
451.324	100.44
451.545	95.44
451.766	90.44
451.986	81.44
452.207	85.44
452.428	90.44
452.648	84.44
452.869	84.44
453.089	85.44
453.31	82.44
453.53	81.44
453.751	85.44
453.971	98.44
454.192	97.44
454.412	77.44
454.633	92.44
454.853	87.44
455.073	107.44
455.294	101.44
455.514	100.44
455.734	94.44
455.955	90.44
456.175	86.44
456.395	96.44
456.616	84.44
456.836	77.44
457.056	88.44
457.276	89.44
457.497	83.44
457.717	73.44
457.937	99.44
458.157	88.44
458.377	77.44
458.598	68.44
458.818	83.44
459.038	84.44
459.258	85.44
459.478	80.44
459.698	87.44
459.918	79.44
460.138	92.44
460.358	74.44
460.578	82.44
460.798	90.44
461.018	102.44
461.238	86.44
461.458	97.44
461.678	98.44
461.898	97.44
462.118	89.44
462.338	91.44
462.558	80.44
462.777	78.44
462.997	82.44
463.217	75.44
463.437	92.44
463.657	96.44
463.876	82.44
464.096	88.44
464.316	88.44
464.536	95.44
464.755	101.44
464.975	90.44
465.195	91.44
465.414	94.44
465.634	77.44
465.854	79.44
466.073	97.44
466.293	82.44
466.512	86.44
466.732	96.44
466.951	101.44
467.171	72.44
467.391	98.44
467.61	108.44
467.829	95.44
468.049	105.44
468.268	94.44
468.488	94.44
468.707	102.44
468.927	85.44
469.146	90.44
469.365	81.44
469.585	91.44
469.804	104.44
470.023	96.44
470.243	81.44
470.462	117.44
470.681	109.44
470.901	100.44
471.12	104.44
471.339	103.44
471.558	90.44
471.777	85.44
471.997	84.44
472.216	100.44
472.435	80.44
472.654	91.44
472.873	77.44
473.092	106.44
473.311	90.44
473.53	92.44
473.749	85.44
473.968	85.44
474.187	89.44
474.406	82.44
474.625	85.44
474.844	99.44
475.063	82.44
475.282	91.44
475.501	85.44
475.72	106.44
475.939	84.44
476.158	93.44
476.377	97.44
476.596	90.44
476.814	82.44
477.033	83.44
477.252	80.44
477.471	91.44
477.69	88.44
477.908	95.44
478.127	121.44
478.346	103.44
478.564	76.44
478.783	78.44
479.002	102.44
479.22	87.44
479.439	102.44
479.658	100.44
479.876	86.44
480.095	90.44
480.313	89.44
480.532	95.44
480.751	79.44
480.969	79.44
481.188	88.44
481.406	78.44
481.624	71.44
481.843	72.44
482.061	77.44
482.28	103.44
482.498	99.44
482.717	80.44
482.935	90.44
483.153	88.44
483.372	99.44
483.59	86.44
483.808	88.44
484.027	83.44
484.245	90.44
484.463	89.44
484.681	114.44
484.9	104.44
485.118	93.44
485.336	94.44
485.554	99.44
485.772	87.44
485.99	85.44
486.209	102.44
486.427	90.44
486.645	93.44
486.863	86.44
487.081	96.44
487.299	105.44
487.517	93.44
487.735	92.44
487.953	110.44
488.171	115.44
488.389	104.44
488.607	101.44
488.825	104.44
489.043	93.44
489.261	96.44
489.479	86.44
489.696	71.44
489.914	97.44
490.132	110.44
490.35	92.44
490.568	108.44
490.786	104.44
491.003	99.44
491.221	118.44
491.439	111.44
491.657	102.44
491.874	121.44
492.092	117.44
492.31	114.44
492.527	123.44
492.745	123.44
492.963	122.44
493.18	109.44
493.398	117.44
493.615	106.44
493.833	114.44
494.05	106.44
494.268	102.44
494.485	89.44
494.703	98.44
494.92	95.44
495.138	100.44
495.355	107.44
495.573	103.44
495.79	113.44
496.008	103.44
496.225	100.44
496.442	106.44
496.66	111.44
496.877	106.44
497.094	111.44
497.312	102.44
497.529	101.44
497.746	90.44
497.963	105.44
498.181	87.44
498.398	90.44
498.615	77.44
498.832	85.44
499.049	100.44
499.267	98.44
499.484	94.44
499.701	94.44
499.918	91.44
500.135	93.44
500.352	104.44
500.569	103.44
500.786	112.44
501.003	91.44
501.22	98.44
501.437	94.44
501.654	93.44
501.871	89.44
502.088	94.44
502.305	100.44
502.522	96.44
502.739	89.44
502.956	93.44
503.172	96.44
503.389	89.44
503.606	97.44
503.823	95.44
504.04	99.44
504.256	88.44
504.473	92.44
504.69	82.44
504.907	97.44
505.123	90.44
505.34	87.44
505.557	80.44
505.773	103.44
505.99	98.44
506.207	86.44
506.423	92.44
506.64	91.44
506.856	86.44
507.073	94.44
507.289	79.44
507.506	102.44
507.722	94.44
507.939	89.44
508.155	84.44
508.372	85.44
508.588	91.44
508.805	96.44
509.021	94.44
509.238	86.44
509.454	89.44
509.67	89.44
509.887	86.44
510.103	89.44
510.319	70.44
510.536	96.44
510.752	91.44
510.968	70.44
511.184	88.44
511.401	84.44
511.617	81.44
511.833	87.44
512.049	87.44
512.265	87.44
512.481	87.44
512.698	86.44
512.914	80.44
513.13	91.44
513.346	78.44
513.562	87.44
513.778	78.44
513.994	84.44
514.21	88.44
514.426	88.44
514.642	81.44
514.858	75.44
515.074	81.44
515.29	76.44
515.506	82.44
515.721	100.44
515.937	85.44
516.153	80.44
516.369	76.44
516.585	81.44
516.801	79.44
517.016	79.44
517.232	88.44
517.448	76.44
517.664	82.44
