Data from Location4.07152019.Energy5.Lamp.07192019.3%Agarose_HRD10591_15-23-45-577.txt Node
Date: Fri Jul 19 15:23:45 EDT 2019
User: cochatt
Spectrometer: HR+D1059
Trigger mode: 1
Integration Time (sec): 1.000000E-1
Scans to average: 1
Electric dark correction enabled: true
Nonlinearity correction enabled: false
Boxcar width: 0
XAxis mode: Wavelengths
Number of Pixels in Spectrum: 2048
>>>>>Begin Spectral Data<<<<<
223.165	-14.75
223.4	-14.75
223.635	-14.75
223.869	-16.75
224.104	-25.75
224.338	0.25
224.573	-16.75
224.808	-5.75
225.042	-11.75
225.277	-14.75
225.511	-1.75
225.746	-7.75
225.98	8.25
226.215	16.25
226.449	12.25
226.683	12.25
226.918	34.25
227.152	32.25
227.387	28.25
227.621	39.25
227.856	44.25
228.09	36.25
228.324	45.25
228.559	58.25
228.793	54.25
229.027	78.25
229.262	60.25
229.496	61.25
229.73	65.25
229.964	58.25
230.199	75.25
230.433	68.25
230.667	63.25
230.901	81.25
231.136	77.25
231.37	75.25
231.604	82.25
231.838	86.25
232.072	84.25
232.306	86.25
232.541	86.25
232.775	70.25
233.009	85.25
233.243	88.25
233.477	82.25
233.711	88.25
233.945	91.25
234.179	80.25
234.413	76.25
234.647	74.25
234.881	85.25
235.115	86.25
235.349	69.25
235.583	84.25
235.817	73.25
236.051	61.25
236.285	72.25
236.519	72.25
236.753	71.25
236.987	70.25
237.221	80.25
237.455	77.25
237.689	94.25
237.922	73.25
238.156	67.25
238.39	77.25
238.624	77.25
238.858	65.25
239.091	86.25
239.325	72.25
239.559	82.25
239.793	73.25
240.027	75.25
240.26	73.25
240.494	85.25
240.728	65.25
240.961	70.25
241.195	72.25
241.429	72.25
241.662	69.25
241.896	74.25
242.13	73.25
242.363	73.25
242.597	70.25
242.83	76.25
243.064	76.25
243.298	60.25
243.531	72.25
243.765	74.25
243.998	70.25
244.232	82.25
244.465	85.25
244.699	75.25
244.932	84.25
245.166	79.25
245.399	72.25
245.633	63.25
245.866	73.25
246.099	86.25
246.333	99.25
246.566	83.25
246.8	81.25
247.033	78.25
247.266	81.25
247.5	81.25
247.733	82.25
247.966	78.25
248.2	73.25
248.433	82.25
248.666	76.25
248.899	77.25
249.133	80.25
249.366	98.25
249.599	81.25
249.832	84.25
250.066	72.25
250.299	78.25
250.532	69.25
250.765	77.25
250.998	94.25
251.231	73.25
251.465	81.25
251.698	73.25
251.931	78.25
252.164	75.25
252.397	81.25
252.63	67.25
252.863	88.25
253.096	79.25
253.329	71.25
253.562	74.25
253.795	73.25
254.028	80.25
254.261	89.25
254.494	79.25
254.727	93.25
254.96	86.25
255.193	68.25
255.426	84.25
255.659	78.25
255.892	93.25
256.124	82.25
256.357	75.25
256.59	66.25
256.823	67.25
257.056	76.25
257.289	87.25
257.521	72.25
257.754	78.25
257.987	73.25
258.22	89.25
258.452	75.25
258.685	78.25
258.918	97.25
259.151	81.25
259.383	77.25
259.616	77.25
259.849	70.25
260.081	70.25
260.314	58.25
260.547	73.25
260.779	70.25
261.012	93.25
261.244	90.25
261.477	87.25
261.71	80.25
261.942	85.25
262.175	76.25
262.407	80.25
262.64	80.25
262.872	82.25
263.105	74.25
263.337	87.25
263.57	82.25
263.802	72.25
264.035	80.25
264.267	85.25
264.499	77.25
264.732	78.25
264.964	106.25
265.197	83.25
265.429	80.25
265.661	79.25
265.894	93.25
266.126	90.25
266.358	87.25
266.591	82.25
266.823	71.25
267.055	70.25
267.287	74.25
267.52	80.25
267.752	79.25
267.984	86.25
268.216	68.25
268.448	75.25
268.681	78.25
268.913	79.25
269.145	79.25
269.377	91.25
269.609	66.25
269.841	73.25
270.073	79.25
270.306	92.25
270.538	80.25
270.77	88.25
271.002	83.25
271.234	71.25
271.466	87.25
271.698	86.25
271.93	73.25
272.162	88.25
272.394	77.25
272.626	73.25
272.858	78.25
273.09	80.25
273.322	65.25
273.553	77.25
273.785	75.25
274.017	88.25
274.249	89.25
274.481	86.25
274.713	71.25
274.945	93.25
275.176	87.25
275.408	85.25
275.64	77.25
275.872	79.25
276.104	82.25
276.335	78.25
276.567	74.25
276.799	85.25
277.031	81.25
277.262	85.25
277.494	100.25
277.726	81.25
277.957	77.25
278.189	83.25
278.421	101.25
278.652	81.25
278.884	87.25
279.115	85.25
279.347	84.25
279.579	79.25
279.81	86.25
280.042	83.25
280.273	71.25
280.505	81.25
280.736	78.25
280.968	94.25
281.199	92.25
281.431	77.25
281.662	86.25
281.894	74.25
282.125	79.25
282.356	90.25
282.588	81.25
282.819	80.25
283.051	89.25
283.282	88.25
283.513	74.25
283.745	78.25
283.976	75.25
284.207	67.25
284.439	70.25
284.67	82.25
284.901	80.25
285.132	74.25
285.364	73.25
285.595	79.25
285.826	78.25
286.057	87.25
286.288	81.25
286.52	85.25
286.751	92.25
286.982	81.25
287.213	81.25
287.444	68.25
287.675	74.25
287.906	94.25
288.138	83.25
288.369	70.25
288.6	97.25
288.831	75.25
289.062	83.25
289.293	79.25
289.524	91.25
289.755	91.25
289.986	75.25
290.217	89.25
290.448	70.25
290.679	81.25
290.91	85.25
291.141	82.25
291.371	87.25
291.602	87.25
291.833	75.25
292.064	90.25
292.295	82.25
292.526	81.25
292.757	89.25
292.987	74.25
293.218	84.25
293.449	72.25
293.68	79.25
293.91	95.25
294.141	73.25
294.372	84.25
294.603	85.25
294.833	69.25
295.064	78.25
295.295	87.25
295.525	80.25
295.756	95.25
295.987	76.25
296.217	78.25
296.448	95.25
296.679	97.25
296.909	82.25
297.14	83.25
297.37	84.25
297.601	84.25
297.831	94.25
298.062	85.25
298.292	88.25
298.523	79.25
298.753	77.25
298.984	112.25
299.214	82.25
299.445	89.25
299.675	80.25
299.905	78.25
300.136	91.25
300.366	77.25
300.597	83.25
300.827	91.25
301.057	83.25
301.288	89.25
301.518	72.25
301.748	84.25
301.979	78.25
302.209	67.25
302.439	80.25
302.669	81.25
302.9	84.25
303.13	87.25
303.36	76.25
303.59	89.25
303.82	73.25
304.051	71.25
304.281	69.25
304.511	83.25
304.741	85.25
304.971	85.25
305.201	95.25
305.431	87.25
305.661	86.25
305.891	86.25
306.121	90.25
306.352	90.25
306.582	78.25
306.812	81.25
307.042	84.25
307.272	95.25
307.502	78.25
307.731	87.25
307.961	81.25
308.191	81.25
308.421	78.25
308.651	85.25
308.881	88.25
309.111	75.25
309.341	88.25
309.571	91.25
309.8	89.25
310.03	78.25
310.26	89.25
310.49	88.25
310.72	79.25
310.949	77.25
311.179	87.25
311.409	88.25
311.639	86.25
311.868	72.25
312.098	89.25
312.328	98.25
312.557	72.25
312.787	78.25
313.017	92.25
313.246	85.25
313.476	80.25
313.706	85.25
313.935	87.25
314.165	78.25
314.394	95.25
314.624	81.25
314.853	78.25
315.083	93.25
315.312	80.25
315.542	97.25
315.771	85.25
316.001	70.25
316.23	75.25
316.46	87.25
316.689	81.25
316.919	83.25
317.148	82.25
317.377	85.25
317.607	81.25
317.836	81.25
318.065	93.25
318.295	95.25
318.524	79.25
318.753	82.25
318.983	85.25
319.212	97.25
319.441	95.25
319.67	99.25
319.9	87.25
320.129	76.25
320.358	86.25
320.587	88.25
320.816	86.25
321.046	59.25
321.275	82.25
321.504	85.25
321.733	77.25
321.962	86.25
322.191	66.25
322.42	73.25
322.649	79.25
322.878	91.25
323.108	91.25
323.337	87.25
323.566	72.25
323.795	70.25
324.024	95.25
324.253	86.25
324.482	76.25
324.71	81.25
324.939	95.25
325.168	88.25
325.397	92.25
325.626	91.25
325.855	79.25
326.084	83.25
326.313	79.25
326.542	78.25
326.77	92.25
326.999	73.25
327.228	84.25
327.457	98.25
327.686	83.25
327.914	85.25
328.143	99.25
328.372	74.25
328.6	93.25
328.829	86.25
329.058	89.25
329.287	70.25
329.515	84.25
329.744	82.25
329.972	83.25
330.201	103.25
330.43	71.25
330.658	86.25
330.887	78.25
331.115	87.25
331.344	82.25
331.572	93.25
331.801	68.25
332.03	85.25
332.258	83.25
332.486	80.25
332.715	81.25
332.943	73.25
333.172	85.25
333.4	86.25
333.629	90.25
333.857	88.25
334.085	82.25
334.314	87.25
334.542	74.25
334.771	82.25
334.999	94.25
335.227	85.25
335.455	98.25
335.684	89.25
335.912	80.25
336.14	93.25
336.369	85.25
336.597	89.25
336.825	85.25
337.053	74.25
337.281	70.25
337.51	86.25
337.738	89.25
337.966	94.25
338.194	78.25
338.422	82.25
338.65	90.25
338.878	88.25
339.106	98.25
339.334	74.25
339.562	72.25
339.79	87.25
340.018	76.25
340.246	72.25
340.474	100.25
340.702	75.25
340.93	64.25
341.158	86.25
341.386	86.25
341.614	71.25
341.842	77.25
342.07	73.25
342.298	77.25
342.526	83.25
342.754	86.25
342.981	82.25
343.209	79.25
343.437	85.25
343.665	87.25
343.893	80.25
344.12	74.25
344.348	70.25
344.576	96.25
344.804	80.25
345.031	74.25
345.259	80.25
345.487	93.25
345.714	82.25
345.942	82.25
346.17	68.25
346.397	82.25
346.625	77.25
346.853	93.25
347.08	90.25
347.308	83.25
347.535	84.25
347.763	70.25
347.99	73.25
348.218	79.25
348.445	90.25
348.673	81.25
348.9	77.25
349.128	67.25
349.355	88.25
349.583	73.25
349.81	78.25
350.037	74.25
350.265	93.25
350.492	92.25
350.72	68.25
350.947	83.25
351.174	75.25
351.402	91.25
351.629	85.25
351.856	88.25
352.083	94.25
352.311	90.25
352.538	88.25
352.765	82.25
352.992	97.25
353.22	73.25
353.447	82.25
353.674	85.25
353.901	92.25
354.128	83.25
354.355	78.25
354.583	82.25
354.81	79.25
355.037	77.25
355.264	90.25
355.491	76.25
355.718	89.25
355.945	74.25
356.172	75.25
356.399	87.25
356.626	81.25
356.853	86.25
357.08	84.25
357.307	85.25
357.534	75.25
357.761	90.25
357.988	81.25
358.215	95.25
358.441	85.25
358.668	85.25
358.895	89.25
359.122	91.25
359.349	88.25
359.576	82.25
359.802	78.25
360.029	99.25
360.256	84.25
360.483	83.25
360.709	78.25
360.936	85.25
361.163	83.25
361.39	105.25
361.616	75.25
361.843	74.25
362.07	76.25
362.296	100.25
362.523	79.25
362.749	90.25
362.976	86.25
363.203	94.25
363.429	88.25
363.656	91.25
363.882	80.25
364.109	90.25
364.335	81.25
364.562	71.25
364.788	79.25
365.015	76.25
365.241	84.25
365.468	82.25
365.694	76.25
365.92	87.25
366.147	74.25
366.373	88.25
366.599	97.25
366.826	91.25
367.052	74.25
367.278	96.25
367.505	91.25
367.731	100.25
367.957	101.25
368.184	75.25
368.41	89.25
368.636	73.25
368.862	67.25
369.089	89.25
369.315	72.25
369.541	88.25
369.767	62.25
369.993	86.25
370.219	79.25
370.445	89.25
370.672	82.25
370.898	71.25
371.124	82.25
371.35	73.25
371.576	73.25
371.802	86.25
372.028	81.25
372.254	86.25
372.48	91.25
372.706	81.25
372.932	76.25
373.158	66.25
373.384	88.25
373.61	88.25
373.835	80.25
374.061	84.25
374.287	96.25
374.513	85.25
374.739	82.25
374.965	81.25
375.191	89.25
375.416	82.25
375.642	75.25
375.868	102.25
376.094	85.25
376.319	83.25
376.545	77.25
376.771	83.25
376.997	83.25
377.222	74.25
377.448	100.25
377.674	87.25
377.899	88.25
378.125	85.25
378.35	79.25
378.576	81.25
378.802	89.25
379.027	84.25
379.253	83.25
379.478	86.25
379.704	82.25
379.929	70.25
380.155	87.25
380.38	85.25
380.606	80.25
380.831	84.25
381.057	76.25
381.282	80.25
381.507	92.25
381.733	81.25
381.958	100.25
382.184	95.25
382.409	82.25
382.634	78.25
382.86	72.25
383.085	76.25
383.31	75.25
383.535	85.25
383.761	73.25
383.986	83.25
384.211	90.25
384.436	72.25
384.662	76.25
384.887	95.25
385.112	85.25
385.337	73.25
385.562	87.25
385.787	82.25
386.013	104.25
386.238	86.25
386.463	90.25
386.688	71.25
386.913	85.25
387.138	76.25
387.363	86.25
387.588	87.25
387.813	76.25
388.038	91.25
388.263	85.25
388.488	95.25
388.713	97.25
388.938	80.25
389.163	87.25
389.387	82.25
389.612	77.25
389.837	80.25
390.062	83.25
390.287	83.25
390.512	93.25
390.736	79.25
390.961	89.25
391.186	96.25
391.411	88.25
391.636	90.25
391.86	97.25
392.085	93.25
392.31	90.25
392.534	83.25
392.759	99.25
392.984	81.25
393.208	94.25
393.433	80.25
393.658	77.25
393.882	92.25
394.107	95.25
394.331	69.25
394.556	85.25
394.78	93.25
395.005	88.25
395.229	81.25
395.454	74.25
395.678	79.25
395.903	82.25
396.127	94.25
396.352	92.25
396.576	87.25
396.801	92.25
397.025	87.25
397.249	102.25
397.474	103.25
397.698	84.25
397.922	84.25
398.147	94.25
398.371	99.25
398.595	94.25
398.82	89.25
399.044	80.25
399.268	72.25
399.492	83.25
399.717	85.25
399.941	95.25
400.165	96.25
400.389	99.25
400.613	81.25
400.837	82.25
401.062	81.25
401.286	78.25
401.51	86.25
401.734	88.25
401.958	79.25
402.182	95.25
402.406	80.25
402.63	78.25
402.854	81.25
403.078	89.25
403.302	107.25
403.526	83.25
403.75	98.25
403.974	87.25
404.198	86.25
404.422	82.25
404.645	83.25
404.869	85.25
405.093	80.25
405.317	88.25
405.541	114.25
405.765	87.25
405.988	83.25
406.212	90.25
406.436	90.25
406.66	92.25
406.883	97.25
407.107	90.25
407.331	85.25
407.555	90.25
407.778	101.25
408.002	81.25
408.226	86.25
408.449	87.25
408.673	77.25
408.896	86.25
409.12	88.25
409.344	110.25
409.567	85.25
409.791	87.25
410.014	89.25
410.238	88.25
410.461	86.25
410.685	90.25
410.908	76.25
411.132	113.25
411.355	91.25
411.578	81.25
411.802	91.25
412.025	96.25
412.249	87.25
412.472	100.25
412.695	86.25
412.919	97.25
413.142	87.25
413.365	97.25
413.589	84.25
413.812	94.25
414.035	106.25
414.258	103.25
414.482	98.25
414.705	88.25
414.928	109.25
415.151	95.25
415.374	96.25
415.597	100.25
415.821	88.25
416.044	79.25
416.267	82.25
416.49	102.25
416.713	94.25
416.936	98.25
417.159	94.25
417.382	80.25
417.605	97.25
417.828	97.25
418.051	110.25
418.274	104.25
418.497	96.25
418.72	106.25
418.943	96.25
419.166	107.25
419.389	92.25
419.611	99.25
419.834	79.25
420.057	90.25
420.28	88.25
420.503	88.25
420.726	89.25
420.948	87.25
421.171	84.25
421.394	95.25
421.617	89.25
421.839	100.25
422.062	95.25
422.285	94.25
422.507	96.25
422.73	86.25
422.953	91.25
423.175	89.25
423.398	91.25
423.621	89.25
423.843	93.25
424.066	91.25
424.288	92.25
424.511	92.25
424.733	105.25
424.956	88.25
425.178	93.25
425.401	97.25
425.623	86.25
425.846	82.25
426.068	98.25
426.291	74.25
426.513	84.25
426.735	89.25
426.958	91.25
427.18	125.25
427.402	110.25
427.625	88.25
427.847	97.25
428.069	92.25
428.292	98.25
428.514	74.25
428.736	89.25
428.958	107.25
429.181	94.25
429.403	84.25
429.625	93.25
429.847	80.25
430.069	98.25
430.292	92.25
430.514	93.25
430.736	88.25
430.958	104.25
431.18	87.25
431.402	100.25
431.624	73.25
431.846	97.25
432.068	75.25
432.29	101.25
432.512	91.25
432.734	98.25
432.956	104.25
433.178	90.25
433.4	89.25
433.622	98.25
433.844	105.25
434.066	105.25
434.287	81.25
434.509	82.25
434.731	90.25
434.953	81.25
435.175	88.25
435.397	107.25
435.618	83.25
435.84	91.25
436.062	93.25
436.284	81.25
436.505	84.25
436.727	91.25
436.949	105.25
437.17	96.25
437.392	102.25
437.614	96.25
437.835	77.25
438.057	88.25
438.278	86.25
438.5	85.25
438.721	90.25
438.943	95.25
439.165	90.25
439.386	99.25
439.608	95.25
439.829	91.25
440.05	103.25
440.272	88.25
440.493	94.25
440.715	109.25
440.936	117.25
441.158	105.25
441.379	101.25
441.6	102.25
441.822	101.25
442.043	103.25
442.264	103.25
442.486	99.25
442.707	93.25
442.928	89.25
443.149	81.25
443.371	91.25
443.592	98.25
443.813	76.25
444.034	97.25
444.255	103.25
444.476	90.25
444.698	93.25
444.919	94.25
445.14	198.25
445.361	127.25
445.582	101.25
445.803	96.25
446.024	102.25
446.245	98.25
446.466	109.25
446.687	90.25
446.908	118.25
447.129	90.25
447.35	88.25
447.571	108.25
447.792	103.25
448.013	97.25
448.234	112.25
448.455	96.25
448.675	104.25
448.896	96.25
449.117	87.25
449.338	79.25
449.559	88.25
449.779	98.25
450	98.25
450.221	98.25
450.442	83.25
450.662	84.25
450.883	95.25
451.104	94.25
451.324	87.25
451.545	96.25
451.766	97.25
451.986	87.25
452.207	86.25
452.428	104.25
452.648	94.25
452.869	93.25
453.089	88.25
453.31	86.25
453.53	96.25
453.751	79.25
453.971	94.25
454.192	74.25
454.412	99.25
454.633	76.25
454.853	99.25
455.073	96.25
455.294	99.25
455.514	91.25
455.734	99.25
455.955	79.25
456.175	96.25
456.395	96.25
456.616	82.25
456.836	85.25
457.056	82.25
457.276	85.25
457.497	104.25
457.717	78.25
457.937	95.25
458.157	82.25
458.377	93.25
458.598	81.25
458.818	76.25
459.038	89.25
459.258	85.25
459.478	82.25
459.698	82.25
459.918	85.25
460.138	92.25
460.358	93.25
460.578	86.25
460.798	83.25
461.018	83.25
461.238	79.25
461.458	104.25
461.678	84.25
461.898	89.25
462.118	94.25
462.338	98.25
462.558	90.25
462.777	95.25
462.997	85.25
463.217	87.25
463.437	99.25
463.657	85.25
463.876	94.25
464.096	79.25
464.316	80.25
464.536	82.25
464.755	91.25
464.975	93.25
465.195	109.25
465.414	91.25
465.634	77.25
465.854	97.25
466.073	94.25
466.293	82.25
466.512	103.25
466.732	93.25
466.951	98.25
467.171	83.25
467.391	97.25
467.61	101.25
467.829	83.25
468.049	93.25
468.268	86.25
468.488	85.25
468.707	96.25
468.927	100.25
469.146	94.25
469.365	98.25
469.585	82.25
469.804	85.25
470.023	96.25
470.243	104.25
470.462	91.25
470.681	91.25
470.901	83.25
471.12	87.25
471.339	93.25
471.558	106.25
471.777	115.25
471.997	93.25
472.216	98.25
472.435	104.25
472.654	85.25
472.873	85.25
473.092	87.25
473.311	93.25
473.53	94.25
473.749	104.25
473.968	99.25
474.187	81.25
474.406	101.25
474.625	94.25
474.844	86.25
475.063	91.25
475.282	89.25
475.501	94.25
475.72	109.25
475.939	100.25
476.158	82.25
476.377	98.25
476.596	91.25
476.814	88.25
477.033	87.25
477.252	104.25
477.471	98.25
477.69	94.25
477.908	117.25
478.127	109.25
478.346	95.25
478.564	98.25
478.783	80.25
479.002	94.25
479.22	103.25
479.439	84.25
479.658	86.25
479.876	97.25
480.095	75.25
480.313	95.25
480.532	85.25
480.751	88.25
480.969	86.25
481.188	87.25
481.406	97.25
481.624	85.25
481.843	85.25
482.061	88.25
482.28	95.25
482.498	97.25
482.717	80.25
482.935	96.25
483.153	84.25
483.372	108.25
483.59	97.25
483.808	98.25
484.027	102.25
484.245	89.25
484.463	109.25
484.681	94.25
484.9	86.25
485.118	87.25
485.336	95.25
485.554	76.25
485.772	86.25
485.99	103.25
486.209	96.25
486.427	90.25
486.645	90.25
486.863	89.25
487.081	98.25
487.299	101.25
487.517	101.25
487.735	107.25
487.953	102.25
488.171	105.25
488.389	93.25
488.607	110.25
488.825	96.25
489.043	91.25
489.261	81.25
489.479	94.25
489.696	109.25
489.914	111.25
490.132	104.25
490.35	93.25
490.568	92.25
490.786	106.25
491.003	103.25
491.221	102.25
491.439	98.25
491.657	106.25
491.874	118.25
492.092	121.25
492.31	128.25
492.527	137.25
492.745	110.25
492.963	110.25
493.18	121.25
493.398	112.25
493.615	119.25
493.833	97.25
494.05	113.25
494.268	119.25
494.485	110.25
494.703	114.25
494.92	122.25
495.138	107.25
495.355	95.25
495.573	116.25
495.79	95.25
496.008	110.25
496.225	103.25
496.442	106.25
496.66	117.25
496.877	86.25
497.094	104.25
497.312	111.25
497.529	111.25
497.746	100.25
497.963	91.25
498.181	91.25
498.398	98.25
498.615	96.25
498.832	107.25
499.049	93.25
499.267	111.25
499.484	95.25
499.701	96.25
499.918	107.25
500.135	74.25
500.352	93.25
500.569	97.25
500.786	108.25
501.003	119.25
501.22	96.25
501.437	98.25
501.654	99.25
501.871	97.25
502.088	95.25
502.305	98.25
502.522	86.25
502.739	108.25
502.956	91.25
503.172	93.25
503.389	92.25
503.606	101.25
503.823	93.25
504.04	89.25
504.256	85.25
504.473	84.25
504.69	88.25
504.907	91.25
505.123	90.25
505.34	92.25
505.557	89.25
505.773	95.25
505.99	112.25
506.207	94.25
506.423	82.25
506.64	93.25
506.856	97.25
507.073	96.25
507.289	86.25
507.506	87.25
507.722	84.25
507.939	84.25
508.155	88.25
508.372	90.25
508.588	90.25
508.805	83.25
509.021	85.25
509.238	92.25
509.454	85.25
509.67	92.25
509.887	97.25
510.103	79.25
510.319	85.25
510.536	82.25
510.752	71.25
510.968	80.25
511.184	89.25
511.401	93.25
511.617	91.25
511.833	79.25
512.049	67.25
512.265	102.25
512.481	100.25
512.698	90.25
512.914	89.25
513.13	82.25
513.346	86.25
513.562	104.25
513.778	102.25
513.994	92.25
514.21	96.25
514.426	95.25
514.642	92.25
514.858	96.25
515.074	80.25
515.29	83.25
515.506	81.25
515.721	72.25
515.937	80.25
516.153	69.25
516.369	88.25
516.585	78.25
516.801	78.25
517.016	78.25
517.232	84.25
517.448	75.25
517.664	86.25
