Data from Location4.07152019.Energy5.Lamp.07192019.3%Agarose_HRD10591_15-25-20-578.txt Node
Date: Fri Jul 19 15:25:20 EDT 2019
User: cochatt
Spectrometer: HR+D1059
Trigger mode: 1
Integration Time (sec): 1.000000E-1
Scans to average: 1
Electric dark correction enabled: true
Nonlinearity correction enabled: false
Boxcar width: 0
XAxis mode: Wavelengths
Number of Pixels in Spectrum: 2048
>>>>>Begin Spectral Data<<<<<
223.165	-24.56
223.4	-24.56
223.635	-24.56
223.869	-30.56
224.104	-18.56
224.338	-12.56
224.573	-5.56
224.808	-11.56
225.042	-10.56
225.277	-11.56
225.511	13.44
225.746	5.44
225.98	-5.56
226.215	15.44
226.449	7.44
226.683	30.44
226.918	24.44
227.152	34.44
227.387	32.44
227.621	34.44
227.856	39.44
228.09	59.44
228.324	46.44
228.559	57.44
228.793	63.44
229.027	61.44
229.262	79.44
229.496	63.44
229.73	68.44
229.964	60.44
230.199	73.44
230.433	85.44
230.667	76.44
230.901	64.44
231.136	88.44
231.37	75.44
231.604	74.44
231.838	86.44
232.072	85.44
232.306	78.44
232.541	77.44
232.775	91.44
233.009	77.44
233.243	92.44
233.477	91.44
233.711	77.44
233.945	77.44
234.179	95.44
234.413	75.44
234.647	79.44
234.881	97.44
235.115	83.44
235.349	84.44
235.583	83.44
235.817	81.44
236.051	90.44
236.285	75.44
236.519	80.44
236.753	79.44
236.987	90.44
237.221	85.44
237.455	87.44
237.689	101.44
237.922	90.44
238.156	89.44
238.39	77.44
238.624	75.44
238.858	78.44
239.091	72.44
239.325	79.44
239.559	77.44
239.793	73.44
240.027	83.44
240.26	80.44
240.494	89.44
240.728	62.44
240.961	88.44
241.195	70.44
241.429	81.44
241.662	73.44
241.896	68.44
242.13	55.44
242.363	77.44
242.597	85.44
242.83	91.44
243.064	71.44
243.298	82.44
243.531	93.44
243.765	76.44
243.998	66.44
244.232	83.44
244.465	86.44
244.699	71.44
244.932	88.44
245.166	89.44
245.399	78.44
245.633	83.44
245.866	91.44
246.099	88.44
246.333	76.44
246.566	80.44
246.8	74.44
247.033	94.44
247.266	75.44
247.5	72.44
247.733	81.44
247.966	73.44
248.2	89.44
248.433	85.44
248.666	79.44
248.899	81.44
249.133	95.44
249.366	79.44
249.599	80.44
249.832	95.44
250.066	77.44
250.299	85.44
250.532	75.44
250.765	85.44
250.998	75.44
251.231	90.44
251.465	82.44
251.698	75.44
251.931	81.44
252.164	86.44
252.397	67.44
252.63	90.44
252.863	78.44
253.096	79.44
253.329	82.44
253.562	89.44
253.795	85.44
254.028	94.44
254.261	85.44
254.494	94.44
254.727	87.44
254.96	89.44
255.193	83.44
255.426	86.44
255.659	86.44
255.892	78.44
256.124	90.44
256.357	83.44
256.59	87.44
256.823	93.44
257.056	72.44
257.289	82.44
257.521	77.44
257.754	76.44
257.987	76.44
258.22	84.44
258.452	86.44
258.685	73.44
258.918	80.44
259.151	78.44
259.383	63.44
259.616	74.44
259.849	78.44
260.081	86.44
260.314	83.44
260.547	94.44
260.779	86.44
261.012	90.44
261.244	75.44
261.477	87.44
261.71	82.44
261.942	86.44
262.175	65.44
262.407	86.44
262.64	73.44
262.872	87.44
263.105	93.44
263.337	91.44
263.57	84.44
263.802	84.44
264.035	62.44
264.267	79.44
264.499	95.44
264.732	89.44
264.964	83.44
265.197	87.44
265.429	91.44
265.661	86.44
265.894	84.44
266.126	85.44
266.358	78.44
266.591	80.44
266.823	90.44
267.055	91.44
267.287	79.44
267.52	95.44
267.752	82.44
267.984	92.44
268.216	88.44
268.448	87.44
268.681	96.44
268.913	86.44
269.145	76.44
269.377	80.44
269.609	87.44
269.841	95.44
270.073	80.44
270.306	102.44
270.538	79.44
270.77	87.44
271.002	74.44
271.234	76.44
271.466	82.44
271.698	82.44
271.93	82.44
272.162	84.44
272.394	80.44
272.626	79.44
272.858	87.44
273.09	82.44
273.322	87.44
273.553	95.44
273.785	79.44
274.017	79.44
274.249	94.44
274.481	98.44
274.713	69.44
274.945	98.44
275.176	71.44
275.408	82.44
275.64	97.44
275.872	85.44
276.104	92.44
276.335	88.44
276.567	93.44
276.799	90.44
277.031	90.44
277.262	85.44
277.494	87.44
277.726	78.44
277.957	89.44
278.189	88.44
278.421	83.44
278.652	75.44
278.884	97.44
279.115	89.44
279.347	84.44
279.579	89.44
279.81	92.44
280.042	77.44
280.273	78.44
280.505	91.44
280.736	79.44
280.968	78.44
281.199	86.44
281.431	92.44
281.662	86.44
281.894	87.44
282.125	88.44
282.356	97.44
282.588	87.44
282.819	86.44
283.051	82.44
283.282	79.44
283.513	107.44
283.745	89.44
283.976	76.44
284.207	83.44
284.439	83.44
284.67	79.44
284.901	95.44
285.132	96.44
285.364	79.44
285.595	84.44
285.826	78.44
286.057	89.44
286.288	97.44
286.52	75.44
286.751	83.44
286.982	82.44
287.213	81.44
287.444	94.44
287.675	94.44
287.906	91.44
288.138	66.44
288.369	90.44
288.6	94.44
288.831	85.44
289.062	88.44
289.293	85.44
289.524	81.44
289.755	85.44
289.986	85.44
290.217	89.44
290.448	84.44
290.679	85.44
290.91	89.44
291.141	77.44
291.371	80.44
291.602	93.44
291.833	98.44
292.064	93.44
292.295	94.44
292.526	92.44
292.757	72.44
292.987	87.44
293.218	83.44
293.449	85.44
293.68	94.44
293.91	87.44
294.141	77.44
294.372	83.44
294.603	71.44
294.833	87.44
295.064	85.44
295.295	102.44
295.525	95.44
295.756	83.44
295.987	93.44
296.217	90.44
296.448	70.44
296.679	77.44
296.909	80.44
297.14	91.44
297.37	79.44
297.601	89.44
297.831	88.44
298.062	80.44
298.292	102.44
298.523	104.44
298.753	85.44
298.984	80.44
299.214	76.44
299.445	93.44
299.675	86.44
299.905	92.44
300.136	83.44
300.366	79.44
300.597	80.44
300.827	76.44
301.057	77.44
301.288	84.44
301.518	93.44
301.748	88.44
301.979	94.44
302.209	111.44
302.439	86.44
302.669	92.44
302.9	90.44
303.13	106.44
303.36	97.44
303.59	93.44
303.82	89.44
304.051	88.44
304.281	93.44
304.511	88.44
304.741	101.44
304.971	92.44
305.201	71.44
305.431	93.44
305.661	90.44
305.891	97.44
306.121	100.44
306.352	85.44
306.582	75.44
306.812	90.44
307.042	76.44
307.272	98.44
307.502	88.44
307.731	80.44
307.961	89.44
308.191	104.44
308.421	95.44
308.651	78.44
308.881	82.44
309.111	86.44
309.341	94.44
309.571	73.44
309.8	74.44
310.03	88.44
310.26	88.44
310.49	87.44
310.72	90.44
310.949	90.44
311.179	93.44
311.409	95.44
311.639	83.44
311.868	90.44
312.098	87.44
312.328	83.44
312.557	77.44
312.787	93.44
313.017	97.44
313.246	93.44
313.476	88.44
313.706	91.44
313.935	95.44
314.165	82.44
314.394	84.44
314.624	92.44
314.853	95.44
315.083	83.44
315.312	86.44
315.542	99.44
315.771	85.44
316.001	90.44
316.23	85.44
316.46	84.44
316.689	89.44
316.919	78.44
317.148	83.44
317.377	98.44
317.607	90.44
317.836	83.44
318.065	89.44
318.295	88.44
318.524	94.44
318.753	85.44
318.983	83.44
319.212	99.44
319.441	108.44
319.67	78.44
319.9	101.44
320.129	72.44
320.358	77.44
320.587	94.44
320.816	83.44
321.046	80.44
321.275	89.44
321.504	90.44
321.733	90.44
321.962	82.44
322.191	105.44
322.42	70.44
322.649	95.44
322.878	94.44
323.108	94.44
323.337	91.44
323.566	86.44
323.795	80.44
324.024	91.44
324.253	89.44
324.482	89.44
324.71	82.44
324.939	95.44
325.168	82.44
325.397	87.44
325.626	77.44
325.855	75.44
326.084	74.44
326.313	80.44
326.542	80.44
326.77	86.44
326.999	78.44
327.228	86.44
327.457	80.44
327.686	94.44
327.914	95.44
328.143	93.44
328.372	81.44
328.6	89.44
328.829	83.44
329.058	80.44
329.287	88.44
329.515	83.44
329.744	98.44
329.972	99.44
330.201	83.44
330.43	85.44
330.658	101.44
330.887	89.44
331.115	75.44
331.344	98.44
331.572	91.44
331.801	88.44
332.03	83.44
332.258	87.44
332.486	85.44
332.715	88.44
332.943	79.44
333.172	89.44
333.4	77.44
333.629	86.44
333.857	101.44
334.085	91.44
334.314	78.44
334.542	76.44
334.771	88.44
334.999	81.44
335.227	85.44
335.455	87.44
335.684	93.44
335.912	94.44
336.14	93.44
336.369	83.44
336.597	89.44
336.825	92.44
337.053	79.44
337.281	82.44
337.51	78.44
337.738	89.44
337.966	69.44
338.194	94.44
338.422	91.44
338.65	99.44
338.878	88.44
339.106	88.44
339.334	86.44
339.562	90.44
339.79	75.44
340.018	70.44
340.246	87.44
340.474	88.44
340.702	84.44
340.93	86.44
341.158	72.44
341.386	76.44
341.614	94.44
341.842	94.44
342.07	84.44
342.298	93.44
342.526	82.44
342.754	91.44
342.981	92.44
343.209	99.44
343.437	82.44
343.665	88.44
343.893	91.44
344.12	93.44
344.348	90.44
344.576	83.44
344.804	89.44
345.031	90.44
345.259	90.44
345.487	95.44
345.714	88.44
345.942	96.44
346.17	78.44
346.397	88.44
346.625	100.44
346.853	82.44
347.08	89.44
347.308	89.44
347.535	90.44
347.763	79.44
347.99	81.44
348.218	91.44
348.445	78.44
348.673	90.44
348.9	94.44
349.128	90.44
349.355	86.44
349.583	105.44
349.81	107.44
350.037	90.44
350.265	75.44
350.492	79.44
350.72	86.44
350.947	74.44
351.174	79.44
351.402	85.44
351.629	94.44
351.856	74.44
352.083	90.44
352.311	88.44
352.538	77.44
352.765	88.44
352.992	86.44
353.22	106.44
353.447	87.44
353.674	78.44
353.901	85.44
354.128	97.44
354.355	89.44
354.583	83.44
354.81	86.44
355.037	103.44
355.264	86.44
355.491	79.44
355.718	84.44
355.945	86.44
356.172	79.44
356.399	93.44
356.626	84.44
356.853	89.44
357.08	82.44
357.307	69.44
357.534	81.44
357.761	97.44
357.988	96.44
358.215	93.44
358.441	85.44
358.668	91.44
358.895	78.44
359.122	83.44
359.349	95.44
359.576	97.44
359.802	83.44
360.029	88.44
360.256	84.44
360.483	79.44
360.709	92.44
360.936	93.44
361.163	70.44
361.39	105.44
361.616	82.44
361.843	78.44
362.07	85.44
362.296	88.44
362.523	76.44
362.749	87.44
362.976	76.44
363.203	99.44
363.429	71.44
363.656	88.44
363.882	89.44
364.109	91.44
364.335	80.44
364.562	81.44
364.788	82.44
365.015	91.44
365.241	95.44
365.468	85.44
365.694	85.44
365.92	89.44
366.147	74.44
366.373	86.44
366.599	92.44
366.826	83.44
367.052	92.44
367.278	85.44
367.505	99.44
367.731	85.44
367.957	96.44
368.184	77.44
368.41	91.44
368.636	91.44
368.862	89.44
369.089	89.44
369.315	90.44
369.541	92.44
369.767	95.44
369.993	81.44
370.219	101.44
370.445	86.44
370.672	89.44
370.898	88.44
371.124	86.44
371.35	90.44
371.576	99.44
371.802	91.44
372.028	84.44
372.254	67.44
372.48	92.44
372.706	78.44
372.932	80.44
373.158	95.44
373.384	99.44
373.61	88.44
373.835	95.44
374.061	96.44
374.287	97.44
374.513	91.44
374.739	88.44
374.965	78.44
375.191	78.44
375.416	90.44
375.642	94.44
375.868	94.44
376.094	100.44
376.319	94.44
376.545	94.44
376.771	78.44
376.997	84.44
377.222	86.44
377.448	95.44
377.674	85.44
377.899	92.44
378.125	76.44
378.35	98.44
378.576	93.44
378.802	71.44
379.027	86.44
379.253	78.44
379.478	93.44
379.704	82.44
379.929	85.44
380.155	99.44
380.38	82.44
380.606	87.44
380.831	89.44
381.057	75.44
381.282	101.44
381.507	101.44
381.733	92.44
381.958	89.44
382.184	83.44
382.409	91.44
382.634	80.44
382.86	86.44
383.085	92.44
383.31	79.44
383.535	91.44
383.761	88.44
383.986	82.44
384.211	79.44
384.436	82.44
384.662	93.44
384.887	84.44
385.112	78.44
385.337	83.44
385.562	90.44
385.787	79.44
386.013	96.44
386.238	94.44
386.463	78.44
386.688	84.44
386.913	82.44
387.138	92.44
387.363	97.44
387.588	87.44
387.813	100.44
388.038	100.44
388.263	89.44
388.488	95.44
388.713	101.44
388.938	97.44
389.163	81.44
389.387	90.44
389.612	91.44
389.837	74.44
390.062	84.44
390.287	89.44
390.512	92.44
390.736	88.44
390.961	78.44
391.186	97.44
391.411	79.44
391.636	89.44
391.86	79.44
392.085	86.44
392.31	95.44
392.534	102.44
392.759	78.44
392.984	75.44
393.208	90.44
393.433	78.44
393.658	99.44
393.882	82.44
394.107	83.44
394.331	104.44
394.556	95.44
394.78	100.44
395.005	79.44
395.229	90.44
395.454	92.44
395.678	91.44
395.903	87.44
396.127	94.44
396.352	82.44
396.576	80.44
396.801	101.44
397.025	74.44
397.249	79.44
397.474	97.44
397.698	87.44
397.922	94.44
398.147	91.44
398.371	95.44
398.595	93.44
398.82	91.44
399.044	91.44
399.268	78.44
399.492	77.44
399.717	84.44
399.941	95.44
400.165	92.44
400.389	89.44
400.613	84.44
400.837	85.44
401.062	88.44
401.286	87.44
401.51	95.44
401.734	91.44
401.958	87.44
402.182	100.44
402.406	85.44
402.63	96.44
402.854	101.44
403.078	95.44
403.302	93.44
403.526	97.44
403.75	90.44
403.974	97.44
404.198	106.44
404.422	86.44
404.645	87.44
404.869	73.44
405.093	93.44
405.317	93.44
405.541	113.44
405.765	103.44
405.988	99.44
406.212	99.44
406.436	98.44
406.66	87.44
406.883	88.44
407.107	95.44
407.331	81.44
407.555	95.44
407.778	80.44
408.002	92.44
408.226	87.44
408.449	82.44
408.673	98.44
408.896	106.44
409.12	81.44
409.344	96.44
409.567	79.44
409.791	103.44
410.014	99.44
410.238	87.44
410.461	97.44
410.685	93.44
410.908	76.44
411.132	93.44
411.355	94.44
411.578	88.44
411.802	101.44
412.025	89.44
412.249	102.44
412.472	97.44
412.695	106.44
412.919	99.44
413.142	101.44
413.365	105.44
413.589	83.44
413.812	97.44
414.035	82.44
414.258	90.44
414.482	97.44
414.705	70.44
414.928	85.44
415.151	96.44
415.374	95.44
415.597	100.44
415.821	100.44
416.044	87.44
416.267	83.44
416.49	89.44
416.713	95.44
416.936	101.44
417.159	84.44
417.382	89.44
417.605	80.44
417.828	91.44
418.051	98.44
418.274	75.44
418.497	96.44
418.72	101.44
418.943	93.44
419.166	96.44
419.389	115.44
419.611	109.44
419.834	89.44
420.057	92.44
420.28	92.44
420.503	101.44
420.726	93.44
420.948	108.44
421.171	92.44
421.394	94.44
421.617	93.44
421.839	86.44
422.062	101.44
422.285	101.44
422.507	93.44
422.73	92.44
422.953	94.44
423.175	98.44
423.398	106.44
423.621	86.44
423.843	91.44
424.066	90.44
424.288	86.44
424.511	94.44
424.733	96.44
424.956	93.44
425.178	101.44
425.401	91.44
425.623	97.44
425.846	99.44
426.068	94.44
426.291	79.44
426.513	102.44
426.735	101.44
426.958	108.44
427.18	111.44
427.402	102.44
427.625	107.44
427.847	93.44
428.069	90.44
428.292	89.44
428.514	106.44
428.736	95.44
428.958	103.44
429.181	116.44
429.403	101.44
429.625	85.44
429.847	86.44
430.069	87.44
430.292	115.44
430.514	94.44
430.736	90.44
430.958	85.44
431.18	110.44
431.402	98.44
431.624	101.44
431.846	102.44
432.068	87.44
432.29	96.44
432.512	87.44
432.734	99.44
432.956	99.44
433.178	104.44
433.4	91.44
433.622	94.44
433.844	106.44
434.066	119.44
434.287	102.44
434.509	103.44
434.731	90.44
434.953	92.44
435.175	99.44
435.397	88.44
435.618	89.44
435.84	88.44
436.062	84.44
436.284	90.44
436.505	95.44
436.727	99.44
436.949	101.44
437.17	85.44
437.392	79.44
437.614	101.44
437.835	93.44
438.057	83.44
438.278	80.44
438.5	88.44
438.721	100.44
438.943	85.44
439.165	100.44
439.386	91.44
439.608	103.44
439.829	93.44
440.05	107.44
440.272	102.44
440.493	101.44
440.715	105.44
440.936	112.44
441.158	106.44
441.379	85.44
441.6	91.44
441.822	101.44
442.043	90.44
442.264	102.44
442.486	85.44
442.707	84.44
442.928	109.44
443.149	104.44
443.371	107.44
443.592	100.44
443.813	101.44
444.034	109.44
444.255	105.44
444.476	98.44
444.698	107.44
444.919	97.44
445.14	236.44
445.361	156.44
445.582	117.44
445.803	117.44
446.024	114.44
446.245	113.44
446.466	98.44
446.687	98.44
446.908	102.44
447.129	116.44
447.35	95.44
447.571	95.44
447.792	95.44
448.013	97.44
448.234	107.44
448.455	105.44
448.675	94.44
448.896	109.44
449.117	94.44
449.338	91.44
449.559	99.44
449.779	93.44
450	102.44
450.221	106.44
450.442	95.44
450.662	93.44
450.883	86.44
451.104	99.44
451.324	91.44
451.545	89.44
451.766	88.44
451.986	106.44
452.207	98.44
452.428	94.44
452.648	104.44
452.869	107.44
453.089	68.44
453.31	87.44
453.53	79.44
453.751	92.44
453.971	93.44
454.192	82.44
454.412	82.44
454.633	89.44
454.853	94.44
455.073	95.44
455.294	88.44
455.514	90.44
455.734	121.44
455.955	94.44
456.175	92.44
456.395	89.44
456.616	90.44
456.836	90.44
457.056	98.44
457.276	87.44
457.497	93.44
457.717	98.44
457.937	89.44
458.157	91.44
458.377	81.44
458.598	86.44
458.818	86.44
459.038	79.44
459.258	83.44
459.478	88.44
459.698	92.44
459.918	87.44
460.138	91.44
460.358	101.44
460.578	83.44
460.798	82.44
461.018	92.44
461.238	101.44
461.458	95.44
461.678	88.44
461.898	87.44
462.118	91.44
462.338	94.44
462.558	107.44
462.777	85.44
462.997	85.44
463.217	91.44
463.437	85.44
463.657	100.44
463.876	96.44
464.096	92.44
464.316	97.44
464.536	82.44
464.755	101.44
464.975	99.44
465.195	107.44
465.414	101.44
465.634	99.44
465.854	102.44
466.073	104.44
466.293	98.44
466.512	93.44
466.732	103.44
466.951	108.44
467.171	82.44
467.391	92.44
467.61	110.44
467.829	118.44
468.049	100.44
468.268	109.44
468.488	95.44
468.707	95.44
468.927	98.44
469.146	80.44
469.365	84.44
469.585	87.44
469.804	92.44
470.023	100.44
470.243	104.44
470.462	95.44
470.681	93.44
470.901	103.44
471.12	102.44
471.339	110.44
471.558	104.44
471.777	97.44
471.997	102.44
472.216	99.44
472.435	99.44
472.654	99.44
472.873	107.44
473.092	87.44
473.311	96.44
473.53	83.44
473.749	84.44
473.968	99.44
474.187	99.44
474.406	94.44
474.625	90.44
474.844	90.44
475.063	66.44
475.282	89.44
475.501	107.44
475.72	118.44
475.939	92.44
476.158	93.44
476.377	102.44
476.596	94.44
476.814	94.44
477.033	90.44
477.252	81.44
477.471	108.44
477.69	98.44
477.908	105.44
478.127	94.44
478.346	88.44
478.564	91.44
478.783	89.44
479.002	97.44
479.22	101.44
479.439	95.44
479.658	94.44
479.876	87.44
480.095	84.44
480.313	95.44
480.532	108.44
480.751	80.44
480.969	87.44
481.188	80.44
481.406	92.44
481.624	86.44
481.843	75.44
482.061	93.44
482.28	89.44
482.498	91.44
482.717	86.44
482.935	94.44
483.153	115.44
483.372	98.44
483.59	103.44
483.808	116.44
484.027	99.44
484.245	88.44
484.463	98.44
484.681	104.44
484.9	89.44
485.118	103.44
485.336	104.44
485.554	97.44
485.772	106.44
485.99	95.44
486.209	93.44
486.427	84.44
486.645	109.44
486.863	100.44
487.081	102.44
487.299	100.44
487.517	116.44
487.735	105.44
487.953	115.44
488.171	101.44
488.389	102.44
488.607	121.44
488.825	93.44
489.043	86.44
489.261	100.44
489.479	108.44
489.696	100.44
489.914	96.44
490.132	100.44
490.35	109.44
490.568	116.44
490.786	102.44
491.003	111.44
491.221	105.44
491.439	110.44
491.657	117.44
491.874	131.44
492.092	130.44
492.31	134.44
492.527	139.44
492.745	122.44
492.963	105.44
493.18	107.44
493.398	110.44
493.615	107.44
493.833	109.44
494.05	98.44
494.268	118.44
494.485	105.44
494.703	109.44
494.92	102.44
495.138	109.44
495.355	121.44
495.573	109.44
495.79	100.44
496.008	105.44
496.225	113.44
496.442	103.44
496.66	110.44
496.877	92.44
497.094	101.44
497.312	99.44
497.529	106.44
497.746	111.44
497.963	104.44
498.181	105.44
498.398	97.44
498.615	114.44
498.832	93.44
499.049	95.44
499.267	101.44
499.484	66.44
499.701	99.44
499.918	99.44
500.135	90.44
500.352	118.44
500.569	110.44
500.786	105.44
501.003	99.44
501.22	102.44
501.437	95.44
501.654	110.44
501.871	91.44
502.088	107.44
502.305	78.44
502.522	105.44
502.739	107.44
502.956	97.44
503.172	85.44
503.389	89.44
503.606	108.44
503.823	94.44
504.04	101.44
504.256	102.44
504.473	80.44
504.69	99.44
504.907	100.44
505.123	93.44
505.34	97.44
505.557	116.44
505.773	94.44
505.99	87.44
506.207	91.44
506.423	122.44
506.64	100.44
506.856	89.44
507.073	91.44
507.289	109.44
507.506	94.44
507.722	88.44
507.939	103.44
508.155	103.44
508.372	97.44
508.588	87.44
508.805	90.44
509.021	81.44
509.238	106.44
509.454	94.44
509.67	94.44
509.887	82.44
510.103	71.44
510.319	92.44
510.536	82.44
510.752	98.44
510.968	89.44
511.184	81.44
511.401	83.44
511.617	101.44
511.833	103.44
512.049	83.44
512.265	86.44
512.481	91.44
512.698	77.44
512.914	77.44
513.13	84.44
513.346	85.44
513.562	81.44
513.778	76.44
513.994	98.44
514.21	93.44
514.426	74.44
514.642	84.44
514.858	86.44
515.074	75.44
515.29	99.44
515.506	100.44
515.721	82.44
515.937	90.44
516.153	91.44
516.369	78.44
