Data from Location4.07152019.Energy5.Lamp.07192019.3%Agarose_HRD10591_15-25-56-578.txt Node
Date: Fri Jul 19 15:25:56 EDT 2019
User: cochatt
Spectrometer: HR+D1059
Trigger mode: 1
Integration Time (sec): 1.000000E-1
Scans to average: 1
Electric dark correction enabled: true
Nonlinearity correction enabled: false
Boxcar width: 0
XAxis mode: Wavelengths
Number of Pixels in Spectrum: 2048
>>>>>Begin Spectral Data<<<<<
223.165	-23.94
223.4	-23.94
223.635	-23.94
223.869	-4.94
224.104	-5.94
224.338	-20.94
224.573	-12.94
224.808	-15.94
225.042	-5.94
225.277	-19.94
225.511	-3.94
225.746	3.06
225.98	12.06
226.215	9.06
226.449	11.06
226.683	21.06
226.918	24.06
227.152	34.06
227.387	33.06
227.621	43.06
227.856	36.06
228.09	59.06
228.324	45.06
228.559	59.06
228.793	60.06
229.027	57.06
229.262	74.06
229.496	70.06
229.73	63.06
229.964	81.06
230.199	76.06
230.433	77.06
230.667	82.06
230.901	90.06
231.136	76.06
231.37	79.06
231.604	80.06
231.838	83.06
232.072	73.06
232.306	67.06
232.541	75.06
232.775	87.06
233.009	77.06
233.243	75.06
233.477	91.06
233.711	84.06
233.945	96.06
234.179	73.06
234.413	85.06
234.647	82.06
234.881	89.06
235.115	75.06
235.349	73.06
235.583	88.06
235.817	82.06
236.051	73.06
236.285	70.06
236.519	94.06
236.753	73.06
236.987	72.06
237.221	81.06
237.455	70.06
237.689	87.06
237.922	74.06
238.156	82.06
238.39	80.06
238.624	84.06
238.858	84.06
239.091	79.06
239.325	79.06
239.559	74.06
239.793	92.06
240.027	73.06
240.26	84.06
240.494	78.06
240.728	74.06
240.961	68.06
241.195	75.06
241.429	86.06
241.662	82.06
241.896	51.06
242.13	82.06
242.363	73.06
242.597	79.06
242.83	78.06
243.064	70.06
243.298	76.06
243.531	76.06
243.765	76.06
243.998	58.06
244.232	75.06
244.465	71.06
244.699	69.06
244.932	91.06
245.166	72.06
245.399	81.06
245.633	77.06
245.866	74.06
246.099	75.06
246.333	74.06
246.566	75.06
246.8	81.06
247.033	81.06
247.266	63.06
247.5	84.06
247.733	79.06
247.966	76.06
248.2	80.06
248.433	83.06
248.666	69.06
248.899	77.06
249.133	86.06
249.366	85.06
249.599	80.06
249.832	74.06
250.066	74.06
250.299	75.06
250.532	95.06
250.765	71.06
250.998	65.06
251.231	75.06
251.465	76.06
251.698	75.06
251.931	88.06
252.164	87.06
252.397	81.06
252.63	73.06
252.863	91.06
253.096	68.06
253.329	76.06
253.562	81.06
253.795	79.06
254.028	86.06
254.261	83.06
254.494	75.06
254.727	70.06
254.96	76.06
255.193	87.06
255.426	85.06
255.659	79.06
255.892	76.06
256.124	77.06
256.357	91.06
256.59	86.06
256.823	76.06
257.056	94.06
257.289	77.06
257.521	90.06
257.754	65.06
257.987	71.06
258.22	75.06
258.452	70.06
258.685	70.06
258.918	71.06
259.151	91.06
259.383	87.06
259.616	79.06
259.849	81.06
260.081	81.06
260.314	87.06
260.547	66.06
260.779	72.06
261.012	90.06
261.244	79.06
261.477	93.06
261.71	83.06
261.942	76.06
262.175	78.06
262.407	79.06
262.64	76.06
262.872	84.06
263.105	80.06
263.337	89.06
263.57	79.06
263.802	80.06
264.035	80.06
264.267	88.06
264.499	73.06
264.732	87.06
264.964	82.06
265.197	75.06
265.429	90.06
265.661	87.06
265.894	72.06
266.126	74.06
266.358	80.06
266.591	84.06
266.823	88.06
267.055	78.06
267.287	72.06
267.52	87.06
267.752	79.06
267.984	87.06
268.216	87.06
268.448	76.06
268.681	78.06
268.913	82.06
269.145	85.06
269.377	81.06
269.609	74.06
269.841	75.06
270.073	89.06
270.306	83.06
270.538	86.06
270.77	70.06
271.002	90.06
271.234	79.06
271.466	84.06
271.698	79.06
271.93	74.06
272.162	95.06
272.394	80.06
272.626	71.06
272.858	89.06
273.09	80.06
273.322	66.06
273.553	87.06
273.785	91.06
274.017	79.06
274.249	76.06
274.481	84.06
274.713	96.06
274.945	85.06
275.176	84.06
275.408	72.06
275.64	82.06
275.872	90.06
276.104	82.06
276.335	87.06
276.567	76.06
276.799	76.06
277.031	87.06
277.262	86.06
277.494	92.06
277.726	78.06
277.957	81.06
278.189	87.06
278.421	80.06
278.652	80.06
278.884	81.06
279.115	84.06
279.347	80.06
279.579	80.06
279.81	96.06
280.042	103.06
280.273	88.06
280.505	87.06
280.736	77.06
280.968	88.06
281.199	70.06
281.431	93.06
281.662	82.06
281.894	87.06
282.125	87.06
282.356	86.06
282.588	83.06
282.819	89.06
283.051	89.06
283.282	78.06
283.513	80.06
283.745	79.06
283.976	91.06
284.207	98.06
284.439	82.06
284.67	80.06
284.901	70.06
285.132	93.06
285.364	90.06
285.595	96.06
285.826	76.06
286.057	84.06
286.288	82.06
286.52	88.06
286.751	92.06
286.982	90.06
287.213	79.06
287.444	93.06
287.675	72.06
287.906	76.06
288.138	81.06
288.369	83.06
288.6	93.06
288.831	100.06
289.062	83.06
289.293	88.06
289.524	87.06
289.755	71.06
289.986	99.06
290.217	77.06
290.448	90.06
290.679	102.06
290.91	99.06
291.141	83.06
291.371	69.06
291.602	80.06
291.833	82.06
292.064	89.06
292.295	80.06
292.526	69.06
292.757	92.06
292.987	76.06
293.218	81.06
293.449	87.06
293.68	73.06
293.91	82.06
294.141	73.06
294.372	106.06
294.603	69.06
294.833	67.06
295.064	79.06
295.295	66.06
295.525	78.06
295.756	85.06
295.987	78.06
296.217	82.06
296.448	76.06
296.679	85.06
296.909	111.06
297.14	85.06
297.37	91.06
297.601	84.06
297.831	84.06
298.062	92.06
298.292	98.06
298.523	78.06
298.753	89.06
298.984	73.06
299.214	79.06
299.445	67.06
299.675	69.06
299.905	75.06
300.136	75.06
300.366	71.06
300.597	81.06
300.827	87.06
301.057	83.06
301.288	87.06
301.518	94.06
301.748	74.06
301.979	79.06
302.209	86.06
302.439	95.06
302.669	94.06
302.9	84.06
303.13	83.06
303.36	89.06
303.59	76.06
303.82	93.06
304.051	98.06
304.281	81.06
304.511	90.06
304.741	91.06
304.971	86.06
305.201	81.06
305.431	95.06
305.661	78.06
305.891	67.06
306.121	89.06
306.352	90.06
306.582	84.06
306.812	92.06
307.042	95.06
307.272	91.06
307.502	73.06
307.731	92.06
307.961	85.06
308.191	82.06
308.421	79.06
308.651	103.06
308.881	97.06
309.111	76.06
309.341	91.06
309.571	88.06
309.8	79.06
310.03	90.06
310.26	79.06
310.49	92.06
310.72	86.06
310.949	78.06
311.179	87.06
311.409	94.06
311.639	96.06
311.868	100.06
312.098	88.06
312.328	88.06
312.557	74.06
312.787	83.06
313.017	88.06
313.246	76.06
313.476	100.06
313.706	88.06
313.935	76.06
314.165	93.06
314.394	98.06
314.624	96.06
314.853	81.06
315.083	79.06
315.312	80.06
315.542	87.06
315.771	79.06
316.001	81.06
316.23	77.06
316.46	74.06
316.689	90.06
316.919	82.06
317.148	79.06
317.377	95.06
317.607	92.06
317.836	90.06
318.065	82.06
318.295	87.06
318.524	91.06
318.753	96.06
318.983	75.06
319.212	64.06
319.441	81.06
319.67	76.06
319.9	89.06
320.129	98.06
320.358	83.06
320.587	88.06
320.816	72.06
321.046	82.06
321.275	104.06
321.504	94.06
321.733	86.06
321.962	77.06
322.191	93.06
322.42	75.06
322.649	82.06
322.878	97.06
323.108	86.06
323.337	85.06
323.566	86.06
323.795	103.06
324.024	82.06
324.253	89.06
324.482	76.06
324.71	83.06
324.939	100.06
325.168	99.06
325.397	92.06
325.626	87.06
325.855	92.06
326.084	75.06
326.313	78.06
326.542	81.06
326.77	84.06
326.999	84.06
327.228	87.06
327.457	84.06
327.686	89.06
327.914	82.06
328.143	87.06
328.372	83.06
328.6	84.06
328.829	87.06
329.058	56.06
329.287	94.06
329.515	84.06
329.744	95.06
329.972	80.06
330.201	72.06
330.43	89.06
330.658	89.06
330.887	74.06
331.115	95.06
331.344	94.06
331.572	77.06
331.801	81.06
332.03	75.06
332.258	70.06
332.486	86.06
332.715	67.06
332.943	70.06
333.172	74.06
333.4	88.06
333.629	80.06
333.857	98.06
334.085	82.06
334.314	89.06
334.542	89.06
334.771	70.06
334.999	89.06
335.227	97.06
335.455	78.06
335.684	80.06
335.912	76.06
336.14	90.06
336.369	93.06
336.597	98.06
336.825	84.06
337.053	85.06
337.281	86.06
337.51	88.06
337.738	83.06
337.966	80.06
338.194	98.06
338.422	85.06
338.65	91.06
338.878	89.06
339.106	79.06
339.334	87.06
339.562	75.06
339.79	83.06
340.018	82.06
340.246	81.06
340.474	84.06
340.702	92.06
340.93	80.06
341.158	91.06
341.386	69.06
341.614	76.06
341.842	85.06
342.07	81.06
342.298	90.06
342.526	82.06
342.754	92.06
342.981	97.06
343.209	83.06
343.437	88.06
343.665	104.06
343.893	80.06
344.12	92.06
344.348	83.06
344.576	74.06
344.804	77.06
345.031	102.06
345.259	71.06
345.487	82.06
345.714	81.06
345.942	85.06
346.17	92.06
346.397	91.06
346.625	72.06
346.853	80.06
347.08	90.06
347.308	91.06
347.535	95.06
347.763	86.06
347.99	79.06
348.218	77.06
348.445	75.06
348.673	74.06
348.9	79.06
349.128	84.06
349.355	85.06
349.583	81.06
349.81	88.06
350.037	78.06
350.265	82.06
350.492	81.06
350.72	82.06
350.947	76.06
351.174	99.06
351.402	89.06
351.629	92.06
351.856	79.06
352.083	85.06
352.311	79.06
352.538	87.06
352.765	98.06
352.992	78.06
353.22	78.06
353.447	88.06
353.674	85.06
353.901	85.06
354.128	76.06
354.355	80.06
354.583	92.06
354.81	87.06
355.037	83.06
355.264	84.06
355.491	83.06
355.718	81.06
355.945	81.06
356.172	92.06
356.399	86.06
356.626	87.06
356.853	81.06
357.08	75.06
357.307	90.06
357.534	71.06
357.761	66.06
357.988	100.06
358.215	87.06
358.441	89.06
358.668	90.06
358.895	89.06
359.122	94.06
359.349	81.06
359.576	87.06
359.802	84.06
360.029	83.06
360.256	79.06
360.483	88.06
360.709	98.06
360.936	94.06
361.163	85.06
361.39	83.06
361.616	94.06
361.843	72.06
362.07	76.06
362.296	74.06
362.523	89.06
362.749	84.06
362.976	83.06
363.203	89.06
363.429	85.06
363.656	78.06
363.882	91.06
364.109	84.06
364.335	78.06
364.562	88.06
364.788	84.06
365.015	82.06
365.241	83.06
365.468	74.06
365.694	93.06
365.92	91.06
366.147	86.06
366.373	94.06
366.599	87.06
366.826	80.06
367.052	87.06
367.278	85.06
367.505	83.06
367.731	89.06
367.957	89.06
368.184	86.06
368.41	76.06
368.636	81.06
368.862	95.06
369.089	90.06
369.315	82.06
369.541	81.06
369.767	91.06
369.993	88.06
370.219	75.06
370.445	84.06
370.672	99.06
370.898	90.06
371.124	81.06
371.35	84.06
371.576	71.06
371.802	91.06
372.028	88.06
372.254	81.06
372.48	87.06
372.706	74.06
372.932	80.06
373.158	96.06
373.384	84.06
373.61	70.06
373.835	82.06
374.061	78.06
374.287	94.06
374.513	94.06
374.739	89.06
374.965	94.06
375.191	91.06
375.416	72.06
375.642	89.06
375.868	90.06
376.094	93.06
376.319	98.06
376.545	86.06
376.771	84.06
376.997	84.06
377.222	83.06
377.448	88.06
377.674	82.06
377.899	91.06
378.125	93.06
378.35	84.06
378.576	84.06
378.802	86.06
379.027	81.06
379.253	89.06
379.478	89.06
379.704	83.06
379.929	78.06
380.155	79.06
380.38	72.06
380.606	82.06
380.831	88.06
381.057	96.06
381.282	81.06
381.507	96.06
381.733	90.06
381.958	95.06
382.184	86.06
382.409	83.06
382.634	88.06
382.86	82.06
383.085	78.06
383.31	97.06
383.535	99.06
383.761	92.06
383.986	88.06
384.211	87.06
384.436	89.06
384.662	80.06
384.887	76.06
385.112	92.06
385.337	86.06
385.562	92.06
385.787	86.06
386.013	94.06
386.238	92.06
386.463	103.06
386.688	92.06
386.913	85.06
387.138	81.06
387.363	96.06
387.588	93.06
387.813	90.06
388.038	99.06
388.263	74.06
388.488	89.06
388.713	83.06
388.938	100.06
389.163	95.06
389.387	94.06
389.612	88.06
389.837	84.06
390.062	92.06
390.287	91.06
390.512	99.06
390.736	89.06
390.961	86.06
391.186	85.06
391.411	85.06
391.636	92.06
391.86	96.06
392.085	93.06
392.31	83.06
392.534	93.06
392.759	73.06
392.984	86.06
393.208	97.06
393.433	94.06
393.658	96.06
393.882	90.06
394.107	89.06
394.331	92.06
394.556	78.06
394.78	81.06
395.005	83.06
395.229	90.06
395.454	90.06
395.678	91.06
395.903	89.06
396.127	98.06
396.352	91.06
396.576	85.06
396.801	87.06
397.025	67.06
397.249	97.06
397.474	79.06
397.698	88.06
397.922	83.06
398.147	91.06
398.371	92.06
398.595	72.06
398.82	103.06
399.044	92.06
399.268	88.06
399.492	91.06
399.717	86.06
399.941	89.06
400.165	88.06
400.389	78.06
400.613	97.06
400.837	95.06
401.062	93.06
401.286	91.06
401.51	82.06
401.734	79.06
401.958	91.06
402.182	91.06
402.406	82.06
402.63	95.06
402.854	81.06
403.078	111.06
403.302	89.06
403.526	91.06
403.75	83.06
403.974	98.06
404.198	106.06
404.422	78.06
404.645	75.06
404.869	87.06
405.093	90.06
405.317	97.06
405.541	101.06
405.765	99.06
405.988	88.06
406.212	84.06
406.436	103.06
406.66	90.06
406.883	102.06
407.107	88.06
407.331	99.06
407.555	95.06
407.778	83.06
408.002	103.06
408.226	90.06
408.449	90.06
408.673	92.06
408.896	88.06
409.12	76.06
409.344	88.06
409.567	79.06
409.791	81.06
410.014	98.06
410.238	92.06
410.461	110.06
410.685	98.06
410.908	84.06
411.132	105.06
411.355	90.06
411.578	93.06
411.802	88.06
412.025	97.06
412.249	92.06
412.472	83.06
412.695	88.06
412.919	96.06
413.142	87.06
413.365	92.06
413.589	91.06
413.812	105.06
414.035	100.06
414.258	100.06
414.482	101.06
414.705	89.06
414.928	92.06
415.151	93.06
415.374	102.06
415.597	92.06
415.821	94.06
416.044	95.06
416.267	87.06
416.49	92.06
416.713	94.06
416.936	93.06
417.159	100.06
417.382	98.06
417.605	95.06
417.828	84.06
418.051	112.06
418.274	94.06
418.497	100.06
418.72	93.06
418.943	100.06
419.166	103.06
419.389	101.06
419.611	92.06
419.834	87.06
420.057	94.06
420.28	82.06
420.503	92.06
420.726	84.06
420.948	87.06
421.171	86.06
421.394	83.06
421.617	86.06
421.839	89.06
422.062	91.06
422.285	98.06
422.507	94.06
422.73	86.06
422.953	87.06
423.175	87.06
423.398	80.06
423.621	102.06
423.843	83.06
424.066	106.06
424.288	92.06
424.511	94.06
424.733	110.06
424.956	92.06
425.178	99.06
425.401	94.06
425.623	100.06
425.846	95.06
426.068	97.06
426.291	113.06
426.513	89.06
426.735	72.06
426.958	83.06
427.18	91.06
427.402	103.06
427.625	91.06
427.847	103.06
428.069	102.06
428.292	107.06
428.514	82.06
428.736	101.06
428.958	110.06
429.181	99.06
429.403	99.06
429.625	95.06
429.847	101.06
430.069	100.06
430.292	102.06
430.514	98.06
430.736	91.06
430.958	71.06
431.18	89.06
431.402	106.06
431.624	106.06
431.846	98.06
432.068	83.06
432.29	81.06
432.512	103.06
432.734	93.06
432.956	90.06
433.178	85.06
433.4	86.06
433.622	86.06
433.844	105.06
434.066	80.06
434.287	98.06
434.509	92.06
434.731	96.06
434.953	114.06
435.175	94.06
435.397	90.06
435.618	82.06
435.84	84.06
436.062	102.06
436.284	93.06
436.505	86.06
436.727	107.06
436.949	86.06
437.17	98.06
437.392	90.06
437.614	98.06
437.835	87.06
438.057	86.06
438.278	92.06
438.5	87.06
438.721	96.06
438.943	99.06
439.165	110.06
439.386	80.06
439.608	101.06
439.829	112.06
440.05	113.06
440.272	116.06
440.493	103.06
440.715	106.06
440.936	98.06
441.158	105.06
441.379	96.06
441.6	94.06
441.822	90.06
442.043	96.06
442.264	107.06
442.486	101.06
442.707	82.06
442.928	87.06
443.149	92.06
443.371	92.06
443.592	86.06
443.813	101.06
444.034	84.06
444.255	114.06
444.476	104.06
444.698	92.06
444.919	96.06
445.14	226.06
445.361	161.06
445.582	102.06
445.803	103.06
446.024	90.06
446.245	90.06
446.466	96.06
446.687	95.06
446.908	111.06
447.129	111.06
447.35	105.06
447.571	103.06
447.792	95.06
448.013	88.06
448.234	104.06
448.455	92.06
448.675	91.06
448.896	95.06
449.117	107.06
449.338	94.06
449.559	97.06
449.779	98.06
450	96.06
450.221	100.06
450.442	90.06
450.662	111.06
450.883	106.06
451.104	106.06
451.324	81.06
451.545	100.06
451.766	93.06
451.986	83.06
452.207	84.06
452.428	95.06
452.648	91.06
452.869	97.06
453.089	88.06
453.31	79.06
453.53	81.06
453.751	83.06
453.971	92.06
454.192	76.06
454.412	98.06
454.633	81.06
454.853	90.06
455.073	84.06
455.294	91.06
455.514	108.06
455.734	72.06
455.955	89.06
456.175	99.06
456.395	94.06
456.616	79.06
456.836	88.06
457.056	83.06
457.276	90.06
457.497	78.06
457.717	82.06
457.937	90.06
458.157	88.06
458.377	85.06
458.598	91.06
458.818	94.06
459.038	75.06
459.258	78.06
459.478	68.06
459.698	75.06
459.918	73.06
460.138	95.06
460.358	89.06
460.578	93.06
460.798	84.06
461.018	98.06
461.238	89.06
461.458	92.06
461.678	83.06
461.898	100.06
462.118	90.06
462.338	101.06
462.558	106.06
462.777	89.06
462.997	90.06
463.217	89.06
463.437	90.06
463.657	86.06
463.876	93.06
464.096	105.06
464.316	83.06
464.536	89.06
464.755	88.06
464.975	81.06
465.195	95.06
465.414	85.06
465.634	87.06
465.854	91.06
466.073	96.06
466.293	81.06
466.512	94.06
466.732	96.06
466.951	91.06
467.171	96.06
467.391	98.06
467.61	95.06
467.829	100.06
468.049	111.06
468.268	88.06
468.488	104.06
468.707	95.06
468.927	98.06
469.146	95.06
469.365	106.06
469.585	92.06
469.804	80.06
470.023	107.06
470.243	100.06
470.462	85.06
470.681	88.06
470.901	91.06
471.12	75.06
471.339	86.06
471.558	104.06
471.777	100.06
471.997	83.06
472.216	86.06
472.435	83.06
472.654	91.06
472.873	84.06
473.092	78.06
473.311	97.06
473.53	100.06
473.749	94.06
473.968	96.06
474.187	100.06
474.406	91.06
474.625	95.06
474.844	100.06
475.063	99.06
475.282	102.06
475.501	91.06
475.72	95.06
475.939	100.06
476.158	92.06
476.377	89.06
476.596	86.06
476.814	95.06
477.033	90.06
477.252	85.06
477.471	83.06
477.69	89.06
477.908	104.06
478.127	102.06
478.346	81.06
478.564	99.06
478.783	100.06
479.002	98.06
479.22	97.06
479.439	101.06
479.658	104.06
479.876	85.06
480.095	87.06
480.313	94.06
480.532	96.06
480.751	85.06
480.969	87.06
481.188	71.06
481.406	95.06
481.624	92.06
481.843	86.06
482.061	87.06
482.28	106.06
482.498	92.06
482.717	83.06
482.935	90.06
483.153	85.06
483.372	105.06
483.59	93.06
483.808	70.06
484.027	100.06
484.245	96.06
484.463	112.06
484.681	107.06
484.9	99.06
485.118	100.06
485.336	105.06
485.554	91.06
485.772	89.06
485.99	79.06
486.209	91.06
486.427	94.06
486.645	89.06
486.863	90.06
487.081	88.06
487.299	94.06
487.517	91.06
487.735	129.06
487.953	112.06
488.171	119.06
488.389	106.06
488.607	103.06
488.825	112.06
489.043	101.06
489.261	95.06
489.479	91.06
489.696	102.06
489.914	95.06
490.132	81.06
490.35	100.06
490.568	99.06
490.786	104.06
491.003	112.06
491.221	101.06
491.439	110.06
491.657	94.06
491.874	112.06
492.092	130.06
492.31	135.06
492.527	122.06
492.745	121.06
492.963	121.06
493.18	112.06
493.398	101.06
493.615	109.06
493.833	98.06
494.05	108.06
494.268	104.06
494.485	102.06
494.703	106.06
494.92	103.06
495.138	114.06
495.355	124.06
495.573	112.06
495.79	97.06
496.008	110.06
496.225	95.06
496.442	95.06
496.66	116.06
496.877	97.06
497.094	107.06
497.312	111.06
497.529	118.06
497.746	93.06
497.963	99.06
498.181	93.06
498.398	92.06
498.615	85.06
498.832	107.06
499.049	114.06
499.267	94.06
499.484	96.06
499.701	92.06
499.918	85.06
500.135	100.06
500.352	83.06
500.569	90.06
500.786	91.06
501.003	84.06
501.22	100.06
501.437	96.06
501.654	92.06
501.871	107.06
502.088	99.06
502.305	100.06
502.522	74.06
502.739	100.06
502.956	100.06
503.172	106.06
503.389	99.06
503.606	79.06
503.823	82.06
504.04	93.06
504.256	81.06
504.473	85.06
504.69	92.06
504.907	97.06
505.123	103.06
505.34	92.06
505.557	99.06
505.773	97.06
505.99	80.06
506.207	89.06
506.423	89.06
506.64	92.06
506.856	90.06
507.073	84.06
507.289	86.06
507.506	93.06
507.722	89.06
507.939	95.06
508.155	102.06
508.372	94.06
508.588	94.06
508.805	79.06
509.021	81.06
509.238	100.06
509.454	90.06
509.67	85.06
509.887	84.06
510.103	87.06
510.319	81.06
510.536	90.06
510.752	87.06
510.968	80.06
511.184	85.06
511.401	84.06
511.617	87.06
511.833	74.06
512.049	75.06
512.265	89.06
512.481	83.06
512.698	92.06
512.914	84.06
513.13	85.06
513.346	81.06
513.562	85.06
513.778	80.06
513.994	91.06
514.21	85.06
514.426	88.06
514.642	85.06
514.858	84.06
515.074	79.06
515.29	80.06
515.506	83.06
515.721	88.06
515.937	87.06
516.153	81.06
516.369	74.06
516.585	84.06
516.801	77.06
517.016	83.06
517.232	72.06
