Data from Location4.07152019.Energy5.Lamp.07192019.3%Agarose_HRD10591_15-23-59-577.txt Node
Date: Fri Jul 19 15:23:59 EDT 2019
User: cochatt
Spectrometer: HR+D1059
Trigger mode: 1
Integration Time (sec): 1.000000E-1
Scans to average: 1
Electric dark correction enabled: true
Nonlinearity correction enabled: false
Boxcar width: 0
XAxis mode: Wavelengths
Number of Pixels in Spectrum: 2048
>>>>>Begin Spectral Data<<<<<
223.165	-11.56
223.4	-11.56
223.635	-11.56
223.869	-16.56
224.104	-11.56
224.338	-15.56
224.573	0.44
224.808	-1.56
225.042	1.44
225.277	-13.56
225.511	1.44
225.746	-1.56
225.98	2.44
226.215	0.44
226.449	23.44
226.683	11.44
226.918	17.44
227.152	13.44
227.387	34.44
227.621	37.44
227.856	41.44
228.09	50.44
228.324	38.44
228.559	64.44
228.793	60.44
229.027	60.44
229.262	56.44
229.496	61.44
229.73	65.44
229.964	69.44
230.199	79.44
230.433	79.44
230.667	69.44
230.901	63.44
231.136	67.44
231.37	69.44
231.604	79.44
231.838	87.44
232.072	77.44
232.306	74.44
232.541	78.44
232.775	73.44
233.009	84.44
233.243	84.44
233.477	86.44
233.711	97.44
233.945	77.44
234.179	77.44
234.413	82.44
234.647	80.44
234.881	70.44
235.115	80.44
235.349	67.44
235.583	81.44
235.817	74.44
236.051	72.44
236.285	84.44
236.519	71.44
236.753	76.44
236.987	79.44
237.221	70.44
237.455	87.44
237.689	79.44
237.922	71.44
238.156	74.44
238.39	81.44
238.624	71.44
238.858	86.44
239.091	82.44
239.325	73.44
239.559	77.44
239.793	74.44
240.027	85.44
240.26	80.44
240.494	72.44
240.728	70.44
240.961	76.44
241.195	64.44
241.429	77.44
241.662	63.44
241.896	73.44
242.13	71.44
242.363	70.44
242.597	84.44
242.83	69.44
243.064	70.44
243.298	62.44
243.531	70.44
243.765	66.44
243.998	71.44
244.232	67.44
244.465	78.44
244.699	86.44
244.932	87.44
245.166	79.44
245.399	85.44
245.633	84.44
245.866	72.44
246.099	74.44
246.333	80.44
246.566	76.44
246.8	72.44
247.033	78.44
247.266	65.44
247.5	91.44
247.733	82.44
247.966	76.44
248.2	78.44
248.433	88.44
248.666	68.44
248.899	58.44
249.133	79.44
249.366	69.44
249.599	65.44
249.832	81.44
250.066	82.44
250.299	84.44
250.532	77.44
250.765	73.44
250.998	81.44
251.231	77.44
251.465	72.44
251.698	77.44
251.931	71.44
252.164	71.44
252.397	87.44
252.63	76.44
252.863	82.44
253.096	80.44
253.329	83.44
253.562	69.44
253.795	81.44
254.028	79.44
254.261	78.44
254.494	76.44
254.727	77.44
254.96	81.44
255.193	72.44
255.426	68.44
255.659	71.44
255.892	71.44
256.124	84.44
256.357	73.44
256.59	74.44
256.823	89.44
257.056	84.44
257.289	64.44
257.521	64.44
257.754	82.44
257.987	85.44
258.22	78.44
258.452	72.44
258.685	84.44
258.918	82.44
259.151	96.44
259.383	87.44
259.616	77.44
259.849	79.44
260.081	85.44
260.314	73.44
260.547	82.44
260.779	73.44
261.012	77.44
261.244	76.44
261.477	76.44
261.71	94.44
261.942	89.44
262.175	84.44
262.407	74.44
262.64	77.44
262.872	75.44
263.105	76.44
263.337	79.44
263.57	86.44
263.802	78.44
264.035	84.44
264.267	84.44
264.499	84.44
264.732	70.44
264.964	90.44
265.197	82.44
265.429	84.44
265.661	74.44
265.894	74.44
266.126	78.44
266.358	76.44
266.591	82.44
266.823	81.44
267.055	66.44
267.287	71.44
267.52	82.44
267.752	89.44
267.984	78.44
268.216	81.44
268.448	80.44
268.681	68.44
268.913	82.44
269.145	81.44
269.377	89.44
269.609	89.44
269.841	82.44
270.073	83.44
270.306	89.44
270.538	75.44
270.77	68.44
271.002	71.44
271.234	80.44
271.466	71.44
271.698	85.44
271.93	75.44
272.162	79.44
272.394	73.44
272.626	83.44
272.858	75.44
273.09	81.44
273.322	77.44
273.553	84.44
273.785	80.44
274.017	78.44
274.249	71.44
274.481	73.44
274.713	87.44
274.945	81.44
275.176	73.44
275.408	70.44
275.64	83.44
275.872	71.44
276.104	80.44
276.335	81.44
276.567	68.44
276.799	91.44
277.031	86.44
277.262	95.44
277.494	84.44
277.726	79.44
277.957	83.44
278.189	91.44
278.421	90.44
278.652	76.44
278.884	80.44
279.115	77.44
279.347	71.44
279.579	74.44
279.81	69.44
280.042	90.44
280.273	87.44
280.505	77.44
280.736	81.44
280.968	85.44
281.199	95.44
281.431	82.44
281.662	70.44
281.894	74.44
282.125	72.44
282.356	79.44
282.588	71.44
282.819	93.44
283.051	90.44
283.282	91.44
283.513	84.44
283.745	71.44
283.976	81.44
284.207	74.44
284.439	81.44
284.67	74.44
284.901	83.44
285.132	85.44
285.364	74.44
285.595	78.44
285.826	71.44
286.057	82.44
286.288	86.44
286.52	98.44
286.751	94.44
286.982	87.44
287.213	80.44
287.444	87.44
287.675	80.44
287.906	87.44
288.138	82.44
288.369	87.44
288.6	74.44
288.831	83.44
289.062	84.44
289.293	80.44
289.524	88.44
289.755	93.44
289.986	102.44
290.217	77.44
290.448	81.44
290.679	85.44
290.91	88.44
291.141	85.44
291.371	84.44
291.602	82.44
291.833	75.44
292.064	84.44
292.295	89.44
292.526	68.44
292.757	89.44
292.987	72.44
293.218	78.44
293.449	70.44
293.68	85.44
293.91	77.44
294.141	77.44
294.372	74.44
294.603	83.44
294.833	94.44
295.064	78.44
295.295	73.44
295.525	91.44
295.756	80.44
295.987	82.44
296.217	95.44
296.448	84.44
296.679	74.44
296.909	82.44
297.14	77.44
297.37	95.44
297.601	68.44
297.831	64.44
298.062	75.44
298.292	90.44
298.523	86.44
298.753	70.44
298.984	72.44
299.214	68.44
299.445	77.44
299.675	88.44
299.905	65.44
300.136	78.44
300.366	81.44
300.597	59.44
300.827	84.44
301.057	83.44
301.288	81.44
301.518	80.44
301.748	71.44
301.979	86.44
302.209	82.44
302.439	74.44
302.669	87.44
302.9	84.44
303.13	78.44
303.36	85.44
303.59	83.44
303.82	88.44
304.051	80.44
304.281	91.44
304.511	98.44
304.741	74.44
304.971	84.44
305.201	83.44
305.431	95.44
305.661	87.44
305.891	79.44
306.121	77.44
306.352	93.44
306.582	92.44
306.812	91.44
307.042	77.44
307.272	72.44
307.502	84.44
307.731	79.44
307.961	83.44
308.191	82.44
308.421	78.44
308.651	82.44
308.881	90.44
309.111	85.44
309.341	74.44
309.571	81.44
309.8	71.44
310.03	83.44
310.26	80.44
310.49	84.44
310.72	87.44
310.949	84.44
311.179	77.44
311.409	81.44
311.639	89.44
311.868	82.44
312.098	85.44
312.328	78.44
312.557	79.44
312.787	84.44
313.017	89.44
313.246	95.44
313.476	85.44
313.706	89.44
313.935	80.44
314.165	72.44
314.394	72.44
314.624	83.44
314.853	87.44
315.083	88.44
315.312	78.44
315.542	85.44
315.771	86.44
316.001	84.44
316.23	78.44
316.46	74.44
316.689	71.44
316.919	72.44
317.148	86.44
317.377	80.44
317.607	76.44
317.836	84.44
318.065	69.44
318.295	82.44
318.524	68.44
318.753	74.44
318.983	85.44
319.212	68.44
319.441	81.44
319.67	87.44
319.9	84.44
320.129	88.44
320.358	84.44
320.587	83.44
320.816	92.44
321.046	84.44
321.275	98.44
321.504	88.44
321.733	80.44
321.962	84.44
322.191	76.44
322.42	69.44
322.649	82.44
322.878	78.44
323.108	76.44
323.337	82.44
323.566	62.44
323.795	77.44
324.024	77.44
324.253	80.44
324.482	68.44
324.71	86.44
324.939	93.44
325.168	74.44
325.397	98.44
325.626	66.44
325.855	83.44
326.084	81.44
326.313	86.44
326.542	93.44
326.77	70.44
326.999	89.44
327.228	81.44
327.457	82.44
327.686	97.44
327.914	77.44
328.143	86.44
328.372	82.44
328.6	84.44
328.829	75.44
329.058	98.44
329.287	84.44
329.515	70.44
329.744	89.44
329.972	73.44
330.201	72.44
330.43	95.44
330.658	74.44
330.887	73.44
331.115	88.44
331.344	77.44
331.572	100.44
331.801	86.44
332.03	79.44
332.258	71.44
332.486	78.44
332.715	75.44
332.943	77.44
333.172	73.44
333.4	88.44
333.629	81.44
333.857	85.44
334.085	87.44
334.314	80.44
334.542	90.44
334.771	82.44
334.999	89.44
335.227	84.44
335.455	66.44
335.684	86.44
335.912	86.44
336.14	74.44
336.369	77.44
336.597	80.44
336.825	85.44
337.053	77.44
337.281	93.44
337.51	86.44
337.738	78.44
337.966	74.44
338.194	86.44
338.422	86.44
338.65	82.44
338.878	70.44
339.106	79.44
339.334	83.44
339.562	85.44
339.79	81.44
340.018	84.44
340.246	65.44
340.474	85.44
340.702	89.44
340.93	70.44
341.158	76.44
341.386	82.44
341.614	65.44
341.842	75.44
342.07	80.44
342.298	83.44
342.526	88.44
342.754	79.44
342.981	86.44
343.209	80.44
343.437	88.44
343.665	71.44
343.893	84.44
344.12	90.44
344.348	73.44
344.576	91.44
344.804	70.44
345.031	74.44
345.259	84.44
345.487	69.44
345.714	96.44
345.942	86.44
346.17	80.44
346.397	91.44
346.625	70.44
346.853	73.44
347.08	77.44
347.308	85.44
347.535	85.44
347.763	80.44
347.99	69.44
348.218	74.44
348.445	81.44
348.673	77.44
348.9	81.44
349.128	78.44
349.355	72.44
349.583	87.44
349.81	79.44
350.037	88.44
350.265	83.44
350.492	76.44
350.72	80.44
350.947	81.44
351.174	94.44
351.402	88.44
351.629	78.44
351.856	84.44
352.083	83.44
352.311	78.44
352.538	81.44
352.765	96.44
352.992	89.44
353.22	73.44
353.447	75.44
353.674	85.44
353.901	81.44
354.128	78.44
354.355	74.44
354.583	86.44
354.81	84.44
355.037	85.44
355.264	65.44
355.491	79.44
355.718	85.44
355.945	72.44
356.172	79.44
356.399	84.44
356.626	74.44
356.853	74.44
357.08	70.44
357.307	85.44
357.534	79.44
357.761	80.44
357.988	74.44
358.215	66.44
358.441	85.44
358.668	83.44
358.895	67.44
359.122	79.44
359.349	76.44
359.576	74.44
359.802	80.44
360.029	87.44
360.256	77.44
360.483	78.44
360.709	78.44
360.936	81.44
361.163	87.44
361.39	84.44
361.616	85.44
361.843	74.44
362.07	81.44
362.296	74.44
362.523	90.44
362.749	100.44
362.976	79.44
363.203	81.44
363.429	74.44
363.656	95.44
363.882	90.44
364.109	90.44
364.335	84.44
364.562	83.44
364.788	77.44
365.015	68.44
365.241	77.44
365.468	82.44
365.694	71.44
365.92	70.44
366.147	86.44
366.373	79.44
366.599	74.44
366.826	89.44
367.052	90.44
367.278	89.44
367.505	83.44
367.731	95.44
367.957	85.44
368.184	59.44
368.41	85.44
368.636	95.44
368.862	85.44
369.089	84.44
369.315	86.44
369.541	86.44
369.767	72.44
369.993	83.44
370.219	84.44
370.445	80.44
370.672	77.44
370.898	88.44
371.124	88.44
371.35	74.44
371.576	65.44
371.802	73.44
372.028	76.44
372.254	73.44
372.48	69.44
372.706	63.44
372.932	89.44
373.158	73.44
373.384	79.44
373.61	80.44
373.835	83.44
374.061	81.44
374.287	78.44
374.513	91.44
374.739	75.44
374.965	80.44
375.191	80.44
375.416	76.44
375.642	93.44
375.868	88.44
376.094	81.44
376.319	76.44
376.545	79.44
376.771	89.44
376.997	84.44
377.222	80.44
377.448	92.44
377.674	75.44
377.899	79.44
378.125	80.44
378.35	84.44
378.576	77.44
378.802	74.44
379.027	85.44
379.253	81.44
379.478	80.44
379.704	77.44
379.929	93.44
380.155	73.44
380.38	100.44
380.606	77.44
380.831	85.44
381.057	79.44
381.282	81.44
381.507	77.44
381.733	72.44
381.958	78.44
382.184	82.44
382.409	82.44
382.634	84.44
382.86	82.44
383.085	86.44
383.31	85.44
383.535	86.44
383.761	84.44
383.986	85.44
384.211	68.44
384.436	83.44
384.662	79.44
384.887	81.44
385.112	82.44
385.337	92.44
385.562	76.44
385.787	84.44
386.013	89.44
386.238	85.44
386.463	89.44
386.688	103.44
386.913	87.44
387.138	71.44
387.363	101.44
387.588	79.44
387.813	78.44
388.038	90.44
388.263	78.44
388.488	72.44
388.713	91.44
388.938	92.44
389.163	81.44
389.387	92.44
389.612	88.44
389.837	84.44
390.062	106.44
390.287	88.44
390.512	90.44
390.736	85.44
390.961	84.44
391.186	92.44
391.411	85.44
391.636	66.44
391.86	93.44
392.085	80.44
392.31	88.44
392.534	93.44
392.759	82.44
392.984	94.44
393.208	83.44
393.433	93.44
393.658	94.44
393.882	74.44
394.107	88.44
394.331	90.44
394.556	88.44
394.78	99.44
395.005	90.44
395.229	87.44
395.454	102.44
395.678	96.44
395.903	96.44
396.127	85.44
396.352	87.44
396.576	86.44
396.801	85.44
397.025	74.44
397.249	88.44
397.474	93.44
397.698	84.44
397.922	83.44
398.147	91.44
398.371	67.44
398.595	96.44
398.82	90.44
399.044	88.44
399.268	80.44
399.492	90.44
399.717	91.44
399.941	70.44
400.165	95.44
400.389	73.44
400.613	84.44
400.837	97.44
401.062	85.44
401.286	85.44
401.51	74.44
401.734	93.44
401.958	78.44
402.182	76.44
402.406	97.44
402.63	74.44
402.854	92.44
403.078	96.44
403.302	75.44
403.526	91.44
403.75	78.44
403.974	70.44
404.198	92.44
404.422	69.44
404.645	76.44
404.869	68.44
405.093	81.44
405.317	82.44
405.541	106.44
405.765	87.44
405.988	81.44
406.212	84.44
406.436	93.44
406.66	87.44
406.883	92.44
407.107	91.44
407.331	80.44
407.555	93.44
407.778	95.44
408.002	100.44
408.226	93.44
408.449	86.44
408.673	82.44
408.896	88.44
409.12	85.44
409.344	94.44
409.567	84.44
409.791	102.44
410.014	86.44
410.238	86.44
410.461	77.44
410.685	86.44
410.908	89.44
411.132	94.44
411.355	78.44
411.578	83.44
411.802	82.44
412.025	93.44
412.249	96.44
412.472	91.44
412.695	92.44
412.919	88.44
413.142	96.44
413.365	95.44
413.589	84.44
413.812	92.44
414.035	98.44
414.258	90.44
414.482	84.44
414.705	92.44
414.928	94.44
415.151	94.44
415.374	80.44
415.597	102.44
415.821	105.44
416.044	98.44
416.267	98.44
416.49	104.44
416.713	104.44
416.936	98.44
417.159	97.44
417.382	91.44
417.605	96.44
417.828	97.44
418.051	87.44
418.274	94.44
418.497	99.44
418.72	90.44
418.943	108.44
419.166	83.44
419.389	90.44
419.611	101.44
419.834	84.44
420.057	88.44
420.28	94.44
420.503	86.44
420.726	106.44
420.948	81.44
421.171	89.44
421.394	84.44
421.617	101.44
421.839	93.44
422.062	89.44
422.285	94.44
422.507	90.44
422.73	94.44
422.953	88.44
423.175	89.44
423.398	85.44
423.621	87.44
423.843	91.44
424.066	84.44
424.288	96.44
424.511	85.44
424.733	90.44
424.956	87.44
425.178	103.44
425.401	89.44
425.623	86.44
425.846	112.44
426.068	111.44
426.291	94.44
426.513	93.44
426.735	79.44
426.958	80.44
427.18	80.44
427.402	82.44
427.625	89.44
427.847	97.44
428.069	93.44
428.292	86.44
428.514	89.44
428.736	87.44
428.958	85.44
429.181	106.44
429.403	88.44
429.625	91.44
429.847	90.44
430.069	103.44
430.292	98.44
430.514	85.44
430.736	104.44
430.958	98.44
431.18	93.44
431.402	85.44
431.624	111.44
431.846	90.44
432.068	76.44
432.29	78.44
432.512	78.44
432.734	83.44
432.956	89.44
433.178	104.44
433.4	94.44
433.622	88.44
433.844	88.44
434.066	83.44
434.287	94.44
434.509	73.44
434.731	84.44
434.953	74.44
435.175	87.44
435.397	86.44
435.618	95.44
435.84	85.44
436.062	96.44
436.284	101.44
436.505	87.44
436.727	95.44
436.949	90.44
437.17	87.44
437.392	92.44
437.614	91.44
437.835	98.44
438.057	95.44
438.278	92.44
438.5	95.44
438.721	88.44
438.943	93.44
439.165	97.44
439.386	89.44
439.608	92.44
439.829	106.44
440.05	96.44
440.272	104.44
440.493	93.44
440.715	85.44
440.936	95.44
441.158	106.44
441.379	90.44
441.6	106.44
441.822	102.44
442.043	97.44
442.264	93.44
442.486	87.44
442.707	94.44
442.928	81.44
443.149	93.44
443.371	72.44
443.592	95.44
443.813	91.44
444.034	90.44
444.255	106.44
444.476	82.44
444.698	95.44
444.919	111.44
445.14	214.44
445.361	164.44
445.582	89.44
445.803	96.44
446.024	84.44
446.245	109.44
446.466	114.44
446.687	93.44
446.908	97.44
447.129	102.44
447.35	89.44
447.571	89.44
447.792	96.44
448.013	87.44
448.234	108.44
448.455	93.44
448.675	98.44
448.896	93.44
449.117	109.44
449.338	89.44
449.559	95.44
449.779	88.44
450	105.44
450.221	90.44
450.442	95.44
450.662	103.44
450.883	92.44
451.104	100.44
451.324	84.44
451.545	82.44
451.766	78.44
451.986	95.44
452.207	106.44
452.428	101.44
452.648	92.44
452.869	100.44
453.089	87.44
453.31	85.44
453.53	82.44
453.751	80.44
453.971	86.44
454.192	93.44
454.412	89.44
454.633	89.44
454.853	94.44
455.073	96.44
455.294	95.44
455.514	99.44
455.734	94.44
455.955	90.44
456.175	79.44
456.395	86.44
456.616	79.44
456.836	92.44
457.056	92.44
457.276	88.44
457.497	94.44
457.717	101.44
457.937	81.44
458.157	96.44
458.377	94.44
458.598	81.44
458.818	86.44
459.038	76.44
459.258	92.44
459.478	83.44
459.698	71.44
459.918	79.44
460.138	78.44
460.358	93.44
460.578	94.44
460.798	77.44
461.018	85.44
461.238	88.44
461.458	96.44
461.678	80.44
461.898	100.44
462.118	100.44
462.338	94.44
462.558	79.44
462.777	78.44
462.997	91.44
463.217	80.44
463.437	80.44
463.657	93.44
463.876	83.44
464.096	101.44
464.316	94.44
464.536	92.44
464.755	102.44
464.975	76.44
465.195	89.44
465.414	91.44
465.634	91.44
465.854	79.44
466.073	99.44
466.293	94.44
466.512	74.44
466.732	100.44
466.951	86.44
467.171	95.44
467.391	93.44
467.61	93.44
467.829	105.44
468.049	82.44
468.268	93.44
468.488	96.44
468.707	92.44
468.927	110.44
469.146	98.44
469.365	100.44
469.585	101.44
469.804	96.44
470.023	97.44
470.243	108.44
470.462	110.44
470.681	102.44
470.901	96.44
471.12	92.44
471.339	92.44
471.558	94.44
471.777	84.44
471.997	97.44
472.216	103.44
472.435	90.44
472.654	89.44
472.873	105.44
473.092	84.44
473.311	76.44
473.53	94.44
473.749	85.44
473.968	86.44
474.187	82.44
474.406	101.44
474.625	101.44
474.844	90.44
475.063	91.44
475.282	95.44
475.501	90.44
475.72	92.44
475.939	89.44
476.158	81.44
476.377	95.44
476.596	108.44
476.814	92.44
477.033	79.44
477.252	91.44
477.471	94.44
477.69	89.44
477.908	87.44
478.127	94.44
478.346	108.44
478.564	86.44
478.783	100.44
479.002	113.44
479.22	84.44
479.439	102.44
479.658	87.44
479.876	88.44
480.095	105.44
480.313	118.44
480.532	96.44
480.751	94.44
480.969	84.44
481.188	79.44
481.406	84.44
481.624	87.44
481.843	89.44
482.061	78.44
482.28	83.44
482.498	69.44
482.717	88.44
482.935	72.44
483.153	108.44
483.372	93.44
483.59	94.44
483.808	93.44
484.027	95.44
484.245	90.44
484.463	102.44
484.681	105.44
484.9	96.44
485.118	102.44
485.336	88.44
485.554	92.44
485.772	84.44
485.99	77.44
486.209	98.44
486.427	85.44
486.645	96.44
486.863	90.44
487.081	98.44
487.299	106.44
487.517	112.44
487.735	94.44
487.953	106.44
488.171	116.44
488.389	112.44
488.607	97.44
488.825	100.44
489.043	91.44
489.261	98.44
489.479	88.44
489.696	96.44
489.914	87.44
490.132	96.44
490.35	96.44
490.568	101.44
490.786	95.44
491.003	117.44
491.221	110.44
491.439	106.44
491.657	119.44
491.874	121.44
492.092	116.44
492.31	141.44
492.527	129.44
492.745	128.44
492.963	126.44
493.18	104.44
493.398	110.44
493.615	121.44
493.833	98.44
494.05	101.44
494.268	99.44
494.485	109.44
494.703	109.44
494.92	103.44
495.138	105.44
495.355	108.44
495.573	105.44
495.79	106.44
496.008	102.44
496.225	104.44
496.442	106.44
496.66	105.44
496.877	110.44
497.094	113.44
497.312	94.44
497.529	102.44
497.746	100.44
497.963	98.44
498.181	95.44
498.398	89.44
498.615	99.44
498.832	103.44
499.049	103.44
499.267	100.44
499.484	85.44
499.701	86.44
499.918	97.44
500.135	99.44
500.352	98.44
500.569	94.44
500.786	111.44
501.003	90.44
501.22	86.44
501.437	92.44
501.654	96.44
501.871	87.44
502.088	93.44
502.305	100.44
502.522	93.44
502.739	83.44
502.956	95.44
503.172	75.44
503.389	111.44
503.606	96.44
503.823	82.44
504.04	95.44
504.256	101.44
504.473	85.44
504.69	93.44
504.907	97.44
505.123	93.44
505.34	90.44
505.557	96.44
505.773	94.44
505.99	85.44
506.207	94.44
506.423	85.44
506.64	101.44
506.856	89.44
507.073	93.44
507.289	93.44
507.506	84.44
507.722	101.44
507.939	88.44
508.155	109.44
508.372	74.44
508.588	77.44
508.805	73.44
509.021	84.44
509.238	84.44
509.454	65.44
509.67	88.44
509.887	86.44
510.103	84.44
510.319	89.44
510.536	76.44
510.752	66.44
510.968	93.44
511.184	84.44
511.401	81.44
511.617	89.44
511.833	69.44
512.049	93.44
512.265	63.44
512.481	86.44
512.698	93.44
512.914	88.44
513.13	91.44
513.346	84.44
513.562	85.44
513.778	71.44
513.994	90.44
514.21	85.44
514.426	71.44
514.642	86.44
514.858	78.44
515.074	80.44
515.29	84.44
515.506	85.44
515.721	85.44
515.937	90.44
516.153	78.44
516.369	89.44
516.585	77.44
516.801	87.44
517.016	89.44
517.232	91.44
517.448	80.44
517.664	88.44
517.879	72.44
