Data from Location4.07152019.Energy5.Lamp.07192019.3%Agarose_HRD10591_15-25-55-578.txt Node
Date: Fri Jul 19 15:25:55 EDT 2019
User: cochatt
Spectrometer: HR+D1059
Trigger mode: 1
Integration Time (sec): 1.000000E-1
Scans to average: 1
Electric dark correction enabled: true
Nonlinearity correction enabled: false
Boxcar width: 0
XAxis mode: Wavelengths
Number of Pixels in Spectrum: 2048
>>>>>Begin Spectral Data<<<<<
223.165	-12.44
223.4	-12.44
223.635	-12.44
223.869	-12.44
224.104	-13.44
224.338	-3.44
224.573	-17.44
224.808	-11.44
225.042	-6.44
225.277	-13.44
225.511	-11.44
225.746	2.56
225.98	11.56
226.215	17.56
226.449	11.56
226.683	17.56
226.918	7.56
227.152	33.56
227.387	40.56
227.621	42.56
227.856	38.56
228.09	48.56
228.324	53.56
228.559	74.56
228.793	68.56
229.027	57.56
229.262	77.56
229.496	73.56
229.73	60.56
229.964	76.56
230.199	85.56
230.433	63.56
230.667	80.56
230.901	85.56
231.136	82.56
231.37	68.56
231.604	65.56
231.838	74.56
232.072	95.56
232.306	93.56
232.541	89.56
232.775	92.56
233.009	89.56
233.243	92.56
233.477	71.56
233.711	88.56
233.945	77.56
234.179	87.56
234.413	84.56
234.647	94.56
234.881	84.56
235.115	85.56
235.349	88.56
235.583	76.56
235.817	79.56
236.051	99.56
236.285	76.56
236.519	68.56
236.753	89.56
236.987	89.56
237.221	90.56
237.455	86.56
237.689	83.56
237.922	73.56
238.156	81.56
238.39	69.56
238.624	73.56
238.858	82.56
239.091	81.56
239.325	86.56
239.559	74.56
239.793	80.56
240.027	81.56
240.26	83.56
240.494	88.56
240.728	91.56
240.961	77.56
241.195	74.56
241.429	70.56
241.662	88.56
241.896	79.56
242.13	77.56
242.363	83.56
242.597	70.56
242.83	72.56
243.064	64.56
243.298	74.56
243.531	77.56
243.765	90.56
243.998	73.56
244.232	75.56
244.465	89.56
244.699	93.56
244.932	75.56
245.166	72.56
245.399	87.56
245.633	77.56
245.866	84.56
246.099	87.56
246.333	85.56
246.566	79.56
246.8	76.56
247.033	79.56
247.266	85.56
247.5	81.56
247.733	68.56
247.966	81.56
248.2	76.56
248.433	77.56
248.666	81.56
248.899	87.56
249.133	81.56
249.366	80.56
249.599	90.56
249.832	77.56
250.066	99.56
250.299	80.56
250.532	67.56
250.765	89.56
250.998	80.56
251.231	67.56
251.465	93.56
251.698	84.56
251.931	73.56
252.164	80.56
252.397	80.56
252.63	79.56
252.863	70.56
253.096	81.56
253.329	80.56
253.562	68.56
253.795	93.56
254.028	77.56
254.261	78.56
254.494	87.56
254.727	83.56
254.96	82.56
255.193	79.56
255.426	94.56
255.659	87.56
255.892	96.56
256.124	88.56
256.357	87.56
256.59	78.56
256.823	92.56
257.056	75.56
257.289	82.56
257.521	79.56
257.754	59.56
257.987	73.56
258.22	76.56
258.452	88.56
258.685	80.56
258.918	79.56
259.151	81.56
259.383	80.56
259.616	87.56
259.849	79.56
260.081	82.56
260.314	87.56
260.547	70.56
260.779	85.56
261.012	84.56
261.244	80.56
261.477	88.56
261.71	74.56
261.942	82.56
262.175	70.56
262.407	86.56
262.64	80.56
262.872	79.56
263.105	89.56
263.337	70.56
263.57	66.56
263.802	96.56
264.035	75.56
264.267	76.56
264.499	86.56
264.732	73.56
264.964	88.56
265.197	77.56
265.429	91.56
265.661	80.56
265.894	77.56
266.126	82.56
266.358	87.56
266.591	80.56
266.823	91.56
267.055	76.56
267.287	89.56
267.52	79.56
267.752	92.56
267.984	88.56
268.216	77.56
268.448	82.56
268.681	84.56
268.913	75.56
269.145	73.56
269.377	100.56
269.609	88.56
269.841	87.56
270.073	80.56
270.306	88.56
270.538	79.56
270.77	82.56
271.002	82.56
271.234	88.56
271.466	77.56
271.698	107.56
271.93	90.56
272.162	82.56
272.394	93.56
272.626	75.56
272.858	92.56
273.09	78.56
273.322	80.56
273.553	83.56
273.785	94.56
274.017	85.56
274.249	75.56
274.481	73.56
274.713	85.56
274.945	89.56
275.176	89.56
275.408	73.56
275.64	88.56
275.872	61.56
276.104	95.56
276.335	87.56
276.567	78.56
276.799	82.56
277.031	76.56
277.262	88.56
277.494	88.56
277.726	84.56
277.957	85.56
278.189	97.56
278.421	81.56
278.652	91.56
278.884	86.56
279.115	84.56
279.347	88.56
279.579	85.56
279.81	88.56
280.042	83.56
280.273	99.56
280.505	80.56
280.736	89.56
280.968	97.56
281.199	96.56
281.431	87.56
281.662	96.56
281.894	79.56
282.125	81.56
282.356	76.56
282.588	88.56
282.819	77.56
283.051	79.56
283.282	72.56
283.513	82.56
283.745	72.56
283.976	81.56
284.207	79.56
284.439	65.56
284.67	82.56
284.901	92.56
285.132	96.56
285.364	90.56
285.595	90.56
285.826	88.56
286.057	91.56
286.288	84.56
286.52	83.56
286.751	76.56
286.982	88.56
287.213	88.56
287.444	77.56
287.675	74.56
287.906	97.56
288.138	87.56
288.369	73.56
288.6	84.56
288.831	88.56
289.062	67.56
289.293	83.56
289.524	83.56
289.755	84.56
289.986	85.56
290.217	99.56
290.448	90.56
290.679	79.56
290.91	88.56
291.141	84.56
291.371	73.56
291.602	88.56
291.833	79.56
292.064	96.56
292.295	77.56
292.526	88.56
292.757	88.56
292.987	92.56
293.218	78.56
293.449	90.56
293.68	85.56
293.91	96.56
294.141	89.56
294.372	88.56
294.603	76.56
294.833	81.56
295.064	80.56
295.295	83.56
295.525	91.56
295.756	81.56
295.987	77.56
296.217	87.56
296.448	81.56
296.679	82.56
296.909	86.56
297.14	89.56
297.37	87.56
297.601	96.56
297.831	89.56
298.062	94.56
298.292	78.56
298.523	87.56
298.753	103.56
298.984	79.56
299.214	76.56
299.445	85.56
299.675	93.56
299.905	88.56
300.136	81.56
300.366	82.56
300.597	77.56
300.827	93.56
301.057	90.56
301.288	92.56
301.518	96.56
301.748	79.56
301.979	96.56
302.209	87.56
302.439	73.56
302.669	79.56
302.9	87.56
303.13	94.56
303.36	105.56
303.59	86.56
303.82	95.56
304.051	94.56
304.281	99.56
304.511	98.56
304.741	75.56
304.971	91.56
305.201	77.56
305.431	83.56
305.661	80.56
305.891	101.56
306.121	78.56
306.352	73.56
306.582	83.56
306.812	91.56
307.042	95.56
307.272	91.56
307.502	78.56
307.731	85.56
307.961	98.56
308.191	72.56
308.421	96.56
308.651	107.56
308.881	102.56
309.111	81.56
309.341	77.56
309.571	76.56
309.8	86.56
310.03	73.56
310.26	78.56
310.49	87.56
310.72	111.56
310.949	94.56
311.179	84.56
311.409	78.56
311.639	87.56
311.868	86.56
312.098	94.56
312.328	84.56
312.557	84.56
312.787	92.56
313.017	92.56
313.246	93.56
313.476	85.56
313.706	67.56
313.935	84.56
314.165	102.56
314.394	101.56
314.624	83.56
314.853	95.56
315.083	75.56
315.312	92.56
315.542	82.56
315.771	74.56
316.001	75.56
316.23	84.56
316.46	76.56
316.689	80.56
316.919	86.56
317.148	81.56
317.377	88.56
317.607	74.56
317.836	86.56
318.065	95.56
318.295	81.56
318.524	84.56
318.753	90.56
318.983	74.56
319.212	80.56
319.441	76.56
319.67	100.56
319.9	92.56
320.129	93.56
320.358	96.56
320.587	84.56
320.816	79.56
321.046	84.56
321.275	83.56
321.504	84.56
321.733	85.56
321.962	88.56
322.191	86.56
322.42	87.56
322.649	86.56
322.878	67.56
323.108	99.56
323.337	84.56
323.566	93.56
323.795	91.56
324.024	86.56
324.253	83.56
324.482	91.56
324.71	79.56
324.939	96.56
325.168	98.56
325.397	86.56
325.626	81.56
325.855	95.56
326.084	104.56
326.313	95.56
326.542	74.56
326.77	72.56
326.999	81.56
327.228	95.56
327.457	82.56
327.686	87.56
327.914	83.56
328.143	80.56
328.372	88.56
328.6	90.56
328.829	85.56
329.058	78.56
329.287	80.56
329.515	78.56
329.744	91.56
329.972	82.56
330.201	84.56
330.43	89.56
330.658	82.56
330.887	86.56
331.115	91.56
331.344	78.56
331.572	101.56
331.801	88.56
332.03	70.56
332.258	97.56
332.486	88.56
332.715	92.56
332.943	89.56
333.172	93.56
333.4	74.56
333.629	96.56
333.857	91.56
334.085	88.56
334.314	86.56
334.542	79.56
334.771	85.56
334.999	86.56
335.227	94.56
335.455	95.56
335.684	81.56
335.912	93.56
336.14	87.56
336.369	99.56
336.597	88.56
336.825	89.56
337.053	90.56
337.281	82.56
337.51	75.56
337.738	103.56
337.966	80.56
338.194	83.56
338.422	82.56
338.65	82.56
338.878	84.56
339.106	84.56
339.334	91.56
339.562	81.56
339.79	95.56
340.018	82.56
340.246	74.56
340.474	75.56
340.702	99.56
340.93	85.56
341.158	80.56
341.386	94.56
341.614	85.56
341.842	82.56
342.07	99.56
342.298	74.56
342.526	79.56
342.754	91.56
342.981	78.56
343.209	82.56
343.437	95.56
343.665	83.56
343.893	84.56
344.12	87.56
344.348	95.56
344.576	93.56
344.804	81.56
345.031	88.56
345.259	74.56
345.487	77.56
345.714	71.56
345.942	83.56
346.17	77.56
346.397	88.56
346.625	82.56
346.853	83.56
347.08	91.56
347.308	89.56
347.535	99.56
347.763	82.56
347.99	81.56
348.218	86.56
348.445	99.56
348.673	84.56
348.9	92.56
349.128	76.56
349.355	82.56
349.583	83.56
349.81	83.56
350.037	85.56
350.265	91.56
350.492	86.56
350.72	84.56
350.947	88.56
351.174	84.56
351.402	77.56
351.629	81.56
351.856	75.56
352.083	75.56
352.311	86.56
352.538	85.56
352.765	97.56
352.992	86.56
353.22	72.56
353.447	93.56
353.674	96.56
353.901	88.56
354.128	76.56
354.355	66.56
354.583	84.56
354.81	77.56
355.037	85.56
355.264	79.56
355.491	89.56
355.718	77.56
355.945	83.56
356.172	89.56
356.399	81.56
356.626	85.56
356.853	78.56
357.08	90.56
357.307	83.56
357.534	76.56
357.761	92.56
357.988	80.56
358.215	84.56
358.441	80.56
358.668	103.56
358.895	89.56
359.122	82.56
359.349	85.56
359.576	93.56
359.802	79.56
360.029	91.56
360.256	81.56
360.483	96.56
360.709	87.56
360.936	77.56
361.163	102.56
361.39	87.56
361.616	83.56
361.843	78.56
362.07	80.56
362.296	84.56
362.523	73.56
362.749	75.56
362.976	100.56
363.203	104.56
363.429	87.56
363.656	76.56
363.882	97.56
364.109	81.56
364.335	76.56
364.562	88.56
364.788	89.56
365.015	80.56
365.241	86.56
365.468	97.56
365.694	84.56
365.92	93.56
366.147	90.56
366.373	85.56
366.599	76.56
366.826	71.56
367.052	82.56
367.278	83.56
367.505	86.56
367.731	95.56
367.957	85.56
368.184	91.56
368.41	68.56
368.636	88.56
368.862	86.56
369.089	82.56
369.315	87.56
369.541	86.56
369.767	83.56
369.993	85.56
370.219	89.56
370.445	73.56
370.672	93.56
370.898	78.56
371.124	91.56
371.35	83.56
371.576	76.56
371.802	86.56
372.028	88.56
372.254	87.56
372.48	84.56
372.706	84.56
372.932	83.56
373.158	80.56
373.384	80.56
373.61	90.56
373.835	89.56
374.061	83.56
374.287	87.56
374.513	90.56
374.739	93.56
374.965	85.56
375.191	86.56
375.416	83.56
375.642	86.56
375.868	87.56
376.094	82.56
376.319	88.56
376.545	88.56
376.771	91.56
376.997	97.56
377.222	73.56
377.448	88.56
377.674	97.56
377.899	81.56
378.125	75.56
378.35	89.56
378.576	90.56
378.802	87.56
379.027	100.56
379.253	85.56
379.478	88.56
379.704	75.56
379.929	91.56
380.155	81.56
380.38	87.56
380.606	86.56
380.831	78.56
381.057	84.56
381.282	92.56
381.507	77.56
381.733	82.56
381.958	86.56
382.184	93.56
382.409	76.56
382.634	96.56
382.86	85.56
383.085	96.56
383.31	97.56
383.535	89.56
383.761	90.56
383.986	88.56
384.211	77.56
384.436	86.56
384.662	75.56
384.887	77.56
385.112	89.56
385.337	90.56
385.562	80.56
385.787	88.56
386.013	76.56
386.238	90.56
386.463	87.56
386.688	77.56
386.913	76.56
387.138	84.56
387.363	77.56
387.588	82.56
387.813	87.56
388.038	87.56
388.263	99.56
388.488	82.56
388.713	93.56
388.938	81.56
389.163	89.56
389.387	91.56
389.612	82.56
389.837	86.56
390.062	95.56
390.287	92.56
390.512	85.56
390.736	88.56
390.961	84.56
391.186	78.56
391.411	96.56
391.636	85.56
391.86	83.56
392.085	87.56
392.31	86.56
392.534	87.56
392.759	88.56
392.984	98.56
393.208	79.56
393.433	91.56
393.658	99.56
393.882	89.56
394.107	83.56
394.331	92.56
394.556	104.56
394.78	106.56
395.005	77.56
395.229	84.56
395.454	91.56
395.678	103.56
395.903	80.56
396.127	96.56
396.352	92.56
396.576	85.56
396.801	82.56
397.025	78.56
397.249	91.56
397.474	90.56
397.698	87.56
397.922	94.56
398.147	88.56
398.371	87.56
398.595	86.56
398.82	86.56
399.044	81.56
399.268	86.56
399.492	89.56
399.717	93.56
399.941	95.56
400.165	98.56
400.389	108.56
400.613	82.56
400.837	101.56
401.062	77.56
401.286	97.56
401.51	100.56
401.734	80.56
401.958	79.56
402.182	83.56
402.406	86.56
402.63	92.56
402.854	81.56
403.078	96.56
403.302	105.56
403.526	87.56
403.75	78.56
403.974	87.56
404.198	107.56
404.422	77.56
404.645	89.56
404.869	90.56
405.093	80.56
405.317	96.56
405.541	74.56
405.765	77.56
405.988	97.56
406.212	91.56
406.436	104.56
406.66	84.56
406.883	86.56
407.107	91.56
407.331	88.56
407.555	102.56
407.778	77.56
408.002	98.56
408.226	91.56
408.449	81.56
408.673	84.56
408.896	91.56
409.12	98.56
409.344	88.56
409.567	84.56
409.791	85.56
410.014	82.56
410.238	84.56
410.461	86.56
410.685	95.56
410.908	99.56
411.132	87.56
411.355	93.56
411.578	91.56
411.802	101.56
412.025	106.56
412.249	106.56
412.472	86.56
412.695	82.56
412.919	84.56
413.142	88.56
413.365	88.56
413.589	100.56
413.812	90.56
414.035	75.56
414.258	88.56
414.482	97.56
414.705	101.56
414.928	83.56
415.151	85.56
415.374	69.56
415.597	92.56
415.821	90.56
416.044	92.56
416.267	94.56
416.49	84.56
416.713	92.56
416.936	99.56
417.159	92.56
417.382	89.56
417.605	86.56
417.828	102.56
418.051	82.56
418.274	82.56
418.497	86.56
418.72	95.56
418.943	91.56
419.166	106.56
419.389	97.56
419.611	89.56
419.834	99.56
420.057	102.56
420.28	102.56
420.503	99.56
420.726	95.56
420.948	86.56
421.171	106.56
421.394	100.56
421.617	87.56
421.839	82.56
422.062	92.56
422.285	103.56
422.507	92.56
422.73	97.56
422.953	100.56
423.175	91.56
423.398	111.56
423.621	100.56
423.843	99.56
424.066	108.56
424.288	100.56
424.511	95.56
424.733	108.56
424.956	90.56
425.178	90.56
425.401	80.56
425.623	87.56
425.846	99.56
426.068	93.56
426.291	89.56
426.513	99.56
426.735	92.56
426.958	94.56
427.18	95.56
427.402	90.56
427.625	87.56
427.847	89.56
428.069	92.56
428.292	100.56
428.514	100.56
428.736	108.56
428.958	96.56
429.181	95.56
429.403	98.56
429.625	86.56
429.847	72.56
430.069	96.56
430.292	82.56
430.514	96.56
430.736	97.56
430.958	101.56
431.18	88.56
431.402	102.56
431.624	89.56
431.846	87.56
432.068	91.56
432.29	78.56
432.512	83.56
432.734	88.56
432.956	83.56
433.178	89.56
433.4	112.56
433.622	92.56
433.844	105.56
434.066	89.56
434.287	89.56
434.509	84.56
434.731	97.56
434.953	99.56
435.175	91.56
435.397	98.56
435.618	72.56
435.84	97.56
436.062	92.56
436.284	84.56
436.505	90.56
436.727	89.56
436.949	106.56
437.17	104.56
437.392	91.56
437.614	101.56
437.835	83.56
438.057	83.56
438.278	105.56
438.5	91.56
438.721	94.56
438.943	107.56
439.165	96.56
439.386	100.56
439.608	99.56
439.829	104.56
440.05	100.56
440.272	104.56
440.493	98.56
440.715	95.56
440.936	104.56
441.158	110.56
441.379	100.56
441.6	88.56
441.822	89.56
442.043	90.56
442.264	107.56
442.486	94.56
442.707	99.56
442.928	91.56
443.149	69.56
443.371	98.56
443.592	110.56
443.813	87.56
444.034	89.56
444.255	89.56
444.476	91.56
444.698	88.56
444.919	118.56
445.14	223.56
445.361	149.56
445.582	103.56
445.803	99.56
446.024	99.56
446.245	108.56
446.466	101.56
446.687	99.56
446.908	87.56
447.129	111.56
447.35	103.56
447.571	104.56
447.792	103.56
448.013	96.56
448.234	95.56
448.455	99.56
448.675	102.56
448.896	99.56
449.117	101.56
449.338	95.56
449.559	105.56
449.779	95.56
450	96.56
450.221	103.56
450.442	98.56
450.662	100.56
450.883	105.56
451.104	113.56
451.324	89.56
451.545	97.56
451.766	96.56
451.986	86.56
452.207	87.56
452.428	107.56
452.648	87.56
452.869	96.56
453.089	101.56
453.31	75.56
453.53	96.56
453.751	87.56
453.971	84.56
454.192	89.56
454.412	83.56
454.633	97.56
454.853	81.56
455.073	100.56
455.294	87.56
455.514	92.56
455.734	89.56
455.955	93.56
456.175	101.56
456.395	92.56
456.616	83.56
456.836	99.56
457.056	91.56
457.276	89.56
457.497	82.56
457.717	83.56
457.937	85.56
458.157	78.56
458.377	96.56
458.598	97.56
458.818	82.56
459.038	89.56
459.258	73.56
459.478	93.56
459.698	91.56
459.918	84.56
460.138	91.56
460.358	77.56
460.578	87.56
460.798	93.56
461.018	104.56
461.238	81.56
461.458	95.56
461.678	104.56
461.898	102.56
462.118	104.56
462.338	84.56
462.558	89.56
462.777	87.56
462.997	93.56
463.217	92.56
463.437	86.56
463.657	98.56
463.876	85.56
464.096	90.56
464.316	84.56
464.536	82.56
464.755	99.56
464.975	83.56
465.195	92.56
465.414	97.56
465.634	100.56
465.854	92.56
466.073	100.56
466.293	98.56
466.512	102.56
466.732	97.56
466.951	100.56
467.171	85.56
467.391	101.56
467.61	94.56
467.829	101.56
468.049	87.56
468.268	100.56
468.488	96.56
468.707	100.56
468.927	85.56
469.146	96.56
469.365	102.56
469.585	100.56
469.804	97.56
470.023	97.56
470.243	102.56
470.462	104.56
470.681	107.56
470.901	85.56
471.12	98.56
471.339	107.56
471.558	89.56
471.777	110.56
471.997	96.56
472.216	93.56
472.435	72.56
472.654	89.56
472.873	85.56
473.092	97.56
473.311	106.56
473.53	78.56
473.749	90.56
473.968	102.56
474.187	89.56
474.406	95.56
474.625	98.56
474.844	99.56
475.063	97.56
475.282	97.56
475.501	89.56
475.72	95.56
475.939	90.56
476.158	90.56
476.377	100.56
476.596	82.56
476.814	96.56
477.033	89.56
477.252	90.56
477.471	89.56
477.69	104.56
477.908	85.56
478.127	112.56
478.346	108.56
478.564	92.56
478.783	112.56
479.002	91.56
479.22	96.56
479.439	108.56
479.658	87.56
479.876	83.56
480.095	76.56
480.313	94.56
480.532	101.56
480.751	96.56
480.969	71.56
481.188	77.56
481.406	86.56
481.624	90.56
481.843	88.56
482.061	80.56
482.28	75.56
482.498	90.56
482.717	97.56
482.935	105.56
483.153	89.56
483.372	107.56
483.59	95.56
483.808	95.56
484.027	113.56
484.245	95.56
484.463	95.56
484.681	116.56
484.9	100.56
485.118	111.56
485.336	95.56
485.554	96.56
485.772	97.56
485.99	85.56
486.209	98.56
486.427	91.56
486.645	88.56
486.863	89.56
487.081	87.56
487.299	85.56
487.517	94.56
487.735	97.56
487.953	106.56
488.171	103.56
488.389	105.56
488.607	102.56
488.825	101.56
489.043	98.56
489.261	90.56
489.479	94.56
489.696	87.56
489.914	108.56
490.132	100.56
490.35	108.56
490.568	104.56
490.786	116.56
491.003	106.56
491.221	96.56
491.439	116.56
491.657	100.56
491.874	103.56
492.092	119.56
492.31	128.56
492.527	125.56
492.745	118.56
492.963	115.56
493.18	102.56
493.398	113.56
493.615	113.56
493.833	114.56
494.05	119.56
494.268	117.56
494.485	113.56
494.703	118.56
494.92	108.56
495.138	108.56
495.355	107.56
495.573	102.56
495.79	109.56
496.008	114.56
496.225	106.56
496.442	109.56
496.66	99.56
496.877	105.56
497.094	111.56
497.312	93.56
497.529	105.56
497.746	98.56
497.963	98.56
498.181	101.56
498.398	100.56
498.615	92.56
498.832	91.56
499.049	93.56
499.267	104.56
499.484	89.56
499.701	92.56
499.918	98.56
500.135	87.56
500.352	98.56
500.569	106.56
500.786	112.56
501.003	90.56
501.22	105.56
501.437	109.56
501.654	101.56
501.871	93.56
502.088	89.56
502.305	97.56
502.522	101.56
502.739	95.56
502.956	97.56
503.172	85.56
503.389	93.56
503.606	86.56
503.823	94.56
504.04	85.56
504.256	81.56
504.473	97.56
504.69	97.56
504.907	92.56
505.123	83.56
505.34	101.56
505.557	92.56
505.773	91.56
505.99	96.56
506.207	87.56
506.423	95.56
506.64	98.56
506.856	87.56
507.073	108.56
507.289	95.56
507.506	95.56
507.722	94.56
507.939	100.56
508.155	87.56
508.372	90.56
508.588	72.56
508.805	92.56
509.021	80.56
509.238	91.56
509.454	91.56
509.67	94.56
509.887	93.56
510.103	98.56
510.319	88.56
510.536	103.56
510.752	85.56
510.968	76.56
511.184	75.56
511.401	97.56
511.617	95.56
511.833	88.56
512.049	80.56
512.265	86.56
512.481	92.56
512.698	92.56
512.914	82.56
513.13	87.56
513.346	82.56
513.562	89.56
513.778	80.56
513.994	86.56
514.21	77.56
514.426	88.56
514.642	77.56
514.858	95.56
515.074	77.56
515.29	83.56
515.506	84.56
515.721	89.56
515.937	84.56
516.153	71.56
516.369	78.56
516.585	81.56
516.801	92.56
517.016	87.56
