Data from Location4.07152019.Energy5.Lamp.07192019.3%Agarose_HRD10591_15-25-37-578.txt Node
Date: Fri Jul 19 15:25:37 EDT 2019
User: cochatt
Spectrometer: HR+D1059
Trigger mode: 1
Integration Time (sec): 1.000000E-1
Scans to average: 1
Electric dark correction enabled: true
Nonlinearity correction enabled: false
Boxcar width: 0
XAxis mode: Wavelengths
Number of Pixels in Spectrum: 2048
>>>>>Begin Spectral Data<<<<<
223.165	-2.31
223.4	-2.31
223.635	-2.31
223.869	-27.31
224.104	-28.31
224.338	-20.31
224.573	-25.31
224.808	-14.31
225.042	-15.31
225.277	9.69
225.511	-6.31
225.746	14.69
225.98	8.69
226.215	16.69
226.449	15.69
226.683	22.69
226.918	29.69
227.152	21.69
227.387	43.69
227.621	42.69
227.856	56.69
228.09	34.69
228.324	49.69
228.559	50.69
228.793	56.69
229.027	69.69
229.262	62.69
229.496	73.69
229.73	63.69
229.964	73.69
230.199	72.69
230.433	88.69
230.667	82.69
230.901	80.69
231.136	81.69
231.37	83.69
231.604	73.69
231.838	95.69
232.072	88.69
232.306	98.69
232.541	82.69
232.775	80.69
233.009	75.69
233.243	81.69
233.477	76.69
233.711	70.69
233.945	89.69
234.179	82.69
234.413	78.69
234.647	82.69
234.881	75.69
235.115	79.69
235.349	92.69
235.583	94.69
235.817	84.69
236.051	75.69
236.285	87.69
236.519	84.69
236.753	81.69
236.987	80.69
237.221	83.69
237.455	81.69
237.689	90.69
237.922	74.69
238.156	80.69
238.39	72.69
238.624	72.69
238.858	71.69
239.091	71.69
239.325	82.69
239.559	85.69
239.793	98.69
240.027	72.69
240.26	66.69
240.494	68.69
240.728	65.69
240.961	81.69
241.195	82.69
241.429	82.69
241.662	88.69
241.896	70.69
242.13	77.69
242.363	81.69
242.597	76.69
242.83	81.69
243.064	89.69
243.298	91.69
243.531	78.69
243.765	76.69
243.998	84.69
244.232	93.69
244.465	91.69
244.699	77.69
244.932	77.69
245.166	87.69
245.399	70.69
245.633	77.69
245.866	76.69
246.099	89.69
246.333	90.69
246.566	87.69
246.8	89.69
247.033	86.69
247.266	96.69
247.5	94.69
247.733	88.69
247.966	86.69
248.2	75.69
248.433	94.69
248.666	81.69
248.899	71.69
249.133	86.69
249.366	87.69
249.599	75.69
249.832	82.69
250.066	80.69
250.299	79.69
250.532	78.69
250.765	70.69
250.998	89.69
251.231	74.69
251.465	74.69
251.698	89.69
251.931	92.69
252.164	76.69
252.397	92.69
252.63	84.69
252.863	80.69
253.096	83.69
253.329	87.69
253.562	86.69
253.795	94.69
254.028	78.69
254.261	77.69
254.494	79.69
254.727	81.69
254.96	86.69
255.193	80.69
255.426	83.69
255.659	83.69
255.892	91.69
256.124	72.69
256.357	75.69
256.59	82.69
256.823	85.69
257.056	79.69
257.289	72.69
257.521	88.69
257.754	89.69
257.987	89.69
258.22	97.69
258.452	68.69
258.685	81.69
258.918	89.69
259.151	85.69
259.383	98.69
259.616	84.69
259.849	98.69
260.081	86.69
260.314	70.69
260.547	71.69
260.779	79.69
261.012	69.69
261.244	92.69
261.477	89.69
261.71	90.69
261.942	69.69
262.175	75.69
262.407	93.69
262.64	86.69
262.872	71.69
263.105	88.69
263.337	97.69
263.57	89.69
263.802	87.69
264.035	73.69
264.267	75.69
264.499	86.69
264.732	86.69
264.964	104.69
265.197	92.69
265.429	89.69
265.661	94.69
265.894	77.69
266.126	82.69
266.358	90.69
266.591	79.69
266.823	76.69
267.055	68.69
267.287	85.69
267.52	95.69
267.752	88.69
267.984	78.69
268.216	78.69
268.448	92.69
268.681	81.69
268.913	76.69
269.145	81.69
269.377	99.69
269.609	90.69
269.841	75.69
270.073	90.69
270.306	74.69
270.538	98.69
270.77	75.69
271.002	82.69
271.234	74.69
271.466	81.69
271.698	76.69
271.93	70.69
272.162	83.69
272.394	74.69
272.626	76.69
272.858	78.69
273.09	108.69
273.322	81.69
273.553	89.69
273.785	104.69
274.017	75.69
274.249	80.69
274.481	98.69
274.713	81.69
274.945	93.69
275.176	80.69
275.408	80.69
275.64	83.69
275.872	87.69
276.104	92.69
276.335	88.69
276.567	81.69
276.799	77.69
277.031	94.69
277.262	84.69
277.494	87.69
277.726	76.69
277.957	85.69
278.189	88.69
278.421	98.69
278.652	82.69
278.884	73.69
279.115	83.69
279.347	86.69
279.579	83.69
279.81	80.69
280.042	96.69
280.273	83.69
280.505	90.69
280.736	78.69
280.968	89.69
281.199	84.69
281.431	90.69
281.662	93.69
281.894	79.69
282.125	103.69
282.356	92.69
282.588	101.69
282.819	77.69
283.051	88.69
283.282	88.69
283.513	84.69
283.745	93.69
283.976	88.69
284.207	81.69
284.439	98.69
284.67	89.69
284.901	75.69
285.132	89.69
285.364	78.69
285.595	73.69
285.826	93.69
286.057	98.69
286.288	83.69
286.52	88.69
286.751	75.69
286.982	84.69
287.213	75.69
287.444	88.69
287.675	106.69
287.906	81.69
288.138	85.69
288.369	70.69
288.6	85.69
288.831	83.69
289.062	90.69
289.293	88.69
289.524	88.69
289.755	85.69
289.986	74.69
290.217	88.69
290.448	96.69
290.679	82.69
290.91	88.69
291.141	77.69
291.371	84.69
291.602	107.69
291.833	100.69
292.064	102.69
292.295	82.69
292.526	81.69
292.757	81.69
292.987	96.69
293.218	89.69
293.449	79.69
293.68	98.69
293.91	77.69
294.141	79.69
294.372	96.69
294.603	80.69
294.833	100.69
295.064	84.69
295.295	87.69
295.525	80.69
295.756	85.69
295.987	97.69
296.217	78.69
296.448	78.69
296.679	99.69
296.909	82.69
297.14	86.69
297.37	89.69
297.601	86.69
297.831	92.69
298.062	76.69
298.292	84.69
298.523	76.69
298.753	86.69
298.984	97.69
299.214	96.69
299.445	95.69
299.675	81.69
299.905	78.69
300.136	78.69
300.366	77.69
300.597	81.69
300.827	78.69
301.057	85.69
301.288	91.69
301.518	90.69
301.748	85.69
301.979	91.69
302.209	90.69
302.439	83.69
302.669	105.69
302.9	89.69
303.13	108.69
303.36	88.69
303.59	79.69
303.82	88.69
304.051	76.69
304.281	81.69
304.511	94.69
304.741	79.69
304.971	83.69
305.201	95.69
305.431	90.69
305.661	84.69
305.891	77.69
306.121	84.69
306.352	83.69
306.582	87.69
306.812	94.69
307.042	81.69
307.272	78.69
307.502	85.69
307.731	93.69
307.961	79.69
308.191	97.69
308.421	87.69
308.651	87.69
308.881	89.69
309.111	74.69
309.341	78.69
309.571	88.69
309.8	91.69
310.03	94.69
310.26	80.69
310.49	90.69
310.72	86.69
310.949	95.69
311.179	92.69
311.409	95.69
311.639	85.69
311.868	78.69
312.098	79.69
312.328	93.69
312.557	77.69
312.787	88.69
313.017	88.69
313.246	92.69
313.476	107.69
313.706	75.69
313.935	90.69
314.165	77.69
314.394	68.69
314.624	88.69
314.853	87.69
315.083	75.69
315.312	80.69
315.542	88.69
315.771	76.69
316.001	88.69
316.23	92.69
316.46	87.69
316.689	81.69
316.919	93.69
317.148	79.69
317.377	87.69
317.607	78.69
317.836	71.69
318.065	93.69
318.295	84.69
318.524	102.69
318.753	82.69
318.983	77.69
319.212	88.69
319.441	82.69
319.67	87.69
319.9	88.69
320.129	91.69
320.358	84.69
320.587	97.69
320.816	90.69
321.046	89.69
321.275	85.69
321.504	82.69
321.733	90.69
321.962	88.69
322.191	81.69
322.42	104.69
322.649	83.69
322.878	84.69
323.108	79.69
323.337	78.69
323.566	84.69
323.795	75.69
324.024	85.69
324.253	65.69
324.482	89.69
324.71	97.69
324.939	92.69
325.168	85.69
325.397	88.69
325.626	93.69
325.855	83.69
326.084	84.69
326.313	95.69
326.542	81.69
326.77	87.69
326.999	93.69
327.228	97.69
327.457	104.69
327.686	83.69
327.914	85.69
328.143	87.69
328.372	93.69
328.6	82.69
328.829	76.69
329.058	79.69
329.287	100.69
329.515	77.69
329.744	90.69
329.972	94.69
330.201	81.69
330.43	95.69
330.658	84.69
330.887	76.69
331.115	74.69
331.344	89.69
331.572	81.69
331.801	78.69
332.03	68.69
332.258	79.69
332.486	82.69
332.715	82.69
332.943	84.69
333.172	86.69
333.4	94.69
333.629	82.69
333.857	79.69
334.085	79.69
334.314	89.69
334.542	78.69
334.771	80.69
334.999	73.69
335.227	86.69
335.455	83.69
335.684	73.69
335.912	78.69
336.14	81.69
336.369	82.69
336.597	77.69
336.825	80.69
337.053	72.69
337.281	86.69
337.51	88.69
337.738	86.69
337.966	75.69
338.194	76.69
338.422	84.69
338.65	95.69
338.878	84.69
339.106	73.69
339.334	96.69
339.562	82.69
339.79	81.69
340.018	96.69
340.246	93.69
340.474	98.69
340.702	78.69
340.93	73.69
341.158	101.69
341.386	80.69
341.614	89.69
341.842	85.69
342.07	94.69
342.298	81.69
342.526	75.69
342.754	93.69
342.981	81.69
343.209	99.69
343.437	91.69
343.665	73.69
343.893	73.69
344.12	104.69
344.348	84.69
344.576	80.69
344.804	82.69
345.031	84.69
345.259	86.69
345.487	97.69
345.714	83.69
345.942	69.69
346.17	89.69
346.397	82.69
346.625	78.69
346.853	88.69
347.08	77.69
347.308	95.69
347.535	82.69
347.763	98.69
347.99	88.69
348.218	97.69
348.445	89.69
348.673	88.69
348.9	91.69
349.128	87.69
349.355	93.69
349.583	88.69
349.81	93.69
350.037	87.69
350.265	94.69
350.492	81.69
350.72	82.69
350.947	91.69
351.174	83.69
351.402	83.69
351.629	91.69
351.856	90.69
352.083	73.69
352.311	93.69
352.538	96.69
352.765	87.69
352.992	85.69
353.22	87.69
353.447	82.69
353.674	81.69
353.901	100.69
354.128	85.69
354.355	77.69
354.583	72.69
354.81	97.69
355.037	95.69
355.264	95.69
355.491	82.69
355.718	86.69
355.945	73.69
356.172	88.69
356.399	85.69
356.626	83.69
356.853	92.69
357.08	74.69
357.307	90.69
357.534	76.69
357.761	85.69
357.988	96.69
358.215	75.69
358.441	90.69
358.668	77.69
358.895	101.69
359.122	84.69
359.349	84.69
359.576	102.69
359.802	76.69
360.029	87.69
360.256	83.69
360.483	78.69
360.709	75.69
360.936	79.69
361.163	82.69
361.39	93.69
361.616	92.69
361.843	88.69
362.07	82.69
362.296	96.69
362.523	72.69
362.749	88.69
362.976	86.69
363.203	94.69
363.429	85.69
363.656	78.69
363.882	89.69
364.109	97.69
364.335	90.69
364.562	94.69
364.788	91.69
365.015	84.69
365.241	79.69
365.468	88.69
365.694	84.69
365.92	88.69
366.147	89.69
366.373	96.69
366.599	85.69
366.826	91.69
367.052	84.69
367.278	90.69
367.505	74.69
367.731	81.69
367.957	80.69
368.184	88.69
368.41	98.69
368.636	88.69
368.862	83.69
369.089	83.69
369.315	75.69
369.541	93.69
369.767	86.69
369.993	80.69
370.219	77.69
370.445	96.69
370.672	87.69
370.898	80.69
371.124	95.69
371.35	94.69
371.576	93.69
371.802	85.69
372.028	97.69
372.254	84.69
372.48	99.69
372.706	81.69
372.932	84.69
373.158	83.69
373.384	97.69
373.61	81.69
373.835	86.69
374.061	100.69
374.287	105.69
374.513	90.69
374.739	87.69
374.965	79.69
375.191	85.69
375.416	90.69
375.642	82.69
375.868	90.69
376.094	87.69
376.319	72.69
376.545	75.69
376.771	83.69
376.997	81.69
377.222	81.69
377.448	88.69
377.674	85.69
377.899	101.69
378.125	89.69
378.35	82.69
378.576	66.69
378.802	86.69
379.027	79.69
379.253	86.69
379.478	97.69
379.704	86.69
379.929	87.69
380.155	91.69
380.38	74.69
380.606	74.69
380.831	89.69
381.057	89.69
381.282	85.69
381.507	83.69
381.733	92.69
381.958	87.69
382.184	81.69
382.409	83.69
382.634	85.69
382.86	93.69
383.085	83.69
383.31	98.69
383.535	90.69
383.761	92.69
383.986	93.69
384.211	73.69
384.436	89.69
384.662	83.69
384.887	89.69
385.112	91.69
385.337	86.69
385.562	80.69
385.787	89.69
386.013	91.69
386.238	92.69
386.463	93.69
386.688	84.69
386.913	77.69
387.138	73.69
387.363	88.69
387.588	105.69
387.813	87.69
388.038	92.69
388.263	92.69
388.488	85.69
388.713	81.69
388.938	82.69
389.163	84.69
389.387	83.69
389.612	82.69
389.837	86.69
390.062	97.69
390.287	96.69
390.512	77.69
390.736	89.69
390.961	83.69
391.186	92.69
391.411	81.69
391.636	84.69
391.86	86.69
392.085	85.69
392.31	79.69
392.534	83.69
392.759	85.69
392.984	87.69
393.208	81.69
393.433	84.69
393.658	83.69
393.882	92.69
394.107	96.69
394.331	90.69
394.556	82.69
394.78	96.69
395.005	94.69
395.229	82.69
395.454	84.69
395.678	84.69
395.903	91.69
396.127	88.69
396.352	79.69
396.576	87.69
396.801	87.69
397.025	100.69
397.249	85.69
397.474	90.69
397.698	79.69
397.922	91.69
398.147	76.69
398.371	83.69
398.595	85.69
398.82	81.69
399.044	84.69
399.268	99.69
399.492	100.69
399.717	93.69
399.941	83.69
400.165	88.69
400.389	92.69
400.613	87.69
400.837	93.69
401.062	88.69
401.286	99.69
401.51	84.69
401.734	87.69
401.958	83.69
402.182	88.69
402.406	102.69
402.63	80.69
402.854	100.69
403.078	89.69
403.302	93.69
403.526	100.69
403.75	100.69
403.974	95.69
404.198	93.69
404.422	88.69
404.645	91.69
404.869	105.69
405.093	97.69
405.317	92.69
405.541	96.69
405.765	97.69
405.988	83.69
406.212	99.69
406.436	83.69
406.66	102.69
406.883	91.69
407.107	98.69
407.331	87.69
407.555	102.69
407.778	85.69
408.002	96.69
408.226	101.69
408.449	83.69
408.673	104.69
408.896	91.69
409.12	91.69
409.344	82.69
409.567	77.69
409.791	90.69
410.014	97.69
410.238	103.69
410.461	95.69
410.685	96.69
410.908	86.69
411.132	95.69
411.355	94.69
411.578	86.69
411.802	95.69
412.025	92.69
412.249	87.69
412.472	98.69
412.695	101.69
412.919	81.69
413.142	91.69
413.365	87.69
413.589	86.69
413.812	89.69
414.035	100.69
414.258	101.69
414.482	92.69
414.705	97.69
414.928	93.69
415.151	101.69
415.374	103.69
415.597	87.69
415.821	81.69
416.044	72.69
416.267	93.69
416.49	95.69
416.713	99.69
416.936	97.69
417.159	89.69
417.382	81.69
417.605	106.69
417.828	92.69
418.051	91.69
418.274	81.69
418.497	96.69
418.72	91.69
418.943	87.69
419.166	107.69
419.389	86.69
419.611	84.69
419.834	89.69
420.057	101.69
420.28	88.69
420.503	80.69
420.726	96.69
420.948	107.69
421.171	101.69
421.394	94.69
421.617	101.69
421.839	103.69
422.062	96.69
422.285	88.69
422.507	103.69
422.73	98.69
422.953	104.69
423.175	92.69
423.398	86.69
423.621	86.69
423.843	102.69
424.066	89.69
424.288	96.69
424.511	89.69
424.733	94.69
424.956	86.69
425.178	107.69
425.401	88.69
425.623	108.69
425.846	115.69
426.068	100.69
426.291	92.69
426.513	101.69
426.735	102.69
426.958	116.69
427.18	108.69
427.402	97.69
427.625	81.69
427.847	89.69
428.069	96.69
428.292	92.69
428.514	115.69
428.736	105.69
428.958	93.69
429.181	81.69
429.403	101.69
429.625	101.69
429.847	93.69
430.069	98.69
430.292	107.69
430.514	102.69
430.736	100.69
430.958	98.69
431.18	85.69
431.402	94.69
431.624	105.69
431.846	100.69
432.068	99.69
432.29	81.69
432.512	89.69
432.734	89.69
432.956	95.69
433.178	105.69
433.4	100.69
433.622	94.69
433.844	96.69
434.066	117.69
434.287	93.69
434.509	98.69
434.731	92.69
434.953	86.69
435.175	94.69
435.397	95.69
435.618	98.69
435.84	91.69
436.062	95.69
436.284	89.69
436.505	96.69
436.727	100.69
436.949	102.69
437.17	97.69
437.392	86.69
437.614	86.69
437.835	90.69
438.057	109.69
438.278	97.69
438.5	88.69
438.721	98.69
438.943	93.69
439.165	85.69
439.386	88.69
439.608	110.69
439.829	102.69
440.05	102.69
440.272	105.69
440.493	96.69
440.715	95.69
440.936	99.69
441.158	103.69
441.379	93.69
441.6	104.69
441.822	97.69
442.043	105.69
442.264	97.69
442.486	102.69
442.707	96.69
442.928	86.69
443.149	89.69
443.371	95.69
443.592	101.69
443.813	99.69
444.034	107.69
444.255	102.69
444.476	105.69
444.698	100.69
444.919	86.69
445.14	237.69
445.361	157.69
445.582	93.69
445.803	102.69
446.024	110.69
446.245	117.69
446.466	97.69
446.687	100.69
446.908	99.69
447.129	104.69
447.35	104.69
447.571	108.69
447.792	100.69
448.013	106.69
448.234	94.69
448.455	116.69
448.675	106.69
448.896	91.69
449.117	93.69
449.338	102.69
449.559	96.69
449.779	91.69
450	116.69
450.221	105.69
450.442	94.69
450.662	95.69
450.883	101.69
451.104	97.69
451.324	103.69
451.545	87.69
451.766	85.69
451.986	103.69
452.207	94.69
452.428	100.69
452.648	84.69
452.869	98.69
453.089	99.69
453.31	78.69
453.53	95.69
453.751	89.69
453.971	105.69
454.192	85.69
454.412	99.69
454.633	98.69
454.853	101.69
455.073	83.69
455.294	85.69
455.514	97.69
455.734	89.69
455.955	101.69
456.175	81.69
456.395	94.69
456.616	89.69
456.836	99.69
457.056	89.69
457.276	84.69
457.497	92.69
457.717	101.69
457.937	83.69
458.157	103.69
458.377	86.69
458.598	105.69
458.818	87.69
459.038	95.69
459.258	85.69
459.478	89.69
459.698	82.69
459.918	92.69
460.138	97.69
460.358	96.69
460.578	83.69
460.798	93.69
461.018	93.69
461.238	84.69
461.458	101.69
461.678	107.69
461.898	88.69
462.118	98.69
462.338	94.69
462.558	96.69
462.777	104.69
462.997	107.69
463.217	95.69
463.437	97.69
463.657	100.69
463.876	68.69
464.096	101.69
464.316	85.69
464.536	97.69
464.755	90.69
464.975	90.69
465.195	92.69
465.414	80.69
465.634	92.69
465.854	105.69
466.073	86.69
466.293	100.69
466.512	116.69
466.732	102.69
466.951	93.69
467.171	92.69
467.391	91.69
467.61	94.69
467.829	96.69
468.049	90.69
468.268	100.69
468.488	93.69
468.707	94.69
468.927	110.69
469.146	106.69
469.365	117.69
469.585	98.69
469.804	100.69
470.023	105.69
470.243	96.69
470.462	93.69
470.681	107.69
470.901	104.69
471.12	98.69
471.339	95.69
471.558	92.69
471.777	92.69
471.997	79.69
472.216	99.69
472.435	110.69
472.654	101.69
472.873	92.69
473.092	93.69
473.311	99.69
473.53	99.69
473.749	107.69
473.968	112.69
474.187	96.69
474.406	92.69
474.625	101.69
474.844	100.69
475.063	112.69
475.282	101.69
475.501	88.69
475.72	109.69
475.939	97.69
476.158	102.69
476.377	103.69
476.596	87.69
476.814	77.69
477.033	73.69
477.252	85.69
477.471	84.69
477.69	91.69
477.908	97.69
478.127	99.69
478.346	112.69
478.564	103.69
478.783	108.69
479.002	100.69
479.22	105.69
479.439	100.69
479.658	91.69
479.876	88.69
480.095	83.69
480.313	104.69
480.532	91.69
480.751	78.69
480.969	85.69
481.188	84.69
481.406	76.69
481.624	84.69
481.843	84.69
482.061	96.69
482.28	91.69
482.498	102.69
482.717	97.69
482.935	95.69
483.153	90.69
483.372	112.69
483.59	100.69
483.808	99.69
484.027	94.69
484.245	108.69
484.463	100.69
484.681	97.69
484.9	107.69
485.118	107.69
485.336	91.69
485.554	80.69
485.772	82.69
485.99	93.69
486.209	80.69
486.427	96.69
486.645	90.69
486.863	100.69
487.081	85.69
487.299	101.69
487.517	108.69
487.735	97.69
487.953	113.69
488.171	109.69
488.389	122.69
488.607	104.69
488.825	107.69
489.043	102.69
489.261	93.69
489.479	84.69
489.696	103.69
489.914	103.69
490.132	97.69
490.35	105.69
490.568	107.69
490.786	113.69
491.003	118.69
491.221	110.69
491.439	108.69
491.657	107.69
491.874	116.69
492.092	126.69
492.31	132.69
492.527	125.69
492.745	112.69
492.963	115.69
493.18	118.69
493.398	106.69
493.615	120.69
493.833	117.69
494.05	106.69
494.268	95.69
494.485	96.69
494.703	115.69
494.92	112.69
495.138	105.69
495.355	122.69
495.573	125.69
495.79	126.69
496.008	114.69
496.225	110.69
496.442	104.69
496.66	115.69
496.877	116.69
497.094	105.69
497.312	108.69
497.529	109.69
497.746	117.69
497.963	112.69
498.181	87.69
498.398	106.69
498.615	91.69
498.832	93.69
499.049	105.69
499.267	92.69
499.484	101.69
499.701	113.69
499.918	105.69
500.135	96.69
500.352	100.69
500.569	107.69
500.786	92.69
501.003	101.69
501.22	80.69
501.437	107.69
501.654	98.69
501.871	104.69
502.088	96.69
502.305	99.69
502.522	90.69
502.739	102.69
502.956	91.69
503.172	116.69
503.389	91.69
503.606	112.69
503.823	109.69
504.04	100.69
504.256	106.69
504.473	97.69
504.69	92.69
504.907	107.69
505.123	109.69
505.34	83.69
505.557	106.69
505.773	92.69
505.99	101.69
506.207	108.69
506.423	91.69
506.64	90.69
506.856	95.69
507.073	84.69
507.289	85.69
507.506	96.69
507.722	85.69
507.939	102.69
508.155	99.69
508.372	91.69
508.588	115.69
508.805	94.69
509.021	99.69
509.238	95.69
509.454	82.69
509.67	75.69
509.887	80.69
510.103	90.69
510.319	93.69
510.536	105.69
510.752	93.69
510.968	86.69
511.184	66.69
511.401	77.69
511.617	84.69
511.833	89.69
512.049	88.69
512.265	91.69
512.481	86.69
512.698	94.69
512.914	112.69
513.13	83.69
513.346	84.69
513.562	82.69
513.778	90.69
513.994	84.69
514.21	92.69
514.426	91.69
514.642	85.69
514.858	81.69
515.074	86.69
515.29	89.69
515.506	101.69
515.721	73.69
515.937	88.69
516.153	84.69
516.369	82.69
