Data from Location4.07152019.Energy5.Lamp.07192019.3%Agarose_HRD10591_15-24-49-577.txt Node
Date: Fri Jul 19 15:24:49 EDT 2019
User: cochatt
Spectrometer: HR+D1059
Trigger mode: 1
Integration Time (sec): 1.000000E-1
Scans to average: 1
Electric dark correction enabled: true
Nonlinearity correction enabled: false
Boxcar width: 0
XAxis mode: Wavelengths
Number of Pixels in Spectrum: 2048
>>>>>Begin Spectral Data<<<<<
223.165	-15.38
223.4	-15.38
223.635	-15.38
223.869	-17.38
224.104	-28.38
224.338	-28.38
224.573	-4.38
224.808	-18.38
225.042	-17.38
225.277	-6.38
225.511	11.62
225.746	9.62
225.98	11.62
226.215	24.62
226.449	7.62
226.683	26.62
226.918	23.62
227.152	20.62
227.387	34.62
227.621	25.62
227.856	46.62
228.09	38.62
228.324	40.62
228.559	56.62
228.793	59.62
229.027	64.62
229.262	65.62
229.496	60.62
229.73	81.62
229.964	82.62
230.199	60.62
230.433	69.62
230.667	88.62
230.901	73.62
231.136	75.62
231.37	83.62
231.604	67.62
231.838	86.62
232.072	68.62
232.306	72.62
232.541	89.62
232.775	87.62
233.009	74.62
233.243	74.62
233.477	76.62
233.711	72.62
233.945	89.62
234.179	86.62
234.413	72.62
234.647	63.62
234.881	77.62
235.115	83.62
235.349	75.62
235.583	72.62
235.817	70.62
236.051	76.62
236.285	83.62
236.519	67.62
236.753	70.62
236.987	63.62
237.221	80.62
237.455	75.62
237.689	86.62
237.922	75.62
238.156	67.62
238.39	66.62
238.624	74.62
238.858	69.62
239.091	73.62
239.325	76.62
239.559	87.62
239.793	63.62
240.027	91.62
240.26	88.62
240.494	71.62
240.728	78.62
240.961	71.62
241.195	77.62
241.429	79.62
241.662	77.62
241.896	68.62
242.13	72.62
242.363	70.62
242.597	79.62
242.83	68.62
243.064	80.62
243.298	81.62
243.531	79.62
243.765	56.62
243.998	67.62
244.232	77.62
244.465	77.62
244.699	78.62
244.932	75.62
245.166	67.62
245.399	65.62
245.633	68.62
245.866	63.62
246.099	78.62
246.333	79.62
246.566	79.62
246.8	63.62
247.033	56.62
247.266	74.62
247.5	88.62
247.733	84.62
247.966	80.62
248.2	81.62
248.433	69.62
248.666	73.62
248.899	85.62
249.133	76.62
249.366	87.62
249.599	76.62
249.832	67.62
250.066	87.62
250.299	79.62
250.532	72.62
250.765	74.62
250.998	69.62
251.231	93.62
251.465	73.62
251.698	68.62
251.931	69.62
252.164	81.62
252.397	74.62
252.63	72.62
252.863	93.62
253.096	70.62
253.329	67.62
253.562	88.62
253.795	73.62
254.028	74.62
254.261	71.62
254.494	78.62
254.727	82.62
254.96	68.62
255.193	75.62
255.426	79.62
255.659	87.62
255.892	85.62
256.124	79.62
256.357	75.62
256.59	89.62
256.823	78.62
257.056	72.62
257.289	82.62
257.521	83.62
257.754	61.62
257.987	72.62
258.22	86.62
258.452	77.62
258.685	76.62
258.918	88.62
259.151	70.62
259.383	90.62
259.616	82.62
259.849	69.62
260.081	90.62
260.314	73.62
260.547	72.62
260.779	88.62
261.012	87.62
261.244	82.62
261.477	82.62
261.71	66.62
261.942	62.62
262.175	71.62
262.407	85.62
262.64	77.62
262.872	82.62
263.105	77.62
263.337	80.62
263.57	78.62
263.802	84.62
264.035	85.62
264.267	79.62
264.499	86.62
264.732	92.62
264.964	79.62
265.197	83.62
265.429	74.62
265.661	83.62
265.894	89.62
266.126	89.62
266.358	85.62
266.591	70.62
266.823	80.62
267.055	71.62
267.287	68.62
267.52	78.62
267.752	78.62
267.984	82.62
268.216	68.62
268.448	71.62
268.681	82.62
268.913	85.62
269.145	67.62
269.377	90.62
269.609	63.62
269.841	80.62
270.073	80.62
270.306	85.62
270.538	64.62
270.77	81.62
271.002	86.62
271.234	106.62
271.466	84.62
271.698	79.62
271.93	79.62
272.162	67.62
272.394	79.62
272.626	80.62
272.858	92.62
273.09	83.62
273.322	85.62
273.553	72.62
273.785	87.62
274.017	76.62
274.249	68.62
274.481	80.62
274.713	79.62
274.945	70.62
275.176	84.62
275.408	83.62
275.64	71.62
275.872	91.62
276.104	80.62
276.335	96.62
276.567	80.62
276.799	86.62
277.031	72.62
277.262	65.62
277.494	77.62
277.726	80.62
277.957	77.62
278.189	78.62
278.421	88.62
278.652	89.62
278.884	83.62
279.115	86.62
279.347	80.62
279.579	85.62
279.81	76.62
280.042	79.62
280.273	83.62
280.505	82.62
280.736	75.62
280.968	78.62
281.199	76.62
281.431	83.62
281.662	90.62
281.894	88.62
282.125	84.62
282.356	92.62
282.588	81.62
282.819	84.62
283.051	92.62
283.282	101.62
283.513	76.62
283.745	94.62
283.976	68.62
284.207	83.62
284.439	80.62
284.67	74.62
284.901	78.62
285.132	77.62
285.364	85.62
285.595	70.62
285.826	70.62
286.057	80.62
286.288	77.62
286.52	77.62
286.751	76.62
286.982	76.62
287.213	91.62
287.444	88.62
287.675	80.62
287.906	95.62
288.138	75.62
288.369	83.62
288.6	84.62
288.831	88.62
289.062	97.62
289.293	79.62
289.524	77.62
289.755	84.62
289.986	73.62
290.217	75.62
290.448	77.62
290.679	93.62
290.91	90.62
291.141	87.62
291.371	97.62
291.602	72.62
291.833	81.62
292.064	80.62
292.295	65.62
292.526	83.62
292.757	69.62
292.987	86.62
293.218	77.62
293.449	84.62
293.68	86.62
293.91	85.62
294.141	87.62
294.372	72.62
294.603	57.62
294.833	77.62
295.064	83.62
295.295	82.62
295.525	93.62
295.756	80.62
295.987	76.62
296.217	85.62
296.448	87.62
296.679	73.62
296.909	82.62
297.14	88.62
297.37	96.62
297.601	82.62
297.831	88.62
298.062	80.62
298.292	97.62
298.523	73.62
298.753	78.62
298.984	73.62
299.214	80.62
299.445	96.62
299.675	85.62
299.905	98.62
300.136	96.62
300.366	84.62
300.597	99.62
300.827	76.62
301.057	82.62
301.288	94.62
301.518	84.62
301.748	73.62
301.979	96.62
302.209	83.62
302.439	77.62
302.669	80.62
302.9	89.62
303.13	90.62
303.36	72.62
303.59	82.62
303.82	84.62
304.051	88.62
304.281	83.62
304.511	79.62
304.741	78.62
304.971	72.62
305.201	82.62
305.431	78.62
305.661	77.62
305.891	82.62
306.121	81.62
306.352	75.62
306.582	84.62
306.812	62.62
307.042	88.62
307.272	85.62
307.502	72.62
307.731	89.62
307.961	78.62
308.191	69.62
308.421	78.62
308.651	80.62
308.881	73.62
309.111	71.62
309.341	80.62
309.571	82.62
309.8	70.62
310.03	77.62
310.26	82.62
310.49	72.62
310.72	75.62
310.949	84.62
311.179	88.62
311.409	81.62
311.639	91.62
311.868	89.62
312.098	79.62
312.328	73.62
312.557	96.62
312.787	84.62
313.017	78.62
313.246	89.62
313.476	79.62
313.706	77.62
313.935	81.62
314.165	85.62
314.394	89.62
314.624	87.62
314.853	91.62
315.083	89.62
315.312	73.62
315.542	83.62
315.771	72.62
316.001	83.62
316.23	86.62
316.46	73.62
316.689	76.62
316.919	79.62
317.148	100.62
317.377	74.62
317.607	88.62
317.836	89.62
318.065	99.62
318.295	81.62
318.524	85.62
318.753	81.62
318.983	79.62
319.212	78.62
319.441	79.62
319.67	79.62
319.9	88.62
320.129	80.62
320.358	91.62
320.587	81.62
320.816	78.62
321.046	80.62
321.275	84.62
321.504	86.62
321.733	86.62
321.962	92.62
322.191	76.62
322.42	88.62
322.649	76.62
322.878	67.62
323.108	85.62
323.337	98.62
323.566	77.62
323.795	89.62
324.024	83.62
324.253	85.62
324.482	81.62
324.71	88.62
324.939	78.62
325.168	91.62
325.397	81.62
325.626	87.62
325.855	86.62
326.084	63.62
326.313	79.62
326.542	72.62
326.77	75.62
326.999	72.62
327.228	78.62
327.457	76.62
327.686	81.62
327.914	88.62
328.143	80.62
328.372	79.62
328.6	89.62
328.829	92.62
329.058	88.62
329.287	81.62
329.515	88.62
329.744	86.62
329.972	71.62
330.201	75.62
330.43	87.62
330.658	69.62
330.887	82.62
331.115	89.62
331.344	81.62
331.572	96.62
331.801	81.62
332.03	78.62
332.258	83.62
332.486	67.62
332.715	83.62
332.943	73.62
333.172	55.62
333.4	80.62
333.629	81.62
333.857	77.62
334.085	78.62
334.314	81.62
334.542	88.62
334.771	67.62
334.999	65.62
335.227	76.62
335.455	68.62
335.684	83.62
335.912	87.62
336.14	86.62
336.369	83.62
336.597	89.62
336.825	71.62
337.053	78.62
337.281	75.62
337.51	95.62
337.738	88.62
337.966	74.62
338.194	81.62
338.422	82.62
338.65	69.62
338.878	77.62
339.106	92.62
339.334	83.62
339.562	68.62
339.79	81.62
340.018	81.62
340.246	76.62
340.474	99.62
340.702	87.62
340.93	85.62
341.158	87.62
341.386	71.62
341.614	90.62
341.842	83.62
342.07	76.62
342.298	76.62
342.526	76.62
342.754	83.62
342.981	88.62
343.209	80.62
343.437	96.62
343.665	95.62
343.893	81.62
344.12	96.62
344.348	70.62
344.576	72.62
344.804	81.62
345.031	79.62
345.259	69.62
345.487	77.62
345.714	81.62
345.942	94.62
346.17	90.62
346.397	67.62
346.625	86.62
346.853	93.62
347.08	62.62
347.308	71.62
347.535	80.62
347.763	71.62
347.99	96.62
348.218	85.62
348.445	67.62
348.673	65.62
348.9	98.62
349.128	77.62
349.355	90.62
349.583	85.62
349.81	71.62
350.037	84.62
350.265	85.62
350.492	85.62
350.72	94.62
350.947	83.62
351.174	63.62
351.402	80.62
351.629	84.62
351.856	90.62
352.083	86.62
352.311	88.62
352.538	68.62
352.765	93.62
352.992	81.62
353.22	79.62
353.447	77.62
353.674	84.62
353.901	86.62
354.128	86.62
354.355	78.62
354.583	90.62
354.81	69.62
355.037	72.62
355.264	78.62
355.491	85.62
355.718	83.62
355.945	90.62
356.172	80.62
356.399	75.62
356.626	89.62
356.853	94.62
357.08	79.62
357.307	71.62
357.534	69.62
357.761	78.62
357.988	82.62
358.215	88.62
358.441	87.62
358.668	79.62
358.895	73.62
359.122	81.62
359.349	94.62
359.576	61.62
359.802	76.62
360.029	80.62
360.256	81.62
360.483	84.62
360.709	88.62
360.936	79.62
361.163	87.62
361.39	75.62
361.616	79.62
361.843	71.62
362.07	69.62
362.296	72.62
362.523	84.62
362.749	87.62
362.976	72.62
363.203	80.62
363.429	82.62
363.656	76.62
363.882	88.62
364.109	79.62
364.335	91.62
364.562	78.62
364.788	100.62
365.015	78.62
365.241	77.62
365.468	87.62
365.694	97.62
365.92	84.62
366.147	84.62
366.373	74.62
366.599	79.62
366.826	77.62
367.052	80.62
367.278	75.62
367.505	64.62
367.731	92.62
367.957	76.62
368.184	77.62
368.41	78.62
368.636	74.62
368.862	88.62
369.089	87.62
369.315	67.62
369.541	81.62
369.767	82.62
369.993	96.62
370.219	90.62
370.445	73.62
370.672	84.62
370.898	90.62
371.124	76.62
371.35	85.62
371.576	80.62
371.802	85.62
372.028	86.62
372.254	90.62
372.48	80.62
372.706	68.62
372.932	97.62
373.158	75.62
373.384	74.62
373.61	94.62
373.835	81.62
374.061	80.62
374.287	84.62
374.513	86.62
374.739	82.62
374.965	76.62
375.191	77.62
375.416	81.62
375.642	85.62
375.868	84.62
376.094	80.62
376.319	84.62
376.545	84.62
376.771	73.62
376.997	79.62
377.222	71.62
377.448	84.62
377.674	71.62
377.899	74.62
378.125	69.62
378.35	73.62
378.576	92.62
378.802	81.62
379.027	83.62
379.253	89.62
379.478	70.62
379.704	82.62
379.929	65.62
380.155	72.62
380.38	76.62
380.606	78.62
380.831	91.62
381.057	78.62
381.282	83.62
381.507	84.62
381.733	89.62
381.958	89.62
382.184	85.62
382.409	81.62
382.634	87.62
382.86	89.62
383.085	90.62
383.31	89.62
383.535	78.62
383.761	88.62
383.986	85.62
384.211	79.62
384.436	75.62
384.662	78.62
384.887	72.62
385.112	65.62
385.337	91.62
385.562	72.62
385.787	83.62
386.013	79.62
386.238	69.62
386.463	80.62
386.688	89.62
386.913	73.62
387.138	88.62
387.363	79.62
387.588	76.62
387.813	92.62
388.038	79.62
388.263	77.62
388.488	96.62
388.713	79.62
388.938	84.62
389.163	79.62
389.387	80.62
389.612	88.62
389.837	73.62
390.062	84.62
390.287	104.62
390.512	92.62
390.736	70.62
390.961	81.62
391.186	72.62
391.411	72.62
391.636	84.62
391.86	65.62
392.085	95.62
392.31	82.62
392.534	82.62
392.759	85.62
392.984	71.62
393.208	81.62
393.433	80.62
393.658	85.62
393.882	75.62
394.107	84.62
394.331	88.62
394.556	91.62
394.78	87.62
395.005	84.62
395.229	80.62
395.454	83.62
395.678	89.62
395.903	95.62
396.127	77.62
396.352	87.62
396.576	83.62
396.801	93.62
397.025	89.62
397.249	85.62
397.474	87.62
397.698	92.62
397.922	94.62
398.147	81.62
398.371	84.62
398.595	79.62
398.82	84.62
399.044	96.62
399.268	93.62
399.492	85.62
399.717	87.62
399.941	84.62
400.165	86.62
400.389	76.62
400.613	98.62
400.837	101.62
401.062	83.62
401.286	84.62
401.51	77.62
401.734	74.62
401.958	100.62
402.182	73.62
402.406	89.62
402.63	91.62
402.854	97.62
403.078	70.62
403.302	81.62
403.526	90.62
403.75	93.62
403.974	83.62
404.198	86.62
404.422	83.62
404.645	81.62
404.869	82.62
405.093	91.62
405.317	81.62
405.541	84.62
405.765	91.62
405.988	87.62
406.212	95.62
406.436	80.62
406.66	91.62
406.883	69.62
407.107	101.62
407.331	79.62
407.555	90.62
407.778	86.62
408.002	95.62
408.226	86.62
408.449	92.62
408.673	88.62
408.896	86.62
409.12	82.62
409.344	87.62
409.567	85.62
409.791	86.62
410.014	80.62
410.238	88.62
410.461	84.62
410.685	65.62
410.908	87.62
411.132	100.62
411.355	84.62
411.578	84.62
411.802	83.62
412.025	84.62
412.249	89.62
412.472	89.62
412.695	92.62
412.919	73.62
413.142	87.62
413.365	84.62
413.589	92.62
413.812	88.62
414.035	92.62
414.258	92.62
414.482	86.62
414.705	85.62
414.928	101.62
415.151	88.62
415.374	88.62
415.597	81.62
415.821	81.62
416.044	80.62
416.267	82.62
416.49	86.62
416.713	98.62
416.936	98.62
417.159	83.62
417.382	62.62
417.605	86.62
417.828	87.62
418.051	93.62
418.274	90.62
418.497	99.62
418.72	101.62
418.943	99.62
419.166	87.62
419.389	85.62
419.611	78.62
419.834	89.62
420.057	81.62
420.28	89.62
420.503	98.62
420.726	98.62
420.948	83.62
421.171	105.62
421.394	95.62
421.617	87.62
421.839	76.62
422.062	96.62
422.285	86.62
422.507	92.62
422.73	79.62
422.953	92.62
423.175	100.62
423.398	95.62
423.621	87.62
423.843	89.62
424.066	88.62
424.288	106.62
424.511	82.62
424.733	103.62
424.956	93.62
425.178	91.62
425.401	94.62
425.623	104.62
425.846	88.62
426.068	85.62
426.291	92.62
426.513	88.62
426.735	99.62
426.958	90.62
427.18	88.62
427.402	99.62
427.625	92.62
427.847	96.62
428.069	92.62
428.292	98.62
428.514	76.62
428.736	91.62
428.958	93.62
429.181	92.62
429.403	86.62
429.625	95.62
429.847	82.62
430.069	94.62
430.292	94.62
430.514	82.62
430.736	88.62
430.958	84.62
431.18	90.62
431.402	89.62
431.624	95.62
431.846	84.62
432.068	76.62
432.29	74.62
432.512	71.62
432.734	91.62
432.956	74.62
433.178	83.62
433.4	91.62
433.622	92.62
433.844	93.62
434.066	93.62
434.287	86.62
434.509	73.62
434.731	72.62
434.953	72.62
435.175	87.62
435.397	81.62
435.618	90.62
435.84	88.62
436.062	86.62
436.284	74.62
436.505	101.62
436.727	109.62
436.949	98.62
437.17	85.62
437.392	96.62
437.614	79.62
437.835	67.62
438.057	94.62
438.278	91.62
438.5	94.62
438.721	88.62
438.943	93.62
439.165	96.62
439.386	81.62
439.608	90.62
439.829	96.62
440.05	83.62
440.272	90.62
440.493	91.62
440.715	106.62
440.936	96.62
441.158	96.62
441.379	89.62
441.6	103.62
441.822	91.62
442.043	92.62
442.264	91.62
442.486	97.62
442.707	91.62
442.928	92.62
443.149	90.62
443.371	93.62
443.592	100.62
443.813	105.62
444.034	91.62
444.255	92.62
444.476	69.62
444.698	94.62
444.919	97.62
445.14	214.62
445.361	141.62
445.582	101.62
445.803	82.62
446.024	95.62
446.245	100.62
446.466	92.62
446.687	103.62
446.908	101.62
447.129	106.62
447.35	104.62
447.571	92.62
447.792	98.62
448.013	92.62
448.234	99.62
448.455	94.62
448.675	94.62
448.896	81.62
449.117	103.62
449.338	85.62
449.559	94.62
449.779	89.62
450	105.62
450.221	81.62
450.442	103.62
450.662	91.62
450.883	94.62
451.104	91.62
451.324	85.62
451.545	81.62
451.766	90.62
451.986	91.62
452.207	90.62
452.428	89.62
452.648	85.62
452.869	92.62
453.089	99.62
453.31	76.62
453.53	71.62
453.751	76.62
453.971	80.62
454.192	91.62
454.412	87.62
454.633	91.62
454.853	95.62
455.073	95.62
455.294	85.62
455.514	75.62
455.734	78.62
455.955	94.62
456.175	96.62
456.395	77.62
456.616	70.62
456.836	69.62
457.056	89.62
457.276	75.62
457.497	102.62
457.717	77.62
457.937	90.62
458.157	85.62
458.377	87.62
458.598	76.62
458.818	91.62
459.038	84.62
459.258	73.62
459.478	72.62
459.698	77.62
459.918	75.62
460.138	88.62
460.358	89.62
460.578	80.62
460.798	85.62
461.018	84.62
461.238	82.62
461.458	96.62
461.678	88.62
461.898	91.62
462.118	83.62
462.338	94.62
462.558	87.62
462.777	85.62
462.997	81.62
463.217	85.62
463.437	75.62
463.657	81.62
463.876	95.62
464.096	80.62
464.316	74.62
464.536	80.62
464.755	97.62
464.975	82.62
465.195	92.62
465.414	75.62
465.634	111.62
465.854	87.62
466.073	80.62
466.293	82.62
466.512	85.62
466.732	91.62
466.951	96.62
467.171	92.62
467.391	87.62
467.61	88.62
467.829	90.62
468.049	88.62
468.268	93.62
468.488	78.62
468.707	98.62
468.927	89.62
469.146	95.62
469.365	99.62
469.585	102.62
469.804	84.62
470.023	102.62
470.243	88.62
470.462	73.62
470.681	99.62
470.901	98.62
471.12	89.62
471.339	92.62
471.558	112.62
471.777	84.62
471.997	100.62
472.216	98.62
472.435	86.62
472.654	94.62
472.873	86.62
473.092	94.62
473.311	92.62
473.53	80.62
473.749	90.62
473.968	93.62
474.187	88.62
474.406	91.62
474.625	79.62
474.844	86.62
475.063	91.62
475.282	98.62
475.501	94.62
475.72	99.62
475.939	107.62
476.158	78.62
476.377	92.62
476.596	84.62
476.814	87.62
477.033	95.62
477.252	96.62
477.471	89.62
477.69	99.62
477.908	95.62
478.127	99.62
478.346	96.62
478.564	100.62
478.783	80.62
479.002	93.62
479.22	89.62
479.439	83.62
479.658	107.62
479.876	90.62
480.095	74.62
480.313	93.62
480.532	78.62
480.751	89.62
480.969	81.62
481.188	81.62
481.406	84.62
481.624	91.62
481.843	85.62
482.061	80.62
482.28	68.62
482.498	76.62
482.717	85.62
482.935	95.62
483.153	98.62
483.372	93.62
483.59	100.62
483.808	95.62
484.027	89.62
484.245	87.62
484.463	86.62
484.681	113.62
484.9	96.62
485.118	98.62
485.336	96.62
485.554	78.62
485.772	81.62
485.99	94.62
486.209	94.62
486.427	100.62
486.645	95.62
486.863	95.62
487.081	83.62
487.299	96.62
487.517	101.62
487.735	96.62
487.953	103.62
488.171	111.62
488.389	110.62
488.607	94.62
488.825	103.62
489.043	98.62
489.261	96.62
489.479	97.62
489.696	98.62
489.914	98.62
490.132	92.62
490.35	96.62
490.568	103.62
490.786	111.62
491.003	103.62
491.221	102.62
491.439	122.62
491.657	115.62
491.874	136.62
492.092	113.62
492.31	121.62
492.527	116.62
492.745	116.62
492.963	112.62
493.18	108.62
493.398	108.62
493.615	116.62
493.833	105.62
494.05	96.62
494.268	110.62
494.485	95.62
494.703	111.62
494.92	114.62
495.138	107.62
495.355	95.62
495.573	96.62
495.79	91.62
496.008	102.62
496.225	112.62
496.442	104.62
496.66	101.62
496.877	107.62
497.094	105.62
497.312	98.62
497.529	99.62
497.746	91.62
497.963	81.62
498.181	99.62
498.398	84.62
498.615	74.62
498.832	90.62
499.049	93.62
499.267	93.62
499.484	97.62
499.701	91.62
499.918	85.62
500.135	92.62
500.352	104.62
500.569	102.62
500.786	102.62
501.003	104.62
501.22	105.62
501.437	105.62
501.654	93.62
501.871	87.62
502.088	96.62
502.305	102.62
502.522	111.62
502.739	89.62
502.956	102.62
503.172	93.62
503.389	87.62
503.606	95.62
503.823	94.62
504.04	92.62
504.256	90.62
504.473	82.62
504.69	86.62
504.907	101.62
505.123	85.62
505.34	90.62
505.557	93.62
505.773	78.62
505.99	98.62
506.207	100.62
506.423	96.62
506.64	87.62
506.856	92.62
507.073	103.62
507.289	90.62
507.506	74.62
507.722	103.62
507.939	85.62
508.155	87.62
508.372	88.62
508.588	90.62
508.805	79.62
509.021	99.62
509.238	103.62
509.454	86.62
509.67	91.62
509.887	81.62
510.103	87.62
510.319	79.62
510.536	88.62
510.752	81.62
510.968	81.62
511.184	92.62
511.401	86.62
511.617	97.62
511.833	77.62
512.049	87.62
512.265	78.62
512.481	93.62
512.698	87.62
512.914	80.62
513.13	97.62
513.346	88.62
513.562	85.62
513.778	85.62
513.994	81.62
514.21	77.62
514.426	90.62
514.642	78.62
514.858	73.62
515.074	90.62
515.29	80.62
515.506	84.62
515.721	69.62
515.937	90.62
516.153	88.62
516.369	92.62
516.585	78.62
516.801	80.62
517.016	93.62
517.232	79.62
517.448	76.62
517.664	80.62
517.879	85.62
518.095	87.62
518.311	79.62
