Data from Location4.07152019.Energy5.Lamp.07192019.3%Agarose_HRD10591_15-24-34-577.txt Node
Date: Fri Jul 19 15:24:34 EDT 2019
User: cochatt
Spectrometer: HR+D1059
Trigger mode: 1
Integration Time (sec): 1.000000E-1
Scans to average: 1
Electric dark correction enabled: true
Nonlinearity correction enabled: false
Boxcar width: 0
XAxis mode: Wavelengths
Number of Pixels in Spectrum: 2048
>>>>>Begin Spectral Data<<<<<
223.165	-11.62
223.4	-11.62
223.635	-11.62
223.869	-6.62
224.104	-24.62
224.338	-10.62
224.573	-8.62
224.808	-25.62
225.042	-10.62
225.277	4.38
225.511	-20.62
225.746	-10.62
225.98	16.38
226.215	16.38
226.449	20.38
226.683	18.38
226.918	14.38
227.152	39.38
227.387	40.38
227.621	39.38
227.856	49.38
228.09	39.38
228.324	52.38
228.559	54.38
228.793	67.38
229.027	58.38
229.262	61.38
229.496	62.38
229.73	58.38
229.964	68.38
230.199	69.38
230.433	80.38
230.667	80.38
230.901	76.38
231.136	91.38
231.37	78.38
231.604	95.38
231.838	77.38
232.072	79.38
232.306	76.38
232.541	82.38
232.775	93.38
233.009	96.38
233.243	93.38
233.477	77.38
233.711	76.38
233.945	86.38
234.179	86.38
234.413	91.38
234.647	100.38
234.881	77.38
235.115	92.38
235.349	73.38
235.583	83.38
235.817	82.38
236.051	87.38
236.285	89.38
236.519	73.38
236.753	71.38
236.987	68.38
237.221	72.38
237.455	73.38
237.689	75.38
237.922	81.38
238.156	83.38
238.39	73.38
238.624	83.38
238.858	82.38
239.091	81.38
239.325	74.38
239.559	80.38
239.793	88.38
240.027	73.38
240.26	82.38
240.494	68.38
240.728	64.38
240.961	54.38
241.195	78.38
241.429	58.38
241.662	63.38
241.896	78.38
242.13	81.38
242.363	74.38
242.597	76.38
242.83	69.38
243.064	84.38
243.298	77.38
243.531	84.38
243.765	77.38
243.998	65.38
244.232	81.38
244.465	84.38
244.699	86.38
244.932	58.38
245.166	68.38
245.399	72.38
245.633	81.38
245.866	65.38
246.099	77.38
246.333	80.38
246.566	77.38
246.8	78.38
247.033	75.38
247.266	78.38
247.5	64.38
247.733	60.38
247.966	66.38
248.2	58.38
248.433	68.38
248.666	83.38
248.899	92.38
249.133	84.38
249.366	84.38
249.599	71.38
249.832	91.38
250.066	84.38
250.299	71.38
250.532	78.38
250.765	78.38
250.998	80.38
251.231	78.38
251.465	82.38
251.698	74.38
251.931	76.38
252.164	87.38
252.397	78.38
252.63	87.38
252.863	76.38
253.096	90.38
253.329	81.38
253.562	88.38
253.795	88.38
254.028	74.38
254.261	73.38
254.494	86.38
254.727	78.38
254.96	78.38
255.193	93.38
255.426	82.38
255.659	76.38
255.892	72.38
256.124	87.38
256.357	77.38
256.59	79.38
256.823	82.38
257.056	86.38
257.289	70.38
257.521	81.38
257.754	83.38
257.987	84.38
258.22	73.38
258.452	83.38
258.685	78.38
258.918	76.38
259.151	67.38
259.383	77.38
259.616	78.38
259.849	93.38
260.081	79.38
260.314	73.38
260.547	76.38
260.779	76.38
261.012	86.38
261.244	80.38
261.477	84.38
261.71	88.38
261.942	97.38
262.175	81.38
262.407	78.38
262.64	90.38
262.872	78.38
263.105	86.38
263.337	81.38
263.57	85.38
263.802	85.38
264.035	90.38
264.267	73.38
264.499	81.38
264.732	94.38
264.964	88.38
265.197	86.38
265.429	80.38
265.661	83.38
265.894	89.38
266.126	82.38
266.358	79.38
266.591	84.38
266.823	85.38
267.055	88.38
267.287	72.38
267.52	95.38
267.752	90.38
267.984	87.38
268.216	91.38
268.448	77.38
268.681	68.38
268.913	73.38
269.145	82.38
269.377	89.38
269.609	87.38
269.841	86.38
270.073	89.38
270.306	78.38
270.538	97.38
270.77	88.38
271.002	75.38
271.234	77.38
271.466	72.38
271.698	86.38
271.93	87.38
272.162	75.38
272.394	98.38
272.626	93.38
272.858	79.38
273.09	74.38
273.322	92.38
273.553	78.38
273.785	87.38
274.017	97.38
274.249	88.38
274.481	90.38
274.713	83.38
274.945	71.38
275.176	83.38
275.408	90.38
275.64	82.38
275.872	81.38
276.104	70.38
276.335	86.38
276.567	84.38
276.799	89.38
277.031	90.38
277.262	99.38
277.494	92.38
277.726	85.38
277.957	83.38
278.189	83.38
278.421	87.38
278.652	84.38
278.884	78.38
279.115	73.38
279.347	86.38
279.579	92.38
279.81	73.38
280.042	90.38
280.273	86.38
280.505	81.38
280.736	85.38
280.968	71.38
281.199	76.38
281.431	77.38
281.662	85.38
281.894	84.38
282.125	80.38
282.356	86.38
282.588	80.38
282.819	76.38
283.051	77.38
283.282	81.38
283.513	69.38
283.745	74.38
283.976	77.38
284.207	93.38
284.439	89.38
284.67	72.38
284.901	88.38
285.132	101.38
285.364	82.38
285.595	85.38
285.826	91.38
286.057	92.38
286.288	90.38
286.52	84.38
286.751	77.38
286.982	77.38
287.213	73.38
287.444	92.38
287.675	83.38
287.906	78.38
288.138	75.38
288.369	70.38
288.6	90.38
288.831	100.38
289.062	99.38
289.293	98.38
289.524	80.38
289.755	82.38
289.986	90.38
290.217	96.38
290.448	83.38
290.679	87.38
290.91	82.38
291.141	82.38
291.371	89.38
291.602	75.38
291.833	98.38
292.064	90.38
292.295	72.38
292.526	88.38
292.757	86.38
292.987	80.38
293.218	73.38
293.449	84.38
293.68	77.38
293.91	82.38
294.141	76.38
294.372	92.38
294.603	92.38
294.833	92.38
295.064	88.38
295.295	96.38
295.525	91.38
295.756	90.38
295.987	81.38
296.217	84.38
296.448	80.38
296.679	82.38
296.909	93.38
297.14	91.38
297.37	77.38
297.601	80.38
297.831	78.38
298.062	82.38
298.292	84.38
298.523	91.38
298.753	63.38
298.984	75.38
299.214	86.38
299.445	92.38
299.675	85.38
299.905	90.38
300.136	94.38
300.366	88.38
300.597	86.38
300.827	91.38
301.057	101.38
301.288	96.38
301.518	89.38
301.748	72.38
301.979	87.38
302.209	86.38
302.439	97.38
302.669	88.38
302.9	94.38
303.13	80.38
303.36	86.38
303.59	76.38
303.82	82.38
304.051	93.38
304.281	81.38
304.511	99.38
304.741	97.38
304.971	80.38
305.201	88.38
305.431	77.38
305.661	86.38
305.891	65.38
306.121	92.38
306.352	88.38
306.582	83.38
306.812	82.38
307.042	88.38
307.272	78.38
307.502	89.38
307.731	82.38
307.961	94.38
308.191	90.38
308.421	83.38
308.651	80.38
308.881	71.38
309.111	89.38
309.341	94.38
309.571	78.38
309.8	79.38
310.03	81.38
310.26	82.38
310.49	96.38
310.72	70.38
310.949	81.38
311.179	89.38
311.409	90.38
311.639	100.38
311.868	80.38
312.098	79.38
312.328	88.38
312.557	78.38
312.787	96.38
313.017	97.38
313.246	81.38
313.476	79.38
313.706	91.38
313.935	73.38
314.165	89.38
314.394	91.38
314.624	90.38
314.853	92.38
315.083	94.38
315.312	85.38
315.542	77.38
315.771	74.38
316.001	81.38
316.23	93.38
316.46	76.38
316.689	77.38
316.919	88.38
317.148	101.38
317.377	96.38
317.607	82.38
317.836	84.38
318.065	66.38
318.295	87.38
318.524	70.38
318.753	83.38
318.983	67.38
319.212	92.38
319.441	89.38
319.67	84.38
319.9	90.38
320.129	84.38
320.358	84.38
320.587	89.38
320.816	82.38
321.046	88.38
321.275	76.38
321.504	99.38
321.733	83.38
321.962	83.38
322.191	87.38
322.42	81.38
322.649	87.38
322.878	91.38
323.108	76.38
323.337	78.38
323.566	84.38
323.795	89.38
324.024	91.38
324.253	91.38
324.482	81.38
324.71	75.38
324.939	94.38
325.168	82.38
325.397	83.38
325.626	67.38
325.855	83.38
326.084	78.38
326.313	86.38
326.542	75.38
326.77	79.38
326.999	75.38
327.228	73.38
327.457	80.38
327.686	72.38
327.914	63.38
328.143	81.38
328.372	87.38
328.6	92.38
328.829	88.38
329.058	81.38
329.287	80.38
329.515	92.38
329.744	96.38
329.972	77.38
330.201	91.38
330.43	78.38
330.658	75.38
330.887	70.38
331.115	87.38
331.344	92.38
331.572	84.38
331.801	82.38
332.03	90.38
332.258	91.38
332.486	82.38
332.715	87.38
332.943	78.38
333.172	82.38
333.4	82.38
333.629	84.38
333.857	99.38
334.085	70.38
334.314	95.38
334.542	97.38
334.771	82.38
334.999	84.38
335.227	83.38
335.455	80.38
335.684	73.38
335.912	80.38
336.14	96.38
336.369	85.38
336.597	89.38
336.825	81.38
337.053	94.38
337.281	84.38
337.51	89.38
337.738	92.38
337.966	87.38
338.194	88.38
338.422	76.38
338.65	88.38
338.878	80.38
339.106	78.38
339.334	100.38
339.562	89.38
339.79	100.38
340.018	96.38
340.246	85.38
340.474	81.38
340.702	85.38
340.93	86.38
341.158	81.38
341.386	85.38
341.614	76.38
341.842	86.38
342.07	92.38
342.298	77.38
342.526	75.38
342.754	77.38
342.981	90.38
343.209	78.38
343.437	74.38
343.665	84.38
343.893	86.38
344.12	80.38
344.348	83.38
344.576	94.38
344.804	90.38
345.031	87.38
345.259	93.38
345.487	74.38
345.714	91.38
345.942	78.38
346.17	63.38
346.397	87.38
346.625	75.38
346.853	84.38
347.08	78.38
347.308	87.38
347.535	68.38
347.763	93.38
347.99	82.38
348.218	85.38
348.445	89.38
348.673	79.38
348.9	87.38
349.128	90.38
349.355	96.38
349.583	96.38
349.81	88.38
350.037	85.38
350.265	90.38
350.492	87.38
350.72	82.38
350.947	94.38
351.174	76.38
351.402	67.38
351.629	89.38
351.856	79.38
352.083	88.38
352.311	82.38
352.538	71.38
352.765	93.38
352.992	87.38
353.22	92.38
353.447	62.38
353.674	72.38
353.901	80.38
354.128	75.38
354.355	84.38
354.583	84.38
354.81	79.38
355.037	73.38
355.264	86.38
355.491	83.38
355.718	72.38
355.945	87.38
356.172	88.38
356.399	91.38
356.626	86.38
356.853	79.38
357.08	80.38
357.307	83.38
357.534	94.38
357.761	73.38
357.988	84.38
358.215	81.38
358.441	90.38
358.668	88.38
358.895	78.38
359.122	88.38
359.349	71.38
359.576	86.38
359.802	80.38
360.029	88.38
360.256	81.38
360.483	81.38
360.709	87.38
360.936	89.38
361.163	87.38
361.39	86.38
361.616	86.38
361.843	76.38
362.07	92.38
362.296	73.38
362.523	87.38
362.749	95.38
362.976	87.38
363.203	77.38
363.429	94.38
363.656	87.38
363.882	89.38
364.109	96.38
364.335	76.38
364.562	86.38
364.788	70.38
365.015	81.38
365.241	85.38
365.468	92.38
365.694	74.38
365.92	85.38
366.147	88.38
366.373	86.38
366.599	77.38
366.826	78.38
367.052	85.38
367.278	72.38
367.505	85.38
367.731	100.38
367.957	75.38
368.184	85.38
368.41	90.38
368.636	78.38
368.862	88.38
369.089	79.38
369.315	76.38
369.541	77.38
369.767	78.38
369.993	88.38
370.219	83.38
370.445	79.38
370.672	85.38
370.898	82.38
371.124	87.38
371.35	90.38
371.576	86.38
371.802	84.38
372.028	83.38
372.254	86.38
372.48	75.38
372.706	88.38
372.932	93.38
373.158	93.38
373.384	72.38
373.61	71.38
373.835	96.38
374.061	88.38
374.287	77.38
374.513	86.38
374.739	83.38
374.965	92.38
375.191	86.38
375.416	88.38
375.642	88.38
375.868	96.38
376.094	79.38
376.319	79.38
376.545	86.38
376.771	90.38
376.997	76.38
377.222	81.38
377.448	85.38
377.674	97.38
377.899	90.38
378.125	91.38
378.35	100.38
378.576	96.38
378.802	97.38
379.027	77.38
379.253	76.38
379.478	96.38
379.704	89.38
379.929	83.38
380.155	92.38
380.38	104.38
380.606	88.38
380.831	82.38
381.057	68.38
381.282	89.38
381.507	74.38
381.733	86.38
381.958	86.38
382.184	85.38
382.409	94.38
382.634	89.38
382.86	83.38
383.085	68.38
383.31	69.38
383.535	92.38
383.761	91.38
383.986	84.38
384.211	78.38
384.436	81.38
384.662	85.38
384.887	80.38
385.112	75.38
385.337	83.38
385.562	88.38
385.787	78.38
386.013	108.38
386.238	100.38
386.463	90.38
386.688	84.38
386.913	75.38
387.138	86.38
387.363	84.38
387.588	97.38
387.813	89.38
388.038	85.38
388.263	90.38
388.488	84.38
388.713	88.38
388.938	98.38
389.163	93.38
389.387	100.38
389.612	84.38
389.837	87.38
390.062	96.38
390.287	78.38
390.512	80.38
390.736	94.38
390.961	75.38
391.186	85.38
391.411	87.38
391.636	83.38
391.86	89.38
392.085	96.38
392.31	91.38
392.534	84.38
392.759	99.38
392.984	90.38
393.208	82.38
393.433	83.38
393.658	80.38
393.882	91.38
394.107	88.38
394.331	77.38
394.556	99.38
394.78	83.38
395.005	106.38
395.229	88.38
395.454	82.38
395.678	80.38
395.903	97.38
396.127	93.38
396.352	84.38
396.576	80.38
396.801	89.38
397.025	94.38
397.249	89.38
397.474	91.38
397.698	93.38
397.922	88.38
398.147	72.38
398.371	95.38
398.595	92.38
398.82	80.38
399.044	91.38
399.268	65.38
399.492	87.38
399.717	90.38
399.941	85.38
400.165	100.38
400.389	87.38
400.613	89.38
400.837	94.38
401.062	87.38
401.286	71.38
401.51	93.38
401.734	102.38
401.958	98.38
402.182	78.38
402.406	86.38
402.63	83.38
402.854	88.38
403.078	92.38
403.302	88.38
403.526	100.38
403.75	87.38
403.974	84.38
404.198	99.38
404.422	93.38
404.645	79.38
404.869	80.38
405.093	81.38
405.317	105.38
405.541	100.38
405.765	92.38
405.988	104.38
406.212	90.38
406.436	82.38
406.66	105.38
406.883	85.38
407.107	96.38
407.331	89.38
407.555	88.38
407.778	101.38
408.002	94.38
408.226	97.38
408.449	97.38
408.673	83.38
408.896	74.38
409.12	109.38
409.344	81.38
409.567	87.38
409.791	82.38
410.014	96.38
410.238	99.38
410.461	87.38
410.685	99.38
410.908	83.38
411.132	77.38
411.355	74.38
411.578	92.38
411.802	96.38
412.025	102.38
412.249	90.38
412.472	89.38
412.695	87.38
412.919	92.38
413.142	93.38
413.365	95.38
413.589	82.38
413.812	93.38
414.035	102.38
414.258	93.38
414.482	104.38
414.705	97.38
414.928	94.38
415.151	91.38
415.374	92.38
415.597	87.38
415.821	93.38
416.044	98.38
416.267	100.38
416.49	76.38
416.713	89.38
416.936	98.38
417.159	89.38
417.382	92.38
417.605	90.38
417.828	99.38
418.051	94.38
418.274	104.38
418.497	116.38
418.72	80.38
418.943	72.38
419.166	97.38
419.389	82.38
419.611	90.38
419.834	109.38
420.057	109.38
420.28	101.38
420.503	92.38
420.726	92.38
420.948	94.38
421.171	84.38
421.394	94.38
421.617	96.38
421.839	89.38
422.062	103.38
422.285	99.38
422.507	89.38
422.73	93.38
422.953	87.38
423.175	82.38
423.398	77.38
423.621	100.38
423.843	92.38
424.066	93.38
424.288	101.38
424.511	78.38
424.733	89.38
424.956	100.38
425.178	104.38
425.401	100.38
425.623	100.38
425.846	85.38
426.068	90.38
426.291	104.38
426.513	100.38
426.735	88.38
426.958	100.38
427.18	99.38
427.402	101.38
427.625	77.38
427.847	92.38
428.069	104.38
428.292	104.38
428.514	101.38
428.736	97.38
428.958	104.38
429.181	101.38
429.403	91.38
429.625	79.38
429.847	100.38
430.069	107.38
430.292	120.38
430.514	91.38
430.736	87.38
430.958	91.38
431.18	84.38
431.402	88.38
431.624	79.38
431.846	82.38
432.068	80.38
432.29	83.38
432.512	81.38
432.734	83.38
432.956	108.38
433.178	102.38
433.4	115.38
433.622	108.38
433.844	105.38
434.066	92.38
434.287	88.38
434.509	81.38
434.731	91.38
434.953	89.38
435.175	92.38
435.397	91.38
435.618	86.38
435.84	90.38
436.062	100.38
436.284	96.38
436.505	90.38
436.727	93.38
436.949	92.38
437.17	97.38
437.392	89.38
437.614	89.38
437.835	84.38
438.057	95.38
438.278	84.38
438.5	83.38
438.721	105.38
438.943	107.38
439.165	90.38
439.386	112.38
439.608	94.38
439.829	87.38
440.05	99.38
440.272	100.38
440.493	98.38
440.715	91.38
440.936	117.38
441.158	101.38
441.379	97.38
441.6	97.38
441.822	103.38
442.043	103.38
442.264	97.38
442.486	97.38
442.707	92.38
442.928	98.38
443.149	89.38
443.371	90.38
443.592	99.38
443.813	95.38
444.034	93.38
444.255	89.38
444.476	104.38
444.698	99.38
444.919	97.38
445.14	230.38
445.361	150.38
445.582	98.38
445.803	92.38
446.024	92.38
446.245	97.38
446.466	100.38
446.687	95.38
446.908	98.38
447.129	104.38
447.35	106.38
447.571	86.38
447.792	98.38
448.013	95.38
448.234	100.38
448.455	90.38
448.675	88.38
448.896	92.38
449.117	99.38
449.338	90.38
449.559	108.38
449.779	96.38
450	111.38
450.221	78.38
450.442	95.38
450.662	104.38
450.883	99.38
451.104	116.38
451.324	111.38
451.545	94.38
451.766	83.38
451.986	85.38
452.207	93.38
452.428	100.38
452.648	93.38
452.869	97.38
453.089	76.38
453.31	89.38
453.53	94.38
453.751	96.38
453.971	99.38
454.192	88.38
454.412	97.38
454.633	87.38
454.853	82.38
455.073	95.38
455.294	100.38
455.514	93.38
455.734	80.38
455.955	92.38
456.175	88.38
456.395	93.38
456.616	100.38
456.836	98.38
457.056	85.38
457.276	89.38
457.497	88.38
457.717	90.38
457.937	100.38
458.157	90.38
458.377	94.38
458.598	77.38
458.818	77.38
459.038	83.38
459.258	89.38
459.478	95.38
459.698	90.38
459.918	86.38
460.138	83.38
460.358	89.38
460.578	77.38
460.798	92.38
461.018	93.38
461.238	100.38
461.458	94.38
461.678	94.38
461.898	109.38
462.118	91.38
462.338	91.38
462.558	98.38
462.777	89.38
462.997	87.38
463.217	66.38
463.437	89.38
463.657	86.38
463.876	100.38
464.096	82.38
464.316	91.38
464.536	84.38
464.755	99.38
464.975	90.38
465.195	95.38
465.414	100.38
465.634	98.38
465.854	104.38
466.073	90.38
466.293	98.38
466.512	93.38
466.732	99.38
466.951	90.38
467.171	86.38
467.391	92.38
467.61	101.38
467.829	105.38
468.049	108.38
468.268	96.38
468.488	86.38
468.707	90.38
468.927	87.38
469.146	97.38
469.365	101.38
469.585	109.38
469.804	87.38
470.023	102.38
470.243	104.38
470.462	101.38
470.681	98.38
470.901	95.38
471.12	108.38
471.339	98.38
471.558	96.38
471.777	102.38
471.997	102.38
472.216	91.38
472.435	100.38
472.654	83.38
472.873	99.38
473.092	86.38
473.311	74.38
473.53	92.38
473.749	100.38
473.968	101.38
474.187	89.38
474.406	96.38
474.625	92.38
474.844	97.38
475.063	103.38
475.282	99.38
475.501	88.38
475.72	102.38
475.939	89.38
476.158	95.38
476.377	86.38
476.596	93.38
476.814	98.38
477.033	89.38
477.252	86.38
477.471	92.38
477.69	92.38
477.908	98.38
478.127	96.38
478.346	77.38
478.564	90.38
478.783	107.38
479.002	101.38
479.22	119.38
479.439	100.38
479.658	85.38
479.876	87.38
480.095	79.38
480.313	88.38
480.532	95.38
480.751	88.38
480.969	82.38
481.188	89.38
481.406	84.38
481.624	98.38
481.843	78.38
482.061	83.38
482.28	108.38
482.498	84.38
482.717	86.38
482.935	106.38
483.153	108.38
483.372	95.38
483.59	117.38
483.808	104.38
484.027	95.38
484.245	93.38
484.463	92.38
484.681	103.38
484.9	101.38
485.118	103.38
485.336	112.38
485.554	83.38
485.772	78.38
485.99	91.38
486.209	88.38
486.427	86.38
486.645	84.38
486.863	106.38
487.081	108.38
487.299	97.38
487.517	102.38
487.735	109.38
487.953	104.38
488.171	122.38
488.389	96.38
488.607	98.38
488.825	98.38
489.043	97.38
489.261	88.38
489.479	94.38
489.696	82.38
489.914	87.38
490.132	100.38
490.35	121.38
490.568	106.38
490.786	119.38
491.003	106.38
491.221	98.38
491.439	124.38
491.657	114.38
491.874	136.38
492.092	124.38
492.31	138.38
492.527	130.38
492.745	119.38
492.963	110.38
493.18	106.38
493.398	102.38
493.615	103.38
493.833	120.38
494.05	118.38
494.268	116.38
494.485	107.38
494.703	105.38
494.92	103.38
495.138	105.38
495.355	114.38
495.573	105.38
495.79	102.38
496.008	107.38
496.225	96.38
496.442	110.38
496.66	124.38
496.877	99.38
497.094	99.38
497.312	116.38
497.529	101.38
497.746	109.38
497.963	108.38
498.181	105.38
498.398	89.38
498.615	103.38
498.832	92.38
499.049	83.38
499.267	103.38
499.484	90.38
499.701	82.38
499.918	106.38
500.135	113.38
500.352	103.38
500.569	85.38
500.786	105.38
501.003	102.38
501.22	86.38
501.437	90.38
501.654	102.38
501.871	98.38
502.088	99.38
502.305	101.38
502.522	95.38
502.739	95.38
502.956	100.38
503.172	92.38
503.389	101.38
503.606	96.38
503.823	93.38
504.04	88.38
504.256	96.38
504.473	86.38
504.69	82.38
504.907	103.38
505.123	95.38
505.34	117.38
505.557	95.38
505.773	101.38
505.99	105.38
506.207	101.38
506.423	92.38
506.64	99.38
506.856	78.38
507.073	72.38
507.289	87.38
507.506	94.38
507.722	100.38
507.939	104.38
508.155	110.38
508.372	94.38
508.588	84.38
508.805	80.38
509.021	89.38
509.238	102.38
509.454	85.38
509.67	84.38
509.887	101.38
510.103	80.38
510.319	85.38
510.536	80.38
510.752	87.38
510.968	77.38
511.184	82.38
511.401	90.38
511.617	85.38
511.833	94.38
512.049	77.38
512.265	95.38
512.481	80.38
512.698	79.38
512.914	88.38
513.13	86.38
513.346	84.38
513.562	98.38
513.778	92.38
513.994	91.38
514.21	84.38
514.426	79.38
514.642	91.38
514.858	74.38
515.074	80.38
515.29	93.38
515.506	95.38
515.721	86.38
515.937	78.38
516.153	87.38
516.369	90.38
516.585	93.38
516.801	86.38
517.016	79.38
