Data from Location4.07152019.Energy5.Lamp.07192019.3%Agarose_HRD10591_15-23-54-576.txt Node
Date: Fri Jul 19 15:23:54 EDT 2019
User: cochatt
Spectrometer: HR+D1059
Trigger mode: 1
Integration Time (sec): 1.000000E-1
Scans to average: 1
Electric dark correction enabled: true
Nonlinearity correction enabled: false
Boxcar width: 0
XAxis mode: Wavelengths
Number of Pixels in Spectrum: 2048
>>>>>Begin Spectral Data<<<<<
223.165	-9.56
223.4	-9.56
223.635	-9.56
223.869	-8.56
224.104	-10.56
224.338	-8.56
224.573	-8.56
224.808	-6.56
225.042	-19.56
225.277	-11.56
225.511	-7.56
225.746	7.44
225.98	4.44
226.215	-5.56
226.449	24.44
226.683	9.44
226.918	18.44
227.152	32.44
227.387	22.44
227.621	56.44
227.856	42.44
228.09	37.44
228.324	49.44
228.559	64.44
228.793	59.44
229.027	86.44
229.262	67.44
229.496	85.44
229.73	64.44
229.964	74.44
230.199	80.44
230.433	84.44
230.667	78.44
230.901	79.44
231.136	86.44
231.37	82.44
231.604	69.44
231.838	105.44
232.072	70.44
232.306	78.44
232.541	73.44
232.775	84.44
233.009	80.44
233.243	90.44
233.477	89.44
233.711	91.44
233.945	84.44
234.179	79.44
234.413	79.44
234.647	91.44
234.881	88.44
235.115	81.44
235.349	72.44
235.583	79.44
235.817	77.44
236.051	96.44
236.285	59.44
236.519	80.44
236.753	85.44
236.987	74.44
237.221	94.44
237.455	97.44
237.689	86.44
237.922	86.44
238.156	68.44
238.39	80.44
238.624	76.44
238.858	76.44
239.091	72.44
239.325	66.44
239.559	74.44
239.793	82.44
240.027	81.44
240.26	75.44
240.494	83.44
240.728	74.44
240.961	68.44
241.195	74.44
241.429	81.44
241.662	75.44
241.896	69.44
242.13	74.44
242.363	69.44
242.597	64.44
242.83	84.44
243.064	73.44
243.298	78.44
243.531	77.44
243.765	88.44
243.998	77.44
244.232	81.44
244.465	89.44
244.699	81.44
244.932	82.44
245.166	88.44
245.399	96.44
245.633	77.44
245.866	82.44
246.099	91.44
246.333	79.44
246.566	89.44
246.8	78.44
247.033	86.44
247.266	90.44
247.5	83.44
247.733	67.44
247.966	70.44
248.2	83.44
248.433	84.44
248.666	66.44
248.899	98.44
249.133	85.44
249.366	85.44
249.599	83.44
249.832	79.44
250.066	81.44
250.299	84.44
250.532	83.44
250.765	86.44
250.998	88.44
251.231	76.44
251.465	90.44
251.698	71.44
251.931	81.44
252.164	82.44
252.397	83.44
252.63	86.44
252.863	76.44
253.096	77.44
253.329	78.44
253.562	72.44
253.795	84.44
254.028	86.44
254.261	86.44
254.494	89.44
254.727	95.44
254.96	86.44
255.193	96.44
255.426	89.44
255.659	71.44
255.892	91.44
256.124	93.44
256.357	77.44
256.59	76.44
256.823	73.44
257.056	82.44
257.289	93.44
257.521	86.44
257.754	77.44
257.987	86.44
258.22	85.44
258.452	77.44
258.685	76.44
258.918	83.44
259.151	89.44
259.383	77.44
259.616	81.44
259.849	91.44
260.081	69.44
260.314	84.44
260.547	78.44
260.779	76.44
261.012	90.44
261.244	100.44
261.477	85.44
261.71	87.44
261.942	83.44
262.175	70.44
262.407	74.44
262.64	79.44
262.872	82.44
263.105	82.44
263.337	86.44
263.57	87.44
263.802	84.44
264.035	86.44
264.267	85.44
264.499	81.44
264.732	86.44
264.964	83.44
265.197	90.44
265.429	84.44
265.661	85.44
265.894	79.44
266.126	81.44
266.358	80.44
266.591	82.44
266.823	79.44
267.055	89.44
267.287	95.44
267.52	87.44
267.752	85.44
267.984	96.44
268.216	76.44
268.448	80.44
268.681	78.44
268.913	98.44
269.145	85.44
269.377	81.44
269.609	77.44
269.841	75.44
270.073	87.44
270.306	84.44
270.538	77.44
270.77	90.44
271.002	90.44
271.234	82.44
271.466	104.44
271.698	87.44
271.93	81.44
272.162	86.44
272.394	99.44
272.626	101.44
272.858	87.44
273.09	86.44
273.322	87.44
273.553	77.44
273.785	84.44
274.017	90.44
274.249	74.44
274.481	88.44
274.713	84.44
274.945	75.44
275.176	84.44
275.408	90.44
275.64	80.44
275.872	92.44
276.104	77.44
276.335	94.44
276.567	75.44
276.799	83.44
277.031	90.44
277.262	90.44
277.494	88.44
277.726	89.44
277.957	85.44
278.189	69.44
278.421	73.44
278.652	84.44
278.884	84.44
279.115	97.44
279.347	83.44
279.579	81.44
279.81	75.44
280.042	81.44
280.273	88.44
280.505	74.44
280.736	85.44
280.968	96.44
281.199	91.44
281.431	88.44
281.662	99.44
281.894	102.44
282.125	88.44
282.356	85.44
282.588	66.44
282.819	89.44
283.051	86.44
283.282	81.44
283.513	79.44
283.745	84.44
283.976	71.44
284.207	69.44
284.439	87.44
284.67	104.44
284.901	75.44
285.132	88.44
285.364	88.44
285.595	91.44
285.826	87.44
286.057	81.44
286.288	85.44
286.52	86.44
286.751	74.44
286.982	86.44
287.213	96.44
287.444	92.44
287.675	73.44
287.906	82.44
288.138	84.44
288.369	92.44
288.6	91.44
288.831	84.44
289.062	94.44
289.293	82.44
289.524	86.44
289.755	82.44
289.986	85.44
290.217	83.44
290.448	81.44
290.679	90.44
290.91	94.44
291.141	88.44
291.371	91.44
291.602	85.44
291.833	86.44
292.064	88.44
292.295	75.44
292.526	73.44
292.757	93.44
292.987	81.44
293.218	82.44
293.449	87.44
293.68	86.44
293.91	77.44
294.141	73.44
294.372	83.44
294.603	78.44
294.833	89.44
295.064	86.44
295.295	90.44
295.525	84.44
295.756	84.44
295.987	82.44
296.217	76.44
296.448	83.44
296.679	90.44
296.909	96.44
297.14	86.44
297.37	85.44
297.601	92.44
297.831	88.44
298.062	102.44
298.292	98.44
298.523	93.44
298.753	78.44
298.984	113.44
299.214	80.44
299.445	86.44
299.675	100.44
299.905	91.44
300.136	101.44
300.366	71.44
300.597	98.44
300.827	75.44
301.057	84.44
301.288	78.44
301.518	83.44
301.748	88.44
301.979	99.44
302.209	98.44
302.439	89.44
302.669	87.44
302.9	86.44
303.13	85.44
303.36	81.44
303.59	76.44
303.82	84.44
304.051	102.44
304.281	86.44
304.511	96.44
304.741	100.44
304.971	96.44
305.201	88.44
305.431	69.44
305.661	93.44
305.891	77.44
306.121	97.44
306.352	83.44
306.582	86.44
306.812	86.44
307.042	78.44
307.272	94.44
307.502	78.44
307.731	84.44
307.961	103.44
308.191	72.44
308.421	93.44
308.651	76.44
308.881	100.44
309.111	85.44
309.341	86.44
309.571	84.44
309.8	97.44
310.03	85.44
310.26	92.44
310.49	86.44
310.72	85.44
310.949	82.44
311.179	95.44
311.409	89.44
311.639	87.44
311.868	83.44
312.098	103.44
312.328	79.44
312.557	74.44
312.787	89.44
313.017	88.44
313.246	92.44
313.476	107.44
313.706	95.44
313.935	84.44
314.165	77.44
314.394	87.44
314.624	75.44
314.853	91.44
315.083	93.44
315.312	92.44
315.542	71.44
315.771	85.44
316.001	85.44
316.23	80.44
316.46	86.44
316.689	90.44
316.919	90.44
317.148	89.44
317.377	91.44
317.607	90.44
317.836	95.44
318.065	82.44
318.295	93.44
318.524	83.44
318.753	90.44
318.983	83.44
319.212	88.44
319.441	96.44
319.67	92.44
319.9	96.44
320.129	78.44
320.358	104.44
320.587	84.44
320.816	77.44
321.046	78.44
321.275	81.44
321.504	85.44
321.733	90.44
321.962	79.44
322.191	83.44
322.42	85.44
322.649	80.44
322.878	97.44
323.108	88.44
323.337	77.44
323.566	81.44
323.795	75.44
324.024	78.44
324.253	88.44
324.482	76.44
324.71	88.44
324.939	105.44
325.168	91.44
325.397	93.44
325.626	89.44
325.855	96.44
326.084	73.44
326.313	87.44
326.542	76.44
326.77	92.44
326.999	82.44
327.228	99.44
327.457	81.44
327.686	89.44
327.914	85.44
328.143	93.44
328.372	93.44
328.6	69.44
328.829	92.44
329.058	77.44
329.287	88.44
329.515	90.44
329.744	93.44
329.972	91.44
330.201	80.44
330.43	84.44
330.658	98.44
330.887	94.44
331.115	89.44
331.344	90.44
331.572	82.44
331.801	93.44
332.03	82.44
332.258	81.44
332.486	62.44
332.715	99.44
332.943	97.44
333.172	94.44
333.4	84.44
333.629	69.44
333.857	92.44
334.085	81.44
334.314	79.44
334.542	72.44
334.771	89.44
334.999	97.44
335.227	85.44
335.455	77.44
335.684	91.44
335.912	93.44
336.14	87.44
336.369	103.44
336.597	89.44
336.825	78.44
337.053	75.44
337.281	78.44
337.51	94.44
337.738	74.44
337.966	77.44
338.194	80.44
338.422	78.44
338.65	96.44
338.878	91.44
339.106	67.44
339.334	100.44
339.562	84.44
339.79	84.44
340.018	91.44
340.246	93.44
340.474	97.44
340.702	81.44
340.93	95.44
341.158	89.44
341.386	98.44
341.614	90.44
341.842	92.44
342.07	80.44
342.298	99.44
342.526	90.44
342.754	80.44
342.981	89.44
343.209	84.44
343.437	84.44
343.665	81.44
343.893	96.44
344.12	96.44
344.348	89.44
344.576	101.44
344.804	72.44
345.031	81.44
345.259	83.44
345.487	89.44
345.714	80.44
345.942	85.44
346.17	85.44
346.397	78.44
346.625	94.44
346.853	89.44
347.08	70.44
347.308	89.44
347.535	69.44
347.763	84.44
347.99	92.44
348.218	81.44
348.445	77.44
348.673	86.44
348.9	85.44
349.128	93.44
349.355	74.44
349.583	80.44
349.81	89.44
350.037	94.44
350.265	73.44
350.492	85.44
350.72	89.44
350.947	69.44
351.174	77.44
351.402	84.44
351.629	80.44
351.856	88.44
352.083	77.44
352.311	76.44
352.538	93.44
352.765	81.44
352.992	88.44
353.22	83.44
353.447	82.44
353.674	82.44
353.901	97.44
354.128	93.44
354.355	85.44
354.583	81.44
354.81	78.44
355.037	83.44
355.264	95.44
355.491	85.44
355.718	88.44
355.945	106.44
356.172	73.44
356.399	90.44
356.626	85.44
356.853	92.44
357.08	93.44
357.307	72.44
357.534	86.44
357.761	101.44
357.988	87.44
358.215	84.44
358.441	91.44
358.668	97.44
358.895	65.44
359.122	92.44
359.349	94.44
359.576	84.44
359.802	81.44
360.029	79.44
360.256	90.44
360.483	99.44
360.709	82.44
360.936	101.44
361.163	89.44
361.39	92.44
361.616	72.44
361.843	85.44
362.07	101.44
362.296	84.44
362.523	89.44
362.749	81.44
362.976	89.44
363.203	100.44
363.429	88.44
363.656	75.44
363.882	82.44
364.109	100.44
364.335	97.44
364.562	97.44
364.788	88.44
365.015	73.44
365.241	82.44
365.468	97.44
365.694	95.44
365.92	87.44
366.147	102.44
366.373	86.44
366.599	76.44
366.826	90.44
367.052	85.44
367.278	76.44
367.505	109.44
367.731	79.44
367.957	88.44
368.184	77.44
368.41	102.44
368.636	86.44
368.862	82.44
369.089	89.44
369.315	82.44
369.541	102.44
369.767	79.44
369.993	80.44
370.219	85.44
370.445	88.44
370.672	91.44
370.898	84.44
371.124	85.44
371.35	90.44
371.576	87.44
371.802	92.44
372.028	104.44
372.254	83.44
372.48	80.44
372.706	89.44
372.932	90.44
373.158	82.44
373.384	84.44
373.61	90.44
373.835	91.44
374.061	82.44
374.287	84.44
374.513	84.44
374.739	94.44
374.965	89.44
375.191	85.44
375.416	81.44
375.642	84.44
375.868	100.44
376.094	87.44
376.319	86.44
376.545	91.44
376.771	96.44
376.997	76.44
377.222	86.44
377.448	90.44
377.674	88.44
377.899	93.44
378.125	84.44
378.35	75.44
378.576	87.44
378.802	74.44
379.027	86.44
379.253	83.44
379.478	96.44
379.704	94.44
379.929	94.44
380.155	75.44
380.38	86.44
380.606	88.44
380.831	89.44
381.057	89.44
381.282	85.44
381.507	93.44
381.733	90.44
381.958	70.44
382.184	92.44
382.409	91.44
382.634	104.44
382.86	97.44
383.085	85.44
383.31	84.44
383.535	87.44
383.761	82.44
383.986	98.44
384.211	97.44
384.436	98.44
384.662	96.44
384.887	93.44
385.112	92.44
385.337	90.44
385.562	86.44
385.787	86.44
386.013	93.44
386.238	97.44
386.463	86.44
386.688	84.44
386.913	84.44
387.138	88.44
387.363	88.44
387.588	89.44
387.813	76.44
388.038	101.44
388.263	97.44
388.488	92.44
388.713	87.44
388.938	90.44
389.163	102.44
389.387	94.44
389.612	91.44
389.837	75.44
390.062	92.44
390.287	108.44
390.512	90.44
390.736	85.44
390.961	82.44
391.186	89.44
391.411	96.44
391.636	97.44
391.86	79.44
392.085	98.44
392.31	87.44
392.534	78.44
392.759	84.44
392.984	96.44
393.208	93.44
393.433	81.44
393.658	84.44
393.882	70.44
394.107	88.44
394.331	88.44
394.556	84.44
394.78	99.44
395.005	86.44
395.229	106.44
395.454	96.44
395.678	85.44
395.903	91.44
396.127	97.44
396.352	77.44
396.576	85.44
396.801	72.44
397.025	94.44
397.249	92.44
397.474	88.44
397.698	81.44
397.922	83.44
398.147	101.44
398.371	102.44
398.595	80.44
398.82	97.44
399.044	85.44
399.268	83.44
399.492	84.44
399.717	93.44
399.941	96.44
400.165	97.44
400.389	95.44
400.613	90.44
400.837	98.44
401.062	98.44
401.286	89.44
401.51	96.44
401.734	91.44
401.958	82.44
402.182	93.44
402.406	86.44
402.63	88.44
402.854	82.44
403.078	94.44
403.302	104.44
403.526	88.44
403.75	88.44
403.974	98.44
404.198	104.44
404.422	101.44
404.645	99.44
404.869	94.44
405.093	90.44
405.317	94.44
405.541	98.44
405.765	94.44
405.988	98.44
406.212	105.44
406.436	81.44
406.66	98.44
406.883	93.44
407.107	82.44
407.331	98.44
407.555	97.44
407.778	105.44
408.002	101.44
408.226	81.44
408.449	89.44
408.673	87.44
408.896	92.44
409.12	89.44
409.344	103.44
409.567	87.44
409.791	99.44
410.014	87.44
410.238	82.44
410.461	100.44
410.685	103.44
410.908	98.44
411.132	96.44
411.355	96.44
411.578	96.44
411.802	100.44
412.025	98.44
412.249	104.44
412.472	81.44
412.695	91.44
412.919	73.44
413.142	106.44
413.365	92.44
413.589	82.44
413.812	85.44
414.035	96.44
414.258	88.44
414.482	101.44
414.705	86.44
414.928	91.44
415.151	90.44
415.374	98.44
415.597	79.44
415.821	95.44
416.044	88.44
416.267	95.44
416.49	107.44
416.713	97.44
416.936	92.44
417.159	94.44
417.382	77.44
417.605	84.44
417.828	103.44
418.051	106.44
418.274	103.44
418.497	91.44
418.72	100.44
418.943	95.44
419.166	102.44
419.389	91.44
419.611	108.44
419.834	88.44
420.057	90.44
420.28	100.44
420.503	91.44
420.726	98.44
420.948	89.44
421.171	96.44
421.394	103.44
421.617	97.44
421.839	99.44
422.062	108.44
422.285	89.44
422.507	82.44
422.73	86.44
422.953	103.44
423.175	91.44
423.398	101.44
423.621	100.44
423.843	82.44
424.066	87.44
424.288	105.44
424.511	113.44
424.733	107.44
424.956	99.44
425.178	101.44
425.401	105.44
425.623	99.44
425.846	94.44
426.068	90.44
426.291	79.44
426.513	93.44
426.735	109.44
426.958	93.44
427.18	89.44
427.402	106.44
427.625	97.44
427.847	93.44
428.069	97.44
428.292	93.44
428.514	100.44
428.736	104.44
428.958	97.44
429.181	97.44
429.403	83.44
429.625	93.44
429.847	92.44
430.069	88.44
430.292	101.44
430.514	91.44
430.736	100.44
430.958	108.44
431.18	92.44
431.402	87.44
431.624	105.44
431.846	89.44
432.068	92.44
432.29	87.44
432.512	84.44
432.734	106.44
432.956	109.44
433.178	91.44
433.4	98.44
433.622	90.44
433.844	102.44
434.066	98.44
434.287	99.44
434.509	90.44
434.731	99.44
434.953	79.44
435.175	96.44
435.397	106.44
435.618	88.44
435.84	100.44
436.062	93.44
436.284	108.44
436.505	88.44
436.727	101.44
436.949	88.44
437.17	97.44
437.392	103.44
437.614	104.44
437.835	92.44
438.057	97.44
438.278	83.44
438.5	101.44
438.721	105.44
438.943	104.44
439.165	100.44
439.386	107.44
439.608	91.44
439.829	87.44
440.05	106.44
440.272	93.44
440.493	99.44
440.715	101.44
440.936	116.44
441.158	108.44
441.379	106.44
441.6	96.44
441.822	86.44
442.043	106.44
442.264	103.44
442.486	108.44
442.707	84.44
442.928	90.44
443.149	92.44
443.371	93.44
443.592	93.44
443.813	90.44
444.034	96.44
444.255	108.44
444.476	96.44
444.698	86.44
444.919	102.44
445.14	193.44
445.361	151.44
445.582	105.44
445.803	98.44
446.024	103.44
446.245	96.44
446.466	106.44
446.687	103.44
446.908	120.44
447.129	92.44
447.35	114.44
447.571	112.44
447.792	108.44
448.013	91.44
448.234	100.44
448.455	113.44
448.675	98.44
448.896	95.44
449.117	86.44
449.338	103.44
449.559	107.44
449.779	100.44
450	105.44
450.221	96.44
450.442	88.44
450.662	91.44
450.883	103.44
451.104	95.44
451.324	88.44
451.545	110.44
451.766	89.44
451.986	90.44
452.207	94.44
452.428	99.44
452.648	101.44
452.869	92.44
453.089	103.44
453.31	85.44
453.53	99.44
453.751	88.44
453.971	84.44
454.192	87.44
454.412	91.44
454.633	109.44
454.853	76.44
455.073	86.44
455.294	90.44
455.514	92.44
455.734	89.44
455.955	98.44
456.175	81.44
456.395	101.44
456.616	98.44
456.836	96.44
457.056	85.44
457.276	78.44
457.497	98.44
457.717	90.44
457.937	98.44
458.157	91.44
458.377	85.44
458.598	79.44
458.818	66.44
459.038	84.44
459.258	85.44
459.478	100.44
459.698	92.44
459.918	93.44
460.138	85.44
460.358	85.44
460.578	102.44
460.798	87.44
461.018	76.44
461.238	89.44
461.458	99.44
461.678	93.44
461.898	92.44
462.118	94.44
462.338	93.44
462.558	102.44
462.777	92.44
462.997	89.44
463.217	92.44
463.437	96.44
463.657	103.44
463.876	92.44
464.096	110.44
464.316	96.44
464.536	88.44
464.755	109.44
464.975	79.44
465.195	89.44
465.414	92.44
465.634	76.44
465.854	90.44
466.073	95.44
466.293	104.44
466.512	92.44
466.732	98.44
466.951	97.44
467.171	90.44
467.391	99.44
467.61	86.44
467.829	105.44
468.049	101.44
468.268	105.44
468.488	99.44
468.707	92.44
468.927	99.44
469.146	84.44
469.365	82.44
469.585	112.44
469.804	105.44
470.023	82.44
470.243	91.44
470.462	107.44
470.681	83.44
470.901	105.44
471.12	98.44
471.339	105.44
471.558	96.44
471.777	100.44
471.997	84.44
472.216	103.44
472.435	103.44
472.654	92.44
472.873	92.44
473.092	91.44
473.311	104.44
473.53	105.44
473.749	107.44
473.968	85.44
474.187	105.44
474.406	85.44
474.625	96.44
474.844	90.44
475.063	90.44
475.282	73.44
475.501	84.44
475.72	96.44
475.939	88.44
476.158	108.44
476.377	105.44
476.596	99.44
476.814	82.44
477.033	82.44
477.252	86.44
477.471	88.44
477.69	120.44
477.908	117.44
478.127	105.44
478.346	94.44
478.564	103.44
478.783	91.44
479.002	100.44
479.22	97.44
479.439	98.44
479.658	106.44
479.876	85.44
480.095	93.44
480.313	100.44
480.532	90.44
480.751	92.44
480.969	95.44
481.188	93.44
481.406	92.44
481.624	86.44
481.843	70.44
482.061	98.44
482.28	105.44
482.498	93.44
482.717	94.44
482.935	103.44
483.153	93.44
483.372	114.44
483.59	117.44
483.808	102.44
484.027	94.44
484.245	105.44
484.463	91.44
484.681	114.44
484.9	113.44
485.118	103.44
485.336	92.44
485.554	97.44
485.772	90.44
485.99	96.44
486.209	99.44
486.427	102.44
486.645	95.44
486.863	92.44
487.081	96.44
487.299	105.44
487.517	96.44
487.735	101.44
487.953	100.44
488.171	107.44
488.389	119.44
488.607	98.44
488.825	105.44
489.043	98.44
489.261	86.44
489.479	90.44
489.696	98.44
489.914	93.44
490.132	95.44
490.35	100.44
490.568	95.44
490.786	116.44
491.003	116.44
491.221	120.44
491.439	119.44
491.657	110.44
491.874	106.44
492.092	126.44
492.31	135.44
492.527	128.44
492.745	119.44
492.963	122.44
493.18	120.44
493.398	108.44
493.615	114.44
493.833	124.44
494.05	116.44
494.268	119.44
494.485	122.44
494.703	91.44
494.92	109.44
495.138	107.44
495.355	106.44
495.573	118.44
495.79	98.44
496.008	108.44
496.225	101.44
496.442	111.44
496.66	98.44
496.877	114.44
497.094	126.44
497.312	119.44
497.529	115.44
497.746	114.44
497.963	90.44
498.181	103.44
498.398	99.44
498.615	87.44
498.832	96.44
499.049	102.44
499.267	89.44
499.484	90.44
499.701	92.44
499.918	94.44
500.135	93.44
500.352	103.44
500.569	96.44
500.786	99.44
501.003	109.44
501.22	106.44
501.437	90.44
501.654	97.44
501.871	93.44
502.088	110.44
502.305	81.44
502.522	97.44
502.739	113.44
502.956	112.44
503.172	94.44
503.389	93.44
503.606	103.44
503.823	94.44
504.04	93.44
504.256	101.44
504.473	93.44
504.69	107.44
504.907	94.44
505.123	94.44
505.34	92.44
505.557	103.44
505.773	92.44
505.99	81.44
506.207	96.44
506.423	102.44
506.64	108.44
506.856	93.44
507.073	99.44
507.289	92.44
507.506	103.44
507.722	97.44
507.939	96.44
508.155	107.44
508.372	91.44
508.588	90.44
508.805	101.44
509.021	103.44
509.238	93.44
509.454	81.44
509.67	103.44
509.887	83.44
510.103	86.44
510.319	88.44
510.536	85.44
510.752	82.44
510.968	92.44
511.184	75.44
511.401	94.44
511.617	85.44
511.833	96.44
512.049	94.44
512.265	87.44
512.481	82.44
512.698	77.44
512.914	81.44
513.13	96.44
513.346	78.44
513.562	92.44
513.778	77.44
513.994	93.44
514.21	97.44
514.426	85.44
514.642	88.44
514.858	92.44
515.074	73.44
515.29	85.44
515.506	85.44
515.721	82.44
515.937	84.44
516.153	87.44
516.369	88.44
