Data from Location4.07152019.Energy5.Lamp.07192019.3%Agarose_HRD10591_15-26-06-578.txt Node
Date: Fri Jul 19 15:26:06 EDT 2019
User: cochatt
Spectrometer: HR+D1059
Trigger mode: 1
Integration Time (sec): 1.000000E-1
Scans to average: 1
Electric dark correction enabled: true
Nonlinearity correction enabled: false
Boxcar width: 0
XAxis mode: Wavelengths
Number of Pixels in Spectrum: 2048
>>>>>Begin Spectral Data<<<<<
223.165	-7.62
223.4	-7.62
223.635	-7.62
223.869	-20.62
224.104	-22.62
224.338	-17.62
224.573	-15.62
224.808	-26.62
225.042	-12.62
225.277	-9.62
225.511	2.38
225.746	2.38
225.98	2.38
226.215	18.38
226.449	24.38
226.683	13.38
226.918	35.38
227.152	34.38
227.387	27.38
227.621	47.38
227.856	58.38
228.09	44.38
228.324	49.38
228.559	63.38
228.793	66.38
229.027	70.38
229.262	50.38
229.496	62.38
229.73	66.38
229.964	59.38
230.199	62.38
230.433	80.38
230.667	87.38
230.901	68.38
231.136	83.38
231.37	85.38
231.604	102.38
231.838	73.38
232.072	87.38
232.306	75.38
232.541	81.38
232.775	87.38
233.009	85.38
233.243	91.38
233.477	91.38
233.711	99.38
233.945	63.38
234.179	80.38
234.413	86.38
234.647	74.38
234.881	97.38
235.115	81.38
235.349	93.38
235.583	84.38
235.817	82.38
236.051	82.38
236.285	66.38
236.519	72.38
236.753	75.38
236.987	80.38
237.221	71.38
237.455	86.38
237.689	95.38
237.922	70.38
238.156	78.38
238.39	82.38
238.624	72.38
238.858	83.38
239.091	74.38
239.325	67.38
239.559	73.38
239.793	81.38
240.027	75.38
240.26	79.38
240.494	83.38
240.728	85.38
240.961	72.38
241.195	86.38
241.429	84.38
241.662	73.38
241.896	71.38
242.13	68.38
242.363	85.38
242.597	85.38
242.83	84.38
243.064	93.38
243.298	80.38
243.531	66.38
243.765	81.38
243.998	75.38
244.232	83.38
244.465	77.38
244.699	69.38
244.932	65.38
245.166	75.38
245.399	71.38
245.633	85.38
245.866	82.38
246.099	79.38
246.333	68.38
246.566	77.38
246.8	71.38
247.033	67.38
247.266	76.38
247.5	82.38
247.733	67.38
247.966	89.38
248.2	81.38
248.433	79.38
248.666	73.38
248.899	77.38
249.133	66.38
249.366	90.38
249.599	66.38
249.832	85.38
250.066	75.38
250.299	71.38
250.532	85.38
250.765	84.38
250.998	89.38
251.231	71.38
251.465	67.38
251.698	80.38
251.931	80.38
252.164	89.38
252.397	90.38
252.63	78.38
252.863	64.38
253.096	73.38
253.329	72.38
253.562	73.38
253.795	96.38
254.028	84.38
254.261	65.38
254.494	72.38
254.727	75.38
254.96	75.38
255.193	79.38
255.426	83.38
255.659	95.38
255.892	95.38
256.124	88.38
256.357	75.38
256.59	93.38
256.823	80.38
257.056	76.38
257.289	77.38
257.521	92.38
257.754	84.38
257.987	79.38
258.22	85.38
258.452	80.38
258.685	89.38
258.918	79.38
259.151	83.38
259.383	78.38
259.616	79.38
259.849	83.38
260.081	63.38
260.314	81.38
260.547	69.38
260.779	85.38
261.012	82.38
261.244	74.38
261.477	96.38
261.71	66.38
261.942	60.38
262.175	87.38
262.407	69.38
262.64	82.38
262.872	91.38
263.105	93.38
263.337	87.38
263.57	79.38
263.802	84.38
264.035	72.38
264.267	88.38
264.499	98.38
264.732	86.38
264.964	89.38
265.197	82.38
265.429	68.38
265.661	94.38
265.894	104.38
266.126	90.38
266.358	73.38
266.591	92.38
266.823	87.38
267.055	69.38
267.287	89.38
267.52	83.38
267.752	81.38
267.984	72.38
268.216	84.38
268.448	87.38
268.681	82.38
268.913	76.38
269.145	87.38
269.377	74.38
269.609	80.38
269.841	90.38
270.073	86.38
270.306	89.38
270.538	76.38
270.77	85.38
271.002	92.38
271.234	77.38
271.466	96.38
271.698	83.38
271.93	73.38
272.162	107.38
272.394	91.38
272.626	82.38
272.858	71.38
273.09	82.38
273.322	75.38
273.553	72.38
273.785	84.38
274.017	86.38
274.249	75.38
274.481	70.38
274.713	86.38
274.945	82.38
275.176	89.38
275.408	82.38
275.64	70.38
275.872	82.38
276.104	82.38
276.335	88.38
276.567	86.38
276.799	88.38
277.031	65.38
277.262	92.38
277.494	95.38
277.726	84.38
277.957	97.38
278.189	90.38
278.421	94.38
278.652	97.38
278.884	84.38
279.115	85.38
279.347	87.38
279.579	76.38
279.81	87.38
280.042	83.38
280.273	68.38
280.505	82.38
280.736	91.38
280.968	78.38
281.199	86.38
281.431	79.38
281.662	80.38
281.894	86.38
282.125	98.38
282.356	91.38
282.588	79.38
282.819	74.38
283.051	80.38
283.282	80.38
283.513	100.38
283.745	90.38
283.976	79.38
284.207	90.38
284.439	83.38
284.67	97.38
284.901	74.38
285.132	80.38
285.364	84.38
285.595	90.38
285.826	97.38
286.057	79.38
286.288	82.38
286.52	101.38
286.751	94.38
286.982	78.38
287.213	81.38
287.444	93.38
287.675	79.38
287.906	91.38
288.138	86.38
288.369	75.38
288.6	85.38
288.831	97.38
289.062	85.38
289.293	78.38
289.524	82.38
289.755	79.38
289.986	88.38
290.217	95.38
290.448	86.38
290.679	86.38
290.91	85.38
291.141	87.38
291.371	84.38
291.602	71.38
291.833	98.38
292.064	88.38
292.295	89.38
292.526	88.38
292.757	81.38
292.987	72.38
293.218	98.38
293.449	81.38
293.68	91.38
293.91	92.38
294.141	72.38
294.372	85.38
294.603	88.38
294.833	72.38
295.064	81.38
295.295	84.38
295.525	75.38
295.756	88.38
295.987	96.38
296.217	93.38
296.448	85.38
296.679	73.38
296.909	85.38
297.14	83.38
297.37	110.38
297.601	92.38
297.831	80.38
298.062	96.38
298.292	95.38
298.523	96.38
298.753	82.38
298.984	92.38
299.214	86.38
299.445	95.38
299.675	83.38
299.905	89.38
300.136	89.38
300.366	74.38
300.597	93.38
300.827	83.38
301.057	75.38
301.288	86.38
301.518	80.38
301.748	79.38
301.979	84.38
302.209	103.38
302.439	77.38
302.669	70.38
302.9	82.38
303.13	80.38
303.36	90.38
303.59	86.38
303.82	89.38
304.051	96.38
304.281	86.38
304.511	99.38
304.741	84.38
304.971	81.38
305.201	87.38
305.431	79.38
305.661	84.38
305.891	82.38
306.121	86.38
306.352	83.38
306.582	89.38
306.812	80.38
307.042	83.38
307.272	77.38
307.502	73.38
307.731	81.38
307.961	81.38
308.191	81.38
308.421	90.38
308.651	84.38
308.881	87.38
309.111	87.38
309.341	86.38
309.571	94.38
309.8	91.38
310.03	92.38
310.26	87.38
310.49	95.38
310.72	90.38
310.949	86.38
311.179	84.38
311.409	89.38
311.639	83.38
311.868	89.38
312.098	89.38
312.328	78.38
312.557	84.38
312.787	82.38
313.017	84.38
313.246	70.38
313.476	80.38
313.706	81.38
313.935	80.38
314.165	82.38
314.394	78.38
314.624	77.38
314.853	74.38
315.083	86.38
315.312	90.38
315.542	72.38
315.771	75.38
316.001	90.38
316.23	70.38
316.46	95.38
316.689	87.38
316.919	89.38
317.148	91.38
317.377	84.38
317.607	86.38
317.836	95.38
318.065	82.38
318.295	82.38
318.524	83.38
318.753	79.38
318.983	75.38
319.212	63.38
319.441	70.38
319.67	78.38
319.9	87.38
320.129	91.38
320.358	96.38
320.587	80.38
320.816	83.38
321.046	87.38
321.275	77.38
321.504	80.38
321.733	95.38
321.962	81.38
322.191	80.38
322.42	90.38
322.649	89.38
322.878	93.38
323.108	92.38
323.337	76.38
323.566	89.38
323.795	74.38
324.024	100.38
324.253	78.38
324.482	90.38
324.71	86.38
324.939	89.38
325.168	80.38
325.397	73.38
325.626	87.38
325.855	83.38
326.084	69.38
326.313	92.38
326.542	81.38
326.77	86.38
326.999	89.38
327.228	74.38
327.457	81.38
327.686	96.38
327.914	81.38
328.143	87.38
328.372	87.38
328.6	84.38
328.829	89.38
329.058	82.38
329.287	89.38
329.515	76.38
329.744	82.38
329.972	80.38
330.201	79.38
330.43	97.38
330.658	81.38
330.887	85.38
331.115	73.38
331.344	76.38
331.572	98.38
331.801	80.38
332.03	87.38
332.258	95.38
332.486	78.38
332.715	86.38
332.943	85.38
333.172	73.38
333.4	85.38
333.629	88.38
333.857	84.38
334.085	96.38
334.314	96.38
334.542	83.38
334.771	95.38
334.999	71.38
335.227	81.38
335.455	80.38
335.684	104.38
335.912	92.38
336.14	87.38
336.369	76.38
336.597	82.38
336.825	87.38
337.053	80.38
337.281	74.38
337.51	82.38
337.738	86.38
337.966	76.38
338.194	90.38
338.422	91.38
338.65	83.38
338.878	89.38
339.106	75.38
339.334	72.38
339.562	81.38
339.79	86.38
340.018	85.38
340.246	66.38
340.474	76.38
340.702	82.38
340.93	88.38
341.158	88.38
341.386	76.38
341.614	81.38
341.842	90.38
342.07	74.38
342.298	85.38
342.526	82.38
342.754	80.38
342.981	81.38
343.209	96.38
343.437	95.38
343.665	85.38
343.893	83.38
344.12	81.38
344.348	80.38
344.576	97.38
344.804	86.38
345.031	80.38
345.259	84.38
345.487	79.38
345.714	82.38
345.942	80.38
346.17	84.38
346.397	78.38
346.625	68.38
346.853	86.38
347.08	86.38
347.308	88.38
347.535	92.38
347.763	94.38
347.99	80.38
348.218	84.38
348.445	94.38
348.673	86.38
348.9	84.38
349.128	88.38
349.355	70.38
349.583	78.38
349.81	93.38
350.037	88.38
350.265	91.38
350.492	85.38
350.72	80.38
350.947	80.38
351.174	81.38
351.402	80.38
351.629	79.38
351.856	83.38
352.083	78.38
352.311	80.38
352.538	87.38
352.765	83.38
352.992	76.38
353.22	72.38
353.447	74.38
353.674	81.38
353.901	95.38
354.128	95.38
354.355	73.38
354.583	90.38
354.81	88.38
355.037	76.38
355.264	84.38
355.491	84.38
355.718	85.38
355.945	97.38
356.172	73.38
356.399	79.38
356.626	83.38
356.853	86.38
357.08	87.38
357.307	86.38
357.534	87.38
357.761	78.38
357.988	87.38
358.215	70.38
358.441	96.38
358.668	82.38
358.895	81.38
359.122	77.38
359.349	79.38
359.576	99.38
359.802	88.38
360.029	84.38
360.256	103.38
360.483	87.38
360.709	85.38
360.936	77.38
361.163	83.38
361.39	81.38
361.616	69.38
361.843	82.38
362.07	72.38
362.296	79.38
362.523	77.38
362.749	76.38
362.976	78.38
363.203	77.38
363.429	79.38
363.656	79.38
363.882	86.38
364.109	86.38
364.335	82.38
364.562	97.38
364.788	88.38
365.015	91.38
365.241	71.38
365.468	88.38
365.694	79.38
365.92	78.38
366.147	79.38
366.373	75.38
366.599	71.38
366.826	82.38
367.052	86.38
367.278	90.38
367.505	87.38
367.731	88.38
367.957	71.38
368.184	83.38
368.41	70.38
368.636	92.38
368.862	84.38
369.089	78.38
369.315	88.38
369.541	82.38
369.767	84.38
369.993	87.38
370.219	81.38
370.445	82.38
370.672	80.38
370.898	101.38
371.124	93.38
371.35	85.38
371.576	79.38
371.802	68.38
372.028	85.38
372.254	86.38
372.48	85.38
372.706	79.38
372.932	87.38
373.158	92.38
373.384	85.38
373.61	86.38
373.835	87.38
374.061	75.38
374.287	83.38
374.513	78.38
374.739	85.38
374.965	90.38
375.191	87.38
375.416	78.38
375.642	82.38
375.868	90.38
376.094	93.38
376.319	77.38
376.545	79.38
376.771	76.38
376.997	87.38
377.222	103.38
377.448	74.38
377.674	84.38
377.899	84.38
378.125	87.38
378.35	84.38
378.576	80.38
378.802	94.38
379.027	79.38
379.253	80.38
379.478	75.38
379.704	87.38
379.929	70.38
380.155	74.38
380.38	72.38
380.606	75.38
380.831	74.38
381.057	89.38
381.282	83.38
381.507	81.38
381.733	87.38
381.958	86.38
382.184	87.38
382.409	81.38
382.634	93.38
382.86	93.38
383.085	81.38
383.31	79.38
383.535	99.38
383.761	85.38
383.986	86.38
384.211	85.38
384.436	85.38
384.662	77.38
384.887	90.38
385.112	91.38
385.337	73.38
385.562	88.38
385.787	82.38
386.013	79.38
386.238	88.38
386.463	87.38
386.688	86.38
386.913	76.38
387.138	80.38
387.363	80.38
387.588	89.38
387.813	83.38
388.038	89.38
388.263	92.38
388.488	86.38
388.713	83.38
388.938	82.38
389.163	73.38
389.387	90.38
389.612	80.38
389.837	92.38
390.062	82.38
390.287	76.38
390.512	71.38
390.736	85.38
390.961	84.38
391.186	80.38
391.411	83.38
391.636	91.38
391.86	77.38
392.085	94.38
392.31	83.38
392.534	73.38
392.759	88.38
392.984	80.38
393.208	88.38
393.433	86.38
393.658	83.38
393.882	84.38
394.107	101.38
394.331	89.38
394.556	82.38
394.78	87.38
395.005	81.38
395.229	75.38
395.454	83.38
395.678	85.38
395.903	83.38
396.127	82.38
396.352	77.38
396.576	94.38
396.801	102.38
397.025	93.38
397.249	80.38
397.474	82.38
397.698	85.38
397.922	91.38
398.147	73.38
398.371	82.38
398.595	81.38
398.82	83.38
399.044	84.38
399.268	98.38
399.492	85.38
399.717	100.38
399.941	85.38
400.165	87.38
400.389	89.38
400.613	96.38
400.837	91.38
401.062	95.38
401.286	93.38
401.51	96.38
401.734	110.38
401.958	82.38
402.182	85.38
402.406	92.38
402.63	79.38
402.854	90.38
403.078	95.38
403.302	81.38
403.526	90.38
403.75	86.38
403.974	73.38
404.198	86.38
404.422	89.38
404.645	94.38
404.869	84.38
405.093	82.38
405.317	87.38
405.541	88.38
405.765	82.38
405.988	93.38
406.212	85.38
406.436	104.38
406.66	88.38
406.883	88.38
407.107	73.38
407.331	84.38
407.555	100.38
407.778	98.38
408.002	91.38
408.226	85.38
408.449	97.38
408.673	92.38
408.896	87.38
409.12	87.38
409.344	87.38
409.567	84.38
409.791	79.38
410.014	91.38
410.238	66.38
410.461	88.38
410.685	87.38
410.908	91.38
411.132	97.38
411.355	94.38
411.578	102.38
411.802	91.38
412.025	88.38
412.249	97.38
412.472	89.38
412.695	85.38
412.919	89.38
413.142	90.38
413.365	103.38
413.589	102.38
413.812	86.38
414.035	94.38
414.258	99.38
414.482	94.38
414.705	89.38
414.928	96.38
415.151	96.38
415.374	88.38
415.597	84.38
415.821	106.38
416.044	108.38
416.267	80.38
416.49	83.38
416.713	92.38
416.936	97.38
417.159	89.38
417.382	83.38
417.605	95.38
417.828	93.38
418.051	75.38
418.274	87.38
418.497	87.38
418.72	95.38
418.943	96.38
419.166	89.38
419.389	90.38
419.611	96.38
419.834	111.38
420.057	95.38
420.28	96.38
420.503	90.38
420.726	83.38
420.948	101.38
421.171	100.38
421.394	80.38
421.617	98.38
421.839	92.38
422.062	84.38
422.285	97.38
422.507	100.38
422.73	106.38
422.953	102.38
423.175	98.38
423.398	83.38
423.621	76.38
423.843	94.38
424.066	100.38
424.288	87.38
424.511	96.38
424.733	96.38
424.956	97.38
425.178	95.38
425.401	102.38
425.623	101.38
425.846	72.38
426.068	86.38
426.291	84.38
426.513	107.38
426.735	98.38
426.958	107.38
427.18	86.38
427.402	99.38
427.625	99.38
427.847	86.38
428.069	80.38
428.292	96.38
428.514	94.38
428.736	99.38
428.958	87.38
429.181	79.38
429.403	97.38
429.625	86.38
429.847	89.38
430.069	90.38
430.292	92.38
430.514	79.38
430.736	103.38
430.958	85.38
431.18	88.38
431.402	94.38
431.624	89.38
431.846	89.38
432.068	81.38
432.29	76.38
432.512	85.38
432.734	86.38
432.956	92.38
433.178	103.38
433.4	104.38
433.622	98.38
433.844	90.38
434.066	88.38
434.287	78.38
434.509	74.38
434.731	74.38
434.953	82.38
435.175	99.38
435.397	98.38
435.618	82.38
435.84	98.38
436.062	71.38
436.284	81.38
436.505	99.38
436.727	94.38
436.949	81.38
437.17	81.38
437.392	97.38
437.614	94.38
437.835	91.38
438.057	84.38
438.278	80.38
438.5	88.38
438.721	82.38
438.943	96.38
439.165	107.38
439.386	103.38
439.608	96.38
439.829	92.38
440.05	80.38
440.272	91.38
440.493	90.38
440.715	89.38
440.936	105.38
441.158	96.38
441.379	97.38
441.6	88.38
441.822	104.38
442.043	115.38
442.264	96.38
442.486	95.38
442.707	95.38
442.928	103.38
443.149	87.38
443.371	99.38
443.592	85.38
443.813	76.38
444.034	112.38
444.255	88.38
444.476	88.38
444.698	109.38
444.919	96.38
445.14	213.38
445.361	152.38
445.582	104.38
445.803	106.38
446.024	110.38
446.245	83.38
446.466	103.38
446.687	106.38
446.908	96.38
447.129	109.38
447.35	96.38
447.571	116.38
447.792	98.38
448.013	96.38
448.234	101.38
448.455	93.38
448.675	86.38
448.896	86.38
449.117	83.38
449.338	99.38
449.559	77.38
449.779	102.38
450	87.38
450.221	91.38
450.442	79.38
450.662	89.38
450.883	96.38
451.104	95.38
451.324	87.38
451.545	97.38
451.766	79.38
451.986	91.38
452.207	92.38
452.428	90.38
452.648	89.38
452.869	82.38
453.089	92.38
453.31	94.38
453.53	82.38
453.751	83.38
453.971	74.38
454.192	94.38
454.412	91.38
454.633	89.38
454.853	87.38
455.073	86.38
455.294	71.38
455.514	92.38
455.734	93.38
455.955	91.38
456.175	95.38
456.395	82.38
456.616	103.38
456.836	97.38
457.056	88.38
457.276	86.38
457.497	101.38
457.717	83.38
457.937	72.38
458.157	74.38
458.377	78.38
458.598	93.38
458.818	87.38
459.038	83.38
459.258	70.38
459.478	97.38
459.698	65.38
459.918	88.38
460.138	91.38
460.358	104.38
460.578	84.38
460.798	77.38
461.018	100.38
461.238	96.38
461.458	92.38
461.678	95.38
461.898	80.38
462.118	108.38
462.338	92.38
462.558	89.38
462.777	91.38
462.997	87.38
463.217	79.38
463.437	74.38
463.657	79.38
463.876	80.38
464.096	91.38
464.316	89.38
464.536	84.38
464.755	92.38
464.975	88.38
465.195	89.38
465.414	82.38
465.634	99.38
465.854	82.38
466.073	90.38
466.293	95.38
466.512	75.38
466.732	91.38
466.951	88.38
467.171	92.38
467.391	92.38
467.61	100.38
467.829	99.38
468.049	101.38
468.268	107.38
468.488	92.38
468.707	102.38
468.927	79.38
469.146	91.38
469.365	102.38
469.585	96.38
469.804	94.38
470.023	110.38
470.243	90.38
470.462	103.38
470.681	95.38
470.901	91.38
471.12	107.38
471.339	97.38
471.558	92.38
471.777	104.38
471.997	99.38
472.216	85.38
472.435	103.38
472.654	89.38
472.873	84.38
473.092	103.38
473.311	86.38
473.53	80.38
473.749	89.38
473.968	86.38
474.187	76.38
474.406	80.38
474.625	91.38
474.844	97.38
475.063	82.38
475.282	98.38
475.501	91.38
475.72	96.38
475.939	98.38
476.158	91.38
476.377	102.38
476.596	87.38
476.814	92.38
477.033	93.38
477.252	96.38
477.471	100.38
477.69	101.38
477.908	93.38
478.127	96.38
478.346	96.38
478.564	89.38
478.783	84.38
479.002	91.38
479.22	90.38
479.439	89.38
479.658	96.38
479.876	90.38
480.095	81.38
480.313	93.38
480.532	89.38
480.751	84.38
480.969	92.38
481.188	86.38
481.406	84.38
481.624	84.38
481.843	80.38
482.061	90.38
482.28	65.38
482.498	74.38
482.717	94.38
482.935	96.38
483.153	104.38
483.372	102.38
483.59	105.38
483.808	99.38
484.027	93.38
484.245	95.38
484.463	97.38
484.681	107.38
484.9	99.38
485.118	110.38
485.336	86.38
485.554	84.38
485.772	83.38
485.99	79.38
486.209	98.38
486.427	83.38
486.645	87.38
486.863	85.38
487.081	111.38
487.299	96.38
487.517	101.38
487.735	93.38
487.953	106.38
488.171	111.38
488.389	101.38
488.607	110.38
488.825	105.38
489.043	92.38
489.261	93.38
489.479	90.38
489.696	99.38
489.914	96.38
490.132	99.38
490.35	89.38
490.568	88.38
490.786	115.38
491.003	114.38
491.221	113.38
491.439	124.38
491.657	117.38
491.874	104.38
492.092	135.38
492.31	137.38
492.527	121.38
492.745	119.38
492.963	103.38
493.18	126.38
493.398	126.38
493.615	116.38
493.833	101.38
494.05	108.38
494.268	96.38
494.485	105.38
494.703	115.38
494.92	92.38
495.138	105.38
495.355	83.38
495.573	121.38
495.79	100.38
496.008	121.38
496.225	98.38
496.442	113.38
496.66	106.38
496.877	104.38
497.094	106.38
497.312	107.38
497.529	110.38
497.746	96.38
497.963	83.38
498.181	103.38
498.398	86.38
498.615	107.38
498.832	94.38
499.049	90.38
499.267	97.38
499.484	106.38
499.701	88.38
499.918	101.38
500.135	112.38
500.352	102.38
500.569	101.38
500.786	108.38
501.003	103.38
501.22	98.38
501.437	95.38
501.654	93.38
501.871	83.38
502.088	98.38
502.305	108.38
502.522	97.38
502.739	102.38
502.956	85.38
503.172	109.38
503.389	96.38
503.606	87.38
503.823	98.38
504.04	98.38
504.256	97.38
504.473	96.38
504.69	88.38
504.907	83.38
505.123	97.38
505.34	83.38
505.557	88.38
505.773	96.38
505.99	94.38
506.207	97.38
506.423	95.38
506.64	79.38
506.856	87.38
507.073	93.38
507.289	84.38
507.506	96.38
507.722	105.38
507.939	87.38
508.155	95.38
508.372	102.38
508.588	103.38
508.805	105.38
509.021	85.38
509.238	74.38
509.454	78.38
509.67	84.38
509.887	90.38
510.103	89.38
510.319	84.38
510.536	88.38
510.752	79.38
510.968	81.38
511.184	84.38
511.401	86.38
511.617	78.38
511.833	98.38
512.049	85.38
512.265	80.38
512.481	90.38
512.698	101.38
512.914	88.38
513.13	82.38
513.346	70.38
513.562	70.38
513.778	95.38
513.994	83.38
514.21	84.38
514.426	81.38
514.642	85.38
514.858	77.38
515.074	91.38
515.29	87.38
515.506	88.38
515.721	96.38
515.937	90.38
516.153	91.38
516.369	92.38
516.585	92.38
516.801	85.38
517.016	75.38
517.232	84.38
517.448	80.38
517.664	86.38
