Data from Location4.07152019.Energy5.Lamp.07192019.3%Agarose_HRD10591_15-24-41-577.txt Node
Date: Fri Jul 19 15:24:41 EDT 2019
User: cochatt
Spectrometer: HR+D1059
Trigger mode: 1
Integration Time (sec): 1.000000E-1
Scans to average: 1
Electric dark correction enabled: true
Nonlinearity correction enabled: false
Boxcar width: 0
XAxis mode: Wavelengths
Number of Pixels in Spectrum: 2048
>>>>>Begin Spectral Data<<<<<
223.165	-17.19
223.4	-17.19
223.635	-17.19
223.869	-19.19
224.104	0.81
224.338	-16.19
224.573	-15.19
224.808	-4.19
225.042	2.81
225.277	-24.19
225.511	-7.19
225.746	-6.19
225.98	-1.19
226.215	23.81
226.449	16.81
226.683	21.81
226.918	23.81
227.152	20.81
227.387	21.81
227.621	30.81
227.856	33.81
228.09	30.81
228.324	40.81
228.559	64.81
228.793	53.81
229.027	68.81
229.262	72.81
229.496	65.81
229.73	72.81
229.964	59.81
230.199	75.81
230.433	80.81
230.667	66.81
230.901	68.81
231.136	69.81
231.37	71.81
231.604	76.81
231.838	70.81
232.072	77.81
232.306	75.81
232.541	64.81
232.775	64.81
233.009	85.81
233.243	63.81
233.477	78.81
233.711	76.81
233.945	85.81
234.179	77.81
234.413	84.81
234.647	86.81
234.881	80.81
235.115	68.81
235.349	73.81
235.583	64.81
235.817	72.81
236.051	73.81
236.285	78.81
236.519	68.81
236.753	73.81
236.987	77.81
237.221	82.81
237.455	72.81
237.689	76.81
237.922	57.81
238.156	73.81
238.39	72.81
238.624	77.81
238.858	82.81
239.091	66.81
239.325	68.81
239.559	67.81
239.793	86.81
240.027	67.81
240.26	84.81
240.494	77.81
240.728	84.81
240.961	74.81
241.195	80.81
241.429	68.81
241.662	77.81
241.896	83.81
242.13	78.81
242.363	70.81
242.597	74.81
242.83	73.81
243.064	77.81
243.298	71.81
243.531	77.81
243.765	72.81
243.998	84.81
244.232	70.81
244.465	81.81
244.699	79.81
244.932	72.81
245.166	84.81
245.399	81.81
245.633	91.81
245.866	80.81
246.099	76.81
246.333	75.81
246.566	77.81
246.8	82.81
247.033	77.81
247.266	77.81
247.5	79.81
247.733	78.81
247.966	85.81
248.2	74.81
248.433	55.81
248.666	59.81
248.899	86.81
249.133	76.81
249.366	72.81
249.599	79.81
249.832	86.81
250.066	82.81
250.299	89.81
250.532	83.81
250.765	84.81
250.998	77.81
251.231	65.81
251.465	67.81
251.698	65.81
251.931	80.81
252.164	75.81
252.397	87.81
252.63	63.81
252.863	68.81
253.096	71.81
253.329	76.81
253.562	83.81
253.795	61.81
254.028	83.81
254.261	67.81
254.494	77.81
254.727	71.81
254.96	71.81
255.193	77.81
255.426	68.81
255.659	56.81
255.892	69.81
256.124	73.81
256.357	79.81
256.59	81.81
256.823	75.81
257.056	88.81
257.289	79.81
257.521	73.81
257.754	80.81
257.987	67.81
258.22	84.81
258.452	85.81
258.685	84.81
258.918	72.81
259.151	77.81
259.383	76.81
259.616	74.81
259.849	72.81
260.081	78.81
260.314	82.81
260.547	75.81
260.779	83.81
261.012	68.81
261.244	87.81
261.477	79.81
261.71	89.81
261.942	77.81
262.175	72.81
262.407	69.81
262.64	79.81
262.872	82.81
263.105	68.81
263.337	84.81
263.57	74.81
263.802	87.81
264.035	79.81
264.267	79.81
264.499	78.81
264.732	81.81
264.964	91.81
265.197	88.81
265.429	87.81
265.661	79.81
265.894	71.81
266.126	82.81
266.358	86.81
266.591	85.81
266.823	89.81
267.055	80.81
267.287	83.81
267.52	76.81
267.752	87.81
267.984	82.81
268.216	71.81
268.448	78.81
268.681	81.81
268.913	76.81
269.145	83.81
269.377	72.81
269.609	79.81
269.841	71.81
270.073	86.81
270.306	86.81
270.538	83.81
270.77	81.81
271.002	87.81
271.234	86.81
271.466	82.81
271.698	73.81
271.93	90.81
272.162	77.81
272.394	84.81
272.626	72.81
272.858	70.81
273.09	99.81
273.322	84.81
273.553	81.81
273.785	72.81
274.017	77.81
274.249	82.81
274.481	78.81
274.713	72.81
274.945	66.81
275.176	83.81
275.408	85.81
275.64	77.81
275.872	83.81
276.104	79.81
276.335	71.81
276.567	83.81
276.799	87.81
277.031	90.81
277.262	84.81
277.494	82.81
277.726	88.81
277.957	59.81
278.189	78.81
278.421	66.81
278.652	77.81
278.884	84.81
279.115	86.81
279.347	76.81
279.579	74.81
279.81	79.81
280.042	79.81
280.273	85.81
280.505	78.81
280.736	69.81
280.968	81.81
281.199	71.81
281.431	71.81
281.662	77.81
281.894	72.81
282.125	87.81
282.356	80.81
282.588	83.81
282.819	76.81
283.051	85.81
283.282	86.81
283.513	91.81
283.745	85.81
283.976	79.81
284.207	99.81
284.439	77.81
284.67	81.81
284.901	81.81
285.132	83.81
285.364	76.81
285.595	80.81
285.826	76.81
286.057	95.81
286.288	91.81
286.52	91.81
286.751	79.81
286.982	76.81
287.213	80.81
287.444	100.81
287.675	75.81
287.906	70.81
288.138	72.81
288.369	84.81
288.6	86.81
288.831	91.81
289.062	93.81
289.293	88.81
289.524	65.81
289.755	73.81
289.986	74.81
290.217	86.81
290.448	79.81
290.679	83.81
290.91	75.81
291.141	84.81
291.371	81.81
291.602	76.81
291.833	72.81
292.064	71.81
292.295	80.81
292.526	86.81
292.757	81.81
292.987	88.81
293.218	76.81
293.449	85.81
293.68	83.81
293.91	89.81
294.141	82.81
294.372	73.81
294.603	69.81
294.833	74.81
295.064	78.81
295.295	66.81
295.525	67.81
295.756	75.81
295.987	85.81
296.217	72.81
296.448	82.81
296.679	79.81
296.909	83.81
297.14	73.81
297.37	71.81
297.601	68.81
297.831	78.81
298.062	94.81
298.292	82.81
298.523	77.81
298.753	84.81
298.984	59.81
299.214	77.81
299.445	76.81
299.675	73.81
299.905	88.81
300.136	81.81
300.366	67.81
300.597	91.81
300.827	84.81
301.057	86.81
301.288	88.81
301.518	84.81
301.748	80.81
301.979	87.81
302.209	85.81
302.439	84.81
302.669	80.81
302.9	66.81
303.13	69.81
303.36	85.81
303.59	83.81
303.82	92.81
304.051	84.81
304.281	68.81
304.511	100.81
304.741	70.81
304.971	77.81
305.201	72.81
305.431	61.81
305.661	83.81
305.891	101.81
306.121	93.81
306.352	84.81
306.582	89.81
306.812	76.81
307.042	65.81
307.272	81.81
307.502	94.81
307.731	71.81
307.961	78.81
308.191	84.81
308.421	70.81
308.651	83.81
308.881	86.81
309.111	80.81
309.341	83.81
309.571	74.81
309.8	77.81
310.03	80.81
310.26	70.81
310.49	83.81
310.72	84.81
310.949	76.81
311.179	88.81
311.409	82.81
311.639	85.81
311.868	80.81
312.098	89.81
312.328	73.81
312.557	64.81
312.787	75.81
313.017	90.81
313.246	79.81
313.476	76.81
313.706	80.81
313.935	80.81
314.165	77.81
314.394	85.81
314.624	86.81
314.853	68.81
315.083	91.81
315.312	79.81
315.542	80.81
315.771	82.81
316.001	85.81
316.23	96.81
316.46	74.81
316.689	75.81
316.919	88.81
317.148	80.81
317.377	78.81
317.607	92.81
317.836	97.81
318.065	80.81
318.295	78.81
318.524	78.81
318.753	74.81
318.983	82.81
319.212	84.81
319.441	79.81
319.67	83.81
319.9	77.81
320.129	81.81
320.358	84.81
320.587	86.81
320.816	95.81
321.046	77.81
321.275	79.81
321.504	77.81
321.733	82.81
321.962	77.81
322.191	83.81
322.42	73.81
322.649	81.81
322.878	87.81
323.108	76.81
323.337	85.81
323.566	86.81
323.795	96.81
324.024	74.81
324.253	85.81
324.482	66.81
324.71	79.81
324.939	94.81
325.168	75.81
325.397	97.81
325.626	80.81
325.855	74.81
326.084	76.81
326.313	91.81
326.542	80.81
326.77	87.81
326.999	98.81
327.228	74.81
327.457	70.81
327.686	76.81
327.914	87.81
328.143	83.81
328.372	86.81
328.6	88.81
328.829	91.81
329.058	89.81
329.287	83.81
329.515	81.81
329.744	101.81
329.972	83.81
330.201	71.81
330.43	84.81
330.658	88.81
330.887	80.81
331.115	82.81
331.344	65.81
331.572	88.81
331.801	66.81
332.03	73.81
332.258	79.81
332.486	80.81
332.715	72.81
332.943	90.81
333.172	84.81
333.4	80.81
333.629	68.81
333.857	73.81
334.085	84.81
334.314	80.81
334.542	88.81
334.771	77.81
334.999	88.81
335.227	75.81
335.455	93.81
335.684	92.81
335.912	81.81
336.14	85.81
336.369	88.81
336.597	85.81
336.825	81.81
337.053	76.81
337.281	75.81
337.51	100.81
337.738	93.81
337.966	88.81
338.194	88.81
338.422	78.81
338.65	93.81
338.878	88.81
339.106	88.81
339.334	60.81
339.562	74.81
339.79	69.81
340.018	80.81
340.246	80.81
340.474	94.81
340.702	72.81
340.93	88.81
341.158	79.81
341.386	95.81
341.614	73.81
341.842	81.81
342.07	78.81
342.298	79.81
342.526	89.81
342.754	69.81
342.981	78.81
343.209	76.81
343.437	88.81
343.665	70.81
343.893	85.81
344.12	92.81
344.348	72.81
344.576	80.81
344.804	65.81
345.031	84.81
345.259	86.81
345.487	83.81
345.714	71.81
345.942	86.81
346.17	89.81
346.397	83.81
346.625	60.81
346.853	86.81
347.08	81.81
347.308	84.81
347.535	82.81
347.763	78.81
347.99	92.81
348.218	81.81
348.445	84.81
348.673	87.81
348.9	84.81
349.128	87.81
349.355	69.81
349.583	82.81
349.81	89.81
350.037	87.81
350.265	81.81
350.492	90.81
350.72	98.81
350.947	96.81
351.174	78.81
351.402	76.81
351.629	83.81
351.856	78.81
352.083	68.81
352.311	72.81
352.538	75.81
352.765	77.81
352.992	71.81
353.22	66.81
353.447	79.81
353.674	79.81
353.901	81.81
354.128	73.81
354.355	73.81
354.583	78.81
354.81	77.81
355.037	80.81
355.264	75.81
355.491	75.81
355.718	66.81
355.945	69.81
356.172	82.81
356.399	91.81
356.626	86.81
356.853	80.81
357.08	78.81
357.307	79.81
357.534	69.81
357.761	89.81
357.988	80.81
358.215	91.81
358.441	88.81
358.668	88.81
358.895	80.81
359.122	80.81
359.349	80.81
359.576	79.81
359.802	76.81
360.029	74.81
360.256	71.81
360.483	87.81
360.709	73.81
360.936	80.81
361.163	85.81
361.39	79.81
361.616	79.81
361.843	75.81
362.07	78.81
362.296	86.81
362.523	80.81
362.749	83.81
362.976	92.81
363.203	84.81
363.429	80.81
363.656	75.81
363.882	77.81
364.109	73.81
364.335	88.81
364.562	73.81
364.788	93.81
365.015	64.81
365.241	85.81
365.468	84.81
365.694	72.81
365.92	72.81
366.147	73.81
366.373	68.81
366.599	85.81
366.826	84.81
367.052	87.81
367.278	77.81
367.505	75.81
367.731	83.81
367.957	71.81
368.184	91.81
368.41	66.81
368.636	70.81
368.862	83.81
369.089	87.81
369.315	88.81
369.541	78.81
369.767	91.81
369.993	72.81
370.219	75.81
370.445	81.81
370.672	92.81
370.898	75.81
371.124	71.81
371.35	72.81
371.576	80.81
371.802	91.81
372.028	82.81
372.254	78.81
372.48	70.81
372.706	67.81
372.932	81.81
373.158	84.81
373.384	81.81
373.61	88.81
373.835	77.81
374.061	83.81
374.287	81.81
374.513	85.81
374.739	87.81
374.965	83.81
375.191	88.81
375.416	80.81
375.642	78.81
375.868	85.81
376.094	71.81
376.319	88.81
376.545	87.81
376.771	82.81
376.997	84.81
377.222	85.81
377.448	79.81
377.674	90.81
377.899	72.81
378.125	77.81
378.35	88.81
378.576	93.81
378.802	79.81
379.027	83.81
379.253	81.81
379.478	84.81
379.704	79.81
379.929	75.81
380.155	91.81
380.38	91.81
380.606	70.81
380.831	70.81
381.057	77.81
381.282	85.81
381.507	101.81
381.733	79.81
381.958	81.81
382.184	83.81
382.409	80.81
382.634	71.81
382.86	90.81
383.085	99.81
383.31	86.81
383.535	89.81
383.761	88.81
383.986	80.81
384.211	79.81
384.436	81.81
384.662	92.81
384.887	94.81
385.112	86.81
385.337	84.81
385.562	101.81
385.787	82.81
386.013	91.81
386.238	95.81
386.463	97.81
386.688	84.81
386.913	77.81
387.138	73.81
387.363	86.81
387.588	81.81
387.813	83.81
388.038	80.81
388.263	82.81
388.488	78.81
388.713	87.81
388.938	69.81
389.163	89.81
389.387	85.81
389.612	86.81
389.837	70.81
390.062	86.81
390.287	92.81
390.512	80.81
390.736	70.81
390.961	83.81
391.186	73.81
391.411	91.81
391.636	83.81
391.86	72.81
392.085	90.81
392.31	88.81
392.534	89.81
392.759	73.81
392.984	72.81
393.208	78.81
393.433	80.81
393.658	89.81
393.882	85.81
394.107	79.81
394.331	95.81
394.556	73.81
394.78	81.81
395.005	75.81
395.229	72.81
395.454	82.81
395.678	63.81
395.903	88.81
396.127	72.81
396.352	88.81
396.576	77.81
396.801	81.81
397.025	85.81
397.249	113.81
397.474	91.81
397.698	82.81
397.922	82.81
398.147	76.81
398.371	87.81
398.595	93.81
398.82	88.81
399.044	91.81
399.268	80.81
399.492	75.81
399.717	95.81
399.941	87.81
400.165	82.81
400.389	101.81
400.613	95.81
400.837	79.81
401.062	84.81
401.286	89.81
401.51	74.81
401.734	88.81
401.958	77.81
402.182	90.81
402.406	89.81
402.63	86.81
402.854	76.81
403.078	96.81
403.302	95.81
403.526	75.81
403.75	86.81
403.974	81.81
404.198	72.81
404.422	84.81
404.645	65.81
404.869	88.81
405.093	83.81
405.317	91.81
405.541	93.81
405.765	78.81
405.988	86.81
406.212	73.81
406.436	85.81
406.66	77.81
406.883	75.81
407.107	100.81
407.331	115.81
407.555	89.81
407.778	109.81
408.002	80.81
408.226	80.81
408.449	79.81
408.673	89.81
408.896	80.81
409.12	82.81
409.344	93.81
409.567	90.81
409.791	75.81
410.014	75.81
410.238	81.81
410.461	89.81
410.685	81.81
410.908	90.81
411.132	79.81
411.355	80.81
411.578	92.81
411.802	92.81
412.025	82.81
412.249	93.81
412.472	85.81
412.695	85.81
412.919	89.81
413.142	95.81
413.365	87.81
413.589	78.81
413.812	84.81
414.035	95.81
414.258	80.81
414.482	93.81
414.705	88.81
414.928	88.81
415.151	100.81
415.374	95.81
415.597	78.81
415.821	109.81
416.044	105.81
416.267	97.81
416.49	94.81
416.713	81.81
416.936	96.81
417.159	96.81
417.382	98.81
417.605	85.81
417.828	91.81
418.051	75.81
418.274	88.81
418.497	103.81
418.72	89.81
418.943	86.81
419.166	99.81
419.389	97.81
419.611	91.81
419.834	79.81
420.057	87.81
420.28	96.81
420.503	90.81
420.726	85.81
420.948	81.81
421.171	79.81
421.394	92.81
421.617	79.81
421.839	79.81
422.062	88.81
422.285	91.81
422.507	95.81
422.73	99.81
422.953	97.81
423.175	89.81
423.398	78.81
423.621	88.81
423.843	95.81
424.066	77.81
424.288	90.81
424.511	89.81
424.733	92.81
424.956	84.81
425.178	82.81
425.401	101.81
425.623	105.81
425.846	96.81
426.068	85.81
426.291	93.81
426.513	71.81
426.735	94.81
426.958	89.81
427.18	94.81
427.402	75.81
427.625	105.81
427.847	82.81
428.069	81.81
428.292	89.81
428.514	78.81
428.736	87.81
428.958	80.81
429.181	80.81
429.403	85.81
429.625	78.81
429.847	80.81
430.069	77.81
430.292	99.81
430.514	84.81
430.736	97.81
430.958	86.81
431.18	85.81
431.402	91.81
431.624	80.81
431.846	73.81
432.068	78.81
432.29	79.81
432.512	92.81
432.734	81.81
432.956	86.81
433.178	95.81
433.4	95.81
433.622	91.81
433.844	93.81
434.066	87.81
434.287	82.81
434.509	86.81
434.731	71.81
434.953	101.81
435.175	90.81
435.397	87.81
435.618	92.81
435.84	84.81
436.062	76.81
436.284	99.81
436.505	83.81
436.727	96.81
436.949	88.81
437.17	83.81
437.392	96.81
437.614	101.81
437.835	85.81
438.057	83.81
438.278	106.81
438.5	96.81
438.721	80.81
438.943	87.81
439.165	95.81
439.386	86.81
439.608	87.81
439.829	101.81
440.05	101.81
440.272	91.81
440.493	78.81
440.715	89.81
440.936	107.81
441.158	85.81
441.379	105.81
441.6	97.81
441.822	110.81
442.043	96.81
442.264	95.81
442.486	92.81
442.707	83.81
442.928	111.81
443.149	98.81
443.371	90.81
443.592	103.81
443.813	88.81
444.034	109.81
444.255	93.81
444.476	92.81
444.698	84.81
444.919	96.81
445.14	219.81
445.361	160.81
445.582	90.81
445.803	96.81
446.024	69.81
446.245	90.81
446.466	89.81
446.687	109.81
446.908	90.81
447.129	87.81
447.35	89.81
447.571	107.81
447.792	84.81
448.013	91.81
448.234	85.81
448.455	91.81
448.675	102.81
448.896	91.81
449.117	91.81
449.338	92.81
449.559	87.81
449.779	93.81
450	97.81
450.221	83.81
450.442	85.81
450.662	86.81
450.883	94.81
451.104	97.81
451.324	108.81
451.545	84.81
451.766	95.81
451.986	90.81
452.207	85.81
452.428	103.81
452.648	92.81
452.869	83.81
453.089	80.81
453.31	73.81
453.53	94.81
453.751	95.81
453.971	83.81
454.192	88.81
454.412	78.81
454.633	79.81
454.853	87.81
455.073	81.81
455.294	81.81
455.514	87.81
455.734	97.81
455.955	89.81
456.175	78.81
456.395	89.81
456.616	92.81
456.836	86.81
457.056	80.81
457.276	81.81
457.497	89.81
457.717	85.81
457.937	92.81
458.157	88.81
458.377	88.81
458.598	85.81
458.818	78.81
459.038	73.81
459.258	77.81
459.478	79.81
459.698	83.81
459.918	82.81
460.138	67.81
460.358	100.81
460.578	89.81
460.798	90.81
461.018	94.81
461.238	101.81
461.458	100.81
461.678	91.81
461.898	87.81
462.118	74.81
462.338	98.81
462.558	96.81
462.777	103.81
462.997	93.81
463.217	69.81
463.437	84.81
463.657	79.81
463.876	91.81
464.096	84.81
464.316	79.81
464.536	84.81
464.755	85.81
464.975	96.81
465.195	87.81
465.414	79.81
465.634	92.81
465.854	80.81
466.073	95.81
466.293	89.81
466.512	83.81
466.732	85.81
466.951	91.81
467.171	93.81
467.391	92.81
467.61	94.81
467.829	96.81
468.049	89.81
468.268	84.81
468.488	96.81
468.707	91.81
468.927	89.81
469.146	100.81
469.365	87.81
469.585	89.81
469.804	87.81
470.023	101.81
470.243	100.81
470.462	87.81
470.681	102.81
470.901	94.81
471.12	93.81
471.339	89.81
471.558	91.81
471.777	100.81
471.997	86.81
472.216	73.81
472.435	107.81
472.654	85.81
472.873	85.81
473.092	98.81
473.311	80.81
473.53	98.81
473.749	90.81
473.968	89.81
474.187	72.81
474.406	99.81
474.625	94.81
474.844	90.81
475.063	88.81
475.282	95.81
475.501	108.81
475.72	101.81
475.939	88.81
476.158	89.81
476.377	98.81
476.596	85.81
476.814	69.81
477.033	83.81
477.252	91.81
477.471	94.81
477.69	82.81
477.908	93.81
478.127	95.81
478.346	91.81
478.564	94.81
478.783	91.81
479.002	97.81
479.22	81.81
479.439	88.81
479.658	88.81
479.876	79.81
480.095	78.81
480.313	88.81
480.532	92.81
480.751	87.81
480.969	91.81
481.188	71.81
481.406	79.81
481.624	84.81
481.843	87.81
482.061	83.81
482.28	86.81
482.498	97.81
482.717	87.81
482.935	88.81
483.153	92.81
483.372	97.81
483.59	94.81
483.808	105.81
484.027	99.81
484.245	81.81
484.463	105.81
484.681	107.81
484.9	95.81
485.118	97.81
485.336	102.81
485.554	85.81
485.772	86.81
485.99	72.81
486.209	89.81
486.427	86.81
486.645	97.81
486.863	75.81
487.081	95.81
487.299	85.81
487.517	80.81
487.735	107.81
487.953	108.81
488.171	109.81
488.389	110.81
488.607	101.81
488.825	93.81
489.043	82.81
489.261	107.81
489.479	95.81
489.696	97.81
489.914	106.81
490.132	106.81
490.35	90.81
490.568	109.81
490.786	101.81
491.003	101.81
491.221	103.81
491.439	104.81
491.657	111.81
491.874	115.81
492.092	128.81
492.31	133.81
492.527	119.81
492.745	107.81
492.963	105.81
493.18	110.81
493.398	107.81
493.615	88.81
493.833	122.81
494.05	111.81
494.268	94.81
494.485	105.81
494.703	88.81
494.92	111.81
495.138	102.81
495.355	113.81
495.573	107.81
495.79	92.81
496.008	86.81
496.225	93.81
496.442	79.81
496.66	101.81
496.877	106.81
497.094	111.81
497.312	92.81
497.529	105.81
497.746	108.81
497.963	91.81
498.181	104.81
498.398	97.81
498.615	96.81
498.832	90.81
499.049	92.81
499.267	87.81
499.484	102.81
499.701	99.81
499.918	101.81
500.135	98.81
500.352	86.81
500.569	100.81
500.786	91.81
501.003	91.81
501.22	101.81
501.437	107.81
501.654	93.81
501.871	100.81
502.088	99.81
502.305	90.81
502.522	98.81
502.739	91.81
502.956	96.81
503.172	99.81
503.389	85.81
503.606	69.81
503.823	90.81
504.04	96.81
504.256	89.81
504.473	98.81
504.69	74.81
504.907	89.81
505.123	94.81
505.34	108.81
505.557	82.81
505.773	72.81
505.99	91.81
506.207	103.81
506.423	72.81
506.64	95.81
506.856	94.81
507.073	86.81
507.289	88.81
507.506	99.81
507.722	95.81
507.939	82.81
508.155	82.81
508.372	89.81
508.588	66.81
508.805	91.81
509.021	74.81
509.238	96.81
509.454	85.81
509.67	74.81
509.887	75.81
510.103	67.81
510.319	70.81
510.536	86.81
510.752	85.81
510.968	75.81
511.184	83.81
511.401	93.81
511.617	83.81
511.833	78.81
512.049	102.81
512.265	78.81
512.481	77.81
512.698	74.81
512.914	72.81
513.13	77.81
513.346	87.81
513.562	81.81
513.778	79.81
513.994	90.81
514.21	81.81
514.426	84.81
514.642	78.81
514.858	82.81
515.074	80.81
515.29	81.81
515.506	87.81
515.721	81.81
515.937	71.81
516.153	84.81
516.369	98.81
516.585	65.81
516.801	75.81
517.016	76.81
517.232	87.81
517.448	66.81
517.664	90.81
517.879	84.81
518.095	77.81
