Data from Location4.07152019.Energy5.Lamp.07192019.3%Agarose_HRD10591_15-23-11-577.txt Node
Date: Fri Jul 19 15:23:11 EDT 2019
User: cochatt
Spectrometer: HR+D1059
Trigger mode: 1
Integration Time (sec): 1.000000E-1
Scans to average: 1
Electric dark correction enabled: true
Nonlinearity correction enabled: false
Boxcar width: 0
XAxis mode: Wavelengths
Number of Pixels in Spectrum: 2048
>>>>>Begin Spectral Data<<<<<
223.165	-13.25
223.4	-13.25
223.635	-13.25
223.869	-15.25
224.104	-12.25
224.338	-21.25
224.573	-16.25
224.808	-13.25
225.042	-6.25
225.277	-3.25
225.511	-15.25
225.746	-6.25
225.98	14.75
226.215	5.75
226.449	11.75
226.683	17.75
226.918	37.75
227.152	34.75
227.387	32.75
227.621	39.75
227.856	41.75
228.09	45.75
228.324	54.75
228.559	43.75
228.793	71.75
229.027	54.75
229.262	79.75
229.496	58.75
229.73	76.75
229.964	65.75
230.199	65.75
230.433	73.75
230.667	78.75
230.901	80.75
231.136	67.75
231.37	70.75
231.604	80.75
231.838	81.75
232.072	89.75
232.306	95.75
232.541	101.75
232.775	78.75
233.009	86.75
233.243	68.75
233.477	78.75
233.711	85.75
233.945	93.75
234.179	77.75
234.413	75.75
234.647	77.75
234.881	70.75
235.115	88.75
235.349	91.75
235.583	85.75
235.817	71.75
236.051	72.75
236.285	89.75
236.519	83.75
236.753	78.75
236.987	75.75
237.221	73.75
237.455	76.75
237.689	79.75
237.922	79.75
238.156	69.75
238.39	80.75
238.624	87.75
238.858	79.75
239.091	70.75
239.325	73.75
239.559	78.75
239.793	79.75
240.027	72.75
240.26	84.75
240.494	86.75
240.728	79.75
240.961	80.75
241.195	65.75
241.429	90.75
241.662	90.75
241.896	74.75
242.13	96.75
242.363	69.75
242.597	82.75
242.83	90.75
243.064	65.75
243.298	71.75
243.531	79.75
243.765	79.75
243.998	71.75
244.232	92.75
244.465	77.75
244.699	83.75
244.932	66.75
245.166	83.75
245.399	79.75
245.633	82.75
245.866	79.75
246.099	81.75
246.333	80.75
246.566	86.75
246.8	76.75
247.033	71.75
247.266	88.75
247.5	76.75
247.733	75.75
247.966	77.75
248.2	83.75
248.433	82.75
248.666	78.75
248.899	86.75
249.133	80.75
249.366	54.75
249.599	76.75
249.832	73.75
250.066	61.75
250.299	76.75
250.532	74.75
250.765	83.75
250.998	76.75
251.231	97.75
251.465	76.75
251.698	87.75
251.931	79.75
252.164	73.75
252.397	77.75
252.63	80.75
252.863	98.75
253.096	81.75
253.329	77.75
253.562	78.75
253.795	76.75
254.028	82.75
254.261	80.75
254.494	75.75
254.727	94.75
254.96	84.75
255.193	74.75
255.426	81.75
255.659	84.75
255.892	81.75
256.124	70.75
256.357	75.75
256.59	80.75
256.823	79.75
257.056	72.75
257.289	91.75
257.521	82.75
257.754	79.75
257.987	98.75
258.22	90.75
258.452	74.75
258.685	88.75
258.918	74.75
259.151	85.75
259.383	91.75
259.616	83.75
259.849	72.75
260.081	71.75
260.314	91.75
260.547	81.75
260.779	84.75
261.012	59.75
261.244	70.75
261.477	71.75
261.71	85.75
261.942	79.75
262.175	88.75
262.407	84.75
262.64	82.75
262.872	79.75
263.105	87.75
263.337	87.75
263.57	83.75
263.802	84.75
264.035	77.75
264.267	83.75
264.499	66.75
264.732	82.75
264.964	66.75
265.197	84.75
265.429	81.75
265.661	82.75
265.894	73.75
266.126	101.75
266.358	85.75
266.591	69.75
266.823	73.75
267.055	81.75
267.287	85.75
267.52	77.75
267.752	86.75
267.984	87.75
268.216	77.75
268.448	89.75
268.681	82.75
268.913	93.75
269.145	72.75
269.377	70.75
269.609	73.75
269.841	77.75
270.073	80.75
270.306	84.75
270.538	75.75
270.77	83.75
271.002	81.75
271.234	79.75
271.466	92.75
271.698	88.75
271.93	91.75
272.162	95.75
272.394	91.75
272.626	92.75
272.858	83.75
273.09	81.75
273.322	87.75
273.553	98.75
273.785	82.75
274.017	87.75
274.249	90.75
274.481	83.75
274.713	74.75
274.945	75.75
275.176	83.75
275.408	89.75
275.64	77.75
275.872	90.75
276.104	81.75
276.335	89.75
276.567	69.75
276.799	91.75
277.031	77.75
277.262	81.75
277.494	86.75
277.726	86.75
277.957	74.75
278.189	85.75
278.421	89.75
278.652	83.75
278.884	91.75
279.115	97.75
279.347	100.75
279.579	73.75
279.81	83.75
280.042	74.75
280.273	76.75
280.505	83.75
280.736	84.75
280.968	63.75
281.199	81.75
281.431	83.75
281.662	86.75
281.894	90.75
282.125	80.75
282.356	81.75
282.588	81.75
282.819	79.75
283.051	80.75
283.282	90.75
283.513	89.75
283.745	88.75
283.976	75.75
284.207	78.75
284.439	80.75
284.67	90.75
284.901	74.75
285.132	66.75
285.364	88.75
285.595	82.75
285.826	83.75
286.057	102.75
286.288	87.75
286.52	85.75
286.751	97.75
286.982	80.75
287.213	89.75
287.444	80.75
287.675	63.75
287.906	82.75
288.138	73.75
288.369	74.75
288.6	90.75
288.831	83.75
289.062	77.75
289.293	81.75
289.524	77.75
289.755	90.75
289.986	88.75
290.217	70.75
290.448	79.75
290.679	85.75
290.91	79.75
291.141	87.75
291.371	90.75
291.602	71.75
291.833	91.75
292.064	94.75
292.295	74.75
292.526	79.75
292.757	89.75
292.987	79.75
293.218	91.75
293.449	80.75
293.68	88.75
293.91	85.75
294.141	88.75
294.372	83.75
294.603	80.75
294.833	88.75
295.064	88.75
295.295	88.75
295.525	69.75
295.756	88.75
295.987	90.75
296.217	84.75
296.448	93.75
296.679	83.75
296.909	89.75
297.14	71.75
297.37	101.75
297.601	88.75
297.831	86.75
298.062	95.75
298.292	95.75
298.523	106.75
298.753	82.75
298.984	83.75
299.214	83.75
299.445	82.75
299.675	80.75
299.905	91.75
300.136	82.75
300.366	101.75
300.597	77.75
300.827	84.75
301.057	74.75
301.288	76.75
301.518	88.75
301.748	86.75
301.979	87.75
302.209	77.75
302.439	85.75
302.669	76.75
302.9	84.75
303.13	83.75
303.36	85.75
303.59	83.75
303.82	86.75
304.051	80.75
304.281	88.75
304.511	95.75
304.741	102.75
304.971	94.75
305.201	91.75
305.431	91.75
305.661	85.75
305.891	89.75
306.121	92.75
306.352	80.75
306.582	83.75
306.812	81.75
307.042	79.75
307.272	75.75
307.502	88.75
307.731	88.75
307.961	99.75
308.191	83.75
308.421	83.75
308.651	91.75
308.881	88.75
309.111	91.75
309.341	84.75
309.571	86.75
309.8	92.75
310.03	87.75
310.26	79.75
310.49	83.75
310.72	85.75
310.949	93.75
311.179	86.75
311.409	80.75
311.639	59.75
311.868	74.75
312.098	83.75
312.328	83.75
312.557	95.75
312.787	87.75
313.017	76.75
313.246	93.75
313.476	87.75
313.706	78.75
313.935	89.75
314.165	84.75
314.394	88.75
314.624	74.75
314.853	95.75
315.083	82.75
315.312	90.75
315.542	84.75
315.771	78.75
316.001	87.75
316.23	80.75
316.46	90.75
316.689	76.75
316.919	77.75
317.148	96.75
317.377	86.75
317.607	95.75
317.836	86.75
318.065	87.75
318.295	72.75
318.524	90.75
318.753	89.75
318.983	85.75
319.212	94.75
319.441	81.75
319.67	95.75
319.9	74.75
320.129	74.75
320.358	88.75
320.587	95.75
320.816	77.75
321.046	83.75
321.275	93.75
321.504	79.75
321.733	77.75
321.962	80.75
322.191	78.75
322.42	80.75
322.649	88.75
322.878	82.75
323.108	99.75
323.337	70.75
323.566	71.75
323.795	83.75
324.024	81.75
324.253	80.75
324.482	88.75
324.71	82.75
324.939	79.75
325.168	85.75
325.397	81.75
325.626	88.75
325.855	82.75
326.084	80.75
326.313	90.75
326.542	93.75
326.77	86.75
326.999	78.75
327.228	79.75
327.457	88.75
327.686	82.75
327.914	98.75
328.143	80.75
328.372	87.75
328.6	85.75
328.829	89.75
329.058	82.75
329.287	82.75
329.515	89.75
329.744	75.75
329.972	78.75
330.201	97.75
330.43	86.75
330.658	87.75
330.887	84.75
331.115	77.75
331.344	85.75
331.572	87.75
331.801	79.75
332.03	89.75
332.258	90.75
332.486	63.75
332.715	66.75
332.943	78.75
333.172	86.75
333.4	77.75
333.629	74.75
333.857	82.75
334.085	80.75
334.314	84.75
334.542	78.75
334.771	87.75
334.999	87.75
335.227	74.75
335.455	74.75
335.684	96.75
335.912	80.75
336.14	69.75
336.369	73.75
336.597	92.75
336.825	79.75
337.053	69.75
337.281	74.75
337.51	80.75
337.738	85.75
337.966	83.75
338.194	90.75
338.422	85.75
338.65	88.75
338.878	86.75
339.106	66.75
339.334	77.75
339.562	83.75
339.79	85.75
340.018	87.75
340.246	83.75
340.474	81.75
340.702	85.75
340.93	85.75
341.158	85.75
341.386	73.75
341.614	80.75
341.842	79.75
342.07	79.75
342.298	89.75
342.526	86.75
342.754	84.75
342.981	88.75
343.209	83.75
343.437	79.75
343.665	58.75
343.893	66.75
344.12	83.75
344.348	78.75
344.576	74.75
344.804	66.75
345.031	76.75
345.259	76.75
345.487	72.75
345.714	95.75
345.942	87.75
346.17	94.75
346.397	86.75
346.625	78.75
346.853	86.75
347.08	85.75
347.308	86.75
347.535	85.75
347.763	81.75
347.99	75.75
348.218	82.75
348.445	82.75
348.673	82.75
348.9	94.75
349.128	90.75
349.355	71.75
349.583	79.75
349.81	75.75
350.037	83.75
350.265	79.75
350.492	74.75
350.72	82.75
350.947	76.75
351.174	88.75
351.402	84.75
351.629	80.75
351.856	89.75
352.083	86.75
352.311	85.75
352.538	79.75
352.765	79.75
352.992	76.75
353.22	86.75
353.447	75.75
353.674	96.75
353.901	86.75
354.128	78.75
354.355	71.75
354.583	103.75
354.81	85.75
355.037	73.75
355.264	72.75
355.491	90.75
355.718	64.75
355.945	90.75
356.172	90.75
356.399	73.75
356.626	69.75
356.853	82.75
357.08	102.75
357.307	76.75
357.534	85.75
357.761	95.75
357.988	83.75
358.215	78.75
358.441	74.75
358.668	73.75
358.895	75.75
359.122	74.75
359.349	89.75
359.576	72.75
359.802	89.75
360.029	74.75
360.256	80.75
360.483	82.75
360.709	81.75
360.936	86.75
361.163	91.75
361.39	81.75
361.616	94.75
361.843	88.75
362.07	89.75
362.296	85.75
362.523	79.75
362.749	84.75
362.976	85.75
363.203	87.75
363.429	87.75
363.656	81.75
363.882	88.75
364.109	75.75
364.335	81.75
364.562	86.75
364.788	83.75
365.015	68.75
365.241	87.75
365.468	74.75
365.694	76.75
365.92	86.75
366.147	82.75
366.373	70.75
366.599	85.75
366.826	92.75
367.052	89.75
367.278	95.75
367.505	79.75
367.731	85.75
367.957	96.75
368.184	84.75
368.41	94.75
368.636	89.75
368.862	85.75
369.089	89.75
369.315	83.75
369.541	75.75
369.767	81.75
369.993	75.75
370.219	87.75
370.445	87.75
370.672	87.75
370.898	77.75
371.124	79.75
371.35	71.75
371.576	78.75
371.802	88.75
372.028	91.75
372.254	77.75
372.48	82.75
372.706	90.75
372.932	87.75
373.158	80.75
373.384	78.75
373.61	84.75
373.835	87.75
374.061	92.75
374.287	79.75
374.513	75.75
374.739	87.75
374.965	79.75
375.191	92.75
375.416	96.75
375.642	73.75
375.868	83.75
376.094	73.75
376.319	86.75
376.545	81.75
376.771	92.75
376.997	90.75
377.222	82.75
377.448	89.75
377.674	78.75
377.899	95.75
378.125	83.75
378.35	75.75
378.576	77.75
378.802	85.75
379.027	68.75
379.253	98.75
379.478	81.75
379.704	70.75
379.929	82.75
380.155	91.75
380.38	70.75
380.606	87.75
380.831	103.75
381.057	93.75
381.282	71.75
381.507	96.75
381.733	92.75
381.958	91.75
382.184	81.75
382.409	86.75
382.634	82.75
382.86	96.75
383.085	88.75
383.31	86.75
383.535	95.75
383.761	87.75
383.986	75.75
384.211	79.75
384.436	75.75
384.662	86.75
384.887	93.75
385.112	77.75
385.337	80.75
385.562	73.75
385.787	72.75
386.013	101.75
386.238	86.75
386.463	90.75
386.688	81.75
386.913	91.75
387.138	80.75
387.363	75.75
387.588	94.75
387.813	95.75
388.038	85.75
388.263	81.75
388.488	89.75
388.713	92.75
388.938	80.75
389.163	85.75
389.387	88.75
389.612	100.75
389.837	87.75
390.062	85.75
390.287	89.75
390.512	83.75
390.736	79.75
390.961	87.75
391.186	74.75
391.411	89.75
391.636	87.75
391.86	81.75
392.085	93.75
392.31	92.75
392.534	78.75
392.759	75.75
392.984	84.75
393.208	74.75
393.433	89.75
393.658	103.75
393.882	77.75
394.107	89.75
394.331	98.75
394.556	85.75
394.78	91.75
395.005	85.75
395.229	81.75
395.454	76.75
395.678	80.75
395.903	73.75
396.127	85.75
396.352	88.75
396.576	74.75
396.801	82.75
397.025	86.75
397.249	85.75
397.474	91.75
397.698	81.75
397.922	90.75
398.147	89.75
398.371	97.75
398.595	89.75
398.82	75.75
399.044	85.75
399.268	94.75
399.492	92.75
399.717	85.75
399.941	85.75
400.165	94.75
400.389	81.75
400.613	83.75
400.837	93.75
401.062	103.75
401.286	83.75
401.51	93.75
401.734	96.75
401.958	82.75
402.182	83.75
402.406	88.75
402.63	90.75
402.854	87.75
403.078	97.75
403.302	108.75
403.526	100.75
403.75	84.75
403.974	91.75
404.198	79.75
404.422	85.75
404.645	97.75
404.869	100.75
405.093	81.75
405.317	89.75
405.541	83.75
405.765	84.75
405.988	87.75
406.212	94.75
406.436	86.75
406.66	88.75
406.883	104.75
407.107	94.75
407.331	96.75
407.555	88.75
407.778	80.75
408.002	86.75
408.226	98.75
408.449	94.75
408.673	96.75
408.896	102.75
409.12	94.75
409.344	99.75
409.567	98.75
409.791	104.75
410.014	82.75
410.238	104.75
410.461	92.75
410.685	97.75
410.908	94.75
411.132	95.75
411.355	89.75
411.578	92.75
411.802	99.75
412.025	87.75
412.249	88.75
412.472	94.75
412.695	94.75
412.919	87.75
413.142	98.75
413.365	90.75
413.589	85.75
413.812	82.75
414.035	90.75
414.258	91.75
414.482	91.75
414.705	102.75
414.928	101.75
415.151	92.75
415.374	90.75
415.597	85.75
415.821	98.75
416.044	80.75
416.267	86.75
416.49	81.75
416.713	100.75
416.936	83.75
417.159	84.75
417.382	79.75
417.605	79.75
417.828	105.75
418.051	90.75
418.274	98.75
418.497	101.75
418.72	95.75
418.943	89.75
419.166	90.75
419.389	91.75
419.611	92.75
419.834	78.75
420.057	87.75
420.28	85.75
420.503	96.75
420.726	105.75
420.948	93.75
421.171	96.75
421.394	88.75
421.617	76.75
421.839	108.75
422.062	90.75
422.285	86.75
422.507	78.75
422.73	94.75
422.953	89.75
423.175	89.75
423.398	87.75
423.621	97.75
423.843	85.75
424.066	87.75
424.288	98.75
424.511	89.75
424.733	84.75
424.956	91.75
425.178	93.75
425.401	90.75
425.623	94.75
425.846	85.75
426.068	101.75
426.291	87.75
426.513	88.75
426.735	101.75
426.958	99.75
427.18	93.75
427.402	87.75
427.625	98.75
427.847	91.75
428.069	94.75
428.292	92.75
428.514	87.75
428.736	85.75
428.958	89.75
429.181	85.75
429.403	80.75
429.625	97.75
429.847	82.75
430.069	99.75
430.292	90.75
430.514	86.75
430.736	99.75
430.958	94.75
431.18	86.75
431.402	81.75
431.624	88.75
431.846	81.75
432.068	83.75
432.29	84.75
432.512	88.75
432.734	102.75
432.956	101.75
433.178	96.75
433.4	89.75
433.622	104.75
433.844	99.75
434.066	87.75
434.287	102.75
434.509	86.75
434.731	88.75
434.953	84.75
435.175	88.75
435.397	84.75
435.618	94.75
435.84	90.75
436.062	101.75
436.284	101.75
436.505	80.75
436.727	99.75
436.949	88.75
437.17	94.75
437.392	102.75
437.614	93.75
437.835	83.75
438.057	93.75
438.278	94.75
438.5	91.75
438.721	91.75
438.943	99.75
439.165	85.75
439.386	101.75
439.608	101.75
439.829	92.75
440.05	99.75
440.272	93.75
440.493	87.75
440.715	101.75
440.936	91.75
441.158	103.75
441.379	108.75
441.6	90.75
441.822	85.75
442.043	93.75
442.264	99.75
442.486	105.75
442.707	98.75
442.928	96.75
443.149	99.75
443.371	111.75
443.592	85.75
443.813	94.75
444.034	84.75
444.255	101.75
444.476	86.75
444.698	90.75
444.919	95.75
445.14	187.75
445.361	129.75
445.582	105.75
445.803	107.75
446.024	90.75
446.245	105.75
446.466	109.75
446.687	93.75
446.908	102.75
447.129	100.75
447.35	105.75
447.571	97.75
447.792	100.75
448.013	111.75
448.234	91.75
448.455	101.75
448.675	80.75
448.896	81.75
449.117	93.75
449.338	94.75
449.559	96.75
449.779	96.75
450	91.75
450.221	80.75
450.442	88.75
450.662	79.75
450.883	82.75
451.104	111.75
451.324	92.75
451.545	86.75
451.766	87.75
451.986	99.75
452.207	86.75
452.428	91.75
452.648	90.75
452.869	84.75
453.089	80.75
453.31	79.75
453.53	91.75
453.751	86.75
453.971	88.75
454.192	84.75
454.412	95.75
454.633	100.75
454.853	95.75
455.073	101.75
455.294	100.75
455.514	97.75
455.734	89.75
455.955	110.75
456.175	90.75
456.395	80.75
456.616	93.75
456.836	98.75
457.056	96.75
457.276	95.75
457.497	95.75
457.717	79.75
457.937	86.75
458.157	79.75
458.377	82.75
458.598	94.75
458.818	87.75
459.038	84.75
459.258	70.75
459.478	76.75
459.698	80.75
459.918	88.75
460.138	85.75
460.358	91.75
460.578	99.75
460.798	90.75
461.018	86.75
461.238	88.75
461.458	91.75
461.678	78.75
461.898	81.75
462.118	101.75
462.338	85.75
462.558	90.75
462.777	89.75
462.997	81.75
463.217	88.75
463.437	77.75
463.657	88.75
463.876	85.75
464.096	87.75
464.316	90.75
464.536	93.75
464.755	101.75
464.975	82.75
465.195	96.75
465.414	92.75
465.634	87.75
465.854	78.75
466.073	88.75
466.293	96.75
466.512	109.75
466.732	94.75
466.951	104.75
467.171	104.75
467.391	90.75
467.61	97.75
467.829	83.75
468.049	81.75
468.268	102.75
468.488	91.75
468.707	79.75
468.927	97.75
469.146	94.75
469.365	98.75
469.585	97.75
469.804	101.75
470.023	102.75
470.243	91.75
470.462	88.75
470.681	87.75
470.901	95.75
471.12	99.75
471.339	97.75
471.558	84.75
471.777	80.75
471.997	102.75
472.216	98.75
472.435	78.75
472.654	89.75
472.873	85.75
473.092	84.75
473.311	86.75
473.53	111.75
473.749	93.75
473.968	91.75
474.187	81.75
474.406	93.75
474.625	96.75
474.844	101.75
475.063	109.75
475.282	101.75
475.501	97.75
475.72	90.75
475.939	86.75
476.158	99.75
476.377	94.75
476.596	97.75
476.814	109.75
477.033	78.75
477.252	101.75
477.471	99.75
477.69	92.75
477.908	96.75
478.127	96.75
478.346	104.75
478.564	88.75
478.783	97.75
479.002	104.75
479.22	104.75
479.439	103.75
479.658	81.75
479.876	97.75
480.095	100.75
480.313	94.75
480.532	81.75
480.751	83.75
480.969	97.75
481.188	85.75
481.406	90.75
481.624	82.75
481.843	80.75
482.061	69.75
482.28	84.75
482.498	98.75
482.717	76.75
482.935	87.75
483.153	104.75
483.372	103.75
483.59	92.75
483.808	120.75
484.027	89.75
484.245	79.75
484.463	113.75
484.681	107.75
484.9	100.75
485.118	93.75
485.336	99.75
485.554	90.75
485.772	78.75
485.99	84.75
486.209	96.75
486.427	95.75
486.645	89.75
486.863	99.75
487.081	104.75
487.299	92.75
487.517	88.75
487.735	110.75
487.953	103.75
488.171	106.75
488.389	108.75
488.607	98.75
488.825	82.75
489.043	94.75
489.261	102.75
489.479	109.75
489.696	101.75
489.914	102.75
490.132	95.75
490.35	100.75
490.568	95.75
490.786	99.75
491.003	110.75
491.221	114.75
491.439	114.75
491.657	109.75
491.874	127.75
492.092	112.75
492.31	130.75
492.527	114.75
492.745	121.75
492.963	122.75
493.18	120.75
493.398	118.75
493.615	109.75
493.833	105.75
494.05	109.75
494.268	111.75
494.485	113.75
494.703	100.75
494.92	107.75
495.138	113.75
495.355	101.75
495.573	106.75
495.79	100.75
496.008	119.75
496.225	98.75
496.442	109.75
496.66	98.75
496.877	105.75
497.094	115.75
497.312	103.75
497.529	116.75
497.746	97.75
497.963	92.75
498.181	90.75
498.398	85.75
498.615	96.75
498.832	94.75
499.049	99.75
499.267	96.75
499.484	102.75
499.701	85.75
499.918	86.75
500.135	99.75
500.352	110.75
500.569	88.75
500.786	98.75
501.003	102.75
501.22	87.75
501.437	97.75
501.654	111.75
501.871	86.75
502.088	98.75
502.305	96.75
502.522	82.75
502.739	90.75
502.956	96.75
503.172	90.75
503.389	96.75
503.606	94.75
503.823	90.75
504.04	91.75
504.256	100.75
504.473	84.75
504.69	101.75
504.907	115.75
505.123	109.75
505.34	92.75
505.557	99.75
505.773	100.75
505.99	89.75
506.207	94.75
506.423	105.75
506.64	85.75
506.856	92.75
507.073	90.75
507.289	75.75
507.506	90.75
507.722	99.75
507.939	92.75
508.155	87.75
508.372	87.75
508.588	91.75
508.805	89.75
509.021	91.75
509.238	85.75
509.454	96.75
509.67	89.75
509.887	80.75
510.103	86.75
510.319	75.75
510.536	86.75
510.752	64.75
510.968	72.75
511.184	86.75
511.401	85.75
511.617	89.75
511.833	78.75
512.049	89.75
512.265	95.75
512.481	102.75
512.698	78.75
512.914	83.75
513.13	87.75
513.346	84.75
513.562	94.75
513.778	85.75
513.994	87.75
514.21	81.75
514.426	93.75
514.642	89.75
514.858	89.75
515.074	95.75
515.29	97.75
515.506	83.75
515.721	85.75
515.937	93.75
516.153	93.75
516.369	86.75
516.585	81.75
516.801	70.75
517.016	83.75
517.232	82.75
517.448	100.75
