Data from Location4.07152019.Energy5.Lamp.07192019.3%Agarose_HRD10591_15-24-27-577.txt Node
Date: Fri Jul 19 15:24:27 EDT 2019
User: cochatt
Spectrometer: HR+D1059
Trigger mode: 1
Integration Time (sec): 1.000000E-1
Scans to average: 1
Electric dark correction enabled: true
Nonlinearity correction enabled: false
Boxcar width: 0
XAxis mode: Wavelengths
Number of Pixels in Spectrum: 2048
>>>>>Begin Spectral Data<<<<<
223.165	-12.75
223.4	-12.75
223.635	-12.75
223.869	-20.75
224.104	-23.75
224.338	-16.75
224.573	-6.75
224.808	-21.75
225.042	-10.75
225.277	-1.75
225.511	-9.75
225.746	6.25
225.98	5.25
226.215	-1.75
226.449	14.25
226.683	27.25
226.918	25.25
227.152	48.25
227.387	36.25
227.621	53.25
227.856	44.25
228.09	38.25
228.324	41.25
228.559	40.25
228.793	55.25
229.027	48.25
229.262	44.25
229.496	59.25
229.73	53.25
229.964	58.25
230.199	55.25
230.433	82.25
230.667	85.25
230.901	72.25
231.136	82.25
231.37	68.25
231.604	83.25
231.838	70.25
232.072	88.25
232.306	79.25
232.541	83.25
232.775	75.25
233.009	65.25
233.243	83.25
233.477	71.25
233.711	64.25
233.945	74.25
234.179	69.25
234.413	82.25
234.647	85.25
234.881	71.25
235.115	75.25
235.349	77.25
235.583	65.25
235.817	67.25
236.051	70.25
236.285	85.25
236.519	81.25
236.753	79.25
236.987	82.25
237.221	71.25
237.455	87.25
237.689	87.25
237.922	74.25
238.156	60.25
238.39	73.25
238.624	71.25
238.858	66.25
239.091	63.25
239.325	72.25
239.559	77.25
239.793	78.25
240.027	81.25
240.26	77.25
240.494	88.25
240.728	82.25
240.961	62.25
241.195	67.25
241.429	70.25
241.662	87.25
241.896	67.25
242.13	84.25
242.363	81.25
242.597	60.25
242.83	77.25
243.064	74.25
243.298	87.25
243.531	70.25
243.765	80.25
243.998	81.25
244.232	70.25
244.465	76.25
244.699	65.25
244.932	81.25
245.166	82.25
245.399	83.25
245.633	70.25
245.866	72.25
246.099	86.25
246.333	76.25
246.566	86.25
246.8	63.25
247.033	67.25
247.266	60.25
247.5	66.25
247.733	94.25
247.966	80.25
248.2	65.25
248.433	62.25
248.666	78.25
248.899	83.25
249.133	64.25
249.366	94.25
249.599	77.25
249.832	78.25
250.066	79.25
250.299	82.25
250.532	87.25
250.765	85.25
250.998	86.25
251.231	66.25
251.465	81.25
251.698	74.25
251.931	92.25
252.164	76.25
252.397	86.25
252.63	80.25
252.863	74.25
253.096	77.25
253.329	81.25
253.562	66.25
253.795	72.25
254.028	62.25
254.261	74.25
254.494	69.25
254.727	75.25
254.96	76.25
255.193	73.25
255.426	84.25
255.659	68.25
255.892	83.25
256.124	84.25
256.357	89.25
256.59	88.25
256.823	78.25
257.056	74.25
257.289	68.25
257.521	82.25
257.754	80.25
257.987	86.25
258.22	88.25
258.452	83.25
258.685	77.25
258.918	86.25
259.151	80.25
259.383	80.25
259.616	88.25
259.849	90.25
260.081	81.25
260.314	73.25
260.547	63.25
260.779	84.25
261.012	80.25
261.244	80.25
261.477	74.25
261.71	84.25
261.942	84.25
262.175	89.25
262.407	71.25
262.64	74.25
262.872	66.25
263.105	61.25
263.337	80.25
263.57	68.25
263.802	72.25
264.035	96.25
264.267	92.25
264.499	65.25
264.732	75.25
264.964	84.25
265.197	87.25
265.429	81.25
265.661	86.25
265.894	85.25
266.126	75.25
266.358	77.25
266.591	97.25
266.823	81.25
267.055	80.25
267.287	76.25
267.52	70.25
267.752	85.25
267.984	79.25
268.216	84.25
268.448	89.25
268.681	83.25
268.913	85.25
269.145	81.25
269.377	83.25
269.609	76.25
269.841	78.25
270.073	87.25
270.306	68.25
270.538	73.25
270.77	77.25
271.002	78.25
271.234	83.25
271.466	89.25
271.698	86.25
271.93	95.25
272.162	75.25
272.394	55.25
272.626	75.25
272.858	69.25
273.09	80.25
273.322	84.25
273.553	81.25
273.785	78.25
274.017	82.25
274.249	80.25
274.481	73.25
274.713	80.25
274.945	78.25
275.176	75.25
275.408	82.25
275.64	81.25
275.872	81.25
276.104	88.25
276.335	86.25
276.567	85.25
276.799	92.25
277.031	80.25
277.262	78.25
277.494	94.25
277.726	74.25
277.957	85.25
278.189	84.25
278.421	69.25
278.652	90.25
278.884	84.25
279.115	81.25
279.347	93.25
279.579	90.25
279.81	72.25
280.042	90.25
280.273	67.25
280.505	64.25
280.736	70.25
280.968	92.25
281.199	77.25
281.431	89.25
281.662	84.25
281.894	78.25
282.125	81.25
282.356	89.25
282.588	89.25
282.819	75.25
283.051	67.25
283.282	70.25
283.513	74.25
283.745	75.25
283.976	69.25
284.207	80.25
284.439	89.25
284.67	78.25
284.901	85.25
285.132	80.25
285.364	76.25
285.595	80.25
285.826	84.25
286.057	78.25
286.288	85.25
286.52	81.25
286.751	91.25
286.982	71.25
287.213	81.25
287.444	89.25
287.675	78.25
287.906	92.25
288.138	74.25
288.369	81.25
288.6	81.25
288.831	84.25
289.062	93.25
289.293	98.25
289.524	78.25
289.755	71.25
289.986	81.25
290.217	81.25
290.448	86.25
290.679	85.25
290.91	77.25
291.141	80.25
291.371	78.25
291.602	75.25
291.833	75.25
292.064	82.25
292.295	96.25
292.526	90.25
292.757	75.25
292.987	93.25
293.218	79.25
293.449	85.25
293.68	83.25
293.91	87.25
294.141	92.25
294.372	83.25
294.603	79.25
294.833	77.25
295.064	82.25
295.295	74.25
295.525	87.25
295.756	82.25
295.987	80.25
296.217	85.25
296.448	79.25
296.679	92.25
296.909	84.25
297.14	77.25
297.37	92.25
297.601	87.25
297.831	80.25
298.062	98.25
298.292	81.25
298.523	86.25
298.753	66.25
298.984	76.25
299.214	86.25
299.445	92.25
299.675	77.25
299.905	58.25
300.136	84.25
300.366	76.25
300.597	84.25
300.827	90.25
301.057	86.25
301.288	84.25
301.518	86.25
301.748	77.25
301.979	85.25
302.209	74.25
302.439	79.25
302.669	71.25
302.9	85.25
303.13	85.25
303.36	96.25
303.59	84.25
303.82	76.25
304.051	75.25
304.281	74.25
304.511	83.25
304.741	72.25
304.971	83.25
305.201	72.25
305.431	76.25
305.661	83.25
305.891	85.25
306.121	101.25
306.352	97.25
306.582	89.25
306.812	78.25
307.042	83.25
307.272	81.25
307.502	86.25
307.731	88.25
307.961	93.25
308.191	80.25
308.421	74.25
308.651	85.25
308.881	77.25
309.111	80.25
309.341	81.25
309.571	96.25
309.8	75.25
310.03	81.25
310.26	93.25
310.49	80.25
310.72	99.25
310.949	65.25
311.179	91.25
311.409	81.25
311.639	87.25
311.868	82.25
312.098	93.25
312.328	79.25
312.557	80.25
312.787	86.25
313.017	91.25
313.246	91.25
313.476	74.25
313.706	86.25
313.935	84.25
314.165	81.25
314.394	86.25
314.624	96.25
314.853	77.25
315.083	78.25
315.312	93.25
315.542	87.25
315.771	90.25
316.001	81.25
316.23	88.25
316.46	97.25
316.689	83.25
316.919	92.25
317.148	89.25
317.377	90.25
317.607	89.25
317.836	84.25
318.065	83.25
318.295	78.25
318.524	81.25
318.753	91.25
318.983	78.25
319.212	92.25
319.441	93.25
319.67	87.25
319.9	93.25
320.129	84.25
320.358	84.25
320.587	77.25
320.816	92.25
321.046	86.25
321.275	69.25
321.504	78.25
321.733	84.25
321.962	83.25
322.191	81.25
322.42	87.25
322.649	84.25
322.878	98.25
323.108	112.25
323.337	91.25
323.566	85.25
323.795	84.25
324.024	66.25
324.253	88.25
324.482	89.25
324.71	68.25
324.939	89.25
325.168	86.25
325.397	75.25
325.626	90.25
325.855	79.25
326.084	87.25
326.313	74.25
326.542	95.25
326.77	74.25
326.999	76.25
327.228	92.25
327.457	91.25
327.686	88.25
327.914	96.25
328.143	88.25
328.372	90.25
328.6	69.25
328.829	79.25
329.058	85.25
329.287	78.25
329.515	73.25
329.744	81.25
329.972	73.25
330.201	90.25
330.43	71.25
330.658	72.25
330.887	82.25
331.115	88.25
331.344	87.25
331.572	88.25
331.801	82.25
332.03	106.25
332.258	72.25
332.486	78.25
332.715	81.25
332.943	83.25
333.172	80.25
333.4	91.25
333.629	90.25
333.857	100.25
334.085	78.25
334.314	74.25
334.542	86.25
334.771	77.25
334.999	92.25
335.227	94.25
335.455	83.25
335.684	76.25
335.912	84.25
336.14	81.25
336.369	70.25
336.597	86.25
336.825	93.25
337.053	78.25
337.281	77.25
337.51	80.25
337.738	96.25
337.966	85.25
338.194	80.25
338.422	84.25
338.65	77.25
338.878	103.25
339.106	78.25
339.334	89.25
339.562	85.25
339.79	83.25
340.018	81.25
340.246	83.25
340.474	85.25
340.702	87.25
340.93	102.25
341.158	84.25
341.386	74.25
341.614	80.25
341.842	92.25
342.07	73.25
342.298	89.25
342.526	73.25
342.754	88.25
342.981	80.25
343.209	89.25
343.437	84.25
343.665	68.25
343.893	89.25
344.12	95.25
344.348	88.25
344.576	80.25
344.804	73.25
345.031	80.25
345.259	84.25
345.487	70.25
345.714	87.25
345.942	94.25
346.17	97.25
346.397	87.25
346.625	74.25
346.853	83.25
347.08	71.25
347.308	72.25
347.535	76.25
347.763	76.25
347.99	85.25
348.218	94.25
348.445	85.25
348.673	77.25
348.9	81.25
349.128	81.25
349.355	79.25
349.583	88.25
349.81	79.25
350.037	82.25
350.265	83.25
350.492	67.25
350.72	86.25
350.947	85.25
351.174	83.25
351.402	75.25
351.629	65.25
351.856	85.25
352.083	85.25
352.311	87.25
352.538	83.25
352.765	89.25
352.992	82.25
353.22	73.25
353.447	95.25
353.674	78.25
353.901	85.25
354.128	87.25
354.355	86.25
354.583	70.25
354.81	76.25
355.037	90.25
355.264	78.25
355.491	84.25
355.718	74.25
355.945	85.25
356.172	85.25
356.399	89.25
356.626	75.25
356.853	71.25
357.08	92.25
357.307	93.25
357.534	92.25
357.761	86.25
357.988	84.25
358.215	75.25
358.441	91.25
358.668	82.25
358.895	81.25
359.122	104.25
359.349	85.25
359.576	73.25
359.802	89.25
360.029	79.25
360.256	77.25
360.483	80.25
360.709	93.25
360.936	98.25
361.163	92.25
361.39	85.25
361.616	81.25
361.843	84.25
362.07	80.25
362.296	96.25
362.523	68.25
362.749	67.25
362.976	76.25
363.203	96.25
363.429	99.25
363.656	84.25
363.882	95.25
364.109	94.25
364.335	83.25
364.562	70.25
364.788	70.25
365.015	93.25
365.241	78.25
365.468	80.25
365.694	87.25
365.92	85.25
366.147	73.25
366.373	68.25
366.599	83.25
366.826	80.25
367.052	98.25
367.278	78.25
367.505	83.25
367.731	80.25
367.957	91.25
368.184	92.25
368.41	77.25
368.636	85.25
368.862	84.25
369.089	90.25
369.315	79.25
369.541	68.25
369.767	73.25
369.993	63.25
370.219	87.25
370.445	82.25
370.672	89.25
370.898	77.25
371.124	81.25
371.35	78.25
371.576	80.25
371.802	84.25
372.028	88.25
372.254	92.25
372.48	91.25
372.706	81.25
372.932	80.25
373.158	87.25
373.384	93.25
373.61	87.25
373.835	81.25
374.061	76.25
374.287	82.25
374.513	89.25
374.739	85.25
374.965	79.25
375.191	68.25
375.416	85.25
375.642	77.25
375.868	77.25
376.094	94.25
376.319	81.25
376.545	87.25
376.771	68.25
376.997	76.25
377.222	77.25
377.448	67.25
377.674	82.25
377.899	78.25
378.125	80.25
378.35	78.25
378.576	85.25
378.802	76.25
379.027	88.25
379.253	81.25
379.478	92.25
379.704	73.25
379.929	94.25
380.155	91.25
380.38	77.25
380.606	87.25
380.831	81.25
381.057	83.25
381.282	87.25
381.507	61.25
381.733	92.25
381.958	93.25
382.184	91.25
382.409	91.25
382.634	88.25
382.86	84.25
383.085	91.25
383.31	82.25
383.535	88.25
383.761	86.25
383.986	78.25
384.211	86.25
384.436	83.25
384.662	80.25
384.887	74.25
385.112	87.25
385.337	90.25
385.562	90.25
385.787	93.25
386.013	105.25
386.238	86.25
386.463	92.25
386.688	102.25
386.913	82.25
387.138	98.25
387.363	102.25
387.588	108.25
387.813	87.25
388.038	76.25
388.263	75.25
388.488	83.25
388.713	82.25
388.938	94.25
389.163	87.25
389.387	71.25
389.612	79.25
389.837	85.25
390.062	78.25
390.287	83.25
390.512	81.25
390.736	80.25
390.961	81.25
391.186	89.25
391.411	77.25
391.636	80.25
391.86	86.25
392.085	79.25
392.31	88.25
392.534	74.25
392.759	88.25
392.984	78.25
393.208	82.25
393.433	86.25
393.658	86.25
393.882	81.25
394.107	92.25
394.331	86.25
394.556	85.25
394.78	82.25
395.005	89.25
395.229	70.25
395.454	90.25
395.678	84.25
395.903	84.25
396.127	95.25
396.352	91.25
396.576	91.25
396.801	81.25
397.025	90.25
397.249	80.25
397.474	94.25
397.698	83.25
397.922	91.25
398.147	66.25
398.371	81.25
398.595	93.25
398.82	80.25
399.044	87.25
399.268	88.25
399.492	80.25
399.717	88.25
399.941	80.25
400.165	90.25
400.389	87.25
400.613	85.25
400.837	88.25
401.062	88.25
401.286	83.25
401.51	84.25
401.734	84.25
401.958	87.25
402.182	82.25
402.406	81.25
402.63	78.25
402.854	73.25
403.078	82.25
403.302	80.25
403.526	92.25
403.75	81.25
403.974	84.25
404.198	95.25
404.422	77.25
404.645	88.25
404.869	90.25
405.093	93.25
405.317	90.25
405.541	89.25
405.765	76.25
405.988	89.25
406.212	89.25
406.436	96.25
406.66	85.25
406.883	72.25
407.107	80.25
407.331	92.25
407.555	81.25
407.778	97.25
408.002	93.25
408.226	97.25
408.449	91.25
408.673	94.25
408.896	88.25
409.12	88.25
409.344	95.25
409.567	95.25
409.791	88.25
410.014	87.25
410.238	81.25
410.461	87.25
410.685	82.25
410.908	89.25
411.132	81.25
411.355	81.25
411.578	95.25
411.802	87.25
412.025	86.25
412.249	92.25
412.472	99.25
412.695	93.25
412.919	97.25
413.142	90.25
413.365	84.25
413.589	100.25
413.812	79.25
414.035	80.25
414.258	85.25
414.482	101.25
414.705	103.25
414.928	88.25
415.151	82.25
415.374	90.25
415.597	91.25
415.821	89.25
416.044	84.25
416.267	70.25
416.49	86.25
416.713	85.25
416.936	85.25
417.159	76.25
417.382	93.25
417.605	99.25
417.828	95.25
418.051	97.25
418.274	110.25
418.497	93.25
418.72	95.25
418.943	102.25
419.166	99.25
419.389	91.25
419.611	103.25
419.834	96.25
420.057	98.25
420.28	82.25
420.503	102.25
420.726	95.25
420.948	91.25
421.171	94.25
421.394	97.25
421.617	99.25
421.839	98.25
422.062	95.25
422.285	99.25
422.507	90.25
422.73	84.25
422.953	92.25
423.175	85.25
423.398	97.25
423.621	93.25
423.843	113.25
424.066	95.25
424.288	94.25
424.511	92.25
424.733	98.25
424.956	109.25
425.178	82.25
425.401	86.25
425.623	100.25
425.846	93.25
426.068	96.25
426.291	102.25
426.513	88.25
426.735	82.25
426.958	91.25
427.18	90.25
427.402	93.25
427.625	93.25
427.847	78.25
428.069	83.25
428.292	96.25
428.514	91.25
428.736	81.25
428.958	92.25
429.181	82.25
429.403	89.25
429.625	97.25
429.847	78.25
430.069	99.25
430.292	100.25
430.514	83.25
430.736	93.25
430.958	85.25
431.18	90.25
431.402	101.25
431.624	83.25
431.846	95.25
432.068	91.25
432.29	82.25
432.512	104.25
432.734	88.25
432.956	95.25
433.178	88.25
433.4	98.25
433.622	103.25
433.844	95.25
434.066	96.25
434.287	88.25
434.509	77.25
434.731	80.25
434.953	84.25
435.175	74.25
435.397	103.25
435.618	81.25
435.84	83.25
436.062	77.25
436.284	84.25
436.505	75.25
436.727	88.25
436.949	83.25
437.17	87.25
437.392	89.25
437.614	83.25
437.835	82.25
438.057	85.25
438.278	79.25
438.5	88.25
438.721	89.25
438.943	94.25
439.165	101.25
439.386	100.25
439.608	103.25
439.829	94.25
440.05	88.25
440.272	95.25
440.493	96.25
440.715	90.25
440.936	97.25
441.158	88.25
441.379	99.25
441.6	97.25
441.822	90.25
442.043	105.25
442.264	98.25
442.486	90.25
442.707	101.25
442.928	97.25
443.149	96.25
443.371	97.25
443.592	106.25
443.813	91.25
444.034	95.25
444.255	88.25
444.476	87.25
444.698	93.25
444.919	85.25
445.14	184.25
445.361	143.25
445.582	100.25
445.803	94.25
446.024	105.25
446.245	93.25
446.466	95.25
446.687	97.25
446.908	93.25
447.129	102.25
447.35	100.25
447.571	100.25
447.792	100.25
448.013	100.25
448.234	103.25
448.455	87.25
448.675	99.25
448.896	106.25
449.117	93.25
449.338	97.25
449.559	102.25
449.779	87.25
450	99.25
450.221	86.25
450.442	97.25
450.662	92.25
450.883	78.25
451.104	82.25
451.324	91.25
451.545	100.25
451.766	88.25
451.986	97.25
452.207	90.25
452.428	102.25
452.648	104.25
452.869	86.25
453.089	89.25
453.31	82.25
453.53	93.25
453.751	95.25
453.971	91.25
454.192	100.25
454.412	91.25
454.633	102.25
454.853	87.25
455.073	97.25
455.294	108.25
455.514	84.25
455.734	87.25
455.955	101.25
456.175	89.25
456.395	96.25
456.616	86.25
456.836	93.25
457.056	85.25
457.276	76.25
457.497	91.25
457.717	89.25
457.937	88.25
458.157	95.25
458.377	92.25
458.598	92.25
458.818	74.25
459.038	78.25
459.258	73.25
459.478	79.25
459.698	76.25
459.918	81.25
460.138	76.25
460.358	87.25
460.578	92.25
460.798	94.25
461.018	89.25
461.238	88.25
461.458	100.25
461.678	91.25
461.898	82.25
462.118	100.25
462.338	89.25
462.558	88.25
462.777	87.25
462.997	91.25
463.217	85.25
463.437	80.25
463.657	87.25
463.876	76.25
464.096	78.25
464.316	74.25
464.536	78.25
464.755	92.25
464.975	103.25
465.195	85.25
465.414	82.25
465.634	95.25
465.854	98.25
466.073	85.25
466.293	95.25
466.512	99.25
466.732	89.25
466.951	100.25
467.171	85.25
467.391	70.25
467.61	92.25
467.829	92.25
468.049	81.25
468.268	93.25
468.488	112.25
468.707	93.25
468.927	101.25
469.146	101.25
469.365	100.25
469.585	108.25
469.804	100.25
470.023	103.25
470.243	95.25
470.462	95.25
470.681	101.25
470.901	95.25
471.12	90.25
471.339	106.25
471.558	96.25
471.777	100.25
471.997	118.25
472.216	93.25
472.435	99.25
472.654	95.25
472.873	88.25
473.092	88.25
473.311	82.25
473.53	86.25
473.749	87.25
473.968	98.25
474.187	98.25
474.406	107.25
474.625	96.25
474.844	96.25
475.063	91.25
475.282	96.25
475.501	87.25
475.72	102.25
475.939	97.25
476.158	83.25
476.377	97.25
476.596	96.25
476.814	91.25
477.033	83.25
477.252	86.25
477.471	90.25
477.69	105.25
477.908	104.25
478.127	105.25
478.346	84.25
478.564	109.25
478.783	101.25
479.002	102.25
479.22	93.25
479.439	85.25
479.658	77.25
479.876	94.25
480.095	81.25
480.313	103.25
480.532	87.25
480.751	79.25
480.969	87.25
481.188	71.25
481.406	74.25
481.624	80.25
481.843	84.25
482.061	83.25
482.28	80.25
482.498	94.25
482.717	98.25
482.935	90.25
483.153	99.25
483.372	114.25
483.59	82.25
483.808	109.25
484.027	94.25
484.245	113.25
484.463	88.25
484.681	102.25
484.9	104.25
485.118	84.25
485.336	85.25
485.554	85.25
485.772	82.25
485.99	82.25
486.209	89.25
486.427	96.25
486.645	101.25
486.863	96.25
487.081	97.25
487.299	99.25
487.517	106.25
487.735	113.25
487.953	114.25
488.171	116.25
488.389	97.25
488.607	92.25
488.825	88.25
489.043	74.25
489.261	106.25
489.479	110.25
489.696	95.25
489.914	78.25
490.132	93.25
490.35	97.25
490.568	87.25
490.786	117.25
491.003	125.25
491.221	111.25
491.439	122.25
491.657	113.25
491.874	109.25
492.092	129.25
492.31	122.25
492.527	110.25
492.745	117.25
492.963	120.25
493.18	123.25
493.398	120.25
493.615	108.25
493.833	101.25
494.05	108.25
494.268	107.25
494.485	106.25
494.703	116.25
494.92	101.25
495.138	111.25
495.355	104.25
495.573	98.25
495.79	100.25
496.008	92.25
496.225	108.25
496.442	109.25
496.66	96.25
496.877	103.25
497.094	104.25
497.312	104.25
497.529	105.25
497.746	106.25
497.963	95.25
498.181	80.25
498.398	85.25
498.615	77.25
498.832	92.25
499.049	101.25
499.267	92.25
499.484	89.25
499.701	94.25
499.918	103.25
500.135	109.25
500.352	101.25
500.569	112.25
500.786	112.25
501.003	113.25
501.22	108.25
501.437	98.25
501.654	94.25
501.871	110.25
502.088	95.25
502.305	98.25
502.522	102.25
502.739	90.25
502.956	96.25
503.172	96.25
503.389	94.25
503.606	100.25
503.823	100.25
504.04	81.25
504.256	92.25
504.473	86.25
504.69	100.25
504.907	90.25
505.123	91.25
505.34	86.25
505.557	98.25
505.773	94.25
505.99	84.25
506.207	83.25
506.423	88.25
506.64	84.25
506.856	94.25
507.073	70.25
507.289	78.25
507.506	82.25
507.722	74.25
507.939	81.25
508.155	73.25
508.372	93.25
508.588	84.25
508.805	83.25
509.021	79.25
509.238	92.25
509.454	77.25
509.67	83.25
509.887	97.25
510.103	89.25
510.319	88.25
510.536	96.25
510.752	89.25
510.968	83.25
511.184	76.25
511.401	84.25
511.617	85.25
511.833	79.25
512.049	95.25
512.265	82.25
512.481	76.25
512.698	90.25
512.914	92.25
513.13	82.25
513.346	88.25
513.562	78.25
513.778	96.25
513.994	79.25
514.21	80.25
514.426	87.25
514.642	97.25
514.858	77.25
515.074	81.25
515.29	85.25
515.506	85.25
515.721	93.25
515.937	73.25
516.153	81.25
516.369	87.25
516.585	86.25
516.801	86.25
517.016	68.25
517.232	78.25
517.448	86.25
517.664	90.25
