Data from Location4.07152019.Energy5.Lamp.07192019.3%Agarose_HRD10591_15-24-50-578.txt Node
Date: Fri Jul 19 15:24:50 EDT 2019
User: cochatt
Spectrometer: HR+D1059
Trigger mode: 1
Integration Time (sec): 1.000000E-1
Scans to average: 1
Electric dark correction enabled: true
Nonlinearity correction enabled: false
Boxcar width: 0
XAxis mode: Wavelengths
Number of Pixels in Spectrum: 2048
>>>>>Begin Spectral Data<<<<<
223.165	-21.94
223.4	-21.94
223.635	-21.94
223.869	-7.94
224.104	-16.94
224.338	-4.94
224.573	-12.94
224.808	-6.94
225.042	-2.94
225.277	-12.94
225.511	-2.94
225.746	8.06
225.98	9.06
226.215	16.06
226.449	3.06
226.683	19.06
226.918	10.06
227.152	25.06
227.387	35.06
227.621	53.06
227.856	53.06
228.09	51.06
228.324	48.06
228.559	73.06
228.793	63.06
229.027	59.06
229.262	66.06
229.496	78.06
229.73	69.06
229.964	68.06
230.199	77.06
230.433	70.06
230.667	97.06
230.901	85.06
231.136	74.06
231.37	79.06
231.604	86.06
231.838	87.06
232.072	99.06
232.306	93.06
232.541	89.06
232.775	82.06
233.009	85.06
233.243	88.06
233.477	86.06
233.711	83.06
233.945	86.06
234.179	69.06
234.413	91.06
234.647	74.06
234.881	84.06
235.115	86.06
235.349	80.06
235.583	78.06
235.817	80.06
236.051	86.06
236.285	99.06
236.519	80.06
236.753	78.06
236.987	77.06
237.221	90.06
237.455	83.06
237.689	67.06
237.922	82.06
238.156	80.06
238.39	85.06
238.624	66.06
238.858	89.06
239.091	85.06
239.325	80.06
239.559	67.06
239.793	74.06
240.027	89.06
240.26	88.06
240.494	85.06
240.728	77.06
240.961	75.06
241.195	74.06
241.429	82.06
241.662	73.06
241.896	87.06
242.13	79.06
242.363	66.06
242.597	78.06
242.83	76.06
243.064	70.06
243.298	70.06
243.531	80.06
243.765	78.06
243.998	83.06
244.232	80.06
244.465	87.06
244.699	75.06
244.932	79.06
245.166	62.06
245.399	90.06
245.633	74.06
245.866	70.06
246.099	76.06
246.333	93.06
246.566	85.06
246.8	82.06
247.033	80.06
247.266	78.06
247.5	72.06
247.733	83.06
247.966	75.06
248.2	75.06
248.433	87.06
248.666	73.06
248.899	75.06
249.133	80.06
249.366	83.06
249.599	63.06
249.832	76.06
250.066	87.06
250.299	79.06
250.532	78.06
250.765	90.06
250.998	76.06
251.231	78.06
251.465	84.06
251.698	71.06
251.931	74.06
252.164	86.06
252.397	68.06
252.63	90.06
252.863	87.06
253.096	101.06
253.329	72.06
253.562	90.06
253.795	91.06
254.028	87.06
254.261	79.06
254.494	64.06
254.727	78.06
254.96	77.06
255.193	79.06
255.426	84.06
255.659	82.06
255.892	90.06
256.124	95.06
256.357	89.06
256.59	89.06
256.823	75.06
257.056	81.06
257.289	87.06
257.521	78.06
257.754	83.06
257.987	76.06
258.22	90.06
258.452	74.06
258.685	82.06
258.918	86.06
259.151	77.06
259.383	81.06
259.616	75.06
259.849	90.06
260.081	87.06
260.314	84.06
260.547	86.06
260.779	87.06
261.012	90.06
261.244	89.06
261.477	70.06
261.71	89.06
261.942	89.06
262.175	87.06
262.407	86.06
262.64	78.06
262.872	90.06
263.105	71.06
263.337	78.06
263.57	85.06
263.802	89.06
264.035	82.06
264.267	82.06
264.499	77.06
264.732	92.06
264.964	79.06
265.197	77.06
265.429	91.06
265.661	77.06
265.894	90.06
266.126	76.06
266.358	78.06
266.591	99.06
266.823	77.06
267.055	83.06
267.287	84.06
267.52	95.06
267.752	83.06
267.984	93.06
268.216	75.06
268.448	90.06
268.681	82.06
268.913	94.06
269.145	86.06
269.377	85.06
269.609	84.06
269.841	85.06
270.073	75.06
270.306	86.06
270.538	83.06
270.77	82.06
271.002	76.06
271.234	97.06
271.466	93.06
271.698	94.06
271.93	94.06
272.162	69.06
272.394	97.06
272.626	76.06
272.858	83.06
273.09	84.06
273.322	90.06
273.553	85.06
273.785	74.06
274.017	73.06
274.249	78.06
274.481	88.06
274.713	90.06
274.945	87.06
275.176	76.06
275.408	69.06
275.64	90.06
275.872	95.06
276.104	99.06
276.335	82.06
276.567	77.06
276.799	78.06
277.031	70.06
277.262	90.06
277.494	76.06
277.726	87.06
277.957	90.06
278.189	76.06
278.421	81.06
278.652	84.06
278.884	83.06
279.115	86.06
279.347	83.06
279.579	88.06
279.81	81.06
280.042	91.06
280.273	91.06
280.505	92.06
280.736	85.06
280.968	82.06
281.199	91.06
281.431	87.06
281.662	96.06
281.894	70.06
282.125	83.06
282.356	87.06
282.588	83.06
282.819	95.06
283.051	76.06
283.282	72.06
283.513	87.06
283.745	100.06
283.976	79.06
284.207	77.06
284.439	84.06
284.67	86.06
284.901	94.06
285.132	83.06
285.364	94.06
285.595	99.06
285.826	79.06
286.057	72.06
286.288	79.06
286.52	75.06
286.751	91.06
286.982	95.06
287.213	94.06
287.444	105.06
287.675	80.06
287.906	75.06
288.138	94.06
288.369	76.06
288.6	91.06
288.831	83.06
289.062	78.06
289.293	85.06
289.524	91.06
289.755	99.06
289.986	93.06
290.217	91.06
290.448	89.06
290.679	92.06
290.91	98.06
291.141	82.06
291.371	98.06
291.602	90.06
291.833	103.06
292.064	99.06
292.295	83.06
292.526	100.06
292.757	81.06
292.987	83.06
293.218	86.06
293.449	84.06
293.68	79.06
293.91	86.06
294.141	86.06
294.372	93.06
294.603	79.06
294.833	81.06
295.064	78.06
295.295	79.06
295.525	79.06
295.756	86.06
295.987	94.06
296.217	81.06
296.448	87.06
296.679	82.06
296.909	68.06
297.14	89.06
297.37	89.06
297.601	87.06
297.831	87.06
298.062	99.06
298.292	91.06
298.523	76.06
298.753	88.06
298.984	87.06
299.214	77.06
299.445	95.06
299.675	98.06
299.905	93.06
300.136	73.06
300.366	86.06
300.597	74.06
300.827	88.06
301.057	85.06
301.288	94.06
301.518	98.06
301.748	82.06
301.979	89.06
302.209	93.06
302.439	79.06
302.669	97.06
302.9	85.06
303.13	91.06
303.36	102.06
303.59	90.06
303.82	86.06
304.051	94.06
304.281	88.06
304.511	85.06
304.741	90.06
304.971	91.06
305.201	67.06
305.431	85.06
305.661	80.06
305.891	81.06
306.121	77.06
306.352	85.06
306.582	79.06
306.812	74.06
307.042	86.06
307.272	88.06
307.502	91.06
307.731	86.06
307.961	83.06
308.191	93.06
308.421	88.06
308.651	98.06
308.881	95.06
309.111	88.06
309.341	94.06
309.571	78.06
309.8	82.06
310.03	87.06
310.26	86.06
310.49	78.06
310.72	94.06
310.949	90.06
311.179	87.06
311.409	83.06
311.639	94.06
311.868	88.06
312.098	97.06
312.328	76.06
312.557	87.06
312.787	80.06
313.017	96.06
313.246	99.06
313.476	89.06
313.706	85.06
313.935	96.06
314.165	78.06
314.394	103.06
314.624	94.06
314.853	77.06
315.083	84.06
315.312	90.06
315.542	80.06
315.771	89.06
316.001	91.06
316.23	73.06
316.46	87.06
316.689	103.06
316.919	98.06
317.148	78.06
317.377	89.06
317.607	94.06
317.836	97.06
318.065	80.06
318.295	80.06
318.524	89.06
318.753	86.06
318.983	85.06
319.212	111.06
319.441	86.06
319.67	97.06
319.9	83.06
320.129	83.06
320.358	80.06
320.587	69.06
320.816	77.06
321.046	106.06
321.275	105.06
321.504	76.06
321.733	84.06
321.962	89.06
322.191	88.06
322.42	89.06
322.649	68.06
322.878	95.06
323.108	85.06
323.337	99.06
323.566	92.06
323.795	78.06
324.024	83.06
324.253	95.06
324.482	90.06
324.71	97.06
324.939	86.06
325.168	96.06
325.397	85.06
325.626	93.06
325.855	71.06
326.084	91.06
326.313	100.06
326.542	92.06
326.77	89.06
326.999	84.06
327.228	95.06
327.457	84.06
327.686	87.06
327.914	74.06
328.143	91.06
328.372	85.06
328.6	83.06
328.829	78.06
329.058	94.06
329.287	78.06
329.515	95.06
329.744	80.06
329.972	81.06
330.201	104.06
330.43	80.06
330.658	82.06
330.887	81.06
331.115	92.06
331.344	90.06
331.572	104.06
331.801	107.06
332.03	96.06
332.258	86.06
332.486	90.06
332.715	76.06
332.943	91.06
333.172	89.06
333.4	93.06
333.629	108.06
333.857	87.06
334.085	88.06
334.314	92.06
334.542	93.06
334.771	94.06
334.999	93.06
335.227	77.06
335.455	95.06
335.684	88.06
335.912	79.06
336.14	83.06
336.369	79.06
336.597	82.06
336.825	79.06
337.053	104.06
337.281	96.06
337.51	78.06
337.738	78.06
337.966	90.06
338.194	84.06
338.422	84.06
338.65	85.06
338.878	83.06
339.106	83.06
339.334	83.06
339.562	93.06
339.79	80.06
340.018	86.06
340.246	92.06
340.474	96.06
340.702	94.06
340.93	92.06
341.158	86.06
341.386	83.06
341.614	80.06
341.842	82.06
342.07	85.06
342.298	92.06
342.526	88.06
342.754	74.06
342.981	97.06
343.209	80.06
343.437	93.06
343.665	94.06
343.893	70.06
344.12	95.06
344.348	96.06
344.576	81.06
344.804	72.06
345.031	77.06
345.259	86.06
345.487	87.06
345.714	69.06
345.942	74.06
346.17	65.06
346.397	79.06
346.625	93.06
346.853	89.06
347.08	95.06
347.308	83.06
347.535	101.06
347.763	87.06
347.99	78.06
348.218	76.06
348.445	98.06
348.673	88.06
348.9	65.06
349.128	74.06
349.355	103.06
349.583	85.06
349.81	83.06
350.037	101.06
350.265	88.06
350.492	67.06
350.72	91.06
350.947	94.06
351.174	78.06
351.402	94.06
351.629	82.06
351.856	79.06
352.083	101.06
352.311	92.06
352.538	76.06
352.765	90.06
352.992	90.06
353.22	83.06
353.447	92.06
353.674	88.06
353.901	93.06
354.128	83.06
354.355	73.06
354.583	87.06
354.81	81.06
355.037	85.06
355.264	83.06
355.491	76.06
355.718	102.06
355.945	92.06
356.172	85.06
356.399	89.06
356.626	90.06
356.853	89.06
357.08	96.06
357.307	94.06
357.534	86.06
357.761	84.06
357.988	88.06
358.215	86.06
358.441	88.06
358.668	72.06
358.895	72.06
359.122	81.06
359.349	97.06
359.576	80.06
359.802	98.06
360.029	92.06
360.256	89.06
360.483	103.06
360.709	80.06
360.936	88.06
361.163	75.06
361.39	82.06
361.616	84.06
361.843	85.06
362.07	76.06
362.296	79.06
362.523	87.06
362.749	96.06
362.976	89.06
363.203	93.06
363.429	78.06
363.656	85.06
363.882	95.06
364.109	92.06
364.335	76.06
364.562	87.06
364.788	95.06
365.015	81.06
365.241	71.06
365.468	74.06
365.694	82.06
365.92	76.06
366.147	87.06
366.373	84.06
366.599	89.06
366.826	79.06
367.052	98.06
367.278	74.06
367.505	92.06
367.731	92.06
367.957	73.06
368.184	71.06
368.41	86.06
368.636	87.06
368.862	94.06
369.089	97.06
369.315	80.06
369.541	93.06
369.767	84.06
369.993	71.06
370.219	84.06
370.445	73.06
370.672	81.06
370.898	101.06
371.124	85.06
371.35	98.06
371.576	82.06
371.802	84.06
372.028	99.06
372.254	84.06
372.48	84.06
372.706	82.06
372.932	78.06
373.158	71.06
373.384	89.06
373.61	91.06
373.835	91.06
374.061	82.06
374.287	79.06
374.513	87.06
374.739	75.06
374.965	81.06
375.191	93.06
375.416	89.06
375.642	84.06
375.868	81.06
376.094	86.06
376.319	86.06
376.545	70.06
376.771	93.06
376.997	86.06
377.222	85.06
377.448	98.06
377.674	85.06
377.899	92.06
378.125	87.06
378.35	95.06
378.576	91.06
378.802	82.06
379.027	79.06
379.253	78.06
379.478	86.06
379.704	85.06
379.929	100.06
380.155	98.06
380.38	85.06
380.606	67.06
380.831	85.06
381.057	91.06
381.282	86.06
381.507	95.06
381.733	90.06
381.958	74.06
382.184	100.06
382.409	101.06
382.634	90.06
382.86	91.06
383.085	93.06
383.31	106.06
383.535	90.06
383.761	84.06
383.986	82.06
384.211	101.06
384.436	100.06
384.662	90.06
384.887	94.06
385.112	95.06
385.337	95.06
385.562	90.06
385.787	87.06
386.013	93.06
386.238	77.06
386.463	90.06
386.688	86.06
386.913	84.06
387.138	100.06
387.363	78.06
387.588	92.06
387.813	97.06
388.038	76.06
388.263	83.06
388.488	94.06
388.713	87.06
388.938	89.06
389.163	75.06
389.387	85.06
389.612	79.06
389.837	83.06
390.062	87.06
390.287	75.06
390.512	82.06
390.736	97.06
390.961	81.06
391.186	83.06
391.411	83.06
391.636	78.06
391.86	75.06
392.085	89.06
392.31	81.06
392.534	75.06
392.759	79.06
392.984	88.06
393.208	92.06
393.433	84.06
393.658	74.06
393.882	85.06
394.107	91.06
394.331	84.06
394.556	96.06
394.78	89.06
395.005	78.06
395.229	79.06
395.454	89.06
395.678	80.06
395.903	85.06
396.127	85.06
396.352	86.06
396.576	96.06
396.801	76.06
397.025	77.06
397.249	97.06
397.474	85.06
397.698	79.06
397.922	95.06
398.147	87.06
398.371	92.06
398.595	86.06
398.82	92.06
399.044	78.06
399.268	77.06
399.492	79.06
399.717	91.06
399.941	87.06
400.165	109.06
400.389	95.06
400.613	103.06
400.837	83.06
401.062	74.06
401.286	89.06
401.51	99.06
401.734	88.06
401.958	89.06
402.182	88.06
402.406	92.06
402.63	98.06
402.854	95.06
403.078	78.06
403.302	78.06
403.526	89.06
403.75	91.06
403.974	104.06
404.198	101.06
404.422	105.06
404.645	90.06
404.869	95.06
405.093	109.06
405.317	102.06
405.541	82.06
405.765	90.06
405.988	88.06
406.212	86.06
406.436	100.06
406.66	109.06
406.883	82.06
407.107	92.06
407.331	82.06
407.555	84.06
407.778	93.06
408.002	96.06
408.226	85.06
408.449	97.06
408.673	92.06
408.896	84.06
409.12	90.06
409.344	108.06
409.567	101.06
409.791	105.06
410.014	93.06
410.238	88.06
410.461	90.06
410.685	96.06
410.908	93.06
411.132	94.06
411.355	87.06
411.578	108.06
411.802	92.06
412.025	84.06
412.249	95.06
412.472	93.06
412.695	88.06
412.919	89.06
413.142	97.06
413.365	97.06
413.589	98.06
413.812	83.06
414.035	100.06
414.258	109.06
414.482	84.06
414.705	104.06
414.928	106.06
415.151	77.06
415.374	74.06
415.597	90.06
415.821	89.06
416.044	84.06
416.267	84.06
416.49	93.06
416.713	102.06
416.936	75.06
417.159	82.06
417.382	98.06
417.605	104.06
417.828	107.06
418.051	87.06
418.274	103.06
418.497	90.06
418.72	92.06
418.943	105.06
419.166	106.06
419.389	100.06
419.611	88.06
419.834	93.06
420.057	102.06
420.28	101.06
420.503	105.06
420.726	102.06
420.948	92.06
421.171	93.06
421.394	86.06
421.617	82.06
421.839	98.06
422.062	101.06
422.285	91.06
422.507	87.06
422.73	88.06
422.953	92.06
423.175	94.06
423.398	105.06
423.621	101.06
423.843	99.06
424.066	96.06
424.288	97.06
424.511	92.06
424.733	98.06
424.956	96.06
425.178	84.06
425.401	87.06
425.623	102.06
425.846	105.06
426.068	107.06
426.291	79.06
426.513	95.06
426.735	84.06
426.958	103.06
427.18	98.06
427.402	85.06
427.625	95.06
427.847	90.06
428.069	96.06
428.292	95.06
428.514	105.06
428.736	98.06
428.958	97.06
429.181	94.06
429.403	93.06
429.625	95.06
429.847	96.06
430.069	98.06
430.292	103.06
430.514	83.06
430.736	112.06
430.958	93.06
431.18	91.06
431.402	85.06
431.624	85.06
431.846	89.06
432.068	84.06
432.29	93.06
432.512	86.06
432.734	100.06
432.956	93.06
433.178	94.06
433.4	102.06
433.622	102.06
433.844	98.06
434.066	92.06
434.287	92.06
434.509	86.06
434.731	88.06
434.953	90.06
435.175	86.06
435.397	92.06
435.618	95.06
435.84	97.06
436.062	83.06
436.284	106.06
436.505	98.06
436.727	89.06
436.949	89.06
437.17	101.06
437.392	87.06
437.614	88.06
437.835	85.06
438.057	102.06
438.278	89.06
438.5	85.06
438.721	101.06
438.943	104.06
439.165	103.06
439.386	95.06
439.608	105.06
439.829	107.06
440.05	113.06
440.272	113.06
440.493	96.06
440.715	106.06
440.936	90.06
441.158	92.06
441.379	106.06
441.6	99.06
441.822	110.06
442.043	110.06
442.264	91.06
442.486	101.06
442.707	92.06
442.928	105.06
443.149	97.06
443.371	100.06
443.592	92.06
443.813	103.06
444.034	109.06
444.255	105.06
444.476	87.06
444.698	98.06
444.919	101.06
445.14	204.06
445.361	154.06
445.582	99.06
445.803	97.06
446.024	102.06
446.245	108.06
446.466	99.06
446.687	109.06
446.908	103.06
447.129	114.06
447.35	107.06
447.571	100.06
447.792	113.06
448.013	93.06
448.234	92.06
448.455	104.06
448.675	98.06
448.896	94.06
449.117	103.06
449.338	106.06
449.559	98.06
449.779	103.06
450	100.06
450.221	106.06
450.442	96.06
450.662	95.06
450.883	89.06
451.104	109.06
451.324	107.06
451.545	93.06
451.766	98.06
451.986	98.06
452.207	104.06
452.428	99.06
452.648	95.06
452.869	81.06
453.089	88.06
453.31	69.06
453.53	84.06
453.751	97.06
453.971	91.06
454.192	85.06
454.412	98.06
454.633	104.06
454.853	100.06
455.073	98.06
455.294	95.06
455.514	100.06
455.734	87.06
455.955	109.06
456.175	92.06
456.395	90.06
456.616	94.06
456.836	87.06
457.056	95.06
457.276	78.06
457.497	79.06
457.717	87.06
457.937	74.06
458.157	97.06
458.377	93.06
458.598	88.06
458.818	89.06
459.038	78.06
459.258	94.06
459.478	88.06
459.698	76.06
459.918	91.06
460.138	90.06
460.358	79.06
460.578	85.06
460.798	99.06
461.018	75.06
461.238	97.06
461.458	84.06
461.678	90.06
461.898	98.06
462.118	102.06
462.338	93.06
462.558	93.06
462.777	82.06
462.997	93.06
463.217	97.06
463.437	107.06
463.657	75.06
463.876	100.06
464.096	87.06
464.316	79.06
464.536	92.06
464.755	89.06
464.975	89.06
465.195	95.06
465.414	89.06
465.634	89.06
465.854	96.06
466.073	95.06
466.293	99.06
466.512	98.06
466.732	96.06
466.951	93.06
467.171	94.06
467.391	86.06
467.61	85.06
467.829	100.06
468.049	106.06
468.268	92.06
468.488	86.06
468.707	92.06
468.927	91.06
469.146	92.06
469.365	103.06
469.585	106.06
469.804	95.06
470.023	85.06
470.243	102.06
470.462	98.06
470.681	105.06
470.901	101.06
471.12	113.06
471.339	94.06
471.558	77.06
471.777	106.06
471.997	96.06
472.216	92.06
472.435	89.06
472.654	97.06
472.873	100.06
473.092	93.06
473.311	103.06
473.53	91.06
473.749	80.06
473.968	81.06
474.187	102.06
474.406	90.06
474.625	93.06
474.844	93.06
475.063	86.06
475.282	95.06
475.501	88.06
475.72	97.06
475.939	79.06
476.158	92.06
476.377	107.06
476.596	95.06
476.814	96.06
477.033	94.06
477.252	89.06
477.471	85.06
477.69	98.06
477.908	101.06
478.127	95.06
478.346	114.06
478.564	115.06
478.783	83.06
479.002	103.06
479.22	104.06
479.439	97.06
479.658	103.06
479.876	87.06
480.095	84.06
480.313	97.06
480.532	102.06
480.751	111.06
480.969	76.06
481.188	99.06
481.406	75.06
481.624	78.06
481.843	97.06
482.061	86.06
482.28	93.06
482.498	104.06
482.717	96.06
482.935	85.06
483.153	94.06
483.372	118.06
483.59	86.06
483.808	92.06
484.027	105.06
484.245	79.06
484.463	93.06
484.681	105.06
484.9	97.06
485.118	95.06
485.336	99.06
485.554	92.06
485.772	93.06
485.99	85.06
486.209	91.06
486.427	92.06
486.645	98.06
486.863	91.06
487.081	98.06
487.299	81.06
487.517	100.06
487.735	108.06
487.953	103.06
488.171	112.06
488.389	106.06
488.607	105.06
488.825	114.06
489.043	97.06
489.261	98.06
489.479	101.06
489.696	96.06
489.914	88.06
490.132	104.06
490.35	106.06
490.568	108.06
490.786	101.06
491.003	118.06
491.221	112.06
491.439	120.06
491.657	109.06
491.874	139.06
492.092	134.06
492.31	123.06
492.527	132.06
492.745	125.06
492.963	112.06
493.18	106.06
493.398	115.06
493.615	111.06
493.833	102.06
494.05	113.06
494.268	105.06
494.485	111.06
494.703	106.06
494.92	107.06
495.138	101.06
495.355	116.06
495.573	106.06
495.79	100.06
496.008	105.06
496.225	113.06
496.442	101.06
496.66	106.06
496.877	110.06
497.094	102.06
497.312	98.06
497.529	102.06
497.746	100.06
497.963	112.06
498.181	101.06
498.398	95.06
498.615	90.06
498.832	96.06
499.049	94.06
499.267	102.06
499.484	99.06
499.701	90.06
499.918	125.06
500.135	109.06
500.352	105.06
500.569	102.06
500.786	109.06
501.003	105.06
501.22	87.06
501.437	106.06
501.654	98.06
501.871	85.06
502.088	97.06
502.305	99.06
502.522	95.06
502.739	101.06
502.956	101.06
503.172	91.06
503.389	87.06
503.606	87.06
503.823	76.06
504.04	89.06
504.256	83.06
504.473	92.06
504.69	94.06
504.907	95.06
505.123	92.06
505.34	86.06
505.557	91.06
505.773	100.06
505.99	123.06
506.207	92.06
506.423	102.06
506.64	96.06
506.856	89.06
507.073	105.06
507.289	95.06
507.506	98.06
507.722	89.06
507.939	98.06
508.155	104.06
508.372	92.06
508.588	72.06
508.805	86.06
509.021	97.06
509.238	87.06
509.454	77.06
509.67	88.06
509.887	84.06
510.103	84.06
510.319	88.06
510.536	78.06
510.752	83.06
510.968	99.06
511.184	76.06
511.401	90.06
511.617	89.06
511.833	104.06
512.049	93.06
512.265	81.06
512.481	101.06
512.698	91.06
512.914	87.06
513.13	103.06
513.346	90.06
513.562	76.06
513.778	92.06
513.994	92.06
514.21	92.06
514.426	86.06
514.642	88.06
514.858	78.06
515.074	82.06
515.29	90.06
515.506	81.06
515.721	96.06
515.937	86.06
516.153	88.06
516.369	95.06
516.585	79.06
