Data from Location4.07152019.Energy5.Lamp.07192019.3%Agarose_HRD10591_15-25-40-577.txt Node
Date: Fri Jul 19 15:25:40 EDT 2019
User: cochatt
Spectrometer: HR+D1059
Trigger mode: 1
Integration Time (sec): 1.000000E-1
Scans to average: 1
Electric dark correction enabled: true
Nonlinearity correction enabled: false
Boxcar width: 0
XAxis mode: Wavelengths
Number of Pixels in Spectrum: 2048
>>>>>Begin Spectral Data<<<<<
223.165	-15.5
223.4	-15.5
223.635	-15.5
223.869	-15.5
224.104	-3.5
224.338	-5.5
224.573	-10.5
224.808	-17.5
225.042	-2.5
225.277	-6.5
225.511	-2.5
225.746	1.5
225.98	14.5
226.215	3.5
226.449	7.5
226.683	6.5
226.918	23.5
227.152	22.5
227.387	31.5
227.621	22.5
227.856	47.5
228.09	35.5
228.324	36.5
228.559	51.5
228.793	63.5
229.027	45.5
229.262	73.5
229.496	62.5
229.73	72.5
229.964	71.5
230.199	65.5
230.433	68.5
230.667	88.5
230.901	70.5
231.136	91.5
231.37	88.5
231.604	80.5
231.838	84.5
232.072	81.5
232.306	78.5
232.541	72.5
232.775	75.5
233.009	77.5
233.243	67.5
233.477	93.5
233.711	68.5
233.945	85.5
234.179	76.5
234.413	64.5
234.647	84.5
234.881	79.5
235.115	79.5
235.349	77.5
235.583	97.5
235.817	84.5
236.051	76.5
236.285	83.5
236.519	85.5
236.753	82.5
236.987	75.5
237.221	71.5
237.455	73.5
237.689	68.5
237.922	80.5
238.156	74.5
238.39	78.5
238.624	64.5
238.858	69.5
239.091	84.5
239.325	73.5
239.559	70.5
239.793	68.5
240.027	63.5
240.26	72.5
240.494	78.5
240.728	72.5
240.961	72.5
241.195	79.5
241.429	72.5
241.662	82.5
241.896	94.5
242.13	80.5
242.363	71.5
242.597	76.5
242.83	70.5
243.064	85.5
243.298	89.5
243.531	68.5
243.765	86.5
243.998	79.5
244.232	77.5
244.465	86.5
244.699	81.5
244.932	82.5
245.166	70.5
245.399	67.5
245.633	77.5
245.866	78.5
246.099	78.5
246.333	80.5
246.566	80.5
246.8	63.5
247.033	81.5
247.266	92.5
247.5	76.5
247.733	79.5
247.966	75.5
248.2	76.5
248.433	76.5
248.666	72.5
248.899	71.5
249.133	73.5
249.366	71.5
249.599	72.5
249.832	91.5
250.066	75.5
250.299	66.5
250.532	82.5
250.765	50.5
250.998	66.5
251.231	83.5
251.465	89.5
251.698	71.5
251.931	80.5
252.164	72.5
252.397	84.5
252.63	84.5
252.863	89.5
253.096	73.5
253.329	72.5
253.562	72.5
253.795	88.5
254.028	85.5
254.261	88.5
254.494	73.5
254.727	88.5
254.96	83.5
255.193	83.5
255.426	68.5
255.659	78.5
255.892	72.5
256.124	88.5
256.357	68.5
256.59	72.5
256.823	78.5
257.056	84.5
257.289	75.5
257.521	92.5
257.754	70.5
257.987	71.5
258.22	95.5
258.452	80.5
258.685	81.5
258.918	84.5
259.151	86.5
259.383	69.5
259.616	79.5
259.849	61.5
260.081	69.5
260.314	73.5
260.547	68.5
260.779	76.5
261.012	88.5
261.244	95.5
261.477	74.5
261.71	65.5
261.942	79.5
262.175	84.5
262.407	77.5
262.64	79.5
262.872	75.5
263.105	63.5
263.337	82.5
263.57	72.5
263.802	72.5
264.035	72.5
264.267	77.5
264.499	95.5
264.732	75.5
264.964	92.5
265.197	68.5
265.429	79.5
265.661	76.5
265.894	73.5
266.126	82.5
266.358	84.5
266.591	71.5
266.823	83.5
267.055	77.5
267.287	81.5
267.52	89.5
267.752	80.5
267.984	73.5
268.216	91.5
268.448	78.5
268.681	80.5
268.913	65.5
269.145	70.5
269.377	91.5
269.609	70.5
269.841	72.5
270.073	67.5
270.306	89.5
270.538	83.5
270.77	82.5
271.002	77.5
271.234	73.5
271.466	62.5
271.698	76.5
271.93	80.5
272.162	82.5
272.394	85.5
272.626	79.5
272.858	78.5
273.09	69.5
273.322	82.5
273.553	75.5
273.785	77.5
274.017	82.5
274.249	72.5
274.481	84.5
274.713	79.5
274.945	84.5
275.176	79.5
275.408	77.5
275.64	85.5
275.872	75.5
276.104	80.5
276.335	86.5
276.567	86.5
276.799	80.5
277.031	72.5
277.262	76.5
277.494	83.5
277.726	90.5
277.957	79.5
278.189	78.5
278.421	79.5
278.652	74.5
278.884	78.5
279.115	68.5
279.347	69.5
279.579	80.5
279.81	80.5
280.042	85.5
280.273	84.5
280.505	93.5
280.736	86.5
280.968	84.5
281.199	68.5
281.431	91.5
281.662	82.5
281.894	81.5
282.125	73.5
282.356	79.5
282.588	81.5
282.819	90.5
283.051	77.5
283.282	81.5
283.513	78.5
283.745	77.5
283.976	74.5
284.207	77.5
284.439	88.5
284.67	79.5
284.901	85.5
285.132	59.5
285.364	74.5
285.595	81.5
285.826	83.5
286.057	73.5
286.288	87.5
286.52	70.5
286.751	79.5
286.982	86.5
287.213	71.5
287.444	72.5
287.675	77.5
287.906	78.5
288.138	73.5
288.369	81.5
288.6	82.5
288.831	80.5
289.062	80.5
289.293	82.5
289.524	76.5
289.755	85.5
289.986	75.5
290.217	73.5
290.448	74.5
290.679	85.5
290.91	76.5
291.141	68.5
291.371	80.5
291.602	84.5
291.833	85.5
292.064	73.5
292.295	72.5
292.526	69.5
292.757	85.5
292.987	80.5
293.218	92.5
293.449	78.5
293.68	89.5
293.91	82.5
294.141	97.5
294.372	79.5
294.603	76.5
294.833	73.5
295.064	89.5
295.295	80.5
295.525	78.5
295.756	64.5
295.987	87.5
296.217	75.5
296.448	72.5
296.679	93.5
296.909	88.5
297.14	77.5
297.37	86.5
297.601	79.5
297.831	83.5
298.062	86.5
298.292	87.5
298.523	72.5
298.753	79.5
298.984	87.5
299.214	73.5
299.445	70.5
299.675	92.5
299.905	76.5
300.136	80.5
300.366	87.5
300.597	69.5
300.827	74.5
301.057	83.5
301.288	89.5
301.518	84.5
301.748	73.5
301.979	85.5
302.209	90.5
302.439	71.5
302.669	82.5
302.9	77.5
303.13	78.5
303.36	77.5
303.59	90.5
303.82	88.5
304.051	83.5
304.281	80.5
304.511	86.5
304.741	71.5
304.971	66.5
305.201	80.5
305.431	90.5
305.661	92.5
305.891	81.5
306.121	90.5
306.352	76.5
306.582	82.5
306.812	86.5
307.042	89.5
307.272	91.5
307.502	86.5
307.731	85.5
307.961	80.5
308.191	85.5
308.421	79.5
308.651	84.5
308.881	79.5
309.111	72.5
309.341	90.5
309.571	91.5
309.8	88.5
310.03	68.5
310.26	101.5
310.49	86.5
310.72	87.5
310.949	87.5
311.179	78.5
311.409	85.5
311.639	75.5
311.868	75.5
312.098	87.5
312.328	75.5
312.557	92.5
312.787	90.5
313.017	87.5
313.246	78.5
313.476	87.5
313.706	80.5
313.935	91.5
314.165	78.5
314.394	71.5
314.624	71.5
314.853	85.5
315.083	80.5
315.312	83.5
315.542	72.5
315.771	89.5
316.001	78.5
316.23	71.5
316.46	77.5
316.689	97.5
316.919	77.5
317.148	81.5
317.377	80.5
317.607	105.5
317.836	99.5
318.065	87.5
318.295	80.5
318.524	86.5
318.753	68.5
318.983	89.5
319.212	85.5
319.441	83.5
319.67	76.5
319.9	87.5
320.129	88.5
320.358	96.5
320.587	87.5
320.816	76.5
321.046	83.5
321.275	86.5
321.504	82.5
321.733	85.5
321.962	87.5
322.191	94.5
322.42	89.5
322.649	83.5
322.878	78.5
323.108	91.5
323.337	74.5
323.566	88.5
323.795	73.5
324.024	83.5
324.253	86.5
324.482	75.5
324.71	85.5
324.939	86.5
325.168	79.5
325.397	71.5
325.626	78.5
325.855	85.5
326.084	65.5
326.313	89.5
326.542	92.5
326.77	78.5
326.999	73.5
327.228	83.5
327.457	80.5
327.686	77.5
327.914	83.5
328.143	84.5
328.372	76.5
328.6	71.5
328.829	84.5
329.058	80.5
329.287	70.5
329.515	82.5
329.744	90.5
329.972	86.5
330.201	90.5
330.43	74.5
330.658	77.5
330.887	87.5
331.115	76.5
331.344	74.5
331.572	80.5
331.801	77.5
332.03	76.5
332.258	81.5
332.486	76.5
332.715	79.5
332.943	75.5
333.172	95.5
333.4	77.5
333.629	84.5
333.857	72.5
334.085	69.5
334.314	86.5
334.542	79.5
334.771	80.5
334.999	77.5
335.227	78.5
335.455	85.5
335.684	86.5
335.912	86.5
336.14	86.5
336.369	87.5
336.597	84.5
336.825	88.5
337.053	76.5
337.281	74.5
337.51	86.5
337.738	80.5
337.966	82.5
338.194	76.5
338.422	96.5
338.65	96.5
338.878	83.5
339.106	78.5
339.334	73.5
339.562	71.5
339.79	68.5
340.018	79.5
340.246	91.5
340.474	85.5
340.702	81.5
340.93	80.5
341.158	72.5
341.386	76.5
341.614	77.5
341.842	77.5
342.07	79.5
342.298	82.5
342.526	74.5
342.754	86.5
342.981	69.5
343.209	77.5
343.437	80.5
343.665	77.5
343.893	80.5
344.12	88.5
344.348	72.5
344.576	90.5
344.804	79.5
345.031	76.5
345.259	80.5
345.487	85.5
345.714	79.5
345.942	77.5
346.17	85.5
346.397	80.5
346.625	81.5
346.853	78.5
347.08	76.5
347.308	77.5
347.535	76.5
347.763	73.5
347.99	80.5
348.218	72.5
348.445	71.5
348.673	85.5
348.9	75.5
349.128	87.5
349.355	89.5
349.583	79.5
349.81	81.5
350.037	59.5
350.265	80.5
350.492	79.5
350.72	82.5
350.947	80.5
351.174	83.5
351.402	87.5
351.629	70.5
351.856	78.5
352.083	81.5
352.311	93.5
352.538	79.5
352.765	92.5
352.992	86.5
353.22	75.5
353.447	68.5
353.674	67.5
353.901	93.5
354.128	80.5
354.355	65.5
354.583	89.5
354.81	84.5
355.037	82.5
355.264	87.5
355.491	74.5
355.718	76.5
355.945	75.5
356.172	68.5
356.399	81.5
356.626	73.5
356.853	84.5
357.08	69.5
357.307	82.5
357.534	57.5
357.761	77.5
357.988	89.5
358.215	83.5
358.441	75.5
358.668	73.5
358.895	86.5
359.122	88.5
359.349	71.5
359.576	91.5
359.802	77.5
360.029	87.5
360.256	79.5
360.483	83.5
360.709	85.5
360.936	91.5
361.163	79.5
361.39	69.5
361.616	86.5
361.843	88.5
362.07	79.5
362.296	87.5
362.523	66.5
362.749	76.5
362.976	65.5
363.203	79.5
363.429	89.5
363.656	87.5
363.882	79.5
364.109	75.5
364.335	86.5
364.562	77.5
364.788	78.5
365.015	69.5
365.241	87.5
365.468	85.5
365.694	87.5
365.92	91.5
366.147	75.5
366.373	74.5
366.599	72.5
366.826	70.5
367.052	87.5
367.278	92.5
367.505	88.5
367.731	88.5
367.957	81.5
368.184	75.5
368.41	70.5
368.636	79.5
368.862	85.5
369.089	82.5
369.315	80.5
369.541	88.5
369.767	83.5
369.993	78.5
370.219	81.5
370.445	79.5
370.672	91.5
370.898	77.5
371.124	76.5
371.35	89.5
371.576	98.5
371.802	73.5
372.028	87.5
372.254	81.5
372.48	81.5
372.706	72.5
372.932	77.5
373.158	74.5
373.384	76.5
373.61	93.5
373.835	76.5
374.061	95.5
374.287	78.5
374.513	80.5
374.739	94.5
374.965	73.5
375.191	88.5
375.416	67.5
375.642	87.5
375.868	76.5
376.094	80.5
376.319	84.5
376.545	94.5
376.771	85.5
376.997	86.5
377.222	88.5
377.448	75.5
377.674	88.5
377.899	84.5
378.125	84.5
378.35	68.5
378.576	81.5
378.802	87.5
379.027	86.5
379.253	103.5
379.478	78.5
379.704	84.5
379.929	91.5
380.155	85.5
380.38	71.5
380.606	79.5
380.831	84.5
381.057	89.5
381.282	89.5
381.507	74.5
381.733	97.5
381.958	71.5
382.184	72.5
382.409	78.5
382.634	75.5
382.86	74.5
383.085	80.5
383.31	81.5
383.535	83.5
383.761	76.5
383.986	85.5
384.211	76.5
384.436	84.5
384.662	78.5
384.887	76.5
385.112	81.5
385.337	76.5
385.562	85.5
385.787	86.5
386.013	83.5
386.238	82.5
386.463	82.5
386.688	93.5
386.913	83.5
387.138	84.5
387.363	87.5
387.588	83.5
387.813	78.5
388.038	76.5
388.263	76.5
388.488	92.5
388.713	81.5
388.938	68.5
389.163	78.5
389.387	78.5
389.612	80.5
389.837	84.5
390.062	77.5
390.287	79.5
390.512	86.5
390.736	76.5
390.961	80.5
391.186	89.5
391.411	94.5
391.636	90.5
391.86	88.5
392.085	90.5
392.31	94.5
392.534	86.5
392.759	83.5
392.984	86.5
393.208	77.5
393.433	80.5
393.658	85.5
393.882	80.5
394.107	87.5
394.331	77.5
394.556	80.5
394.78	90.5
395.005	76.5
395.229	86.5
395.454	86.5
395.678	73.5
395.903	79.5
396.127	77.5
396.352	87.5
396.576	84.5
396.801	91.5
397.025	89.5
397.249	86.5
397.474	100.5
397.698	89.5
397.922	72.5
398.147	76.5
398.371	95.5
398.595	87.5
398.82	88.5
399.044	78.5
399.268	72.5
399.492	80.5
399.717	56.5
399.941	82.5
400.165	81.5
400.389	88.5
400.613	83.5
400.837	89.5
401.062	92.5
401.286	93.5
401.51	83.5
401.734	76.5
401.958	87.5
402.182	80.5
402.406	93.5
402.63	96.5
402.854	84.5
403.078	79.5
403.302	89.5
403.526	103.5
403.75	87.5
403.974	84.5
404.198	79.5
404.422	82.5
404.645	78.5
404.869	81.5
405.093	90.5
405.317	86.5
405.541	93.5
405.765	82.5
405.988	93.5
406.212	75.5
406.436	85.5
406.66	100.5
406.883	86.5
407.107	102.5
407.331	92.5
407.555	86.5
407.778	83.5
408.002	78.5
408.226	85.5
408.449	82.5
408.673	80.5
408.896	86.5
409.12	91.5
409.344	76.5
409.567	96.5
409.791	99.5
410.014	81.5
410.238	90.5
410.461	84.5
410.685	105.5
410.908	82.5
411.132	87.5
411.355	94.5
411.578	88.5
411.802	81.5
412.025	89.5
412.249	89.5
412.472	85.5
412.695	83.5
412.919	92.5
413.142	72.5
413.365	80.5
413.589	65.5
413.812	93.5
414.035	87.5
414.258	90.5
414.482	85.5
414.705	89.5
414.928	84.5
415.151	87.5
415.374	93.5
415.597	91.5
415.821	86.5
416.044	83.5
416.267	95.5
416.49	80.5
416.713	95.5
416.936	100.5
417.159	89.5
417.382	88.5
417.605	84.5
417.828	95.5
418.051	97.5
418.274	92.5
418.497	88.5
418.72	101.5
418.943	85.5
419.166	102.5
419.389	83.5
419.611	92.5
419.834	91.5
420.057	85.5
420.28	87.5
420.503	95.5
420.726	88.5
420.948	91.5
421.171	104.5
421.394	92.5
421.617	85.5
421.839	87.5
422.062	85.5
422.285	83.5
422.507	88.5
422.73	96.5
422.953	79.5
423.175	89.5
423.398	90.5
423.621	90.5
423.843	96.5
424.066	93.5
424.288	100.5
424.511	99.5
424.733	94.5
424.956	100.5
425.178	94.5
425.401	97.5
425.623	91.5
425.846	95.5
426.068	105.5
426.291	100.5
426.513	80.5
426.735	73.5
426.958	87.5
427.18	85.5
427.402	100.5
427.625	77.5
427.847	91.5
428.069	77.5
428.292	82.5
428.514	93.5
428.736	81.5
428.958	85.5
429.181	96.5
429.403	92.5
429.625	87.5
429.847	100.5
430.069	95.5
430.292	95.5
430.514	82.5
430.736	87.5
430.958	86.5
431.18	93.5
431.402	96.5
431.624	93.5
431.846	89.5
432.068	85.5
432.29	83.5
432.512	81.5
432.734	101.5
432.956	82.5
433.178	94.5
433.4	85.5
433.622	104.5
433.844	104.5
434.066	98.5
434.287	98.5
434.509	84.5
434.731	86.5
434.953	72.5
435.175	79.5
435.397	103.5
435.618	77.5
435.84	87.5
436.062	86.5
436.284	87.5
436.505	101.5
436.727	84.5
436.949	102.5
437.17	88.5
437.392	90.5
437.614	88.5
437.835	86.5
438.057	88.5
438.278	91.5
438.5	93.5
438.721	92.5
438.943	97.5
439.165	91.5
439.386	101.5
439.608	92.5
439.829	107.5
440.05	102.5
440.272	99.5
440.493	94.5
440.715	99.5
440.936	99.5
441.158	92.5
441.379	88.5
441.6	84.5
441.822	110.5
442.043	87.5
442.264	98.5
442.486	76.5
442.707	99.5
442.928	93.5
443.149	104.5
443.371	86.5
443.592	86.5
443.813	96.5
444.034	92.5
444.255	87.5
444.476	95.5
444.698	92.5
444.919	96.5
445.14	227.5
445.361	166.5
445.582	112.5
445.803	93.5
446.024	81.5
446.245	117.5
446.466	96.5
446.687	95.5
446.908	111.5
447.129	108.5
447.35	97.5
447.571	92.5
447.792	88.5
448.013	96.5
448.234	86.5
448.455	97.5
448.675	86.5
448.896	93.5
449.117	98.5
449.338	86.5
449.559	81.5
449.779	104.5
450	90.5
450.221	86.5
450.442	86.5
450.662	89.5
450.883	85.5
451.104	93.5
451.324	106.5
451.545	83.5
451.766	104.5
451.986	86.5
452.207	95.5
452.428	99.5
452.648	84.5
452.869	81.5
453.089	85.5
453.31	84.5
453.53	94.5
453.751	80.5
453.971	83.5
454.192	76.5
454.412	76.5
454.633	76.5
454.853	92.5
455.073	89.5
455.294	92.5
455.514	86.5
455.734	87.5
455.955	88.5
456.175	84.5
456.395	72.5
456.616	89.5
456.836	75.5
457.056	92.5
457.276	75.5
457.497	87.5
457.717	90.5
457.937	88.5
458.157	88.5
458.377	73.5
458.598	79.5
458.818	88.5
459.038	84.5
459.258	82.5
459.478	73.5
459.698	85.5
459.918	80.5
460.138	80.5
460.358	94.5
460.578	95.5
460.798	81.5
461.018	78.5
461.238	86.5
461.458	97.5
461.678	92.5
461.898	87.5
462.118	101.5
462.338	87.5
462.558	100.5
462.777	80.5
462.997	83.5
463.217	93.5
463.437	90.5
463.657	82.5
463.876	88.5
464.096	89.5
464.316	95.5
464.536	92.5
464.755	88.5
464.975	91.5
465.195	83.5
465.414	81.5
465.634	86.5
465.854	80.5
466.073	99.5
466.293	92.5
466.512	97.5
466.732	88.5
466.951	82.5
467.171	90.5
467.391	94.5
467.61	92.5
467.829	92.5
468.049	94.5
468.268	84.5
468.488	99.5
468.707	95.5
468.927	96.5
469.146	82.5
469.365	104.5
469.585	96.5
469.804	111.5
470.023	94.5
470.243	91.5
470.462	85.5
470.681	104.5
470.901	97.5
471.12	107.5
471.339	93.5
471.558	82.5
471.777	92.5
471.997	112.5
472.216	104.5
472.435	102.5
472.654	93.5
472.873	91.5
473.092	88.5
473.311	76.5
473.53	91.5
473.749	98.5
473.968	105.5
474.187	84.5
474.406	85.5
474.625	96.5
474.844	90.5
475.063	90.5
475.282	80.5
475.501	76.5
475.72	98.5
475.939	97.5
476.158	88.5
476.377	91.5
476.596	84.5
476.814	89.5
477.033	79.5
477.252	87.5
477.471	88.5
477.69	100.5
477.908	93.5
478.127	89.5
478.346	85.5
478.564	93.5
478.783	91.5
479.002	93.5
479.22	81.5
479.439	114.5
479.658	101.5
479.876	98.5
480.095	93.5
480.313	71.5
480.532	97.5
480.751	88.5
480.969	93.5
481.188	83.5
481.406	75.5
481.624	76.5
481.843	82.5
482.061	78.5
482.28	80.5
482.498	82.5
482.717	85.5
482.935	95.5
483.153	94.5
483.372	102.5
483.59	109.5
483.808	91.5
484.027	99.5
484.245	95.5
484.463	103.5
484.681	109.5
484.9	98.5
485.118	91.5
485.336	81.5
485.554	79.5
485.772	77.5
485.99	91.5
486.209	88.5
486.427	85.5
486.645	90.5
486.863	95.5
487.081	87.5
487.299	92.5
487.517	99.5
487.735	97.5
487.953	119.5
488.171	107.5
488.389	107.5
488.607	97.5
488.825	92.5
489.043	88.5
489.261	95.5
489.479	93.5
489.696	96.5
489.914	87.5
490.132	95.5
490.35	103.5
490.568	108.5
490.786	99.5
491.003	89.5
491.221	112.5
491.439	106.5
491.657	115.5
491.874	115.5
492.092	115.5
492.31	120.5
492.527	135.5
492.745	120.5
492.963	121.5
493.18	113.5
493.398	108.5
493.615	109.5
493.833	101.5
494.05	101.5
494.268	113.5
494.485	96.5
494.703	104.5
494.92	117.5
495.138	100.5
495.355	102.5
495.573	95.5
495.79	103.5
496.008	102.5
496.225	104.5
496.442	117.5
496.66	106.5
496.877	111.5
497.094	97.5
497.312	107.5
497.529	109.5
497.746	101.5
497.963	87.5
498.181	88.5
498.398	96.5
498.615	82.5
498.832	79.5
499.049	87.5
499.267	94.5
499.484	83.5
499.701	95.5
499.918	87.5
500.135	85.5
500.352	69.5
500.569	84.5
500.786	100.5
501.003	97.5
501.22	95.5
501.437	117.5
501.654	97.5
501.871	92.5
502.088	81.5
502.305	81.5
502.522	88.5
502.739	92.5
502.956	97.5
503.172	100.5
503.389	80.5
503.606	83.5
503.823	90.5
504.04	93.5
504.256	87.5
504.473	88.5
504.69	82.5
504.907	85.5
505.123	98.5
505.34	98.5
505.557	85.5
505.773	100.5
505.99	85.5
506.207	77.5
506.423	84.5
506.64	96.5
506.856	94.5
507.073	88.5
507.289	95.5
507.506	91.5
507.722	93.5
507.939	103.5
508.155	107.5
508.372	83.5
508.588	87.5
508.805	82.5
509.021	84.5
509.238	77.5
509.454	80.5
509.67	90.5
509.887	95.5
510.103	103.5
510.319	73.5
510.536	70.5
510.752	83.5
510.968	85.5
511.184	81.5
511.401	83.5
511.617	84.5
511.833	93.5
512.049	95.5
512.265	89.5
512.481	92.5
512.698	91.5
512.914	72.5
513.13	89.5
513.346	90.5
513.562	96.5
513.778	94.5
513.994	77.5
514.21	73.5
514.426	87.5
514.642	82.5
514.858	67.5
515.074	79.5
515.29	89.5
515.506	91.5
515.721	82.5
515.937	94.5
516.153	86.5
516.369	76.5
516.585	81.5
516.801	89.5
517.016	75.5
517.232	97.5
517.448	97.5
517.664	69.5
517.879	71.5
518.095	86.5
518.311	95.5
518.527	85.5
518.742	94.5
518.958	96.5
519.173	77.5
519.389	84.5
519.605	89.5
519.82	97.5
520.036	92.5
520.251	87.5
520.467	93.5
520.682	78.5
520.898	73.5
521.113	87.5
521.329	80.5
521.544	70.5
521.76	74.5
521.975	77.5
522.19	89.5
522.406	93.5
522.621	76.5
522.836	86.5
523.052	99.5
523.267	91.5
523.482	71.5
523.698	97.5
523.913	93.5
524.128	77.5
524.343	91.5
524.559	91.5
524.774	88.5
524.989	107.5
525.204	92.5
525.419	95.5
525.634	104.5
525.849	88.5
526.064	93.5
526.28	87.5
526.495	72.5
526.71	80.5
526.925	80.5
527.14	81.5
527.355	89.5
527.57	85.5
527.785	81.5
527.999	87.5
528.214	92.5
528.429	68.5
528.644	95.5
528.859	90.5
529.074	94.5
529.289	99.5
529.503	98.5
529.718	84.5
529.933	84.5
530.148	84.5
530.363	77.5
530.577	91.5
530.792	83.5
531.007	81.5
531.221	87.5
531.436	74.5
531.651	77.5
531.865	74.5
532.08	70.5
532.295	78.5
532.509	89.5
532.724	86.5
532.938	77.5
533.153	81.5
533.367	92.5
533.582	87.5
533.796	99.5
534.011	84.5
534.225	78.5
534.44	93.5
534.654	84.5
534.868	86.5
535.083	91.5
535.297	88.5
535.511	92.5
535.726	86.5
535.94	77.5
536.154	86.5
536.369	77.5
536.583	74.5
536.797	87.5
537.011	86.5
537.225	84.5
537.44	89.5
537.654	77.5
537.868	78.5
538.082	91.5
538.296	67.5
538.51	72.5
