Data from Location4.07152019.Energy5.Lamp.07192019.3%Agarose_HRD10591_15-25-30-578.txt Node
Date: Fri Jul 19 15:25:30 EDT 2019
User: cochatt
Spectrometer: HR+D1059
Trigger mode: 1
Integration Time (sec): 1.000000E-1
Scans to average: 1
Electric dark correction enabled: true
Nonlinearity correction enabled: false
Boxcar width: 0
XAxis mode: Wavelengths
Number of Pixels in Spectrum: 2048
>>>>>Begin Spectral Data<<<<<
223.165	-17.88
223.4	-17.88
223.635	-17.88
223.869	-23.88
224.104	-14.88
224.338	-17.88
224.573	-5.88
224.808	-5.88
225.042	-10.88
225.277	-16.88
225.511	-10.88
225.746	1.12
225.98	5.12
226.215	26.12
226.449	23.12
226.683	9.12
226.918	29.12
227.152	31.12
227.387	31.12
227.621	51.12
227.856	50.12
228.09	51.12
228.324	55.12
228.559	49.12
228.793	69.12
229.027	41.12
229.262	75.12
229.496	54.12
229.73	73.12
229.964	78.12
230.199	77.12
230.433	86.12
230.667	77.12
230.901	81.12
231.136	91.12
231.37	90.12
231.604	85.12
231.838	80.12
232.072	89.12
232.306	80.12
232.541	86.12
232.775	75.12
233.009	98.12
233.243	91.12
233.477	86.12
233.711	93.12
233.945	84.12
234.179	82.12
234.413	90.12
234.647	76.12
234.881	86.12
235.115	70.12
235.349	88.12
235.583	90.12
235.817	94.12
236.051	82.12
236.285	104.12
236.519	89.12
236.753	87.12
236.987	82.12
237.221	81.12
237.455	72.12
237.689	83.12
237.922	67.12
238.156	77.12
238.39	74.12
238.624	78.12
238.858	78.12
239.091	92.12
239.325	81.12
239.559	63.12
239.793	91.12
240.027	88.12
240.26	83.12
240.494	83.12
240.728	73.12
240.961	78.12
241.195	70.12
241.429	82.12
241.662	63.12
241.896	78.12
242.13	85.12
242.363	76.12
242.597	92.12
242.83	84.12
243.064	93.12
243.298	77.12
243.531	79.12
243.765	80.12
243.998	69.12
244.232	85.12
244.465	86.12
244.699	79.12
244.932	73.12
245.166	84.12
245.399	74.12
245.633	81.12
245.866	98.12
246.099	74.12
246.333	77.12
246.566	78.12
246.8	76.12
247.033	79.12
247.266	78.12
247.5	79.12
247.733	87.12
247.966	92.12
248.2	77.12
248.433	75.12
248.666	81.12
248.899	80.12
249.133	86.12
249.366	81.12
249.599	76.12
249.832	82.12
250.066	87.12
250.299	89.12
250.532	74.12
250.765	82.12
250.998	81.12
251.231	78.12
251.465	69.12
251.698	86.12
251.931	70.12
252.164	89.12
252.397	81.12
252.63	91.12
252.863	88.12
253.096	76.12
253.329	71.12
253.562	83.12
253.795	86.12
254.028	92.12
254.261	71.12
254.494	75.12
254.727	80.12
254.96	79.12
255.193	86.12
255.426	87.12
255.659	73.12
255.892	90.12
256.124	77.12
256.357	77.12
256.59	89.12
256.823	78.12
257.056	95.12
257.289	82.12
257.521	83.12
257.754	77.12
257.987	98.12
258.22	76.12
258.452	76.12
258.685	81.12
258.918	90.12
259.151	93.12
259.383	83.12
259.616	75.12
259.849	94.12
260.081	74.12
260.314	84.12
260.547	83.12
260.779	89.12
261.012	93.12
261.244	78.12
261.477	67.12
261.71	67.12
261.942	83.12
262.175	98.12
262.407	90.12
262.64	97.12
262.872	74.12
263.105	79.12
263.337	87.12
263.57	81.12
263.802	92.12
264.035	87.12
264.267	74.12
264.499	87.12
264.732	78.12
264.964	89.12
265.197	85.12
265.429	79.12
265.661	77.12
265.894	89.12
266.126	84.12
266.358	82.12
266.591	92.12
266.823	77.12
267.055	91.12
267.287	82.12
267.52	91.12
267.752	90.12
267.984	88.12
268.216	81.12
268.448	79.12
268.681	87.12
268.913	78.12
269.145	79.12
269.377	77.12
269.609	87.12
269.841	79.12
270.073	84.12
270.306	75.12
270.538	90.12
270.77	95.12
271.002	77.12
271.234	84.12
271.466	93.12
271.698	90.12
271.93	88.12
272.162	73.12
272.394	70.12
272.626	94.12
272.858	84.12
273.09	90.12
273.322	89.12
273.553	83.12
273.785	95.12
274.017	89.12
274.249	93.12
274.481	84.12
274.713	77.12
274.945	89.12
275.176	78.12
275.408	86.12
275.64	103.12
275.872	89.12
276.104	91.12
276.335	84.12
276.567	86.12
276.799	82.12
277.031	89.12
277.262	83.12
277.494	84.12
277.726	100.12
277.957	89.12
278.189	66.12
278.421	86.12
278.652	94.12
278.884	84.12
279.115	73.12
279.347	91.12
279.579	85.12
279.81	94.12
280.042	90.12
280.273	89.12
280.505	79.12
280.736	80.12
280.968	89.12
281.199	88.12
281.431	96.12
281.662	89.12
281.894	86.12
282.125	86.12
282.356	89.12
282.588	82.12
282.819	85.12
283.051	88.12
283.282	101.12
283.513	93.12
283.745	85.12
283.976	83.12
284.207	79.12
284.439	81.12
284.67	92.12
284.901	79.12
285.132	83.12
285.364	85.12
285.595	91.12
285.826	87.12
286.057	85.12
286.288	86.12
286.52	91.12
286.751	86.12
286.982	94.12
287.213	90.12
287.444	92.12
287.675	81.12
287.906	93.12
288.138	75.12
288.369	78.12
288.6	79.12
288.831	94.12
289.062	85.12
289.293	70.12
289.524	82.12
289.755	71.12
289.986	89.12
290.217	85.12
290.448	84.12
290.679	88.12
290.91	91.12
291.141	80.12
291.371	79.12
291.602	83.12
291.833	93.12
292.064	93.12
292.295	84.12
292.526	78.12
292.757	74.12
292.987	83.12
293.218	96.12
293.449	82.12
293.68	81.12
293.91	94.12
294.141	88.12
294.372	85.12
294.603	99.12
294.833	98.12
295.064	79.12
295.295	78.12
295.525	102.12
295.756	87.12
295.987	87.12
296.217	72.12
296.448	74.12
296.679	81.12
296.909	95.12
297.14	90.12
297.37	83.12
297.601	76.12
297.831	84.12
298.062	86.12
298.292	93.12
298.523	79.12
298.753	88.12
298.984	85.12
299.214	80.12
299.445	110.12
299.675	77.12
299.905	92.12
300.136	85.12
300.366	97.12
300.597	86.12
300.827	87.12
301.057	89.12
301.288	88.12
301.518	83.12
301.748	93.12
301.979	85.12
302.209	106.12
302.439	85.12
302.669	83.12
302.9	79.12
303.13	94.12
303.36	90.12
303.59	89.12
303.82	92.12
304.051	71.12
304.281	83.12
304.511	79.12
304.741	90.12
304.971	96.12
305.201	77.12
305.431	71.12
305.661	95.12
305.891	85.12
306.121	79.12
306.352	91.12
306.582	104.12
306.812	85.12
307.042	85.12
307.272	83.12
307.502	84.12
307.731	89.12
307.961	89.12
308.191	78.12
308.421	89.12
308.651	84.12
308.881	88.12
309.111	90.12
309.341	80.12
309.571	88.12
309.8	83.12
310.03	89.12
310.26	72.12
310.49	84.12
310.72	79.12
310.949	76.12
311.179	93.12
311.409	93.12
311.639	87.12
311.868	81.12
312.098	83.12
312.328	77.12
312.557	83.12
312.787	93.12
313.017	89.12
313.246	76.12
313.476	81.12
313.706	92.12
313.935	83.12
314.165	97.12
314.394	84.12
314.624	85.12
314.853	90.12
315.083	86.12
315.312	86.12
315.542	81.12
315.771	83.12
316.001	76.12
316.23	83.12
316.46	82.12
316.689	74.12
316.919	87.12
317.148	81.12
317.377	71.12
317.607	86.12
317.836	79.12
318.065	78.12
318.295	86.12
318.524	88.12
318.753	85.12
318.983	91.12
319.212	79.12
319.441	96.12
319.67	83.12
319.9	80.12
320.129	91.12
320.358	88.12
320.587	97.12
320.816	86.12
321.046	91.12
321.275	82.12
321.504	91.12
321.733	72.12
321.962	78.12
322.191	86.12
322.42	92.12
322.649	81.12
322.878	97.12
323.108	82.12
323.337	94.12
323.566	90.12
323.795	86.12
324.024	85.12
324.253	75.12
324.482	94.12
324.71	89.12
324.939	88.12
325.168	95.12
325.397	108.12
325.626	85.12
325.855	99.12
326.084	82.12
326.313	75.12
326.542	79.12
326.77	74.12
326.999	78.12
327.228	89.12
327.457	81.12
327.686	78.12
327.914	103.12
328.143	91.12
328.372	91.12
328.6	95.12
328.829	89.12
329.058	87.12
329.287	99.12
329.515	86.12
329.744	89.12
329.972	70.12
330.201	85.12
330.43	78.12
330.658	97.12
330.887	81.12
331.115	74.12
331.344	87.12
331.572	87.12
331.801	85.12
332.03	102.12
332.258	95.12
332.486	90.12
332.715	93.12
332.943	91.12
333.172	87.12
333.4	80.12
333.629	83.12
333.857	87.12
334.085	89.12
334.314	86.12
334.542	78.12
334.771	88.12
334.999	91.12
335.227	92.12
335.455	89.12
335.684	79.12
335.912	78.12
336.14	82.12
336.369	81.12
336.597	91.12
336.825	95.12
337.053	90.12
337.281	82.12
337.51	90.12
337.738	88.12
337.966	85.12
338.194	94.12
338.422	82.12
338.65	92.12
338.878	75.12
339.106	80.12
339.334	84.12
339.562	74.12
339.79	95.12
340.018	87.12
340.246	75.12
340.474	92.12
340.702	86.12
340.93	79.12
341.158	80.12
341.386	93.12
341.614	101.12
341.842	87.12
342.07	72.12
342.298	85.12
342.526	78.12
342.754	73.12
342.981	88.12
343.209	90.12
343.437	86.12
343.665	83.12
343.893	86.12
344.12	80.12
344.348	76.12
344.576	78.12
344.804	74.12
345.031	79.12
345.259	81.12
345.487	92.12
345.714	83.12
345.942	78.12
346.17	82.12
346.397	100.12
346.625	81.12
346.853	77.12
347.08	91.12
347.308	98.12
347.535	87.12
347.763	89.12
347.99	91.12
348.218	82.12
348.445	77.12
348.673	92.12
348.9	85.12
349.128	87.12
349.355	84.12
349.583	90.12
349.81	77.12
350.037	73.12
350.265	90.12
350.492	91.12
350.72	73.12
350.947	79.12
351.174	90.12
351.402	75.12
351.629	79.12
351.856	104.12
352.083	90.12
352.311	102.12
352.538	94.12
352.765	90.12
352.992	90.12
353.22	71.12
353.447	86.12
353.674	85.12
353.901	89.12
354.128	95.12
354.355	86.12
354.583	75.12
354.81	82.12
355.037	93.12
355.264	85.12
355.491	94.12
355.718	79.12
355.945	84.12
356.172	77.12
356.399	71.12
356.626	82.12
356.853	83.12
357.08	87.12
357.307	92.12
357.534	89.12
357.761	85.12
357.988	102.12
358.215	93.12
358.441	61.12
358.668	75.12
358.895	80.12
359.122	85.12
359.349	88.12
359.576	85.12
359.802	85.12
360.029	88.12
360.256	71.12
360.483	76.12
360.709	73.12
360.936	79.12
361.163	80.12
361.39	87.12
361.616	76.12
361.843	85.12
362.07	77.12
362.296	80.12
362.523	84.12
362.749	86.12
362.976	87.12
363.203	93.12
363.429	76.12
363.656	82.12
363.882	75.12
364.109	90.12
364.335	82.12
364.562	71.12
364.788	97.12
365.015	91.12
365.241	83.12
365.468	76.12
365.694	74.12
365.92	98.12
366.147	85.12
366.373	76.12
366.599	78.12
366.826	85.12
367.052	76.12
367.278	81.12
367.505	65.12
367.731	104.12
367.957	88.12
368.184	75.12
368.41	74.12
368.636	79.12
368.862	82.12
369.089	83.12
369.315	90.12
369.541	86.12
369.767	97.12
369.993	79.12
370.219	92.12
370.445	81.12
370.672	91.12
370.898	79.12
371.124	98.12
371.35	99.12
371.576	94.12
371.802	88.12
372.028	81.12
372.254	88.12
372.48	88.12
372.706	81.12
372.932	78.12
373.158	95.12
373.384	84.12
373.61	102.12
373.835	89.12
374.061	77.12
374.287	99.12
374.513	92.12
374.739	85.12
374.965	95.12
375.191	98.12
375.416	93.12
375.642	90.12
375.868	97.12
376.094	80.12
376.319	89.12
376.545	85.12
376.771	93.12
376.997	79.12
377.222	102.12
377.448	93.12
377.674	84.12
377.899	91.12
378.125	86.12
378.35	90.12
378.576	79.12
378.802	83.12
379.027	106.12
379.253	85.12
379.478	76.12
379.704	81.12
379.929	93.12
380.155	82.12
380.38	91.12
380.606	78.12
380.831	90.12
381.057	88.12
381.282	105.12
381.507	82.12
381.733	82.12
381.958	100.12
382.184	94.12
382.409	82.12
382.634	84.12
382.86	86.12
383.085	69.12
383.31	91.12
383.535	94.12
383.761	92.12
383.986	84.12
384.211	88.12
384.436	86.12
384.662	85.12
384.887	89.12
385.112	81.12
385.337	93.12
385.562	93.12
385.787	101.12
386.013	92.12
386.238	82.12
386.463	79.12
386.688	73.12
386.913	79.12
387.138	91.12
387.363	89.12
387.588	85.12
387.813	95.12
388.038	94.12
388.263	93.12
388.488	84.12
388.713	92.12
388.938	104.12
389.163	79.12
389.387	79.12
389.612	78.12
389.837	102.12
390.062	89.12
390.287	95.12
390.512	93.12
390.736	99.12
390.961	90.12
391.186	85.12
391.411	90.12
391.636	92.12
391.86	71.12
392.085	88.12
392.31	106.12
392.534	98.12
392.759	92.12
392.984	98.12
393.208	92.12
393.433	83.12
393.658	81.12
393.882	90.12
394.107	89.12
394.331	92.12
394.556	93.12
394.78	74.12
395.005	92.12
395.229	92.12
395.454	87.12
395.678	89.12
395.903	97.12
396.127	79.12
396.352	94.12
396.576	84.12
396.801	83.12
397.025	89.12
397.249	93.12
397.474	86.12
397.698	98.12
397.922	92.12
398.147	93.12
398.371	92.12
398.595	79.12
398.82	76.12
399.044	90.12
399.268	92.12
399.492	87.12
399.717	82.12
399.941	93.12
400.165	85.12
400.389	90.12
400.613	95.12
400.837	83.12
401.062	87.12
401.286	95.12
401.51	90.12
401.734	90.12
401.958	77.12
402.182	98.12
402.406	70.12
402.63	85.12
402.854	98.12
403.078	85.12
403.302	93.12
403.526	85.12
403.75	94.12
403.974	87.12
404.198	101.12
404.422	95.12
404.645	98.12
404.869	103.12
405.093	82.12
405.317	77.12
405.541	97.12
405.765	87.12
405.988	92.12
406.212	94.12
406.436	108.12
406.66	97.12
406.883	100.12
407.107	80.12
407.331	83.12
407.555	105.12
407.778	76.12
408.002	95.12
408.226	85.12
408.449	107.12
408.673	84.12
408.896	93.12
409.12	72.12
409.344	95.12
409.567	94.12
409.791	92.12
410.014	100.12
410.238	98.12
410.461	102.12
410.685	84.12
410.908	93.12
411.132	84.12
411.355	86.12
411.578	94.12
411.802	86.12
412.025	92.12
412.249	88.12
412.472	107.12
412.695	86.12
412.919	97.12
413.142	87.12
413.365	86.12
413.589	93.12
413.812	79.12
414.035	90.12
414.258	99.12
414.482	103.12
414.705	91.12
414.928	88.12
415.151	91.12
415.374	92.12
415.597	84.12
415.821	112.12
416.044	89.12
416.267	85.12
416.49	74.12
416.713	93.12
416.936	92.12
417.159	93.12
417.382	94.12
417.605	82.12
417.828	95.12
418.051	98.12
418.274	81.12
418.497	91.12
418.72	91.12
418.943	98.12
419.166	94.12
419.389	103.12
419.611	92.12
419.834	89.12
420.057	80.12
420.28	86.12
420.503	94.12
420.726	95.12
420.948	99.12
421.171	108.12
421.394	93.12
421.617	95.12
421.839	94.12
422.062	96.12
422.285	94.12
422.507	86.12
422.73	95.12
422.953	83.12
423.175	99.12
423.398	89.12
423.621	85.12
423.843	85.12
424.066	89.12
424.288	93.12
424.511	99.12
424.733	100.12
424.956	97.12
425.178	100.12
425.401	102.12
425.623	87.12
425.846	101.12
426.068	90.12
426.291	78.12
426.513	105.12
426.735	99.12
426.958	94.12
427.18	109.12
427.402	108.12
427.625	97.12
427.847	91.12
428.069	106.12
428.292	101.12
428.514	103.12
428.736	91.12
428.958	86.12
429.181	93.12
429.403	85.12
429.625	99.12
429.847	104.12
430.069	92.12
430.292	109.12
430.514	98.12
430.736	98.12
430.958	92.12
431.18	94.12
431.402	73.12
431.624	101.12
431.846	85.12
432.068	93.12
432.29	83.12
432.512	100.12
432.734	82.12
432.956	93.12
433.178	91.12
433.4	97.12
433.622	106.12
433.844	91.12
434.066	95.12
434.287	87.12
434.509	81.12
434.731	90.12
434.953	89.12
435.175	91.12
435.397	93.12
435.618	88.12
435.84	103.12
436.062	103.12
436.284	98.12
436.505	104.12
436.727	98.12
436.949	109.12
437.17	107.12
437.392	88.12
437.614	84.12
437.835	89.12
438.057	84.12
438.278	83.12
438.5	107.12
438.721	101.12
438.943	102.12
439.165	98.12
439.386	112.12
439.608	98.12
439.829	98.12
440.05	91.12
440.272	107.12
440.493	97.12
440.715	93.12
440.936	111.12
441.158	96.12
441.379	105.12
441.6	100.12
441.822	84.12
442.043	90.12
442.264	105.12
442.486	107.12
442.707	85.12
442.928	105.12
443.149	82.12
443.371	107.12
443.592	101.12
443.813	99.12
444.034	99.12
444.255	99.12
444.476	92.12
444.698	93.12
444.919	93.12
445.14	234.12
445.361	173.12
445.582	107.12
445.803	97.12
446.024	110.12
446.245	115.12
446.466	102.12
446.687	89.12
446.908	93.12
447.129	114.12
447.35	103.12
447.571	109.12
447.792	115.12
448.013	86.12
448.234	99.12
448.455	106.12
448.675	96.12
448.896	106.12
449.117	108.12
449.338	104.12
449.559	109.12
449.779	93.12
450	98.12
450.221	110.12
450.442	75.12
450.662	96.12
450.883	98.12
451.104	101.12
451.324	93.12
451.545	87.12
451.766	82.12
451.986	101.12
452.207	103.12
452.428	90.12
452.648	97.12
452.869	94.12
453.089	79.12
453.31	101.12
453.53	98.12
453.751	94.12
453.971	95.12
454.192	108.12
454.412	88.12
454.633	80.12
454.853	90.12
455.073	88.12
455.294	84.12
455.514	96.12
455.734	100.12
455.955	87.12
456.175	98.12
456.395	93.12
456.616	98.12
456.836	84.12
457.056	89.12
457.276	90.12
457.497	99.12
457.717	96.12
457.937	84.12
458.157	89.12
458.377	82.12
458.598	81.12
458.818	89.12
459.038	81.12
459.258	80.12
459.478	75.12
459.698	99.12
459.918	102.12
460.138	88.12
460.358	75.12
460.578	101.12
460.798	94.12
461.018	101.12
461.238	99.12
461.458	89.12
461.678	100.12
461.898	94.12
462.118	92.12
462.338	86.12
462.558	93.12
462.777	97.12
462.997	94.12
463.217	87.12
463.437	103.12
463.657	86.12
463.876	86.12
464.096	90.12
464.316	99.12
464.536	99.12
464.755	95.12
464.975	92.12
465.195	95.12
465.414	95.12
465.634	108.12
465.854	101.12
466.073	93.12
466.293	86.12
466.512	103.12
466.732	94.12
466.951	90.12
467.171	98.12
467.391	101.12
467.61	103.12
467.829	89.12
468.049	104.12
468.268	88.12
468.488	87.12
468.707	88.12
468.927	101.12
469.146	99.12
469.365	114.12
469.585	114.12
469.804	84.12
470.023	89.12
470.243	96.12
470.462	114.12
470.681	117.12
470.901	89.12
471.12	117.12
471.339	94.12
471.558	101.12
471.777	93.12
471.997	97.12
472.216	100.12
472.435	99.12
472.654	89.12
472.873	107.12
473.092	100.12
473.311	92.12
473.53	93.12
473.749	105.12
473.968	103.12
474.187	95.12
474.406	109.12
474.625	86.12
474.844	98.12
475.063	97.12
475.282	89.12
475.501	94.12
475.72	105.12
475.939	79.12
476.158	100.12
476.377	93.12
476.596	97.12
476.814	96.12
477.033	96.12
477.252	88.12
477.471	101.12
477.69	94.12
477.908	84.12
478.127	100.12
478.346	110.12
478.564	83.12
478.783	108.12
479.002	104.12
479.22	104.12
479.439	94.12
479.658	95.12
479.876	91.12
480.095	92.12
480.313	96.12
480.532	105.12
480.751	97.12
480.969	85.12
481.188	87.12
481.406	91.12
481.624	93.12
481.843	90.12
482.061	87.12
482.28	98.12
482.498	84.12
482.717	93.12
482.935	101.12
483.153	100.12
483.372	104.12
483.59	92.12
483.808	110.12
484.027	100.12
484.245	109.12
484.463	95.12
484.681	113.12
484.9	94.12
485.118	109.12
485.336	94.12
485.554	85.12
485.772	89.12
485.99	90.12
486.209	85.12
486.427	94.12
486.645	88.12
486.863	90.12
487.081	92.12
487.299	91.12
487.517	117.12
487.735	112.12
487.953	131.12
488.171	118.12
488.389	104.12
488.607	100.12
488.825	104.12
489.043	92.12
489.261	100.12
489.479	113.12
489.696	99.12
489.914	91.12
490.132	79.12
490.35	105.12
490.568	115.12
490.786	107.12
491.003	119.12
491.221	120.12
491.439	118.12
491.657	107.12
491.874	119.12
492.092	128.12
492.31	129.12
492.527	126.12
492.745	126.12
492.963	117.12
493.18	101.12
493.398	114.12
493.615	112.12
493.833	109.12
494.05	102.12
494.268	100.12
494.485	113.12
494.703	117.12
494.92	121.12
495.138	121.12
495.355	106.12
495.573	107.12
495.79	105.12
496.008	121.12
496.225	125.12
496.442	102.12
496.66	114.12
496.877	99.12
497.094	112.12
497.312	113.12
497.529	91.12
497.746	117.12
497.963	86.12
498.181	103.12
498.398	106.12
498.615	103.12
498.832	90.12
499.049	96.12
499.267	90.12
499.484	82.12
499.701	93.12
499.918	100.12
500.135	106.12
500.352	94.12
500.569	103.12
500.786	106.12
501.003	102.12
501.22	108.12
501.437	105.12
501.654	92.12
501.871	107.12
502.088	107.12
502.305	114.12
502.522	86.12
502.739	98.12
502.956	104.12
503.172	91.12
503.389	103.12
503.606	85.12
503.823	99.12
504.04	103.12
504.256	104.12
504.473	94.12
504.69	85.12
504.907	95.12
505.123	105.12
505.34	97.12
505.557	85.12
505.773	102.12
505.99	98.12
506.207	95.12
506.423	71.12
506.64	85.12
506.856	99.12
507.073	85.12
507.289	104.12
507.506	114.12
507.722	84.12
507.939	97.12
508.155	94.12
508.372	99.12
508.588	99.12
508.805	104.12
509.021	101.12
509.238	99.12
509.454	99.12
509.67	90.12
509.887	104.12
510.103	91.12
510.319	95.12
510.536	88.12
510.752	73.12
510.968	107.12
511.184	95.12
511.401	90.12
511.617	97.12
511.833	93.12
512.049	89.12
512.265	82.12
512.481	100.12
512.698	86.12
512.914	82.12
513.13	83.12
513.346	76.12
513.562	83.12
513.778	84.12
513.994	82.12
514.21	99.12
514.426	102.12
514.642	92.12
514.858	102.12
515.074	88.12
515.29	92.12
515.506	89.12
515.721	78.12
515.937	90.12
516.153	85.12
516.369	94.12
516.585	86.12
