Data from Location4.07152019.Energy5.Lamp.07192019.3%Agarose_HRD10591_15-24-33-577.txt Node
Date: Fri Jul 19 15:24:33 EDT 2019
User: cochatt
Spectrometer: HR+D1059
Trigger mode: 1
Integration Time (sec): 1.000000E-1
Scans to average: 1
Electric dark correction enabled: true
Nonlinearity correction enabled: false
Boxcar width: 0
XAxis mode: Wavelengths
Number of Pixels in Spectrum: 2048
>>>>>Begin Spectral Data<<<<<
223.165	-10.19
223.4	-10.19
223.635	-10.19
223.869	-15.19
224.104	-31.19
224.338	-24.19
224.573	-11.19
224.808	-17.19
225.042	-5.19
225.277	-4.19
225.511	1.81
225.746	10.81
225.98	0.81
226.215	8.81
226.449	7.81
226.683	28.81
226.918	28.81
227.152	30.81
227.387	34.81
227.621	49.81
227.856	47.81
228.09	54.81
228.324	63.81
228.559	57.81
228.793	59.81
229.027	48.81
229.262	69.81
229.496	68.81
229.73	72.81
229.964	70.81
230.199	74.81
230.433	80.81
230.667	76.81
230.901	85.81
231.136	87.81
231.37	75.81
231.604	70.81
231.838	83.81
232.072	77.81
232.306	76.81
232.541	70.81
232.775	94.81
233.009	72.81
233.243	71.81
233.477	66.81
233.711	77.81
233.945	72.81
234.179	75.81
234.413	88.81
234.647	88.81
234.881	80.81
235.115	79.81
235.349	76.81
235.583	66.81
235.817	71.81
236.051	70.81
236.285	84.81
236.519	76.81
236.753	70.81
236.987	73.81
237.221	82.81
237.455	68.81
237.689	77.81
237.922	79.81
238.156	74.81
238.39	81.81
238.624	77.81
238.858	83.81
239.091	66.81
239.325	59.81
239.559	72.81
239.793	77.81
240.027	91.81
240.26	75.81
240.494	66.81
240.728	62.81
240.961	81.81
241.195	76.81
241.429	88.81
241.662	68.81
241.896	79.81
242.13	74.81
242.363	77.81
242.597	80.81
242.83	76.81
243.064	83.81
243.298	80.81
243.531	77.81
243.765	76.81
243.998	84.81
244.232	65.81
244.465	84.81
244.699	67.81
244.932	91.81
245.166	74.81
245.399	69.81
245.633	75.81
245.866	84.81
246.099	78.81
246.333	69.81
246.566	72.81
246.8	72.81
247.033	83.81
247.266	86.81
247.5	68.81
247.733	87.81
247.966	81.81
248.2	68.81
248.433	81.81
248.666	70.81
248.899	89.81
249.133	80.81
249.366	80.81
249.599	79.81
249.832	73.81
250.066	78.81
250.299	64.81
250.532	84.81
250.765	82.81
250.998	89.81
251.231	77.81
251.465	85.81
251.698	81.81
251.931	67.81
252.164	89.81
252.397	84.81
252.63	74.81
252.863	83.81
253.096	81.81
253.329	78.81
253.562	82.81
253.795	89.81
254.028	73.81
254.261	82.81
254.494	76.81
254.727	82.81
254.96	84.81
255.193	89.81
255.426	76.81
255.659	78.81
255.892	80.81
256.124	80.81
256.357	75.81
256.59	98.81
256.823	93.81
257.056	95.81
257.289	69.81
257.521	83.81
257.754	83.81
257.987	74.81
258.22	68.81
258.452	65.81
258.685	82.81
258.918	82.81
259.151	79.81
259.383	73.81
259.616	89.81
259.849	85.81
260.081	75.81
260.314	74.81
260.547	83.81
260.779	82.81
261.012	78.81
261.244	92.81
261.477	74.81
261.71	86.81
261.942	81.81
262.175	75.81
262.407	85.81
262.64	70.81
262.872	77.81
263.105	90.81
263.337	92.81
263.57	67.81
263.802	83.81
264.035	84.81
264.267	78.81
264.499	75.81
264.732	75.81
264.964	78.81
265.197	84.81
265.429	64.81
265.661	93.81
265.894	88.81
266.126	94.81
266.358	82.81
266.591	81.81
266.823	71.81
267.055	93.81
267.287	96.81
267.52	66.81
267.752	84.81
267.984	83.81
268.216	75.81
268.448	87.81
268.681	65.81
268.913	78.81
269.145	79.81
269.377	82.81
269.609	96.81
269.841	87.81
270.073	75.81
270.306	81.81
270.538	92.81
270.77	84.81
271.002	82.81
271.234	75.81
271.466	85.81
271.698	90.81
271.93	76.81
272.162	90.81
272.394	79.81
272.626	83.81
272.858	87.81
273.09	90.81
273.322	89.81
273.553	83.81
273.785	92.81
274.017	86.81
274.249	88.81
274.481	71.81
274.713	88.81
274.945	88.81
275.176	77.81
275.408	79.81
275.64	81.81
275.872	76.81
276.104	100.81
276.335	82.81
276.567	71.81
276.799	74.81
277.031	84.81
277.262	86.81
277.494	73.81
277.726	82.81
277.957	86.81
278.189	96.81
278.421	88.81
278.652	79.81
278.884	85.81
279.115	90.81
279.347	81.81
279.579	75.81
279.81	82.81
280.042	83.81
280.273	86.81
280.505	107.81
280.736	89.81
280.968	77.81
281.199	87.81
281.431	83.81
281.662	85.81
281.894	76.81
282.125	90.81
282.356	81.81
282.588	92.81
282.819	84.81
283.051	90.81
283.282	78.81
283.513	86.81
283.745	82.81
283.976	76.81
284.207	81.81
284.439	90.81
284.67	70.81
284.901	77.81
285.132	72.81
285.364	90.81
285.595	81.81
285.826	88.81
286.057	83.81
286.288	104.81
286.52	82.81
286.751	82.81
286.982	82.81
287.213	85.81
287.444	82.81
287.675	95.81
287.906	83.81
288.138	68.81
288.369	88.81
288.6	88.81
288.831	80.81
289.062	97.81
289.293	96.81
289.524	87.81
289.755	87.81
289.986	88.81
290.217	87.81
290.448	87.81
290.679	79.81
290.91	88.81
291.141	83.81
291.371	87.81
291.602	90.81
291.833	97.81
292.064	94.81
292.295	89.81
292.526	80.81
292.757	71.81
292.987	73.81
293.218	85.81
293.449	93.81
293.68	90.81
293.91	80.81
294.141	81.81
294.372	76.81
294.603	73.81
294.833	81.81
295.064	85.81
295.295	83.81
295.525	84.81
295.756	93.81
295.987	87.81
296.217	69.81
296.448	98.81
296.679	87.81
296.909	89.81
297.14	88.81
297.37	101.81
297.601	82.81
297.831	80.81
298.062	81.81
298.292	83.81
298.523	77.81
298.753	98.81
298.984	77.81
299.214	88.81
299.445	83.81
299.675	86.81
299.905	77.81
300.136	99.81
300.366	84.81
300.597	93.81
300.827	89.81
301.057	98.81
301.288	98.81
301.518	80.81
301.748	88.81
301.979	85.81
302.209	88.81
302.439	86.81
302.669	73.81
302.9	82.81
303.13	99.81
303.36	84.81
303.59	81.81
303.82	82.81
304.051	87.81
304.281	90.81
304.511	80.81
304.741	82.81
304.971	84.81
305.201	85.81
305.431	90.81
305.661	88.81
305.891	93.81
306.121	80.81
306.352	86.81
306.582	85.81
306.812	74.81
307.042	70.81
307.272	92.81
307.502	77.81
307.731	74.81
307.961	91.81
308.191	88.81
308.421	93.81
308.651	76.81
308.881	89.81
309.111	80.81
309.341	81.81
309.571	84.81
309.8	85.81
310.03	75.81
310.26	83.81
310.49	87.81
310.72	75.81
310.949	79.81
311.179	85.81
311.409	82.81
311.639	78.81
311.868	88.81
312.098	87.81
312.328	84.81
312.557	88.81
312.787	76.81
313.017	70.81
313.246	88.81
313.476	84.81
313.706	83.81
313.935	81.81
314.165	94.81
314.394	84.81
314.624	90.81
314.853	77.81
315.083	92.81
315.312	87.81
315.542	76.81
315.771	91.81
316.001	86.81
316.23	86.81
316.46	78.81
316.689	80.81
316.919	85.81
317.148	88.81
317.377	83.81
317.607	85.81
317.836	89.81
318.065	83.81
318.295	84.81
318.524	91.81
318.753	92.81
318.983	71.81
319.212	87.81
319.441	83.81
319.67	81.81
319.9	84.81
320.129	79.81
320.358	76.81
320.587	86.81
320.816	87.81
321.046	74.81
321.275	84.81
321.504	78.81
321.733	79.81
321.962	76.81
322.191	87.81
322.42	93.81
322.649	78.81
322.878	95.81
323.108	83.81
323.337	82.81
323.566	79.81
323.795	76.81
324.024	76.81
324.253	81.81
324.482	90.81
324.71	78.81
324.939	89.81
325.168	97.81
325.397	81.81
325.626	95.81
325.855	79.81
326.084	94.81
326.313	85.81
326.542	94.81
326.77	92.81
326.999	76.81
327.228	63.81
327.457	80.81
327.686	89.81
327.914	63.81
328.143	70.81
328.372	81.81
328.6	96.81
328.829	91.81
329.058	89.81
329.287	73.81
329.515	73.81
329.744	73.81
329.972	84.81
330.201	74.81
330.43	99.81
330.658	89.81
330.887	75.81
331.115	89.81
331.344	85.81
331.572	87.81
331.801	71.81
332.03	87.81
332.258	81.81
332.486	73.81
332.715	78.81
332.943	82.81
333.172	71.81
333.4	88.81
333.629	85.81
333.857	81.81
334.085	86.81
334.314	94.81
334.542	80.81
334.771	91.81
334.999	98.81
335.227	86.81
335.455	86.81
335.684	64.81
335.912	83.81
336.14	96.81
336.369	94.81
336.597	86.81
336.825	83.81
337.053	86.81
337.281	87.81
337.51	86.81
337.738	74.81
337.966	87.81
338.194	74.81
338.422	92.81
338.65	78.81
338.878	90.81
339.106	85.81
339.334	92.81
339.562	72.81
339.79	99.81
340.018	97.81
340.246	87.81
340.474	84.81
340.702	76.81
340.93	97.81
341.158	82.81
341.386	72.81
341.614	78.81
341.842	75.81
342.07	78.81
342.298	81.81
342.526	72.81
342.754	89.81
342.981	82.81
343.209	83.81
343.437	76.81
343.665	99.81
343.893	92.81
344.12	81.81
344.348	78.81
344.576	100.81
344.804	86.81
345.031	77.81
345.259	103.81
345.487	80.81
345.714	94.81
345.942	75.81
346.17	87.81
346.397	74.81
346.625	84.81
346.853	88.81
347.08	80.81
347.308	83.81
347.535	82.81
347.763	92.81
347.99	74.81
348.218	70.81
348.445	80.81
348.673	79.81
348.9	87.81
349.128	65.81
349.355	80.81
349.583	87.81
349.81	73.81
350.037	77.81
350.265	85.81
350.492	76.81
350.72	74.81
350.947	74.81
351.174	88.81
351.402	91.81
351.629	95.81
351.856	90.81
352.083	80.81
352.311	74.81
352.538	72.81
352.765	86.81
352.992	97.81
353.22	79.81
353.447	77.81
353.674	85.81
353.901	95.81
354.128	100.81
354.355	80.81
354.583	86.81
354.81	82.81
355.037	81.81
355.264	96.81
355.491	74.81
355.718	87.81
355.945	89.81
356.172	83.81
356.399	97.81
356.626	91.81
356.853	83.81
357.08	88.81
357.307	82.81
357.534	90.81
357.761	89.81
357.988	92.81
358.215	74.81
358.441	73.81
358.668	81.81
358.895	86.81
359.122	77.81
359.349	85.81
359.576	100.81
359.802	76.81
360.029	89.81
360.256	86.81
360.483	79.81
360.709	76.81
360.936	90.81
361.163	89.81
361.39	81.81
361.616	77.81
361.843	94.81
362.07	87.81
362.296	85.81
362.523	81.81
362.749	82.81
362.976	81.81
363.203	97.81
363.429	85.81
363.656	90.81
363.882	76.81
364.109	90.81
364.335	85.81
364.562	92.81
364.788	76.81
365.015	61.81
365.241	71.81
365.468	76.81
365.694	75.81
365.92	80.81
366.147	83.81
366.373	76.81
366.599	87.81
366.826	82.81
367.052	99.81
367.278	92.81
367.505	95.81
367.731	86.81
367.957	80.81
368.184	75.81
368.41	100.81
368.636	85.81
368.862	93.81
369.089	91.81
369.315	113.81
369.541	72.81
369.767	90.81
369.993	89.81
370.219	98.81
370.445	72.81
370.672	87.81
370.898	87.81
371.124	95.81
371.35	84.81
371.576	74.81
371.802	93.81
372.028	101.81
372.254	83.81
372.48	82.81
372.706	74.81
372.932	75.81
373.158	81.81
373.384	92.81
373.61	82.81
373.835	73.81
374.061	89.81
374.287	70.81
374.513	93.81
374.739	72.81
374.965	85.81
375.191	96.81
375.416	80.81
375.642	94.81
375.868	83.81
376.094	88.81
376.319	86.81
376.545	88.81
376.771	93.81
376.997	99.81
377.222	81.81
377.448	76.81
377.674	83.81
377.899	72.81
378.125	73.81
378.35	75.81
378.576	87.81
378.802	87.81
379.027	98.81
379.253	98.81
379.478	97.81
379.704	81.81
379.929	87.81
380.155	95.81
380.38	95.81
380.606	87.81
380.831	79.81
381.057	86.81
381.282	78.81
381.507	74.81
381.733	83.81
381.958	82.81
382.184	90.81
382.409	93.81
382.634	86.81
382.86	82.81
383.085	84.81
383.31	84.81
383.535	76.81
383.761	96.81
383.986	92.81
384.211	92.81
384.436	89.81
384.662	93.81
384.887	88.81
385.112	82.81
385.337	87.81
385.562	88.81
385.787	98.81
386.013	96.81
386.238	92.81
386.463	89.81
386.688	89.81
386.913	92.81
387.138	76.81
387.363	73.81
387.588	91.81
387.813	82.81
388.038	100.81
388.263	87.81
388.488	90.81
388.713	83.81
388.938	80.81
389.163	103.81
389.387	78.81
389.612	81.81
389.837	74.81
390.062	91.81
390.287	91.81
390.512	95.81
390.736	87.81
390.961	83.81
391.186	93.81
391.411	80.81
391.636	92.81
391.86	88.81
392.085	81.81
392.31	89.81
392.534	82.81
392.759	107.81
392.984	103.81
393.208	99.81
393.433	87.81
393.658	91.81
393.882	103.81
394.107	82.81
394.331	81.81
394.556	77.81
394.78	77.81
395.005	80.81
395.229	91.81
395.454	82.81
395.678	82.81
395.903	76.81
396.127	92.81
396.352	88.81
396.576	81.81
396.801	94.81
397.025	82.81
397.249	79.81
397.474	85.81
397.698	86.81
397.922	85.81
398.147	91.81
398.371	97.81
398.595	98.81
398.82	93.81
399.044	85.81
399.268	82.81
399.492	78.81
399.717	86.81
399.941	90.81
400.165	88.81
400.389	92.81
400.613	89.81
400.837	74.81
401.062	100.81
401.286	88.81
401.51	101.81
401.734	81.81
401.958	78.81
402.182	86.81
402.406	89.81
402.63	92.81
402.854	80.81
403.078	79.81
403.302	87.81
403.526	84.81
403.75	103.81
403.974	74.81
404.198	96.81
404.422	91.81
404.645	87.81
404.869	100.81
405.093	94.81
405.317	84.81
405.541	90.81
405.765	89.81
405.988	88.81
406.212	91.81
406.436	82.81
406.66	88.81
406.883	91.81
407.107	82.81
407.331	93.81
407.555	96.81
407.778	80.81
408.002	87.81
408.226	95.81
408.449	96.81
408.673	95.81
408.896	92.81
409.12	83.81
409.344	94.81
409.567	100.81
409.791	100.81
410.014	102.81
410.238	83.81
410.461	85.81
410.685	90.81
410.908	81.81
411.132	103.81
411.355	104.81
411.578	93.81
411.802	104.81
412.025	80.81
412.249	93.81
412.472	93.81
412.695	97.81
412.919	87.81
413.142	89.81
413.365	86.81
413.589	105.81
413.812	92.81
414.035	95.81
414.258	91.81
414.482	89.81
414.705	99.81
414.928	96.81
415.151	87.81
415.374	94.81
415.597	88.81
415.821	88.81
416.044	88.81
416.267	87.81
416.49	94.81
416.713	91.81
416.936	87.81
417.159	91.81
417.382	95.81
417.605	89.81
417.828	99.81
418.051	84.81
418.274	91.81
418.497	87.81
418.72	94.81
418.943	78.81
419.166	100.81
419.389	98.81
419.611	93.81
419.834	92.81
420.057	98.81
420.28	86.81
420.503	95.81
420.726	114.81
420.948	84.81
421.171	105.81
421.394	88.81
421.617	101.81
421.839	99.81
422.062	100.81
422.285	103.81
422.507	97.81
422.73	86.81
422.953	100.81
423.175	98.81
423.398	85.81
423.621	97.81
423.843	94.81
424.066	106.81
424.288	96.81
424.511	97.81
424.733	99.81
424.956	97.81
425.178	93.81
425.401	110.81
425.623	105.81
425.846	101.81
426.068	103.81
426.291	95.81
426.513	91.81
426.735	95.81
426.958	96.81
427.18	88.81
427.402	90.81
427.625	96.81
427.847	92.81
428.069	111.81
428.292	95.81
428.514	94.81
428.736	96.81
428.958	81.81
429.181	87.81
429.403	83.81
429.625	104.81
429.847	88.81
430.069	106.81
430.292	102.81
430.514	89.81
430.736	82.81
430.958	92.81
431.18	94.81
431.402	91.81
431.624	95.81
431.846	102.81
432.068	85.81
432.29	92.81
432.512	94.81
432.734	85.81
432.956	82.81
433.178	94.81
433.4	96.81
433.622	107.81
433.844	95.81
434.066	99.81
434.287	94.81
434.509	85.81
434.731	90.81
434.953	87.81
435.175	98.81
435.397	107.81
435.618	77.81
435.84	78.81
436.062	102.81
436.284	88.81
436.505	103.81
436.727	102.81
436.949	82.81
437.17	95.81
437.392	94.81
437.614	90.81
437.835	92.81
438.057	91.81
438.278	86.81
438.5	105.81
438.721	99.81
438.943	89.81
439.165	89.81
439.386	102.81
439.608	76.81
439.829	104.81
440.05	95.81
440.272	91.81
440.493	79.81
440.715	99.81
440.936	87.81
441.158	106.81
441.379	103.81
441.6	120.81
441.822	96.81
442.043	82.81
442.264	91.81
442.486	90.81
442.707	91.81
442.928	101.81
443.149	80.81
443.371	97.81
443.592	87.81
443.813	98.81
444.034	113.81
444.255	95.81
444.476	96.81
444.698	89.81
444.919	94.81
445.14	209.81
445.361	143.81
445.582	96.81
445.803	94.81
446.024	111.81
446.245	89.81
446.466	101.81
446.687	105.81
446.908	98.81
447.129	105.81
447.35	91.81
447.571	93.81
447.792	94.81
448.013	100.81
448.234	102.81
448.455	93.81
448.675	88.81
448.896	100.81
449.117	91.81
449.338	108.81
449.559	95.81
449.779	93.81
450	99.81
450.221	99.81
450.442	108.81
450.662	83.81
450.883	92.81
451.104	85.81
451.324	107.81
451.545	97.81
451.766	105.81
451.986	102.81
452.207	100.81
452.428	79.81
452.648	100.81
452.869	102.81
453.089	87.81
453.31	88.81
453.53	93.81
453.751	72.81
453.971	95.81
454.192	89.81
454.412	93.81
454.633	98.81
454.853	83.81
455.073	99.81
455.294	97.81
455.514	99.81
455.734	81.81
455.955	76.81
456.175	77.81
456.395	94.81
456.616	87.81
456.836	87.81
457.056	94.81
457.276	77.81
457.497	88.81
457.717	97.81
457.937	86.81
458.157	83.81
458.377	78.81
458.598	98.81
458.818	91.81
459.038	84.81
459.258	95.81
459.478	64.81
459.698	87.81
459.918	78.81
460.138	89.81
460.358	86.81
460.578	94.81
460.798	85.81
461.018	104.81
461.238	91.81
461.458	87.81
461.678	82.81
461.898	99.81
462.118	99.81
462.338	91.81
462.558	98.81
462.777	89.81
462.997	79.81
463.217	87.81
463.437	95.81
463.657	82.81
463.876	81.81
464.096	73.81
464.316	93.81
464.536	74.81
464.755	89.81
464.975	77.81
465.195	92.81
465.414	86.81
465.634	85.81
465.854	84.81
466.073	93.81
466.293	101.81
466.512	100.81
466.732	107.81
466.951	83.81
467.171	83.81
467.391	89.81
467.61	86.81
467.829	88.81
468.049	110.81
468.268	102.81
468.488	88.81
468.707	88.81
468.927	95.81
469.146	102.81
469.365	95.81
469.585	102.81
469.804	95.81
470.023	80.81
470.243	82.81
470.462	97.81
470.681	93.81
470.901	104.81
471.12	105.81
471.339	97.81
471.558	91.81
471.777	93.81
471.997	114.81
472.216	96.81
472.435	96.81
472.654	83.81
472.873	86.81
473.092	88.81
473.311	95.81
473.53	98.81
473.749	84.81
473.968	90.81
474.187	103.81
474.406	87.81
474.625	100.81
474.844	104.81
475.063	96.81
475.282	87.81
475.501	102.81
475.72	74.81
475.939	97.81
476.158	86.81
476.377	102.81
476.596	87.81
476.814	89.81
477.033	83.81
477.252	91.81
477.471	86.81
477.69	85.81
477.908	92.81
478.127	101.81
478.346	96.81
478.564	94.81
478.783	99.81
479.002	94.81
479.22	98.81
479.439	101.81
479.658	100.81
479.876	88.81
480.095	85.81
480.313	75.81
480.532	82.81
480.751	84.81
480.969	91.81
481.188	87.81
481.406	86.81
481.624	71.81
481.843	79.81
482.061	84.81
482.28	83.81
482.498	95.81
482.717	90.81
482.935	95.81
483.153	95.81
483.372	118.81
483.59	94.81
483.808	86.81
484.027	91.81
484.245	103.81
484.463	104.81
484.681	106.81
484.9	105.81
485.118	104.81
485.336	93.81
485.554	97.81
485.772	90.81
485.99	87.81
486.209	94.81
486.427	87.81
486.645	96.81
486.863	102.81
487.081	117.81
487.299	106.81
487.517	95.81
487.735	108.81
487.953	120.81
488.171	125.81
488.389	118.81
488.607	115.81
488.825	105.81
489.043	98.81
489.261	97.81
489.479	102.81
489.696	99.81
489.914	87.81
490.132	101.81
490.35	105.81
490.568	94.81
490.786	111.81
491.003	110.81
491.221	105.81
491.439	119.81
491.657	110.81
491.874	103.81
492.092	118.81
492.31	116.81
492.527	118.81
492.745	117.81
492.963	121.81
493.18	115.81
493.398	115.81
493.615	117.81
493.833	116.81
494.05	119.81
494.268	104.81
494.485	105.81
494.703	107.81
494.92	101.81
495.138	109.81
495.355	110.81
495.573	111.81
495.79	99.81
496.008	96.81
496.225	115.81
496.442	116.81
496.66	97.81
496.877	112.81
497.094	113.81
497.312	114.81
497.529	102.81
497.746	102.81
497.963	87.81
498.181	101.81
498.398	91.81
498.615	102.81
498.832	79.81
499.049	103.81
499.267	101.81
499.484	107.81
499.701	112.81
499.918	96.81
500.135	104.81
500.352	103.81
500.569	101.81
500.786	106.81
501.003	92.81
501.22	102.81
501.437	103.81
501.654	106.81
501.871	99.81
502.088	86.81
502.305	94.81
502.522	100.81
502.739	99.81
502.956	91.81
503.172	92.81
503.389	95.81
503.606	97.81
503.823	82.81
504.04	91.81
504.256	93.81
504.473	95.81
504.69	96.81
504.907	90.81
505.123	90.81
505.34	89.81
505.557	78.81
505.773	100.81
505.99	95.81
506.207	86.81
506.423	85.81
506.64	98.81
506.856	110.81
507.073	72.81
507.289	104.81
507.506	92.81
507.722	92.81
507.939	85.81
508.155	93.81
508.372	92.81
508.588	90.81
508.805	98.81
509.021	81.81
509.238	80.81
509.454	92.81
509.67	88.81
509.887	94.81
510.103	75.81
510.319	90.81
510.536	80.81
510.752	90.81
510.968	87.81
511.184	94.81
511.401	83.81
511.617	84.81
511.833	71.81
512.049	83.81
512.265	93.81
512.481	76.81
512.698	76.81
512.914	98.81
513.13	75.81
513.346	91.81
513.562	87.81
513.778	68.81
513.994	75.81
514.21	84.81
514.426	80.81
514.642	97.81
514.858	85.81
515.074	71.81
515.29	87.81
515.506	89.81
515.721	74.81
515.937	77.81
516.153	86.81
516.369	88.81
516.585	85.81
516.801	92.81
517.016	97.81
517.232	88.81
