Data from Location4.07152019.Energy5.Lamp.07192019.3%Agarose_HRD10591_15-26-13-578.txt Node
Date: Fri Jul 19 15:26:13 EDT 2019
User: cochatt
Spectrometer: HR+D1059
Trigger mode: 1
Integration Time (sec): 1.000000E-1
Scans to average: 1
Electric dark correction enabled: true
Nonlinearity correction enabled: false
Boxcar width: 0
XAxis mode: Wavelengths
Number of Pixels in Spectrum: 2048
>>>>>Begin Spectral Data<<<<<
223.165	-3.56
223.4	-3.56
223.635	-3.56
223.869	-11.56
224.104	-8.56
224.338	-18.56
224.573	-18.56
224.808	-6.56
225.042	-14.56
225.277	-18.56
225.511	-0.56
225.746	9.44
225.98	16.44
226.215	3.44
226.449	10.44
226.683	16.44
226.918	23.44
227.152	21.44
227.387	22.44
227.621	34.44
227.856	39.44
228.09	38.44
228.324	32.44
228.559	38.44
228.793	55.44
229.027	46.44
229.262	50.44
229.496	68.44
229.73	64.44
229.964	78.44
230.199	71.44
230.433	77.44
230.667	68.44
230.901	79.44
231.136	72.44
231.37	68.44
231.604	73.44
231.838	84.44
232.072	61.44
232.306	78.44
232.541	86.44
232.775	67.44
233.009	85.44
233.243	91.44
233.477	68.44
233.711	74.44
233.945	81.44
234.179	78.44
234.413	75.44
234.647	80.44
234.881	88.44
235.115	75.44
235.349	66.44
235.583	82.44
235.817	73.44
236.051	72.44
236.285	72.44
236.519	74.44
236.753	83.44
236.987	76.44
237.221	62.44
237.455	67.44
237.689	81.44
237.922	79.44
238.156	76.44
238.39	71.44
238.624	73.44
238.858	75.44
239.091	78.44
239.325	81.44
239.559	71.44
239.793	65.44
240.027	69.44
240.26	84.44
240.494	76.44
240.728	81.44
240.961	75.44
241.195	78.44
241.429	67.44
241.662	58.44
241.896	69.44
242.13	78.44
242.363	71.44
242.597	73.44
242.83	76.44
243.064	77.44
243.298	71.44
243.531	78.44
243.765	85.44
243.998	87.44
244.232	85.44
244.465	83.44
244.699	77.44
244.932	85.44
245.166	69.44
245.399	83.44
245.633	88.44
245.866	71.44
246.099	72.44
246.333	80.44
246.566	78.44
246.8	71.44
247.033	61.44
247.266	71.44
247.5	79.44
247.733	73.44
247.966	74.44
248.2	83.44
248.433	80.44
248.666	72.44
248.899	80.44
249.133	70.44
249.366	86.44
249.599	73.44
249.832	69.44
250.066	99.44
250.299	75.44
250.532	86.44
250.765	60.44
250.998	68.44
251.231	74.44
251.465	85.44
251.698	86.44
251.931	86.44
252.164	67.44
252.397	76.44
252.63	60.44
252.863	86.44
253.096	85.44
253.329	73.44
253.562	73.44
253.795	87.44
254.028	81.44
254.261	83.44
254.494	73.44
254.727	80.44
254.96	71.44
255.193	84.44
255.426	74.44
255.659	72.44
255.892	87.44
256.124	58.44
256.357	71.44
256.59	53.44
256.823	76.44
257.056	90.44
257.289	84.44
257.521	68.44
257.754	85.44
257.987	75.44
258.22	80.44
258.452	85.44
258.685	70.44
258.918	77.44
259.151	80.44
259.383	80.44
259.616	77.44
259.849	86.44
260.081	81.44
260.314	80.44
260.547	80.44
260.779	79.44
261.012	80.44
261.244	77.44
261.477	90.44
261.71	90.44
261.942	79.44
262.175	92.44
262.407	76.44
262.64	72.44
262.872	77.44
263.105	88.44
263.337	68.44
263.57	90.44
263.802	87.44
264.035	90.44
264.267	83.44
264.499	83.44
264.732	79.44
264.964	85.44
265.197	82.44
265.429	73.44
265.661	85.44
265.894	84.44
266.126	91.44
266.358	80.44
266.591	97.44
266.823	73.44
267.055	65.44
267.287	86.44
267.52	70.44
267.752	80.44
267.984	85.44
268.216	83.44
268.448	80.44
268.681	80.44
268.913	81.44
269.145	87.44
269.377	72.44
269.609	78.44
269.841	79.44
270.073	84.44
270.306	85.44
270.538	102.44
270.77	77.44
271.002	79.44
271.234	83.44
271.466	89.44
271.698	85.44
271.93	79.44
272.162	68.44
272.394	85.44
272.626	88.44
272.858	72.44
273.09	87.44
273.322	76.44
273.553	81.44
273.785	73.44
274.017	84.44
274.249	83.44
274.481	77.44
274.713	68.44
274.945	76.44
275.176	87.44
275.408	82.44
275.64	78.44
275.872	87.44
276.104	74.44
276.335	81.44
276.567	83.44
276.799	78.44
277.031	94.44
277.262	84.44
277.494	82.44
277.726	75.44
277.957	84.44
278.189	86.44
278.421	92.44
278.652	85.44
278.884	78.44
279.115	85.44
279.347	82.44
279.579	72.44
279.81	74.44
280.042	95.44
280.273	72.44
280.505	78.44
280.736	74.44
280.968	71.44
281.199	83.44
281.431	82.44
281.662	80.44
281.894	69.44
282.125	79.44
282.356	89.44
282.588	82.44
282.819	78.44
283.051	83.44
283.282	78.44
283.513	78.44
283.745	85.44
283.976	84.44
284.207	80.44
284.439	67.44
284.67	85.44
284.901	100.44
285.132	79.44
285.364	80.44
285.595	93.44
285.826	79.44
286.057	65.44
286.288	94.44
286.52	89.44
286.751	78.44
286.982	68.44
287.213	92.44
287.444	92.44
287.675	78.44
287.906	85.44
288.138	65.44
288.369	77.44
288.6	84.44
288.831	94.44
289.062	80.44
289.293	89.44
289.524	83.44
289.755	89.44
289.986	83.44
290.217	78.44
290.448	91.44
290.679	75.44
290.91	82.44
291.141	82.44
291.371	81.44
291.602	73.44
291.833	88.44
292.064	75.44
292.295	87.44
292.526	73.44
292.757	76.44
292.987	94.44
293.218	84.44
293.449	93.44
293.68	77.44
293.91	89.44
294.141	78.44
294.372	82.44
294.603	67.44
294.833	73.44
295.064	86.44
295.295	86.44
295.525	79.44
295.756	86.44
295.987	87.44
296.217	72.44
296.448	87.44
296.679	81.44
296.909	82.44
297.14	82.44
297.37	89.44
297.601	80.44
297.831	82.44
298.062	84.44
298.292	96.44
298.523	73.44
298.753	86.44
298.984	82.44
299.214	82.44
299.445	75.44
299.675	94.44
299.905	83.44
300.136	88.44
300.366	79.44
300.597	94.44
300.827	90.44
301.057	80.44
301.288	83.44
301.518	88.44
301.748	82.44
301.979	88.44
302.209	81.44
302.439	78.44
302.669	82.44
302.9	76.44
303.13	76.44
303.36	89.44
303.59	85.44
303.82	87.44
304.051	70.44
304.281	89.44
304.511	94.44
304.741	70.44
304.971	74.44
305.201	80.44
305.431	77.44
305.661	78.44
305.891	83.44
306.121	81.44
306.352	73.44
306.582	79.44
306.812	77.44
307.042	93.44
307.272	83.44
307.502	74.44
307.731	72.44
307.961	81.44
308.191	81.44
308.421	85.44
308.651	80.44
308.881	87.44
309.111	94.44
309.341	80.44
309.571	71.44
309.8	92.44
310.03	77.44
310.26	84.44
310.49	77.44
310.72	74.44
310.949	68.44
311.179	99.44
311.409	77.44
311.639	86.44
311.868	89.44
312.098	86.44
312.328	103.44
312.557	89.44
312.787	81.44
313.017	81.44
313.246	74.44
313.476	93.44
313.706	80.44
313.935	96.44
314.165	79.44
314.394	72.44
314.624	89.44
314.853	80.44
315.083	86.44
315.312	79.44
315.542	76.44
315.771	82.44
316.001	74.44
316.23	89.44
316.46	87.44
316.689	79.44
316.919	70.44
317.148	83.44
317.377	82.44
317.607	83.44
317.836	71.44
318.065	78.44
318.295	85.44
318.524	87.44
318.753	70.44
318.983	92.44
319.212	85.44
319.441	82.44
319.67	78.44
319.9	81.44
320.129	85.44
320.358	92.44
320.587	76.44
320.816	93.44
321.046	81.44
321.275	89.44
321.504	92.44
321.733	86.44
321.962	82.44
322.191	101.44
322.42	85.44
322.649	83.44
322.878	85.44
323.108	80.44
323.337	97.44
323.566	78.44
323.795	76.44
324.024	77.44
324.253	86.44
324.482	76.44
324.71	80.44
324.939	82.44
325.168	63.44
325.397	87.44
325.626	80.44
325.855	80.44
326.084	88.44
326.313	85.44
326.542	72.44
326.77	83.44
326.999	81.44
327.228	80.44
327.457	94.44
327.686	77.44
327.914	72.44
328.143	77.44
328.372	97.44
328.6	97.44
328.829	74.44
329.058	80.44
329.287	69.44
329.515	77.44
329.744	96.44
329.972	80.44
330.201	72.44
330.43	81.44
330.658	81.44
330.887	72.44
331.115	76.44
331.344	80.44
331.572	82.44
331.801	92.44
332.03	84.44
332.258	98.44
332.486	73.44
332.715	77.44
332.943	75.44
333.172	80.44
333.4	82.44
333.629	80.44
333.857	88.44
334.085	82.44
334.314	76.44
334.542	85.44
334.771	93.44
334.999	91.44
335.227	80.44
335.455	88.44
335.684	80.44
335.912	79.44
336.14	81.44
336.369	87.44
336.597	73.44
336.825	78.44
337.053	76.44
337.281	80.44
337.51	94.44
337.738	71.44
337.966	77.44
338.194	67.44
338.422	78.44
338.65	72.44
338.878	71.44
339.106	84.44
339.334	89.44
339.562	78.44
339.79	72.44
340.018	76.44
340.246	85.44
340.474	75.44
340.702	97.44
340.93	83.44
341.158	85.44
341.386	89.44
341.614	79.44
341.842	98.44
342.07	78.44
342.298	75.44
342.526	81.44
342.754	91.44
342.981	83.44
343.209	71.44
343.437	93.44
343.665	79.44
343.893	88.44
344.12	71.44
344.348	81.44
344.576	75.44
344.804	76.44
345.031	88.44
345.259	74.44
345.487	73.44
345.714	79.44
345.942	80.44
346.17	76.44
346.397	88.44
346.625	71.44
346.853	73.44
347.08	76.44
347.308	87.44
347.535	77.44
347.763	85.44
347.99	80.44
348.218	83.44
348.445	83.44
348.673	74.44
348.9	76.44
349.128	81.44
349.355	84.44
349.583	80.44
349.81	70.44
350.037	81.44
350.265	72.44
350.492	82.44
350.72	89.44
350.947	80.44
351.174	71.44
351.402	71.44
351.629	80.44
351.856	73.44
352.083	84.44
352.311	77.44
352.538	75.44
352.765	100.44
352.992	96.44
353.22	79.44
353.447	86.44
353.674	91.44
353.901	94.44
354.128	72.44
354.355	88.44
354.583	97.44
354.81	100.44
355.037	96.44
355.264	86.44
355.491	73.44
355.718	82.44
355.945	87.44
356.172	66.44
356.399	79.44
356.626	85.44
356.853	81.44
357.08	80.44
357.307	92.44
357.534	91.44
357.761	86.44
357.988	79.44
358.215	73.44
358.441	90.44
358.668	92.44
358.895	80.44
359.122	95.44
359.349	70.44
359.576	78.44
359.802	69.44
360.029	85.44
360.256	72.44
360.483	76.44
360.709	71.44
360.936	94.44
361.163	81.44
361.39	86.44
361.616	65.44
361.843	82.44
362.07	85.44
362.296	85.44
362.523	88.44
362.749	89.44
362.976	80.44
363.203	78.44
363.429	70.44
363.656	82.44
363.882	85.44
364.109	87.44
364.335	71.44
364.562	78.44
364.788	76.44
365.015	77.44
365.241	78.44
365.468	84.44
365.694	79.44
365.92	71.44
366.147	72.44
366.373	87.44
366.599	71.44
366.826	79.44
367.052	72.44
367.278	78.44
367.505	81.44
367.731	87.44
367.957	89.44
368.184	93.44
368.41	73.44
368.636	78.44
368.862	88.44
369.089	74.44
369.315	90.44
369.541	86.44
369.767	73.44
369.993	87.44
370.219	73.44
370.445	61.44
370.672	73.44
370.898	74.44
371.124	76.44
371.35	84.44
371.576	83.44
371.802	68.44
372.028	95.44
372.254	89.44
372.48	74.44
372.706	86.44
372.932	85.44
373.158	96.44
373.384	99.44
373.61	79.44
373.835	89.44
374.061	85.44
374.287	75.44
374.513	74.44
374.739	86.44
374.965	88.44
375.191	79.44
375.416	87.44
375.642	67.44
375.868	88.44
376.094	69.44
376.319	92.44
376.545	81.44
376.771	73.44
376.997	74.44
377.222	78.44
377.448	83.44
377.674	80.44
377.899	94.44
378.125	77.44
378.35	81.44
378.576	80.44
378.802	84.44
379.027	72.44
379.253	84.44
379.478	84.44
379.704	70.44
379.929	76.44
380.155	81.44
380.38	85.44
380.606	86.44
380.831	74.44
381.057	82.44
381.282	84.44
381.507	65.44
381.733	90.44
381.958	78.44
382.184	90.44
382.409	83.44
382.634	78.44
382.86	84.44
383.085	89.44
383.31	69.44
383.535	77.44
383.761	68.44
383.986	72.44
384.211	78.44
384.436	78.44
384.662	75.44
384.887	81.44
385.112	78.44
385.337	80.44
385.562	79.44
385.787	82.44
386.013	87.44
386.238	93.44
386.463	92.44
386.688	81.44
386.913	79.44
387.138	67.44
387.363	85.44
387.588	82.44
387.813	90.44
388.038	90.44
388.263	89.44
388.488	86.44
388.713	77.44
388.938	87.44
389.163	75.44
389.387	84.44
389.612	66.44
389.837	83.44
390.062	95.44
390.287	88.44
390.512	92.44
390.736	83.44
390.961	82.44
391.186	92.44
391.411	72.44
391.636	78.44
391.86	81.44
392.085	80.44
392.31	109.44
392.534	84.44
392.759	92.44
392.984	87.44
393.208	91.44
393.433	79.44
393.658	84.44
393.882	86.44
394.107	85.44
394.331	85.44
394.556	87.44
394.78	87.44
395.005	66.44
395.229	79.44
395.454	81.44
395.678	90.44
395.903	93.44
396.127	100.44
396.352	84.44
396.576	83.44
396.801	69.44
397.025	101.44
397.249	83.44
397.474	71.44
397.698	85.44
397.922	102.44
398.147	78.44
398.371	79.44
398.595	82.44
398.82	80.44
399.044	86.44
399.268	85.44
399.492	76.44
399.717	81.44
399.941	79.44
400.165	83.44
400.389	78.44
400.613	86.44
400.837	96.44
401.062	91.44
401.286	73.44
401.51	86.44
401.734	93.44
401.958	87.44
402.182	79.44
402.406	88.44
402.63	78.44
402.854	85.44
403.078	81.44
403.302	82.44
403.526	87.44
403.75	92.44
403.974	93.44
404.198	86.44
404.422	85.44
404.645	69.44
404.869	85.44
405.093	96.44
405.317	78.44
405.541	81.44
405.765	88.44
405.988	99.44
406.212	96.44
406.436	91.44
406.66	91.44
406.883	81.44
407.107	73.44
407.331	93.44
407.555	81.44
407.778	82.44
408.002	87.44
408.226	81.44
408.449	73.44
408.673	97.44
408.896	97.44
409.12	93.44
409.344	92.44
409.567	70.44
409.791	92.44
410.014	67.44
410.238	85.44
410.461	89.44
410.685	86.44
410.908	88.44
411.132	101.44
411.355	78.44
411.578	97.44
411.802	94.44
412.025	107.44
412.249	82.44
412.472	82.44
412.695	94.44
412.919	74.44
413.142	87.44
413.365	92.44
413.589	85.44
413.812	93.44
414.035	84.44
414.258	93.44
414.482	93.44
414.705	88.44
414.928	85.44
415.151	87.44
415.374	86.44
415.597	81.44
415.821	86.44
416.044	71.44
416.267	78.44
416.49	68.44
416.713	81.44
416.936	93.44
417.159	103.44
417.382	85.44
417.605	84.44
417.828	95.44
418.051	76.44
418.274	94.44
418.497	92.44
418.72	70.44
418.943	105.44
419.166	97.44
419.389	109.44
419.611	98.44
419.834	94.44
420.057	84.44
420.28	89.44
420.503	106.44
420.726	92.44
420.948	92.44
421.171	91.44
421.394	93.44
421.617	106.44
421.839	101.44
422.062	94.44
422.285	95.44
422.507	76.44
422.73	92.44
422.953	97.44
423.175	93.44
423.398	86.44
423.621	93.44
423.843	98.44
424.066	104.44
424.288	97.44
424.511	81.44
424.733	99.44
424.956	103.44
425.178	101.44
425.401	89.44
425.623	85.44
425.846	101.44
426.068	97.44
426.291	86.44
426.513	85.44
426.735	100.44
426.958	75.44
427.18	99.44
427.402	78.44
427.625	86.44
427.847	91.44
428.069	99.44
428.292	86.44
428.514	84.44
428.736	87.44
428.958	75.44
429.181	96.44
429.403	88.44
429.625	105.44
429.847	97.44
430.069	78.44
430.292	80.44
430.514	74.44
430.736	95.44
430.958	94.44
431.18	86.44
431.402	86.44
431.624	85.44
431.846	77.44
432.068	102.44
432.29	96.44
432.512	92.44
432.734	79.44
432.956	98.44
433.178	93.44
433.4	93.44
433.622	100.44
433.844	100.44
434.066	84.44
434.287	96.44
434.509	89.44
434.731	92.44
434.953	98.44
435.175	85.44
435.397	81.44
435.618	85.44
435.84	99.44
436.062	83.44
436.284	91.44
436.505	87.44
436.727	80.44
436.949	85.44
437.17	92.44
437.392	98.44
437.614	100.44
437.835	66.44
438.057	93.44
438.278	75.44
438.5	89.44
438.721	99.44
438.943	100.44
439.165	88.44
439.386	98.44
439.608	99.44
439.829	89.44
440.05	97.44
440.272	96.44
440.493	104.44
440.715	102.44
440.936	98.44
441.158	87.44
441.379	93.44
441.6	92.44
441.822	95.44
442.043	98.44
442.264	86.44
442.486	102.44
442.707	96.44
442.928	98.44
443.149	86.44
443.371	92.44
443.592	97.44
443.813	78.44
444.034	86.44
444.255	89.44
444.476	86.44
444.698	93.44
444.919	91.44
445.14	223.44
445.361	143.44
445.582	117.44
445.803	93.44
446.024	104.44
446.245	104.44
446.466	106.44
446.687	106.44
446.908	93.44
447.129	98.44
447.35	97.44
447.571	118.44
447.792	103.44
448.013	95.44
448.234	92.44
448.455	102.44
448.675	105.44
448.896	114.44
449.117	94.44
449.338	93.44
449.559	83.44
449.779	93.44
450	100.44
450.221	103.44
450.442	96.44
450.662	92.44
450.883	86.44
451.104	92.44
451.324	92.44
451.545	96.44
451.766	85.44
451.986	98.44
452.207	88.44
452.428	82.44
452.648	98.44
452.869	73.44
453.089	94.44
453.31	88.44
453.53	98.44
453.751	80.44
453.971	89.44
454.192	82.44
454.412	103.44
454.633	97.44
454.853	97.44
455.073	78.44
455.294	104.44
455.514	88.44
455.734	80.44
455.955	88.44
456.175	94.44
456.395	93.44
456.616	89.44
456.836	65.44
457.056	85.44
457.276	74.44
457.497	71.44
457.717	95.44
457.937	94.44
458.157	87.44
458.377	71.44
458.598	93.44
458.818	86.44
459.038	89.44
459.258	78.44
459.478	81.44
459.698	82.44
459.918	78.44
460.138	76.44
460.358	92.44
460.578	74.44
460.798	75.44
461.018	86.44
461.238	86.44
461.458	81.44
461.678	81.44
461.898	76.44
462.118	90.44
462.338	94.44
462.558	79.44
462.777	95.44
462.997	99.44
463.217	85.44
463.437	72.44
463.657	87.44
463.876	83.44
464.096	89.44
464.316	102.44
464.536	73.44
464.755	95.44
464.975	81.44
465.195	85.44
465.414	94.44
465.634	86.44
465.854	82.44
466.073	91.44
466.293	85.44
466.512	86.44
466.732	73.44
466.951	99.44
467.171	85.44
467.391	89.44
467.61	84.44
467.829	98.44
468.049	79.44
468.268	91.44
468.488	100.44
468.707	93.44
468.927	98.44
469.146	91.44
469.365	77.44
469.585	80.44
469.804	91.44
470.023	96.44
470.243	105.44
470.462	80.44
470.681	94.44
470.901	92.44
471.12	89.44
471.339	97.44
471.558	106.44
471.777	85.44
471.997	92.44
472.216	96.44
472.435	95.44
472.654	78.44
472.873	91.44
473.092	95.44
473.311	92.44
473.53	96.44
473.749	99.44
473.968	99.44
474.187	85.44
474.406	78.44
474.625	76.44
474.844	89.44
475.063	94.44
475.282	92.44
475.501	88.44
475.72	97.44
475.939	110.44
476.158	85.44
476.377	97.44
476.596	94.44
476.814	93.44
477.033	95.44
477.252	85.44
477.471	86.44
477.69	92.44
477.908	100.44
478.127	103.44
478.346	94.44
478.564	96.44
478.783	92.44
479.002	81.44
479.22	105.44
479.439	91.44
479.658	87.44
479.876	78.44
480.095	84.44
480.313	90.44
480.532	100.44
480.751	101.44
480.969	90.44
481.188	89.44
481.406	78.44
481.624	78.44
481.843	98.44
482.061	92.44
482.28	103.44
482.498	90.44
482.717	70.44
482.935	95.44
483.153	74.44
483.372	82.44
483.59	112.44
483.808	99.44
484.027	93.44
484.245	86.44
484.463	81.44
484.681	97.44
484.9	89.44
485.118	110.44
485.336	108.44
485.554	87.44
485.772	89.44
485.99	90.44
486.209	81.44
486.427	90.44
486.645	76.44
486.863	99.44
487.081	103.44
487.299	112.44
487.517	113.44
487.735	104.44
487.953	125.44
488.171	99.44
488.389	114.44
488.607	93.44
488.825	97.44
489.043	97.44
489.261	88.44
489.479	97.44
489.696	88.44
489.914	100.44
490.132	91.44
490.35	86.44
490.568	101.44
490.786	103.44
491.003	115.44
491.221	111.44
491.439	115.44
491.657	128.44
491.874	112.44
492.092	111.44
492.31	118.44
492.527	117.44
492.745	111.44
492.963	106.44
493.18	110.44
493.398	110.44
493.615	104.44
493.833	94.44
494.05	101.44
494.268	102.44
494.485	108.44
494.703	101.44
494.92	110.44
495.138	117.44
495.355	102.44
495.573	98.44
495.79	104.44
496.008	103.44
496.225	104.44
496.442	105.44
496.66	111.44
496.877	108.44
497.094	113.44
497.312	103.44
497.529	115.44
497.746	111.44
497.963	110.44
498.181	100.44
498.398	72.44
498.615	83.44
498.832	87.44
499.049	89.44
499.267	93.44
499.484	95.44
499.701	100.44
499.918	99.44
500.135	91.44
500.352	101.44
500.569	104.44
500.786	101.44
501.003	91.44
501.22	100.44
501.437	102.44
501.654	95.44
501.871	89.44
502.088	88.44
502.305	89.44
502.522	102.44
502.739	104.44
502.956	98.44
503.172	95.44
503.389	92.44
503.606	107.44
503.823	97.44
504.04	83.44
504.256	96.44
504.473	80.44
504.69	74.44
504.907	100.44
505.123	75.44
505.34	82.44
505.557	92.44
505.773	86.44
505.99	82.44
506.207	88.44
506.423	90.44
506.64	105.44
506.856	94.44
507.073	78.44
507.289	93.44
507.506	77.44
507.722	100.44
507.939	98.44
508.155	91.44
508.372	85.44
508.588	90.44
508.805	83.44
509.021	87.44
509.238	100.44
509.454	98.44
509.67	86.44
509.887	74.44
510.103	73.44
510.319	84.44
510.536	85.44
510.752	67.44
510.968	83.44
511.184	69.44
511.401	68.44
511.617	89.44
511.833	86.44
512.049	80.44
512.265	92.44
512.481	85.44
512.698	86.44
512.914	83.44
513.13	95.44
513.346	79.44
513.562	93.44
513.778	89.44
513.994	94.44
514.21	84.44
514.426	79.44
514.642	74.44
514.858	83.44
515.074	83.44
515.29	87.44
515.506	87.44
515.721	90.44
515.937	83.44
516.153	87.44
516.369	78.44
516.585	78.44
516.801	82.44
517.016	78.44
517.232	69.44
517.448	100.44
517.664	86.44
517.879	94.44
