Data from Location4.07152019.Energy5.Lamp.07192019.3%Agarose_HRD10591_15-24-18-577.txt Node
Date: Fri Jul 19 15:24:18 EDT 2019
User: cochatt
Spectrometer: HR+D1059
Trigger mode: 1
Integration Time (sec): 1.000000E-1
Scans to average: 1
Electric dark correction enabled: true
Nonlinearity correction enabled: false
Boxcar width: 0
XAxis mode: Wavelengths
Number of Pixels in Spectrum: 2048
>>>>>Begin Spectral Data<<<<<
223.165	-25.5
223.4	-25.5
223.635	-25.5
223.869	-25.5
224.104	-7.5
224.338	-11.5
224.573	-8.5
224.808	-9.5
225.042	-10.5
225.277	0.5
225.511	-6.5
225.746	6.5
225.98	5.5
226.215	20.5
226.449	5.5
226.683	12.5
226.918	13.5
227.152	40.5
227.387	17.5
227.621	40.5
227.856	23.5
228.09	36.5
228.324	59.5
228.559	59.5
228.793	60.5
229.027	55.5
229.262	61.5
229.496	49.5
229.73	62.5
229.964	72.5
230.199	76.5
230.433	75.5
230.667	80.5
230.901	85.5
231.136	74.5
231.37	73.5
231.604	86.5
231.838	84.5
232.072	85.5
232.306	71.5
232.541	72.5
232.775	84.5
233.009	77.5
233.243	82.5
233.477	82.5
233.711	93.5
233.945	77.5
234.179	70.5
234.413	83.5
234.647	73.5
234.881	80.5
235.115	56.5
235.349	74.5
235.583	80.5
235.817	84.5
236.051	74.5
236.285	75.5
236.519	79.5
236.753	67.5
236.987	67.5
237.221	76.5
237.455	67.5
237.689	66.5
237.922	71.5
238.156	71.5
238.39	47.5
238.624	64.5
238.858	72.5
239.091	68.5
239.325	76.5
239.559	57.5
239.793	71.5
240.027	77.5
240.26	77.5
240.494	70.5
240.728	73.5
240.961	82.5
241.195	63.5
241.429	75.5
241.662	78.5
241.896	83.5
242.13	73.5
242.363	70.5
242.597	70.5
242.83	74.5
243.064	79.5
243.298	65.5
243.531	67.5
243.765	81.5
243.998	71.5
244.232	79.5
244.465	78.5
244.699	70.5
244.932	68.5
245.166	87.5
245.399	84.5
245.633	82.5
245.866	79.5
246.099	80.5
246.333	65.5
246.566	74.5
246.8	69.5
247.033	77.5
247.266	72.5
247.5	73.5
247.733	78.5
247.966	68.5
248.2	77.5
248.433	67.5
248.666	63.5
248.899	81.5
249.133	92.5
249.366	91.5
249.599	68.5
249.832	74.5
250.066	88.5
250.299	79.5
250.532	58.5
250.765	68.5
250.998	87.5
251.231	77.5
251.465	68.5
251.698	68.5
251.931	82.5
252.164	74.5
252.397	83.5
252.63	83.5
252.863	67.5
253.096	65.5
253.329	76.5
253.562	73.5
253.795	89.5
254.028	88.5
254.261	85.5
254.494	83.5
254.727	84.5
254.96	93.5
255.193	84.5
255.426	77.5
255.659	85.5
255.892	77.5
256.124	63.5
256.357	91.5
256.59	75.5
256.823	75.5
257.056	80.5
257.289	75.5
257.521	79.5
257.754	85.5
257.987	79.5
258.22	80.5
258.452	75.5
258.685	79.5
258.918	76.5
259.151	72.5
259.383	68.5
259.616	72.5
259.849	85.5
260.081	69.5
260.314	73.5
260.547	77.5
260.779	75.5
261.012	86.5
261.244	76.5
261.477	84.5
261.71	85.5
261.942	73.5
262.175	82.5
262.407	77.5
262.64	77.5
262.872	72.5
263.105	73.5
263.337	71.5
263.57	80.5
263.802	69.5
264.035	80.5
264.267	71.5
264.499	76.5
264.732	71.5
264.964	86.5
265.197	84.5
265.429	80.5
265.661	83.5
265.894	83.5
266.126	84.5
266.358	88.5
266.591	81.5
266.823	80.5
267.055	87.5
267.287	76.5
267.52	70.5
267.752	65.5
267.984	71.5
268.216	68.5
268.448	83.5
268.681	75.5
268.913	83.5
269.145	77.5
269.377	72.5
269.609	59.5
269.841	87.5
270.073	79.5
270.306	94.5
270.538	69.5
270.77	85.5
271.002	73.5
271.234	74.5
271.466	77.5
271.698	77.5
271.93	70.5
272.162	84.5
272.394	85.5
272.626	71.5
272.858	75.5
273.09	77.5
273.322	86.5
273.553	78.5
273.785	81.5
274.017	91.5
274.249	82.5
274.481	95.5
274.713	82.5
274.945	59.5
275.176	89.5
275.408	94.5
275.64	81.5
275.872	78.5
276.104	77.5
276.335	79.5
276.567	77.5
276.799	72.5
277.031	84.5
277.262	83.5
277.494	83.5
277.726	80.5
277.957	75.5
278.189	91.5
278.421	78.5
278.652	79.5
278.884	83.5
279.115	67.5
279.347	82.5
279.579	79.5
279.81	97.5
280.042	89.5
280.273	76.5
280.505	64.5
280.736	76.5
280.968	69.5
281.199	73.5
281.431	86.5
281.662	78.5
281.894	81.5
282.125	82.5
282.356	69.5
282.588	77.5
282.819	68.5
283.051	74.5
283.282	74.5
283.513	75.5
283.745	85.5
283.976	67.5
284.207	96.5
284.439	93.5
284.67	77.5
284.901	77.5
285.132	59.5
285.364	71.5
285.595	78.5
285.826	90.5
286.057	93.5
286.288	78.5
286.52	69.5
286.751	81.5
286.982	77.5
287.213	93.5
287.444	59.5
287.675	84.5
287.906	84.5
288.138	83.5
288.369	92.5
288.6	78.5
288.831	92.5
289.062	80.5
289.293	83.5
289.524	68.5
289.755	86.5
289.986	69.5
290.217	84.5
290.448	92.5
290.679	81.5
290.91	88.5
291.141	83.5
291.371	87.5
291.602	85.5
291.833	78.5
292.064	73.5
292.295	84.5
292.526	74.5
292.757	87.5
292.987	77.5
293.218	74.5
293.449	76.5
293.68	82.5
293.91	80.5
294.141	60.5
294.372	78.5
294.603	71.5
294.833	77.5
295.064	92.5
295.295	73.5
295.525	81.5
295.756	94.5
295.987	81.5
296.217	85.5
296.448	82.5
296.679	73.5
296.909	79.5
297.14	82.5
297.37	84.5
297.601	81.5
297.831	79.5
298.062	83.5
298.292	96.5
298.523	82.5
298.753	88.5
298.984	84.5
299.214	74.5
299.445	72.5
299.675	89.5
299.905	73.5
300.136	87.5
300.366	77.5
300.597	76.5
300.827	75.5
301.057	81.5
301.288	88.5
301.518	70.5
301.748	67.5
301.979	81.5
302.209	89.5
302.439	73.5
302.669	92.5
302.9	73.5
303.13	88.5
303.36	71.5
303.59	90.5
303.82	85.5
304.051	83.5
304.281	87.5
304.511	86.5
304.741	86.5
304.971	95.5
305.201	77.5
305.431	75.5
305.661	83.5
305.891	88.5
306.121	83.5
306.352	86.5
306.582	80.5
306.812	83.5
307.042	71.5
307.272	86.5
307.502	85.5
307.731	80.5
307.961	83.5
308.191	76.5
308.421	71.5
308.651	81.5
308.881	80.5
309.111	79.5
309.341	94.5
309.571	86.5
309.8	83.5
310.03	69.5
310.26	78.5
310.49	89.5
310.72	82.5
310.949	74.5
311.179	72.5
311.409	78.5
311.639	72.5
311.868	85.5
312.098	87.5
312.328	90.5
312.557	82.5
312.787	79.5
313.017	111.5
313.246	71.5
313.476	77.5
313.706	99.5
313.935	82.5
314.165	91.5
314.394	73.5
314.624	83.5
314.853	82.5
315.083	82.5
315.312	72.5
315.542	76.5
315.771	69.5
316.001	89.5
316.23	82.5
316.46	72.5
316.689	61.5
316.919	75.5
317.148	82.5
317.377	75.5
317.607	89.5
317.836	92.5
318.065	77.5
318.295	84.5
318.524	70.5
318.753	77.5
318.983	83.5
319.212	61.5
319.441	89.5
319.67	77.5
319.9	70.5
320.129	85.5
320.358	82.5
320.587	88.5
320.816	63.5
321.046	67.5
321.275	78.5
321.504	76.5
321.733	75.5
321.962	76.5
322.191	84.5
322.42	86.5
322.649	89.5
322.878	83.5
323.108	86.5
323.337	85.5
323.566	79.5
323.795	83.5
324.024	81.5
324.253	82.5
324.482	82.5
324.71	86.5
324.939	68.5
325.168	68.5
325.397	86.5
325.626	101.5
325.855	86.5
326.084	81.5
326.313	74.5
326.542	86.5
326.77	104.5
326.999	85.5
327.228	86.5
327.457	91.5
327.686	80.5
327.914	80.5
328.143	72.5
328.372	75.5
328.6	90.5
328.829	78.5
329.058	77.5
329.287	81.5
329.515	74.5
329.744	72.5
329.972	90.5
330.201	85.5
330.43	78.5
330.658	73.5
330.887	83.5
331.115	92.5
331.344	89.5
331.572	73.5
331.801	76.5
332.03	83.5
332.258	86.5
332.486	72.5
332.715	67.5
332.943	73.5
333.172	65.5
333.4	76.5
333.629	89.5
333.857	83.5
334.085	82.5
334.314	74.5
334.542	93.5
334.771	91.5
334.999	91.5
335.227	82.5
335.455	85.5
335.684	79.5
335.912	78.5
336.14	80.5
336.369	78.5
336.597	72.5
336.825	87.5
337.053	82.5
337.281	65.5
337.51	96.5
337.738	88.5
337.966	75.5
338.194	77.5
338.422	82.5
338.65	82.5
338.878	79.5
339.106	76.5
339.334	64.5
339.562	89.5
339.79	73.5
340.018	84.5
340.246	75.5
340.474	77.5
340.702	92.5
340.93	84.5
341.158	84.5
341.386	77.5
341.614	96.5
341.842	74.5
342.07	69.5
342.298	78.5
342.526	87.5
342.754	77.5
342.981	91.5
343.209	90.5
343.437	77.5
343.665	81.5
343.893	95.5
344.12	77.5
344.348	82.5
344.576	95.5
344.804	82.5
345.031	77.5
345.259	72.5
345.487	84.5
345.714	71.5
345.942	80.5
346.17	76.5
346.397	72.5
346.625	85.5
346.853	84.5
347.08	82.5
347.308	73.5
347.535	79.5
347.763	87.5
347.99	84.5
348.218	83.5
348.445	77.5
348.673	78.5
348.9	73.5
349.128	91.5
349.355	73.5
349.583	88.5
349.81	78.5
350.037	69.5
350.265	84.5
350.492	83.5
350.72	88.5
350.947	74.5
351.174	80.5
351.402	72.5
351.629	75.5
351.856	91.5
352.083	75.5
352.311	87.5
352.538	77.5
352.765	72.5
352.992	88.5
353.22	77.5
353.447	76.5
353.674	76.5
353.901	85.5
354.128	83.5
354.355	87.5
354.583	88.5
354.81	79.5
355.037	72.5
355.264	78.5
355.491	79.5
355.718	73.5
355.945	84.5
356.172	86.5
356.399	68.5
356.626	79.5
356.853	87.5
357.08	86.5
357.307	79.5
357.534	69.5
357.761	69.5
357.988	85.5
358.215	81.5
358.441	84.5
358.668	81.5
358.895	76.5
359.122	84.5
359.349	79.5
359.576	74.5
359.802	86.5
360.029	91.5
360.256	79.5
360.483	80.5
360.709	72.5
360.936	78.5
361.163	77.5
361.39	80.5
361.616	69.5
361.843	77.5
362.07	82.5
362.296	79.5
362.523	81.5
362.749	80.5
362.976	103.5
363.203	76.5
363.429	79.5
363.656	81.5
363.882	84.5
364.109	88.5
364.335	77.5
364.562	78.5
364.788	75.5
365.015	90.5
365.241	77.5
365.468	78.5
365.694	85.5
365.92	100.5
366.147	79.5
366.373	74.5
366.599	75.5
366.826	71.5
367.052	87.5
367.278	79.5
367.505	83.5
367.731	81.5
367.957	90.5
368.184	83.5
368.41	78.5
368.636	84.5
368.862	91.5
369.089	78.5
369.315	75.5
369.541	84.5
369.767	87.5
369.993	79.5
370.219	82.5
370.445	83.5
370.672	81.5
370.898	73.5
371.124	66.5
371.35	81.5
371.576	77.5
371.802	80.5
372.028	85.5
372.254	108.5
372.48	92.5
372.706	89.5
372.932	79.5
373.158	73.5
373.384	84.5
373.61	103.5
373.835	72.5
374.061	79.5
374.287	82.5
374.513	81.5
374.739	77.5
374.965	68.5
375.191	71.5
375.416	80.5
375.642	94.5
375.868	87.5
376.094	63.5
376.319	78.5
376.545	79.5
376.771	89.5
376.997	90.5
377.222	85.5
377.448	88.5
377.674	80.5
377.899	87.5
378.125	96.5
378.35	96.5
378.576	74.5
378.802	65.5
379.027	88.5
379.253	85.5
379.478	84.5
379.704	85.5
379.929	72.5
380.155	80.5
380.38	75.5
380.606	69.5
380.831	82.5
381.057	101.5
381.282	91.5
381.507	82.5
381.733	89.5
381.958	80.5
382.184	91.5
382.409	86.5
382.634	79.5
382.86	80.5
383.085	91.5
383.31	93.5
383.535	73.5
383.761	80.5
383.986	79.5
384.211	86.5
384.436	87.5
384.662	72.5
384.887	79.5
385.112	85.5
385.337	85.5
385.562	79.5
385.787	92.5
386.013	92.5
386.238	85.5
386.463	78.5
386.688	96.5
386.913	68.5
387.138	82.5
387.363	90.5
387.588	89.5
387.813	85.5
388.038	78.5
388.263	85.5
388.488	81.5
388.713	101.5
388.938	71.5
389.163	83.5
389.387	79.5
389.612	88.5
389.837	87.5
390.062	79.5
390.287	77.5
390.512	88.5
390.736	92.5
390.961	80.5
391.186	79.5
391.411	97.5
391.636	88.5
391.86	89.5
392.085	91.5
392.31	72.5
392.534	78.5
392.759	91.5
392.984	80.5
393.208	93.5
393.433	99.5
393.658	88.5
393.882	86.5
394.107	81.5
394.331	87.5
394.556	80.5
394.78	83.5
395.005	79.5
395.229	90.5
395.454	84.5
395.678	78.5
395.903	102.5
396.127	88.5
396.352	83.5
396.576	90.5
396.801	81.5
397.025	89.5
397.249	94.5
397.474	84.5
397.698	89.5
397.922	79.5
398.147	77.5
398.371	91.5
398.595	94.5
398.82	89.5
399.044	73.5
399.268	81.5
399.492	90.5
399.717	80.5
399.941	84.5
400.165	88.5
400.389	83.5
400.613	76.5
400.837	64.5
401.062	80.5
401.286	92.5
401.51	84.5
401.734	75.5
401.958	73.5
402.182	81.5
402.406	94.5
402.63	84.5
402.854	94.5
403.078	96.5
403.302	84.5
403.526	85.5
403.75	91.5
403.974	94.5
404.198	103.5
404.422	89.5
404.645	86.5
404.869	97.5
405.093	79.5
405.317	101.5
405.541	91.5
405.765	79.5
405.988	84.5
406.212	95.5
406.436	83.5
406.66	93.5
406.883	83.5
407.107	81.5
407.331	71.5
407.555	81.5
407.778	99.5
408.002	91.5
408.226	83.5
408.449	92.5
408.673	91.5
408.896	88.5
409.12	91.5
409.344	88.5
409.567	87.5
409.791	96.5
410.014	101.5
410.238	108.5
410.461	82.5
410.685	77.5
410.908	81.5
411.132	87.5
411.355	90.5
411.578	88.5
411.802	88.5
412.025	84.5
412.249	73.5
412.472	85.5
412.695	81.5
412.919	73.5
413.142	90.5
413.365	71.5
413.589	93.5
413.812	86.5
414.035	90.5
414.258	86.5
414.482	90.5
414.705	93.5
414.928	107.5
415.151	79.5
415.374	92.5
415.597	97.5
415.821	84.5
416.044	86.5
416.267	87.5
416.49	77.5
416.713	90.5
416.936	80.5
417.159	91.5
417.382	93.5
417.605	77.5
417.828	93.5
418.051	75.5
418.274	82.5
418.497	90.5
418.72	86.5
418.943	90.5
419.166	93.5
419.389	95.5
419.611	94.5
419.834	95.5
420.057	93.5
420.28	100.5
420.503	99.5
420.726	109.5
420.948	115.5
421.171	85.5
421.394	89.5
421.617	102.5
421.839	91.5
422.062	92.5
422.285	70.5
422.507	101.5
422.73	101.5
422.953	87.5
423.175	90.5
423.398	91.5
423.621	84.5
423.843	93.5
424.066	89.5
424.288	81.5
424.511	90.5
424.733	83.5
424.956	91.5
425.178	85.5
425.401	83.5
425.623	81.5
425.846	89.5
426.068	80.5
426.291	71.5
426.513	84.5
426.735	87.5
426.958	81.5
427.18	91.5
427.402	92.5
427.625	84.5
427.847	87.5
428.069	107.5
428.292	100.5
428.514	98.5
428.736	88.5
428.958	90.5
429.181	100.5
429.403	97.5
429.625	85.5
429.847	95.5
430.069	93.5
430.292	95.5
430.514	95.5
430.736	96.5
430.958	82.5
431.18	93.5
431.402	93.5
431.624	103.5
431.846	78.5
432.068	78.5
432.29	77.5
432.512	79.5
432.734	87.5
432.956	91.5
433.178	93.5
433.4	100.5
433.622	82.5
433.844	98.5
434.066	94.5
434.287	72.5
434.509	90.5
434.731	88.5
434.953	76.5
435.175	78.5
435.397	89.5
435.618	85.5
435.84	81.5
436.062	84.5
436.284	74.5
436.505	99.5
436.727	96.5
436.949	88.5
437.17	90.5
437.392	86.5
437.614	70.5
437.835	77.5
438.057	86.5
438.278	75.5
438.5	77.5
438.721	88.5
438.943	105.5
439.165	93.5
439.386	107.5
439.608	89.5
439.829	84.5
440.05	100.5
440.272	93.5
440.493	97.5
440.715	98.5
440.936	94.5
441.158	103.5
441.379	88.5
441.6	84.5
441.822	111.5
442.043	91.5
442.264	85.5
442.486	97.5
442.707	82.5
442.928	97.5
443.149	88.5
443.371	101.5
443.592	104.5
443.813	96.5
444.034	84.5
444.255	103.5
444.476	87.5
444.698	94.5
444.919	92.5
445.14	177.5
445.361	124.5
445.582	92.5
445.803	104.5
446.024	99.5
446.245	94.5
446.466	88.5
446.687	83.5
446.908	100.5
447.129	111.5
447.35	90.5
447.571	101.5
447.792	104.5
448.013	91.5
448.234	87.5
448.455	85.5
448.675	94.5
448.896	93.5
449.117	84.5
449.338	94.5
449.559	93.5
449.779	98.5
450	84.5
450.221	96.5
450.442	77.5
450.662	98.5
450.883	98.5
451.104	87.5
451.324	92.5
451.545	78.5
451.766	82.5
451.986	95.5
452.207	95.5
452.428	91.5
452.648	95.5
452.869	85.5
453.089	83.5
453.31	95.5
453.53	78.5
453.751	98.5
453.971	83.5
454.192	75.5
454.412	93.5
454.633	83.5
454.853	93.5
455.073	95.5
455.294	79.5
455.514	108.5
455.734	91.5
455.955	98.5
456.175	99.5
456.395	81.5
456.616	94.5
456.836	83.5
457.056	90.5
457.276	78.5
457.497	82.5
457.717	79.5
457.937	75.5
458.157	83.5
458.377	75.5
458.598	90.5
458.818	77.5
459.038	66.5
459.258	66.5
459.478	86.5
459.698	87.5
459.918	85.5
460.138	81.5
460.358	85.5
460.578	91.5
460.798	100.5
461.018	89.5
461.238	96.5
461.458	99.5
461.678	69.5
461.898	80.5
462.118	86.5
462.338	87.5
462.558	80.5
462.777	80.5
462.997	93.5
463.217	80.5
463.437	82.5
463.657	86.5
463.876	84.5
464.096	89.5
464.316	85.5
464.536	82.5
464.755	92.5
464.975	85.5
465.195	82.5
465.414	89.5
465.634	84.5
465.854	74.5
466.073	91.5
466.293	89.5
466.512	85.5
466.732	82.5
466.951	91.5
467.171	93.5
467.391	86.5
467.61	93.5
467.829	92.5
468.049	85.5
468.268	83.5
468.488	89.5
468.707	83.5
468.927	86.5
469.146	97.5
469.365	100.5
469.585	90.5
469.804	93.5
470.023	107.5
470.243	93.5
470.462	103.5
470.681	91.5
470.901	88.5
471.12	82.5
471.339	110.5
471.558	94.5
471.777	102.5
471.997	102.5
472.216	93.5
472.435	80.5
472.654	100.5
472.873	77.5
473.092	77.5
473.311	78.5
473.53	83.5
473.749	85.5
473.968	84.5
474.187	86.5
474.406	81.5
474.625	93.5
474.844	92.5
475.063	78.5
475.282	93.5
475.501	87.5
475.72	93.5
475.939	89.5
476.158	92.5
476.377	96.5
476.596	84.5
476.814	96.5
477.033	85.5
477.252	89.5
477.471	88.5
477.69	94.5
477.908	96.5
478.127	91.5
478.346	91.5
478.564	79.5
478.783	92.5
479.002	88.5
479.22	73.5
479.439	85.5
479.658	93.5
479.876	93.5
480.095	82.5
480.313	93.5
480.532	92.5
480.751	74.5
480.969	86.5
481.188	80.5
481.406	99.5
481.624	77.5
481.843	78.5
482.061	73.5
482.28	94.5
482.498	83.5
482.717	92.5
482.935	88.5
483.153	99.5
483.372	95.5
483.59	93.5
483.808	93.5
484.027	87.5
484.245	101.5
484.463	92.5
484.681	117.5
484.9	101.5
485.118	92.5
485.336	81.5
485.554	81.5
485.772	89.5
485.99	86.5
486.209	91.5
486.427	86.5
486.645	89.5
486.863	93.5
487.081	99.5
487.299	83.5
487.517	93.5
487.735	107.5
487.953	111.5
488.171	112.5
488.389	95.5
488.607	99.5
488.825	91.5
489.043	94.5
489.261	91.5
489.479	97.5
489.696	93.5
489.914	95.5
490.132	84.5
490.35	96.5
490.568	88.5
490.786	91.5
491.003	121.5
491.221	113.5
491.439	105.5
491.657	114.5
491.874	117.5
492.092	116.5
492.31	126.5
492.527	123.5
492.745	97.5
492.963	103.5
493.18	106.5
493.398	115.5
493.615	116.5
493.833	106.5
494.05	109.5
494.268	116.5
494.485	96.5
494.703	107.5
494.92	115.5
495.138	118.5
495.355	117.5
495.573	101.5
495.79	105.5
496.008	104.5
496.225	83.5
496.442	91.5
496.66	115.5
496.877	116.5
497.094	95.5
497.312	101.5
497.529	100.5
497.746	90.5
497.963	98.5
498.181	73.5
498.398	96.5
498.615	69.5
498.832	81.5
499.049	82.5
499.267	98.5
499.484	96.5
499.701	102.5
499.918	92.5
500.135	100.5
500.352	94.5
500.569	90.5
500.786	80.5
501.003	96.5
501.22	83.5
501.437	103.5
501.654	104.5
501.871	83.5
502.088	93.5
502.305	91.5
502.522	93.5
502.739	95.5
502.956	92.5
503.172	89.5
503.389	80.5
503.606	91.5
503.823	93.5
504.04	93.5
504.256	102.5
504.473	94.5
504.69	77.5
504.907	86.5
505.123	80.5
505.34	98.5
505.557	92.5
505.773	92.5
505.99	94.5
506.207	96.5
506.423	90.5
506.64	108.5
506.856	93.5
507.073	76.5
507.289	82.5
507.506	80.5
507.722	80.5
507.939	88.5
508.155	95.5
508.372	90.5
508.588	93.5
508.805	97.5
509.021	88.5
509.238	81.5
509.454	72.5
509.67	92.5
509.887	78.5
510.103	87.5
510.319	84.5
510.536	78.5
510.752	79.5
510.968	76.5
511.184	73.5
511.401	81.5
511.617	85.5
511.833	95.5
512.049	74.5
512.265	78.5
512.481	91.5
512.698	81.5
512.914	80.5
513.13	72.5
513.346	92.5
513.562	73.5
513.778	82.5
513.994	86.5
514.21	73.5
514.426	71.5
514.642	86.5
514.858	86.5
515.074	77.5
515.29	103.5
515.506	87.5
515.721	81.5
515.937	85.5
516.153	81.5
516.369	82.5
516.585	89.5
516.801	72.5
517.016	89.5
517.232	65.5
517.448	90.5
517.664	97.5
517.879	73.5
518.095	70.5
518.311	81.5
518.527	79.5
518.742	82.5
518.958	84.5
519.173	84.5
519.389	81.5
519.605	91.5
519.82	102.5
520.036	78.5
520.251	81.5
520.467	81.5
520.682	86.5
520.898	73.5
521.113	73.5
521.329	81.5
521.544	80.5
521.76	92.5
521.975	78.5
522.19	74.5
522.406	77.5
522.621	96.5
522.836	79.5
523.052	79.5
523.267	95.5
523.482	95.5
523.698	85.5
523.913	93.5
524.128	79.5
524.343	83.5
524.559	90.5
524.774	81.5
524.989	79.5
525.204	79.5
525.419	82.5
525.634	90.5
525.849	87.5
526.064	72.5
526.28	76.5
526.495	88.5
526.71	81.5
526.925	87.5
527.14	84.5
527.355	69.5
527.57	75.5
527.785	91.5
527.999	86.5
528.214	84.5
528.429	68.5
528.644	95.5
528.859	104.5
529.074	94.5
529.289	120.5
529.503	87.5
529.718	91.5
529.933	81.5
530.148	89.5
530.363	86.5
530.577	85.5
530.792	86.5
531.007	73.5
531.221	95.5
531.436	86.5
531.651	91.5
531.865	99.5
532.08	73.5
532.295	88.5
532.509	83.5
532.724	79.5
532.938	86.5
533.153	86.5
533.367	85.5
533.582	87.5
533.796	102.5
534.011	96.5
534.225	77.5
534.44	82.5
534.654	93.5
534.868	92.5
535.083	74.5
535.297	84.5
535.511	82.5
535.726	90.5
535.94	80.5
536.154	84.5
536.369	93.5
536.583	82.5
536.797	82.5
537.011	81.5
537.225	84.5
537.44	83.5
537.654	82.5
537.868	77.5
538.082	87.5
538.296	89.5
538.51	88.5
