Data from Location4.07152019.Energy5.Lamp.07192019.3%Agarose_HRD10591_15-26-01-578.txt Node
Date: Fri Jul 19 15:26:01 EDT 2019
User: cochatt
Spectrometer: HR+D1059
Trigger mode: 1
Integration Time (sec): 1.000000E-1
Scans to average: 1
Electric dark correction enabled: true
Nonlinearity correction enabled: false
Boxcar width: 0
XAxis mode: Wavelengths
Number of Pixels in Spectrum: 2048
>>>>>Begin Spectral Data<<<<<
223.165	-12.12
223.4	-12.12
223.635	-12.12
223.869	-23.12
224.104	-19.12
224.338	-23.12
224.573	-11.12
224.808	-15.12
225.042	4.88
225.277	-1.12
225.511	-1.12
225.746	-4.12
225.98	0.88
226.215	16.88
226.449	12.88
226.683	14.88
226.918	23.88
227.152	35.88
227.387	44.88
227.621	41.88
227.856	40.88
228.09	48.88
228.324	40.88
228.559	63.88
228.793	52.88
229.027	61.88
229.262	68.88
229.496	58.88
229.73	58.88
229.964	78.88
230.199	72.88
230.433	83.88
230.667	87.88
230.901	82.88
231.136	82.88
231.37	85.88
231.604	84.88
231.838	82.88
232.072	82.88
232.306	97.88
232.541	76.88
232.775	79.88
233.009	74.88
233.243	69.88
233.477	86.88
233.711	68.88
233.945	87.88
234.179	78.88
234.413	76.88
234.647	81.88
234.881	88.88
235.115	78.88
235.349	81.88
235.583	76.88
235.817	84.88
236.051	72.88
236.285	73.88
236.519	73.88
236.753	77.88
236.987	73.88
237.221	71.88
237.455	79.88
237.689	75.88
237.922	85.88
238.156	88.88
238.39	79.88
238.624	92.88
238.858	87.88
239.091	77.88
239.325	79.88
239.559	81.88
239.793	78.88
240.027	84.88
240.26	90.88
240.494	84.88
240.728	84.88
240.961	65.88
241.195	68.88
241.429	71.88
241.662	65.88
241.896	82.88
242.13	86.88
242.363	74.88
242.597	75.88
242.83	79.88
243.064	73.88
243.298	100.88
243.531	75.88
243.765	82.88
243.998	82.88
244.232	77.88
244.465	75.88
244.699	71.88
244.932	76.88
245.166	96.88
245.399	82.88
245.633	81.88
245.866	77.88
246.099	74.88
246.333	82.88
246.566	85.88
246.8	85.88
247.033	74.88
247.266	92.88
247.5	69.88
247.733	72.88
247.966	80.88
248.2	88.88
248.433	78.88
248.666	79.88
248.899	65.88
249.133	70.88
249.366	92.88
249.599	69.88
249.832	72.88
250.066	75.88
250.299	85.88
250.532	78.88
250.765	64.88
250.998	89.88
251.231	75.88
251.465	80.88
251.698	86.88
251.931	75.88
252.164	90.88
252.397	77.88
252.63	80.88
252.863	70.88
253.096	74.88
253.329	79.88
253.562	75.88
253.795	75.88
254.028	98.88
254.261	94.88
254.494	83.88
254.727	80.88
254.96	87.88
255.193	81.88
255.426	100.88
255.659	71.88
255.892	97.88
256.124	89.88
256.357	75.88
256.59	73.88
256.823	79.88
257.056	71.88
257.289	70.88
257.521	96.88
257.754	57.88
257.987	80.88
258.22	84.88
258.452	72.88
258.685	83.88
258.918	83.88
259.151	82.88
259.383	73.88
259.616	78.88
259.849	73.88
260.081	78.88
260.314	86.88
260.547	74.88
260.779	88.88
261.012	86.88
261.244	77.88
261.477	89.88
261.71	71.88
261.942	91.88
262.175	88.88
262.407	89.88
262.64	74.88
262.872	74.88
263.105	95.88
263.337	82.88
263.57	74.88
263.802	108.88
264.035	89.88
264.267	78.88
264.499	78.88
264.732	87.88
264.964	74.88
265.197	79.88
265.429	86.88
265.661	67.88
265.894	85.88
266.126	79.88
266.358	82.88
266.591	84.88
266.823	104.88
267.055	84.88
267.287	81.88
267.52	77.88
267.752	77.88
267.984	69.88
268.216	86.88
268.448	86.88
268.681	88.88
268.913	78.88
269.145	88.88
269.377	78.88
269.609	85.88
269.841	76.88
270.073	87.88
270.306	75.88
270.538	86.88
270.77	84.88
271.002	97.88
271.234	73.88
271.466	84.88
271.698	66.88
271.93	77.88
272.162	69.88
272.394	76.88
272.626	87.88
272.858	66.88
273.09	89.88
273.322	90.88
273.553	75.88
273.785	76.88
274.017	70.88
274.249	79.88
274.481	74.88
274.713	85.88
274.945	79.88
275.176	77.88
275.408	90.88
275.64	102.88
275.872	94.88
276.104	76.88
276.335	78.88
276.567	90.88
276.799	80.88
277.031	76.88
277.262	89.88
277.494	100.88
277.726	86.88
277.957	78.88
278.189	73.88
278.421	78.88
278.652	84.88
278.884	82.88
279.115	76.88
279.347	91.88
279.579	72.88
279.81	90.88
280.042	88.88
280.273	80.88
280.505	65.88
280.736	100.88
280.968	78.88
281.199	96.88
281.431	81.88
281.662	79.88
281.894	90.88
282.125	87.88
282.356	88.88
282.588	77.88
282.819	74.88
283.051	83.88
283.282	76.88
283.513	85.88
283.745	88.88
283.976	90.88
284.207	87.88
284.439	85.88
284.67	87.88
284.901	81.88
285.132	92.88
285.364	81.88
285.595	84.88
285.826	79.88
286.057	80.88
286.288	95.88
286.52	90.88
286.751	78.88
286.982	82.88
287.213	91.88
287.444	83.88
287.675	104.88
287.906	93.88
288.138	68.88
288.369	90.88
288.6	93.88
288.831	70.88
289.062	86.88
289.293	92.88
289.524	86.88
289.755	67.88
289.986	89.88
290.217	86.88
290.448	85.88
290.679	90.88
290.91	90.88
291.141	96.88
291.371	84.88
291.602	89.88
291.833	93.88
292.064	76.88
292.295	92.88
292.526	84.88
292.757	86.88
292.987	96.88
293.218	84.88
293.449	80.88
293.68	79.88
293.91	69.88
294.141	83.88
294.372	77.88
294.603	88.88
294.833	84.88
295.064	80.88
295.295	75.88
295.525	86.88
295.756	90.88
295.987	82.88
296.217	82.88
296.448	75.88
296.679	87.88
296.909	79.88
297.14	86.88
297.37	89.88
297.601	78.88
297.831	85.88
298.062	87.88
298.292	79.88
298.523	70.88
298.753	75.88
298.984	90.88
299.214	82.88
299.445	81.88
299.675	84.88
299.905	88.88
300.136	78.88
300.366	72.88
300.597	75.88
300.827	80.88
301.057	93.88
301.288	93.88
301.518	83.88
301.748	73.88
301.979	75.88
302.209	97.88
302.439	91.88
302.669	91.88
302.9	93.88
303.13	83.88
303.36	73.88
303.59	77.88
303.82	82.88
304.051	88.88
304.281	96.88
304.511	94.88
304.741	92.88
304.971	101.88
305.201	76.88
305.431	104.88
305.661	94.88
305.891	90.88
306.121	103.88
306.352	75.88
306.582	84.88
306.812	101.88
307.042	94.88
307.272	91.88
307.502	84.88
307.731	75.88
307.961	80.88
308.191	74.88
308.421	93.88
308.651	84.88
308.881	86.88
309.111	76.88
309.341	98.88
309.571	82.88
309.8	81.88
310.03	82.88
310.26	89.88
310.49	73.88
310.72	86.88
310.949	89.88
311.179	89.88
311.409	73.88
311.639	82.88
311.868	79.88
312.098	99.88
312.328	87.88
312.557	91.88
312.787	89.88
313.017	71.88
313.246	83.88
313.476	89.88
313.706	83.88
313.935	94.88
314.165	93.88
314.394	79.88
314.624	93.88
314.853	102.88
315.083	87.88
315.312	94.88
315.542	86.88
315.771	105.88
316.001	81.88
316.23	85.88
316.46	77.88
316.689	78.88
316.919	71.88
317.148	75.88
317.377	98.88
317.607	78.88
317.836	85.88
318.065	93.88
318.295	93.88
318.524	90.88
318.753	80.88
318.983	86.88
319.212	88.88
319.441	80.88
319.67	86.88
319.9	86.88
320.129	78.88
320.358	86.88
320.587	85.88
320.816	78.88
321.046	86.88
321.275	96.88
321.504	67.88
321.733	84.88
321.962	72.88
322.191	95.88
322.42	89.88
322.649	90.88
322.878	85.88
323.108	84.88
323.337	70.88
323.566	92.88
323.795	70.88
324.024	82.88
324.253	86.88
324.482	85.88
324.71	79.88
324.939	86.88
325.168	87.88
325.397	84.88
325.626	83.88
325.855	85.88
326.084	78.88
326.313	90.88
326.542	86.88
326.77	81.88
326.999	90.88
327.228	82.88
327.457	86.88
327.686	92.88
327.914	77.88
328.143	86.88
328.372	85.88
328.6	80.88
328.829	82.88
329.058	100.88
329.287	82.88
329.515	80.88
329.744	86.88
329.972	100.88
330.201	87.88
330.43	84.88
330.658	77.88
330.887	84.88
331.115	85.88
331.344	79.88
331.572	75.88
331.801	81.88
332.03	81.88
332.258	100.88
332.486	83.88
332.715	77.88
332.943	74.88
333.172	98.88
333.4	88.88
333.629	83.88
333.857	86.88
334.085	90.88
334.314	85.88
334.542	84.88
334.771	68.88
334.999	72.88
335.227	77.88
335.455	81.88
335.684	93.88
335.912	88.88
336.14	68.88
336.369	84.88
336.597	98.88
336.825	79.88
337.053	72.88
337.281	79.88
337.51	79.88
337.738	84.88
337.966	93.88
338.194	70.88
338.422	76.88
338.65	84.88
338.878	92.88
339.106	82.88
339.334	92.88
339.562	91.88
339.79	83.88
340.018	76.88
340.246	82.88
340.474	86.88
340.702	91.88
340.93	84.88
341.158	82.88
341.386	85.88
341.614	85.88
341.842	91.88
342.07	84.88
342.298	84.88
342.526	76.88
342.754	77.88
342.981	95.88
343.209	78.88
343.437	87.88
343.665	93.88
343.893	87.88
344.12	82.88
344.348	87.88
344.576	84.88
344.804	88.88
345.031	89.88
345.259	72.88
345.487	101.88
345.714	94.88
345.942	94.88
346.17	101.88
346.397	67.88
346.625	80.88
346.853	85.88
347.08	77.88
347.308	75.88
347.535	82.88
347.763	78.88
347.99	101.88
348.218	94.88
348.445	89.88
348.673	89.88
348.9	82.88
349.128	83.88
349.355	97.88
349.583	79.88
349.81	92.88
350.037	89.88
350.265	79.88
350.492	86.88
350.72	85.88
350.947	78.88
351.174	81.88
351.402	82.88
351.629	80.88
351.856	86.88
352.083	85.88
352.311	81.88
352.538	89.88
352.765	88.88
352.992	68.88
353.22	82.88
353.447	80.88
353.674	95.88
353.901	81.88
354.128	77.88
354.355	99.88
354.583	83.88
354.81	89.88
355.037	89.88
355.264	85.88
355.491	70.88
355.718	96.88
355.945	86.88
356.172	81.88
356.399	81.88
356.626	85.88
356.853	92.88
357.08	93.88
357.307	87.88
357.534	77.88
357.761	86.88
357.988	83.88
358.215	96.88
358.441	94.88
358.668	96.88
358.895	84.88
359.122	78.88
359.349	91.88
359.576	85.88
359.802	83.88
360.029	87.88
360.256	84.88
360.483	80.88
360.709	82.88
360.936	72.88
361.163	93.88
361.39	85.88
361.616	78.88
361.843	92.88
362.07	84.88
362.296	80.88
362.523	82.88
362.749	93.88
362.976	90.88
363.203	87.88
363.429	70.88
363.656	93.88
363.882	80.88
364.109	90.88
364.335	86.88
364.562	84.88
364.788	73.88
365.015	86.88
365.241	88.88
365.468	84.88
365.694	84.88
365.92	88.88
366.147	85.88
366.373	80.88
366.599	91.88
366.826	102.88
367.052	94.88
367.278	92.88
367.505	77.88
367.731	76.88
367.957	84.88
368.184	85.88
368.41	86.88
368.636	88.88
368.862	78.88
369.089	78.88
369.315	69.88
369.541	102.88
369.767	100.88
369.993	85.88
370.219	79.88
370.445	92.88
370.672	93.88
370.898	84.88
371.124	78.88
371.35	88.88
371.576	84.88
371.802	86.88
372.028	93.88
372.254	82.88
372.48	79.88
372.706	84.88
372.932	84.88
373.158	101.88
373.384	101.88
373.61	90.88
373.835	78.88
374.061	93.88
374.287	96.88
374.513	77.88
374.739	78.88
374.965	85.88
375.191	84.88
375.416	88.88
375.642	84.88
375.868	88.88
376.094	79.88
376.319	89.88
376.545	75.88
376.771	91.88
376.997	78.88
377.222	79.88
377.448	98.88
377.674	78.88
377.899	101.88
378.125	84.88
378.35	104.88
378.576	82.88
378.802	86.88
379.027	87.88
379.253	70.88
379.478	83.88
379.704	92.88
379.929	93.88
380.155	76.88
380.38	76.88
380.606	96.88
380.831	86.88
381.057	85.88
381.282	80.88
381.507	84.88
381.733	88.88
381.958	88.88
382.184	93.88
382.409	84.88
382.634	91.88
382.86	90.88
383.085	87.88
383.31	83.88
383.535	75.88
383.761	97.88
383.986	99.88
384.211	74.88
384.436	87.88
384.662	82.88
384.887	83.88
385.112	81.88
385.337	74.88
385.562	87.88
385.787	89.88
386.013	85.88
386.238	88.88
386.463	94.88
386.688	82.88
386.913	92.88
387.138	90.88
387.363	77.88
387.588	96.88
387.813	93.88
388.038	82.88
388.263	80.88
388.488	78.88
388.713	88.88
388.938	102.88
389.163	72.88
389.387	80.88
389.612	91.88
389.837	84.88
390.062	84.88
390.287	86.88
390.512	77.88
390.736	85.88
390.961	91.88
391.186	100.88
391.411	84.88
391.636	95.88
391.86	101.88
392.085	102.88
392.31	91.88
392.534	95.88
392.759	81.88
392.984	75.88
393.208	81.88
393.433	102.88
393.658	85.88
393.882	92.88
394.107	92.88
394.331	86.88
394.556	91.88
394.78	91.88
395.005	91.88
395.229	94.88
395.454	93.88
395.678	88.88
395.903	78.88
396.127	83.88
396.352	79.88
396.576	90.88
396.801	85.88
397.025	88.88
397.249	98.88
397.474	85.88
397.698	88.88
397.922	100.88
398.147	76.88
398.371	85.88
398.595	89.88
398.82	108.88
399.044	87.88
399.268	103.88
399.492	81.88
399.717	94.88
399.941	85.88
400.165	85.88
400.389	82.88
400.613	84.88
400.837	81.88
401.062	93.88
401.286	90.88
401.51	83.88
401.734	87.88
401.958	102.88
402.182	81.88
402.406	103.88
402.63	107.88
402.854	88.88
403.078	94.88
403.302	80.88
403.526	88.88
403.75	86.88
403.974	93.88
404.198	86.88
404.422	92.88
404.645	94.88
404.869	83.88
405.093	94.88
405.317	88.88
405.541	91.88
405.765	97.88
405.988	92.88
406.212	100.88
406.436	90.88
406.66	88.88
406.883	81.88
407.107	91.88
407.331	92.88
407.555	88.88
407.778	85.88
408.002	89.88
408.226	101.88
408.449	107.88
408.673	64.88
408.896	83.88
409.12	82.88
409.344	81.88
409.567	79.88
409.791	92.88
410.014	92.88
410.238	77.88
410.461	86.88
410.685	87.88
410.908	92.88
411.132	77.88
411.355	86.88
411.578	86.88
411.802	90.88
412.025	73.88
412.249	83.88
412.472	92.88
412.695	89.88
412.919	96.88
413.142	90.88
413.365	99.88
413.589	95.88
413.812	91.88
414.035	73.88
414.258	101.88
414.482	82.88
414.705	87.88
414.928	98.88
415.151	96.88
415.374	94.88
415.597	93.88
415.821	94.88
416.044	101.88
416.267	104.88
416.49	90.88
416.713	89.88
416.936	108.88
417.159	93.88
417.382	106.88
417.605	80.88
417.828	93.88
418.051	93.88
418.274	96.88
418.497	86.88
418.72	91.88
418.943	106.88
419.166	98.88
419.389	77.88
419.611	92.88
419.834	86.88
420.057	94.88
420.28	103.88
420.503	109.88
420.726	98.88
420.948	117.88
421.171	109.88
421.394	91.88
421.617	99.88
421.839	104.88
422.062	94.88
422.285	110.88
422.507	100.88
422.73	85.88
422.953	90.88
423.175	90.88
423.398	88.88
423.621	101.88
423.843	97.88
424.066	94.88
424.288	104.88
424.511	94.88
424.733	101.88
424.956	91.88
425.178	108.88
425.401	86.88
425.623	108.88
425.846	104.88
426.068	92.88
426.291	89.88
426.513	82.88
426.735	87.88
426.958	104.88
427.18	92.88
427.402	89.88
427.625	104.88
427.847	100.88
428.069	106.88
428.292	104.88
428.514	88.88
428.736	88.88
428.958	104.88
429.181	97.88
429.403	86.88
429.625	107.88
429.847	101.88
430.069	91.88
430.292	108.88
430.514	93.88
430.736	87.88
430.958	88.88
431.18	84.88
431.402	86.88
431.624	90.88
431.846	91.88
432.068	82.88
432.29	85.88
432.512	83.88
432.734	88.88
432.956	104.88
433.178	95.88
433.4	91.88
433.622	109.88
433.844	93.88
434.066	97.88
434.287	101.88
434.509	79.88
434.731	100.88
434.953	88.88
435.175	92.88
435.397	108.88
435.618	88.88
435.84	90.88
436.062	90.88
436.284	94.88
436.505	97.88
436.727	88.88
436.949	97.88
437.17	110.88
437.392	108.88
437.614	91.88
437.835	98.88
438.057	81.88
438.278	87.88
438.5	89.88
438.721	99.88
438.943	99.88
439.165	99.88
439.386	94.88
439.608	101.88
439.829	106.88
440.05	118.88
440.272	101.88
440.493	97.88
440.715	107.88
440.936	97.88
441.158	112.88
441.379	98.88
441.6	99.88
441.822	103.88
442.043	101.88
442.264	118.88
442.486	93.88
442.707	88.88
442.928	91.88
443.149	91.88
443.371	106.88
443.592	90.88
443.813	102.88
444.034	106.88
444.255	93.88
444.476	79.88
444.698	104.88
444.919	90.88
445.14	225.88
445.361	170.88
445.582	122.88
445.803	109.88
446.024	103.88
446.245	100.88
446.466	103.88
446.687	92.88
446.908	103.88
447.129	93.88
447.35	113.88
447.571	92.88
447.792	95.88
448.013	102.88
448.234	100.88
448.455	106.88
448.675	108.88
448.896	105.88
449.117	101.88
449.338	90.88
449.559	109.88
449.779	106.88
450	92.88
450.221	101.88
450.442	116.88
450.662	108.88
450.883	107.88
451.104	112.88
451.324	86.88
451.545	84.88
451.766	94.88
451.986	109.88
452.207	82.88
452.428	92.88
452.648	87.88
452.869	94.88
453.089	96.88
453.31	84.88
453.53	85.88
453.751	84.88
453.971	71.88
454.192	104.88
454.412	84.88
454.633	90.88
454.853	113.88
455.073	87.88
455.294	94.88
455.514	93.88
455.734	99.88
455.955	91.88
456.175	90.88
456.395	89.88
456.616	82.88
456.836	89.88
457.056	71.88
457.276	80.88
457.497	97.88
457.717	95.88
457.937	89.88
458.157	76.88
458.377	84.88
458.598	86.88
458.818	93.88
459.038	91.88
459.258	86.88
459.478	77.88
459.698	98.88
459.918	106.88
460.138	76.88
460.358	86.88
460.578	92.88
460.798	86.88
461.018	97.88
461.238	95.88
461.458	89.88
461.678	94.88
461.898	98.88
462.118	90.88
462.338	89.88
462.558	98.88
462.777	97.88
462.997	100.88
463.217	74.88
463.437	80.88
463.657	89.88
463.876	93.88
464.096	74.88
464.316	87.88
464.536	91.88
464.755	87.88
464.975	95.88
465.195	79.88
465.414	89.88
465.634	86.88
465.854	84.88
466.073	86.88
466.293	99.88
466.512	90.88
466.732	102.88
466.951	112.88
467.171	102.88
467.391	105.88
467.61	97.88
467.829	105.88
468.049	96.88
468.268	103.88
468.488	97.88
468.707	92.88
468.927	97.88
469.146	89.88
469.365	77.88
469.585	114.88
469.804	105.88
470.023	106.88
470.243	99.88
470.462	95.88
470.681	95.88
470.901	88.88
471.12	96.88
471.339	84.88
471.558	97.88
471.777	97.88
471.997	101.88
472.216	91.88
472.435	101.88
472.654	88.88
472.873	75.88
473.092	80.88
473.311	102.88
473.53	100.88
473.749	90.88
473.968	94.88
474.187	88.88
474.406	87.88
474.625	83.88
474.844	90.88
475.063	94.88
475.282	98.88
475.501	99.88
475.72	98.88
475.939	96.88
476.158	88.88
476.377	78.88
476.596	90.88
476.814	94.88
477.033	97.88
477.252	93.88
477.471	88.88
477.69	107.88
477.908	103.88
478.127	95.88
478.346	99.88
478.564	101.88
478.783	102.88
479.002	99.88
479.22	98.88
479.439	104.88
479.658	88.88
479.876	79.88
480.095	105.88
480.313	99.88
480.532	87.88
480.751	96.88
480.969	92.88
481.188	85.88
481.406	81.88
481.624	61.88
481.843	96.88
482.061	109.88
482.28	84.88
482.498	79.88
482.717	83.88
482.935	91.88
483.153	107.88
483.372	106.88
483.59	117.88
483.808	104.88
484.027	92.88
484.245	109.88
484.463	107.88
484.681	110.88
484.9	103.88
485.118	108.88
485.336	93.88
485.554	88.88
485.772	112.88
485.99	92.88
486.209	101.88
486.427	100.88
486.645	104.88
486.863	91.88
487.081	94.88
487.299	86.88
487.517	100.88
487.735	98.88
487.953	118.88
488.171	101.88
488.389	107.88
488.607	95.88
488.825	91.88
489.043	101.88
489.261	99.88
489.479	110.88
489.696	90.88
489.914	100.88
490.132	86.88
490.35	112.88
490.568	106.88
490.786	119.88
491.003	116.88
491.221	121.88
491.439	121.88
491.657	116.88
491.874	102.88
492.092	119.88
492.31	134.88
492.527	126.88
492.745	124.88
492.963	111.88
493.18	107.88
493.398	96.88
493.615	107.88
493.833	112.88
494.05	96.88
494.268	117.88
494.485	106.88
494.703	105.88
494.92	104.88
495.138	101.88
495.355	104.88
495.573	109.88
495.79	114.88
496.008	108.88
496.225	106.88
496.442	99.88
496.66	110.88
496.877	112.88
497.094	113.88
497.312	101.88
497.529	105.88
497.746	114.88
497.963	100.88
498.181	90.88
498.398	108.88
498.615	93.88
498.832	83.88
499.049	108.88
499.267	99.88
499.484	106.88
499.701	91.88
499.918	86.88
500.135	92.88
500.352	96.88
500.569	104.88
500.786	110.88
501.003	103.88
501.22	107.88
501.437	94.88
501.654	101.88
501.871	94.88
502.088	104.88
502.305	100.88
502.522	99.88
502.739	104.88
502.956	103.88
503.172	100.88
503.389	100.88
503.606	89.88
503.823	98.88
504.04	98.88
504.256	100.88
504.473	88.88
504.69	92.88
504.907	101.88
505.123	83.88
505.34	87.88
505.557	104.88
505.773	88.88
505.99	87.88
506.207	96.88
506.423	96.88
506.64	102.88
506.856	88.88
507.073	90.88
507.289	98.88
507.506	100.88
507.722	96.88
507.939	98.88
508.155	100.88
508.372	102.88
508.588	85.88
508.805	86.88
509.021	75.88
509.238	84.88
509.454	89.88
509.67	92.88
509.887	96.88
510.103	88.88
510.319	93.88
510.536	80.88
510.752	82.88
510.968	82.88
511.184	100.88
511.401	88.88
511.617	78.88
511.833	87.88
512.049	97.88
512.265	79.88
512.481	85.88
512.698	77.88
512.914	93.88
513.13	91.88
513.346	89.88
513.562	92.88
513.778	88.88
513.994	75.88
514.21	92.88
514.426	88.88
514.642	92.88
514.858	85.88
515.074	66.88
515.29	84.88
515.506	90.88
515.721	82.88
515.937	97.88
516.153	96.88
516.369	97.88
516.585	88.88
