Data from Location4.07152019.Energy5.Lamp.07192019.3%Agarose_HRD10591_15-23-38-577.txt Node
Date: Fri Jul 19 15:23:38 EDT 2019
User: cochatt
Spectrometer: HR+D1059
Trigger mode: 1
Integration Time (sec): 1.000000E-1
Scans to average: 1
Electric dark correction enabled: true
Nonlinearity correction enabled: false
Boxcar width: 0
XAxis mode: Wavelengths
Number of Pixels in Spectrum: 2048
>>>>>Begin Spectral Data<<<<<
223.165	-23.19
223.4	-23.19
223.635	-23.19
223.869	-30.19
224.104	-24.19
224.338	-1.19
224.573	-14.19
224.808	-16.19
225.042	7.81
225.277	-1.19
225.511	10.81
225.746	9.81
225.98	2.81
226.215	8.81
226.449	10.81
226.683	11.81
226.918	24.81
227.152	22.81
227.387	31.81
227.621	27.81
227.856	42.81
228.09	55.81
228.324	50.81
228.559	54.81
228.793	64.81
229.027	59.81
229.262	65.81
229.496	79.81
229.73	71.81
229.964	76.81
230.199	78.81
230.433	73.81
230.667	68.81
230.901	74.81
231.136	86.81
231.37	88.81
231.604	83.81
231.838	86.81
232.072	93.81
232.306	94.81
232.541	82.81
232.775	92.81
233.009	80.81
233.243	85.81
233.477	74.81
233.711	95.81
233.945	83.81
234.179	78.81
234.413	92.81
234.647	75.81
234.881	95.81
235.115	94.81
235.349	84.81
235.583	86.81
235.817	79.81
236.051	88.81
236.285	84.81
236.519	77.81
236.753	90.81
236.987	92.81
237.221	78.81
237.455	89.81
237.689	92.81
237.922	91.81
238.156	69.81
238.39	67.81
238.624	84.81
238.858	95.81
239.091	84.81
239.325	77.81
239.559	69.81
239.793	67.81
240.027	79.81
240.26	64.81
240.494	75.81
240.728	80.81
240.961	70.81
241.195	77.81
241.429	77.81
241.662	76.81
241.896	84.81
242.13	88.81
242.363	89.81
242.597	76.81
242.83	66.81
243.064	72.81
243.298	68.81
243.531	87.81
243.765	71.81
243.998	76.81
244.232	72.81
244.465	74.81
244.699	80.81
244.932	72.81
245.166	83.81
245.399	84.81
245.633	86.81
245.866	78.81
246.099	81.81
246.333	95.81
246.566	81.81
246.8	78.81
247.033	85.81
247.266	97.81
247.5	71.81
247.733	85.81
247.966	69.81
248.2	83.81
248.433	95.81
248.666	83.81
248.899	81.81
249.133	94.81
249.366	88.81
249.599	84.81
249.832	87.81
250.066	97.81
250.299	82.81
250.532	80.81
250.765	90.81
250.998	98.81
251.231	80.81
251.465	90.81
251.698	68.81
251.931	87.81
252.164	76.81
252.397	80.81
252.63	81.81
252.863	69.81
253.096	82.81
253.329	78.81
253.562	83.81
253.795	89.81
254.028	79.81
254.261	65.81
254.494	73.81
254.727	90.81
254.96	88.81
255.193	93.81
255.426	81.81
255.659	83.81
255.892	78.81
256.124	92.81
256.357	77.81
256.59	69.81
256.823	87.81
257.056	78.81
257.289	72.81
257.521	90.81
257.754	79.81
257.987	72.81
258.22	80.81
258.452	91.81
258.685	92.81
258.918	93.81
259.151	85.81
259.383	78.81
259.616	73.81
259.849	74.81
260.081	83.81
260.314	93.81
260.547	92.81
260.779	83.81
261.012	73.81
261.244	74.81
261.477	85.81
261.71	99.81
261.942	84.81
262.175	88.81
262.407	87.81
262.64	97.81
262.872	101.81
263.105	90.81
263.337	93.81
263.57	100.81
263.802	72.81
264.035	85.81
264.267	81.81
264.499	81.81
264.732	91.81
264.964	89.81
265.197	97.81
265.429	86.81
265.661	94.81
265.894	92.81
266.126	100.81
266.358	83.81
266.591	76.81
266.823	81.81
267.055	86.81
267.287	96.81
267.52	95.81
267.752	90.81
267.984	91.81
268.216	87.81
268.448	95.81
268.681	86.81
268.913	99.81
269.145	87.81
269.377	84.81
269.609	86.81
269.841	83.81
270.073	99.81
270.306	91.81
270.538	78.81
270.77	72.81
271.002	112.81
271.234	101.81
271.466	87.81
271.698	85.81
271.93	85.81
272.162	70.81
272.394	83.81
272.626	78.81
272.858	92.81
273.09	89.81
273.322	90.81
273.553	88.81
273.785	103.81
274.017	91.81
274.249	78.81
274.481	86.81
274.713	93.81
274.945	80.81
275.176	86.81
275.408	88.81
275.64	90.81
275.872	87.81
276.104	86.81
276.335	87.81
276.567	84.81
276.799	87.81
277.031	85.81
277.262	86.81
277.494	84.81
277.726	90.81
277.957	90.81
278.189	92.81
278.421	101.81
278.652	105.81
278.884	92.81
279.115	80.81
279.347	87.81
279.579	94.81
279.81	79.81
280.042	92.81
280.273	84.81
280.505	87.81
280.736	96.81
280.968	76.81
281.199	91.81
281.431	84.81
281.662	86.81
281.894	81.81
282.125	80.81
282.356	85.81
282.588	88.81
282.819	82.81
283.051	93.81
283.282	81.81
283.513	96.81
283.745	75.81
283.976	94.81
284.207	84.81
284.439	105.81
284.67	90.81
284.901	83.81
285.132	90.81
285.364	85.81
285.595	91.81
285.826	88.81
286.057	89.81
286.288	87.81
286.52	102.81
286.751	78.81
286.982	89.81
287.213	78.81
287.444	90.81
287.675	90.81
287.906	87.81
288.138	92.81
288.369	91.81
288.6	98.81
288.831	95.81
289.062	72.81
289.293	82.81
289.524	88.81
289.755	91.81
289.986	84.81
290.217	99.81
290.448	87.81
290.679	98.81
290.91	94.81
291.141	88.81
291.371	98.81
291.602	102.81
291.833	87.81
292.064	87.81
292.295	108.81
292.526	89.81
292.757	87.81
292.987	70.81
293.218	81.81
293.449	95.81
293.68	96.81
293.91	77.81
294.141	93.81
294.372	90.81
294.603	95.81
294.833	93.81
295.064	103.81
295.295	106.81
295.525	90.81
295.756	93.81
295.987	83.81
296.217	98.81
296.448	91.81
296.679	86.81
296.909	101.81
297.14	89.81
297.37	85.81
297.601	90.81
297.831	84.81
298.062	81.81
298.292	72.81
298.523	93.81
298.753	86.81
298.984	88.81
299.214	90.81
299.445	87.81
299.675	95.81
299.905	93.81
300.136	97.81
300.366	93.81
300.597	92.81
300.827	91.81
301.057	81.81
301.288	98.81
301.518	93.81
301.748	75.81
301.979	88.81
302.209	93.81
302.439	81.81
302.669	93.81
302.9	78.81
303.13	98.81
303.36	95.81
303.59	99.81
303.82	104.81
304.051	85.81
304.281	87.81
304.511	95.81
304.741	91.81
304.971	88.81
305.201	108.81
305.431	90.81
305.661	90.81
305.891	80.81
306.121	81.81
306.352	95.81
306.582	80.81
306.812	87.81
307.042	92.81
307.272	86.81
307.502	91.81
307.731	86.81
307.961	94.81
308.191	90.81
308.421	91.81
308.651	80.81
308.881	80.81
309.111	83.81
309.341	88.81
309.571	94.81
309.8	85.81
310.03	86.81
310.26	83.81
310.49	87.81
310.72	94.81
310.949	93.81
311.179	89.81
311.409	87.81
311.639	77.81
311.868	98.81
312.098	92.81
312.328	82.81
312.557	107.81
312.787	68.81
313.017	90.81
313.246	98.81
313.476	87.81
313.706	104.81
313.935	99.81
314.165	91.81
314.394	96.81
314.624	95.81
314.853	85.81
315.083	87.81
315.312	80.81
315.542	72.81
315.771	99.81
316.001	85.81
316.23	95.81
316.46	90.81
316.689	84.81
316.919	81.81
317.148	84.81
317.377	94.81
317.607	101.81
317.836	88.81
318.065	84.81
318.295	82.81
318.524	90.81
318.753	92.81
318.983	91.81
319.212	91.81
319.441	78.81
319.67	97.81
319.9	95.81
320.129	95.81
320.358	76.81
320.587	88.81
320.816	93.81
321.046	96.81
321.275	85.81
321.504	84.81
321.733	88.81
321.962	79.81
322.191	89.81
322.42	92.81
322.649	79.81
322.878	88.81
323.108	89.81
323.337	100.81
323.566	97.81
323.795	90.81
324.024	94.81
324.253	88.81
324.482	95.81
324.71	76.81
324.939	99.81
325.168	87.81
325.397	95.81
325.626	99.81
325.855	84.81
326.084	88.81
326.313	88.81
326.542	78.81
326.77	95.81
326.999	86.81
327.228	92.81
327.457	81.81
327.686	91.81
327.914	91.81
328.143	89.81
328.372	96.81
328.6	88.81
328.829	80.81
329.058	92.81
329.287	76.81
329.515	96.81
329.744	88.81
329.972	75.81
330.201	81.81
330.43	91.81
330.658	88.81
330.887	87.81
331.115	84.81
331.344	86.81
331.572	90.81
331.801	67.81
332.03	98.81
332.258	77.81
332.486	96.81
332.715	78.81
332.943	90.81
333.172	88.81
333.4	82.81
333.629	99.81
333.857	89.81
334.085	82.81
334.314	81.81
334.542	87.81
334.771	90.81
334.999	88.81
335.227	78.81
335.455	86.81
335.684	80.81
335.912	95.81
336.14	82.81
336.369	90.81
336.597	80.81
336.825	96.81
337.053	91.81
337.281	100.81
337.51	95.81
337.738	101.81
337.966	79.81
338.194	94.81
338.422	82.81
338.65	79.81
338.878	82.81
339.106	87.81
339.334	83.81
339.562	73.81
339.79	99.81
340.018	94.81
340.246	104.81
340.474	84.81
340.702	90.81
340.93	85.81
341.158	88.81
341.386	115.81
341.614	85.81
341.842	87.81
342.07	91.81
342.298	82.81
342.526	84.81
342.754	92.81
342.981	81.81
343.209	97.81
343.437	104.81
343.665	88.81
343.893	90.81
344.12	86.81
344.348	73.81
344.576	88.81
344.804	96.81
345.031	91.81
345.259	91.81
345.487	96.81
345.714	91.81
345.942	83.81
346.17	77.81
346.397	84.81
346.625	88.81
346.853	85.81
347.08	87.81
347.308	85.81
347.535	99.81
347.763	91.81
347.99	92.81
348.218	91.81
348.445	87.81
348.673	85.81
348.9	88.81
349.128	92.81
349.355	74.81
349.583	76.81
349.81	90.81
350.037	81.81
350.265	106.81
350.492	93.81
350.72	86.81
350.947	87.81
351.174	87.81
351.402	96.81
351.629	77.81
351.856	97.81
352.083	100.81
352.311	92.81
352.538	91.81
352.765	98.81
352.992	87.81
353.22	81.81
353.447	89.81
353.674	88.81
353.901	93.81
354.128	72.81
354.355	82.81
354.583	91.81
354.81	72.81
355.037	93.81
355.264	100.81
355.491	83.81
355.718	100.81
355.945	91.81
356.172	93.81
356.399	90.81
356.626	71.81
356.853	91.81
357.08	101.81
357.307	93.81
357.534	72.81
357.761	85.81
357.988	91.81
358.215	90.81
358.441	75.81
358.668	89.81
358.895	87.81
359.122	96.81
359.349	93.81
359.576	95.81
359.802	89.81
360.029	87.81
360.256	99.81
360.483	87.81
360.709	79.81
360.936	99.81
361.163	98.81
361.39	81.81
361.616	78.81
361.843	83.81
362.07	86.81
362.296	99.81
362.523	88.81
362.749	80.81
362.976	84.81
363.203	109.81
363.429	83.81
363.656	85.81
363.882	85.81
364.109	93.81
364.335	89.81
364.562	91.81
364.788	84.81
365.015	80.81
365.241	85.81
365.468	94.81
365.694	94.81
365.92	94.81
366.147	88.81
366.373	94.81
366.599	87.81
366.826	102.81
367.052	84.81
367.278	98.81
367.505	77.81
367.731	94.81
367.957	74.81
368.184	86.81
368.41	93.81
368.636	86.81
368.862	102.81
369.089	93.81
369.315	70.81
369.541	91.81
369.767	79.81
369.993	89.81
370.219	94.81
370.445	82.81
370.672	83.81
370.898	81.81
371.124	93.81
371.35	94.81
371.576	85.81
371.802	75.81
372.028	92.81
372.254	77.81
372.48	83.81
372.706	86.81
372.932	79.81
373.158	79.81
373.384	92.81
373.61	83.81
373.835	79.81
374.061	95.81
374.287	86.81
374.513	98.81
374.739	90.81
374.965	81.81
375.191	86.81
375.416	89.81
375.642	87.81
375.868	88.81
376.094	93.81
376.319	87.81
376.545	98.81
376.771	94.81
376.997	88.81
377.222	84.81
377.448	95.81
377.674	71.81
377.899	91.81
378.125	82.81
378.35	91.81
378.576	80.81
378.802	74.81
379.027	101.81
379.253	86.81
379.478	80.81
379.704	92.81
379.929	78.81
380.155	86.81
380.38	93.81
380.606	94.81
380.831	84.81
381.057	91.81
381.282	93.81
381.507	94.81
381.733	80.81
381.958	90.81
382.184	84.81
382.409	79.81
382.634	93.81
382.86	80.81
383.085	93.81
383.31	94.81
383.535	82.81
383.761	92.81
383.986	87.81
384.211	76.81
384.436	91.81
384.662	78.81
384.887	82.81
385.112	88.81
385.337	86.81
385.562	93.81
385.787	103.81
386.013	91.81
386.238	93.81
386.463	91.81
386.688	93.81
386.913	95.81
387.138	79.81
387.363	87.81
387.588	98.81
387.813	84.81
388.038	104.81
388.263	106.81
388.488	84.81
388.713	88.81
388.938	86.81
389.163	84.81
389.387	97.81
389.612	96.81
389.837	105.81
390.062	96.81
390.287	82.81
390.512	74.81
390.736	84.81
390.961	92.81
391.186	91.81
391.411	77.81
391.636	88.81
391.86	86.81
392.085	84.81
392.31	83.81
392.534	102.81
392.759	89.81
392.984	94.81
393.208	88.81
393.433	85.81
393.658	98.81
393.882	99.81
394.107	92.81
394.331	96.81
394.556	85.81
394.78	102.81
395.005	95.81
395.229	78.81
395.454	90.81
395.678	91.81
395.903	85.81
396.127	84.81
396.352	92.81
396.576	91.81
396.801	76.81
397.025	85.81
397.249	102.81
397.474	86.81
397.698	95.81
397.922	87.81
398.147	83.81
398.371	95.81
398.595	90.81
398.82	92.81
399.044	87.81
399.268	95.81
399.492	96.81
399.717	95.81
399.941	79.81
400.165	87.81
400.389	93.81
400.613	80.81
400.837	83.81
401.062	87.81
401.286	85.81
401.51	97.81
401.734	91.81
401.958	90.81
402.182	100.81
402.406	95.81
402.63	92.81
402.854	86.81
403.078	107.81
403.302	91.81
403.526	82.81
403.75	94.81
403.974	93.81
404.198	86.81
404.422	111.81
404.645	87.81
404.869	84.81
405.093	93.81
405.317	97.81
405.541	108.81
405.765	99.81
405.988	89.81
406.212	102.81
406.436	98.81
406.66	90.81
406.883	90.81
407.107	92.81
407.331	113.81
407.555	105.81
407.778	90.81
408.002	107.81
408.226	105.81
408.449	86.81
408.673	93.81
408.896	121.81
409.12	102.81
409.344	96.81
409.567	103.81
409.791	94.81
410.014	105.81
410.238	101.81
410.461	86.81
410.685	94.81
410.908	93.81
411.132	104.81
411.355	92.81
411.578	89.81
411.802	93.81
412.025	116.81
412.249	102.81
412.472	95.81
412.695	89.81
412.919	100.81
413.142	91.81
413.365	85.81
413.589	90.81
413.812	89.81
414.035	109.81
414.258	107.81
414.482	84.81
414.705	93.81
414.928	103.81
415.151	96.81
415.374	95.81
415.597	97.81
415.821	91.81
416.044	103.81
416.267	93.81
416.49	86.81
416.713	99.81
416.936	81.81
417.159	99.81
417.382	109.81
417.605	94.81
417.828	103.81
418.051	89.81
418.274	83.81
418.497	88.81
418.72	98.81
418.943	115.81
419.166	103.81
419.389	98.81
419.611	102.81
419.834	93.81
420.057	102.81
420.28	78.81
420.503	87.81
420.726	95.81
420.948	96.81
421.171	89.81
421.394	88.81
421.617	113.81
421.839	96.81
422.062	103.81
422.285	91.81
422.507	91.81
422.73	98.81
422.953	102.81
423.175	88.81
423.398	100.81
423.621	98.81
423.843	105.81
424.066	119.81
424.288	110.81
424.511	93.81
424.733	100.81
424.956	98.81
425.178	104.81
425.401	92.81
425.623	104.81
425.846	105.81
426.068	85.81
426.291	109.81
426.513	106.81
426.735	93.81
426.958	92.81
427.18	105.81
427.402	91.81
427.625	93.81
427.847	96.81
428.069	80.81
428.292	93.81
428.514	91.81
428.736	88.81
428.958	92.81
429.181	94.81
429.403	105.81
429.625	103.81
429.847	101.81
430.069	103.81
430.292	110.81
430.514	91.81
430.736	105.81
430.958	89.81
431.18	93.81
431.402	91.81
431.624	93.81
431.846	95.81
432.068	79.81
432.29	87.81
432.512	94.81
432.734	85.81
432.956	99.81
433.178	110.81
433.4	92.81
433.622	96.81
433.844	101.81
434.066	86.81
434.287	89.81
434.509	87.81
434.731	103.81
434.953	99.81
435.175	102.81
435.397	95.81
435.618	91.81
435.84	93.81
436.062	76.81
436.284	84.81
436.505	99.81
436.727	117.81
436.949	109.81
437.17	109.81
437.392	107.81
437.614	93.81
437.835	81.81
438.057	78.81
438.278	83.81
438.5	91.81
438.721	102.81
438.943	114.81
439.165	102.81
439.386	116.81
439.608	94.81
439.829	114.81
440.05	102.81
440.272	101.81
440.493	111.81
440.715	95.81
440.936	103.81
441.158	103.81
441.379	107.81
441.6	95.81
441.822	104.81
442.043	93.81
442.264	83.81
442.486	79.81
442.707	96.81
442.928	106.81
443.149	90.81
443.371	117.81
443.592	106.81
443.813	92.81
444.034	93.81
444.255	91.81
444.476	87.81
444.698	118.81
444.919	114.81
445.14	170.81
445.361	143.81
445.582	97.81
445.803	108.81
446.024	104.81
446.245	106.81
446.466	106.81
446.687	115.81
446.908	107.81
447.129	98.81
447.35	109.81
447.571	98.81
447.792	92.81
448.013	95.81
448.234	104.81
448.455	103.81
448.675	93.81
448.896	82.81
449.117	100.81
449.338	92.81
449.559	110.81
449.779	104.81
450	109.81
450.221	101.81
450.442	88.81
450.662	99.81
450.883	100.81
451.104	104.81
451.324	87.81
451.545	99.81
451.766	105.81
451.986	94.81
452.207	81.81
452.428	87.81
452.648	99.81
452.869	98.81
453.089	95.81
453.31	87.81
453.53	80.81
453.751	93.81
453.971	91.81
454.192	92.81
454.412	107.81
454.633	87.81
454.853	98.81
455.073	93.81
455.294	98.81
455.514	95.81
455.734	92.81
455.955	116.81
456.175	83.81
456.395	91.81
456.616	87.81
456.836	106.81
457.056	87.81
457.276	100.81
457.497	83.81
457.717	93.81
457.937	96.81
458.157	89.81
458.377	94.81
458.598	93.81
458.818	91.81
459.038	92.81
459.258	81.81
459.478	89.81
459.698	96.81
459.918	95.81
460.138	80.81
460.358	87.81
460.578	76.81
460.798	93.81
461.018	94.81
461.238	91.81
461.458	98.81
461.678	99.81
461.898	87.81
462.118	94.81
462.338	104.81
462.558	102.81
462.777	80.81
462.997	93.81
463.217	92.81
463.437	84.81
463.657	84.81
463.876	94.81
464.096	101.81
464.316	100.81
464.536	102.81
464.755	100.81
464.975	89.81
465.195	100.81
465.414	91.81
465.634	94.81
465.854	103.81
466.073	108.81
466.293	92.81
466.512	96.81
466.732	97.81
466.951	99.81
467.171	98.81
467.391	94.81
467.61	101.81
467.829	107.81
468.049	97.81
468.268	90.81
468.488	104.81
468.707	107.81
468.927	90.81
469.146	97.81
469.365	95.81
469.585	114.81
469.804	107.81
470.023	93.81
470.243	101.81
470.462	92.81
470.681	94.81
470.901	93.81
471.12	101.81
471.339	104.81
471.558	94.81
471.777	106.81
471.997	99.81
472.216	99.81
472.435	96.81
472.654	86.81
472.873	95.81
473.092	91.81
473.311	94.81
473.53	94.81
473.749	104.81
473.968	99.81
474.187	98.81
474.406	105.81
474.625	90.81
474.844	103.81
475.063	107.81
475.282	98.81
475.501	101.81
475.72	102.81
475.939	94.81
476.158	113.81
476.377	103.81
476.596	96.81
476.814	92.81
477.033	87.81
477.252	89.81
477.471	92.81
477.69	93.81
477.908	92.81
478.127	106.81
478.346	97.81
478.564	100.81
478.783	101.81
479.002	109.81
479.22	100.81
479.439	105.81
479.658	99.81
479.876	96.81
480.095	98.81
480.313	102.81
480.532	92.81
480.751	103.81
480.969	93.81
481.188	96.81
481.406	90.81
481.624	78.81
481.843	73.81
482.061	91.81
482.28	100.81
482.498	98.81
482.717	88.81
482.935	88.81
483.153	95.81
483.372	99.81
483.59	100.81
483.808	100.81
484.027	115.81
484.245	96.81
484.463	110.81
484.681	121.81
484.9	100.81
485.118	107.81
485.336	107.81
485.554	100.81
485.772	84.81
485.99	102.81
486.209	92.81
486.427	101.81
486.645	104.81
486.863	100.81
487.081	95.81
487.299	102.81
487.517	115.81
487.735	103.81
487.953	115.81
488.171	122.81
488.389	112.81
488.607	101.81
488.825	101.81
489.043	99.81
489.261	94.81
489.479	108.81
489.696	107.81
489.914	91.81
490.132	109.81
490.35	99.81
490.568	111.81
490.786	114.81
491.003	103.81
491.221	124.81
491.439	104.81
491.657	121.81
491.874	134.81
492.092	123.81
492.31	132.81
492.527	135.81
492.745	112.81
492.963	120.81
493.18	120.81
493.398	119.81
493.615	124.81
493.833	106.81
494.05	105.81
494.268	113.81
494.485	125.81
494.703	110.81
494.92	110.81
495.138	118.81
495.355	111.81
495.573	120.81
495.79	111.81
496.008	118.81
496.225	111.81
496.442	106.81
496.66	115.81
496.877	106.81
497.094	112.81
497.312	100.81
497.529	104.81
497.746	114.81
497.963	92.81
498.181	88.81
498.398	112.81
498.615	85.81
498.832	105.81
499.049	92.81
499.267	107.81
499.484	95.81
499.701	105.81
499.918	100.81
500.135	99.81
500.352	111.81
500.569	84.81
500.786	97.81
501.003	96.81
501.22	101.81
501.437	101.81
501.654	100.81
501.871	92.81
502.088	101.81
502.305	102.81
502.522	103.81
502.739	102.81
502.956	76.81
503.172	75.81
503.389	99.81
503.606	102.81
503.823	97.81
504.04	103.81
504.256	116.81
504.473	102.81
504.69	84.81
504.907	98.81
505.123	107.81
505.34	88.81
505.557	98.81
505.773	97.81
505.99	104.81
506.207	106.81
506.423	93.81
506.64	105.81
506.856	94.81
507.073	95.81
507.289	95.81
507.506	92.81
507.722	94.81
507.939	98.81
508.155	99.81
508.372	103.81
508.588	102.81
508.805	96.81
509.021	93.81
509.238	92.81
509.454	101.81
509.67	91.81
509.887	84.81
510.103	85.81
510.319	83.81
510.536	97.81
510.752	92.81
510.968	87.81
511.184	86.81
511.401	79.81
511.617	80.81
511.833	80.81
512.049	78.81
512.265	87.81
512.481	100.81
512.698	92.81
512.914	95.81
513.13	94.81
513.346	81.81
513.562	83.81
513.778	87.81
513.994	80.81
514.21	88.81
514.426	79.81
514.642	87.81
514.858	81.81
515.074	95.81
515.29	99.81
515.506	97.81
515.721	85.81
515.937	90.81
