Data from Location4.07152019.Energy5.Lamp.07192019.3%Agarose_HRD10591_15-25-46-577.txt Node
Date: Fri Jul 19 15:25:46 EDT 2019
User: cochatt
Spectrometer: HR+D1059
Trigger mode: 1
Integration Time (sec): 1.000000E-1
Scans to average: 1
Electric dark correction enabled: true
Nonlinearity correction enabled: false
Boxcar width: 0
XAxis mode: Wavelengths
Number of Pixels in Spectrum: 2048
>>>>>Begin Spectral Data<<<<<
223.165	-22.12
223.4	-22.12
223.635	-22.12
223.869	-18.12
224.104	-22.12
224.338	-1.12
224.573	-20.12
224.808	-19.12
225.042	-4.12
225.277	-4.12
225.511	-10.12
225.746	1.88
225.98	16.88
226.215	7.88
226.449	14.88
226.683	9.88
226.918	39.88
227.152	29.88
227.387	33.88
227.621	36.88
227.856	49.88
228.09	44.88
228.324	48.88
228.559	61.88
228.793	61.88
229.027	53.88
229.262	64.88
229.496	64.88
229.73	76.88
229.964	71.88
230.199	64.88
230.433	68.88
230.667	80.88
230.901	81.88
231.136	76.88
231.37	66.88
231.604	76.88
231.838	91.88
232.072	77.88
232.306	73.88
232.541	73.88
232.775	77.88
233.009	80.88
233.243	83.88
233.477	94.88
233.711	77.88
233.945	90.88
234.179	71.88
234.413	86.88
234.647	82.88
234.881	90.88
235.115	73.88
235.349	61.88
235.583	81.88
235.817	87.88
236.051	65.88
236.285	85.88
236.519	68.88
236.753	68.88
236.987	87.88
237.221	67.88
237.455	78.88
237.689	73.88
237.922	87.88
238.156	64.88
238.39	68.88
238.624	66.88
238.858	77.88
239.091	65.88
239.325	78.88
239.559	64.88
239.793	66.88
240.027	87.88
240.26	82.88
240.494	83.88
240.728	78.88
240.961	79.88
241.195	74.88
241.429	80.88
241.662	92.88
241.896	74.88
242.13	71.88
242.363	71.88
242.597	65.88
242.83	85.88
243.064	71.88
243.298	71.88
243.531	79.88
243.765	75.88
243.998	70.88
244.232	79.88
244.465	79.88
244.699	69.88
244.932	85.88
245.166	74.88
245.399	89.88
245.633	81.88
245.866	69.88
246.099	67.88
246.333	71.88
246.566	72.88
246.8	71.88
247.033	63.88
247.266	76.88
247.5	81.88
247.733	76.88
247.966	80.88
248.2	84.88
248.433	65.88
248.666	74.88
248.899	70.88
249.133	73.88
249.366	90.88
249.599	72.88
249.832	74.88
250.066	74.88
250.299	78.88
250.532	84.88
250.765	76.88
250.998	75.88
251.231	82.88
251.465	71.88
251.698	76.88
251.931	78.88
252.164	80.88
252.397	70.88
252.63	89.88
252.863	68.88
253.096	70.88
253.329	79.88
253.562	65.88
253.795	81.88
254.028	80.88
254.261	85.88
254.494	65.88
254.727	63.88
254.96	85.88
255.193	67.88
255.426	83.88
255.659	73.88
255.892	78.88
256.124	64.88
256.357	89.88
256.59	79.88
256.823	78.88
257.056	80.88
257.289	85.88
257.521	79.88
257.754	89.88
257.987	72.88
258.22	82.88
258.452	74.88
258.685	78.88
258.918	83.88
259.151	79.88
259.383	68.88
259.616	74.88
259.849	86.88
260.081	83.88
260.314	90.88
260.547	74.88
260.779	78.88
261.012	88.88
261.244	85.88
261.477	86.88
261.71	86.88
261.942	72.88
262.175	81.88
262.407	72.88
262.64	72.88
262.872	83.88
263.105	94.88
263.337	88.88
263.57	81.88
263.802	75.88
264.035	85.88
264.267	84.88
264.499	61.88
264.732	80.88
264.964	85.88
265.197	96.88
265.429	67.88
265.661	97.88
265.894	65.88
266.126	72.88
266.358	69.88
266.591	91.88
266.823	87.88
267.055	80.88
267.287	66.88
267.52	76.88
267.752	80.88
267.984	73.88
268.216	88.88
268.448	78.88
268.681	83.88
268.913	72.88
269.145	73.88
269.377	78.88
269.609	88.88
269.841	74.88
270.073	82.88
270.306	97.88
270.538	84.88
270.77	74.88
271.002	77.88
271.234	74.88
271.466	82.88
271.698	82.88
271.93	77.88
272.162	94.88
272.394	82.88
272.626	80.88
272.858	60.88
273.09	89.88
273.322	81.88
273.553	85.88
273.785	90.88
274.017	78.88
274.249	72.88
274.481	66.88
274.713	80.88
274.945	86.88
275.176	98.88
275.408	82.88
275.64	82.88
275.872	87.88
276.104	76.88
276.335	79.88
276.567	79.88
276.799	80.88
277.031	87.88
277.262	81.88
277.494	86.88
277.726	85.88
277.957	86.88
278.189	81.88
278.421	76.88
278.652	69.88
278.884	76.88
279.115	76.88
279.347	61.88
279.579	76.88
279.81	79.88
280.042	79.88
280.273	93.88
280.505	73.88
280.736	69.88
280.968	84.88
281.199	82.88
281.431	76.88
281.662	72.88
281.894	75.88
282.125	74.88
282.356	86.88
282.588	79.88
282.819	75.88
283.051	80.88
283.282	79.88
283.513	80.88
283.745	81.88
283.976	92.88
284.207	74.88
284.439	76.88
284.67	87.88
284.901	68.88
285.132	68.88
285.364	82.88
285.595	86.88
285.826	77.88
286.057	89.88
286.288	96.88
286.52	82.88
286.751	92.88
286.982	85.88
287.213	80.88
287.444	74.88
287.675	90.88
287.906	89.88
288.138	92.88
288.369	87.88
288.6	90.88
288.831	77.88
289.062	82.88
289.293	78.88
289.524	75.88
289.755	78.88
289.986	81.88
290.217	77.88
290.448	78.88
290.679	92.88
290.91	94.88
291.141	81.88
291.371	77.88
291.602	82.88
291.833	82.88
292.064	86.88
292.295	73.88
292.526	95.88
292.757	92.88
292.987	79.88
293.218	82.88
293.449	81.88
293.68	88.88
293.91	76.88
294.141	87.88
294.372	88.88
294.603	86.88
294.833	94.88
295.064	90.88
295.295	92.88
295.525	68.88
295.756	75.88
295.987	88.88
296.217	86.88
296.448	85.88
296.679	86.88
296.909	85.88
297.14	83.88
297.37	99.88
297.601	81.88
297.831	87.88
298.062	86.88
298.292	76.88
298.523	73.88
298.753	72.88
298.984	80.88
299.214	73.88
299.445	100.88
299.675	71.88
299.905	91.88
300.136	74.88
300.366	80.88
300.597	94.88
300.827	89.88
301.057	86.88
301.288	66.88
301.518	88.88
301.748	84.88
301.979	72.88
302.209	86.88
302.439	71.88
302.669	82.88
302.9	98.88
303.13	93.88
303.36	81.88
303.59	85.88
303.82	83.88
304.051	86.88
304.281	86.88
304.511	105.88
304.741	78.88
304.971	76.88
305.201	71.88
305.431	95.88
305.661	93.88
305.891	85.88
306.121	78.88
306.352	86.88
306.582	90.88
306.812	88.88
307.042	75.88
307.272	77.88
307.502	87.88
307.731	92.88
307.961	76.88
308.191	85.88
308.421	75.88
308.651	90.88
308.881	90.88
309.111	91.88
309.341	80.88
309.571	97.88
309.8	89.88
310.03	81.88
310.26	69.88
310.49	80.88
310.72	80.88
310.949	87.88
311.179	92.88
311.409	95.88
311.639	89.88
311.868	90.88
312.098	93.88
312.328	105.88
312.557	72.88
312.787	93.88
313.017	79.88
313.246	79.88
313.476	89.88
313.706	87.88
313.935	83.88
314.165	83.88
314.394	87.88
314.624	92.88
314.853	87.88
315.083	80.88
315.312	80.88
315.542	85.88
315.771	86.88
316.001	70.88
316.23	88.88
316.46	82.88
316.689	79.88
316.919	85.88
317.148	87.88
317.377	86.88
317.607	86.88
317.836	84.88
318.065	82.88
318.295	81.88
318.524	99.88
318.753	91.88
318.983	92.88
319.212	77.88
319.441	82.88
319.67	83.88
319.9	100.88
320.129	79.88
320.358	87.88
320.587	73.88
320.816	70.88
321.046	100.88
321.275	96.88
321.504	77.88
321.733	78.88
321.962	89.88
322.191	80.88
322.42	69.88
322.649	72.88
322.878	87.88
323.108	68.88
323.337	77.88
323.566	80.88
323.795	84.88
324.024	74.88
324.253	88.88
324.482	80.88
324.71	81.88
324.939	88.88
325.168	87.88
325.397	85.88
325.626	103.88
325.855	91.88
326.084	74.88
326.313	94.88
326.542	90.88
326.77	89.88
326.999	81.88
327.228	85.88
327.457	76.88
327.686	84.88
327.914	88.88
328.143	86.88
328.372	71.88
328.6	78.88
328.829	79.88
329.058	85.88
329.287	86.88
329.515	79.88
329.744	77.88
329.972	88.88
330.201	96.88
330.43	89.88
330.658	74.88
330.887	66.88
331.115	80.88
331.344	74.88
331.572	86.88
331.801	89.88
332.03	77.88
332.258	95.88
332.486	80.88
332.715	74.88
332.943	87.88
333.172	67.88
333.4	88.88
333.629	89.88
333.857	81.88
334.085	69.88
334.314	85.88
334.542	90.88
334.771	59.88
334.999	74.88
335.227	82.88
335.455	84.88
335.684	91.88
335.912	84.88
336.14	90.88
336.369	89.88
336.597	78.88
336.825	83.88
337.053	79.88
337.281	71.88
337.51	69.88
337.738	72.88
337.966	79.88
338.194	91.88
338.422	75.88
338.65	88.88
338.878	84.88
339.106	83.88
339.334	97.88
339.562	77.88
339.79	88.88
340.018	67.88
340.246	77.88
340.474	87.88
340.702	81.88
340.93	93.88
341.158	92.88
341.386	85.88
341.614	94.88
341.842	84.88
342.07	82.88
342.298	71.88
342.526	84.88
342.754	72.88
342.981	84.88
343.209	84.88
343.437	78.88
343.665	73.88
343.893	87.88
344.12	79.88
344.348	82.88
344.576	66.88
344.804	80.88
345.031	76.88
345.259	61.88
345.487	82.88
345.714	93.88
345.942	77.88
346.17	84.88
346.397	88.88
346.625	70.88
346.853	72.88
347.08	75.88
347.308	90.88
347.535	84.88
347.763	82.88
347.99	87.88
348.218	86.88
348.445	66.88
348.673	74.88
348.9	99.88
349.128	85.88
349.355	68.88
349.583	99.88
349.81	79.88
350.037	75.88
350.265	71.88
350.492	89.88
350.72	70.88
350.947	85.88
351.174	79.88
351.402	80.88
351.629	87.88
351.856	62.88
352.083	81.88
352.311	91.88
352.538	80.88
352.765	96.88
352.992	73.88
353.22	74.88
353.447	92.88
353.674	73.88
353.901	82.88
354.128	84.88
354.355	95.88
354.583	77.88
354.81	84.88
355.037	78.88
355.264	85.88
355.491	71.88
355.718	94.88
355.945	80.88
356.172	79.88
356.399	92.88
356.626	78.88
356.853	73.88
357.08	80.88
357.307	93.88
357.534	80.88
357.761	79.88
357.988	79.88
358.215	80.88
358.441	88.88
358.668	90.88
358.895	91.88
359.122	89.88
359.349	70.88
359.576	87.88
359.802	74.88
360.029	70.88
360.256	83.88
360.483	81.88
360.709	92.88
360.936	86.88
361.163	94.88
361.39	78.88
361.616	82.88
361.843	74.88
362.07	86.88
362.296	72.88
362.523	77.88
362.749	74.88
362.976	91.88
363.203	92.88
363.429	88.88
363.656	83.88
363.882	83.88
364.109	92.88
364.335	93.88
364.562	80.88
364.788	81.88
365.015	84.88
365.241	95.88
365.468	78.88
365.694	94.88
365.92	85.88
366.147	85.88
366.373	82.88
366.599	79.88
366.826	84.88
367.052	80.88
367.278	95.88
367.505	86.88
367.731	94.88
367.957	84.88
368.184	88.88
368.41	88.88
368.636	92.88
368.862	64.88
369.089	78.88
369.315	72.88
369.541	81.88
369.767	79.88
369.993	80.88
370.219	77.88
370.445	77.88
370.672	60.88
370.898	74.88
371.124	88.88
371.35	50.88
371.576	79.88
371.802	86.88
372.028	73.88
372.254	89.88
372.48	89.88
372.706	81.88
372.932	83.88
373.158	90.88
373.384	80.88
373.61	82.88
373.835	75.88
374.061	72.88
374.287	73.88
374.513	77.88
374.739	84.88
374.965	79.88
375.191	86.88
375.416	94.88
375.642	83.88
375.868	86.88
376.094	86.88
376.319	72.88
376.545	78.88
376.771	82.88
376.997	89.88
377.222	81.88
377.448	72.88
377.674	105.88
377.899	83.88
378.125	80.88
378.35	94.88
378.576	80.88
378.802	84.88
379.027	73.88
379.253	90.88
379.478	92.88
379.704	85.88
379.929	89.88
380.155	81.88
380.38	84.88
380.606	69.88
380.831	76.88
381.057	99.88
381.282	69.88
381.507	75.88
381.733	88.88
381.958	80.88
382.184	76.88
382.409	76.88
382.634	79.88
382.86	85.88
383.085	88.88
383.31	99.88
383.535	83.88
383.761	103.88
383.986	102.88
384.211	88.88
384.436	84.88
384.662	67.88
384.887	71.88
385.112	85.88
385.337	84.88
385.562	84.88
385.787	78.88
386.013	93.88
386.238	85.88
386.463	91.88
386.688	76.88
386.913	75.88
387.138	76.88
387.363	89.88
387.588	88.88
387.813	84.88
388.038	89.88
388.263	92.88
388.488	84.88
388.713	105.88
388.938	87.88
389.163	79.88
389.387	88.88
389.612	80.88
389.837	92.88
390.062	95.88
390.287	93.88
390.512	89.88
390.736	85.88
390.961	89.88
391.186	105.88
391.411	89.88
391.636	96.88
391.86	96.88
392.085	84.88
392.31	99.88
392.534	95.88
392.759	78.88
392.984	70.88
393.208	81.88
393.433	85.88
393.658	74.88
393.882	99.88
394.107	82.88
394.331	81.88
394.556	82.88
394.78	84.88
395.005	81.88
395.229	89.88
395.454	79.88
395.678	73.88
395.903	74.88
396.127	85.88
396.352	90.88
396.576	84.88
396.801	98.88
397.025	86.88
397.249	88.88
397.474	85.88
397.698	70.88
397.922	89.88
398.147	80.88
398.371	86.88
398.595	82.88
398.82	97.88
399.044	82.88
399.268	84.88
399.492	82.88
399.717	87.88
399.941	88.88
400.165	83.88
400.389	83.88
400.613	88.88
400.837	90.88
401.062	74.88
401.286	79.88
401.51	91.88
401.734	88.88
401.958	87.88
402.182	83.88
402.406	74.88
402.63	80.88
402.854	77.88
403.078	87.88
403.302	80.88
403.526	94.88
403.75	92.88
403.974	87.88
404.198	97.88
404.422	84.88
404.645	63.88
404.869	87.88
405.093	93.88
405.317	82.88
405.541	90.88
405.765	101.88
405.988	100.88
406.212	100.88
406.436	74.88
406.66	88.88
406.883	88.88
407.107	83.88
407.331	87.88
407.555	83.88
407.778	101.88
408.002	84.88
408.226	99.88
408.449	95.88
408.673	75.88
408.896	80.88
409.12	83.88
409.344	98.88
409.567	76.88
409.791	89.88
410.014	87.88
410.238	95.88
410.461	79.88
410.685	86.88
410.908	79.88
411.132	88.88
411.355	71.88
411.578	81.88
411.802	77.88
412.025	112.88
412.249	84.88
412.472	73.88
412.695	89.88
412.919	94.88
413.142	85.88
413.365	93.88
413.589	96.88
413.812	90.88
414.035	85.88
414.258	94.88
414.482	93.88
414.705	93.88
414.928	82.88
415.151	85.88
415.374	114.88
415.597	100.88
415.821	85.88
416.044	80.88
416.267	83.88
416.49	88.88
416.713	95.88
416.936	92.88
417.159	96.88
417.382	88.88
417.605	102.88
417.828	95.88
418.051	96.88
418.274	90.88
418.497	91.88
418.72	86.88
418.943	77.88
419.166	87.88
419.389	94.88
419.611	92.88
419.834	96.88
420.057	86.88
420.28	83.88
420.503	96.88
420.726	90.88
420.948	104.88
421.171	103.88
421.394	101.88
421.617	89.88
421.839	92.88
422.062	95.88
422.285	87.88
422.507	101.88
422.73	93.88
422.953	94.88
423.175	89.88
423.398	89.88
423.621	81.88
423.843	81.88
424.066	92.88
424.288	87.88
424.511	97.88
424.733	87.88
424.956	105.88
425.178	81.88
425.401	83.88
425.623	96.88
425.846	84.88
426.068	79.88
426.291	100.88
426.513	84.88
426.735	74.88
426.958	96.88
427.18	94.88
427.402	91.88
427.625	112.88
427.847	96.88
428.069	98.88
428.292	98.88
428.514	108.88
428.736	98.88
428.958	86.88
429.181	93.88
429.403	90.88
429.625	91.88
429.847	92.88
430.069	98.88
430.292	86.88
430.514	83.88
430.736	74.88
430.958	95.88
431.18	84.88
431.402	96.88
431.624	88.88
431.846	77.88
432.068	97.88
432.29	94.88
432.512	78.88
432.734	98.88
432.956	87.88
433.178	96.88
433.4	87.88
433.622	100.88
433.844	103.88
434.066	84.88
434.287	89.88
434.509	76.88
434.731	94.88
434.953	89.88
435.175	105.88
435.397	99.88
435.618	89.88
435.84	87.88
436.062	98.88
436.284	87.88
436.505	86.88
436.727	96.88
436.949	81.88
437.17	95.88
437.392	88.88
437.614	85.88
437.835	82.88
438.057	88.88
438.278	106.88
438.5	87.88
438.721	92.88
438.943	84.88
439.165	90.88
439.386	99.88
439.608	96.88
439.829	93.88
440.05	98.88
440.272	92.88
440.493	109.88
440.715	86.88
440.936	93.88
441.158	98.88
441.379	98.88
441.6	90.88
441.822	97.88
442.043	88.88
442.264	92.88
442.486	112.88
442.707	110.88
442.928	101.88
443.149	89.88
443.371	101.88
443.592	105.88
443.813	86.88
444.034	86.88
444.255	97.88
444.476	101.88
444.698	106.88
444.919	107.88
445.14	212.88
445.361	165.88
445.582	97.88
445.803	86.88
446.024	98.88
446.245	92.88
446.466	103.88
446.687	102.88
446.908	98.88
447.129	92.88
447.35	94.88
447.571	99.88
447.792	102.88
448.013	92.88
448.234	98.88
448.455	81.88
448.675	99.88
448.896	92.88
449.117	81.88
449.338	93.88
449.559	90.88
449.779	102.88
450	97.88
450.221	96.88
450.442	105.88
450.662	93.88
450.883	90.88
451.104	84.88
451.324	111.88
451.545	99.88
451.766	92.88
451.986	86.88
452.207	90.88
452.428	76.88
452.648	98.88
452.869	86.88
453.089	95.88
453.31	90.88
453.53	83.88
453.751	90.88
453.971	95.88
454.192	80.88
454.412	87.88
454.633	93.88
454.853	91.88
455.073	99.88
455.294	82.88
455.514	82.88
455.734	87.88
455.955	75.88
456.175	86.88
456.395	107.88
456.616	99.88
456.836	96.88
457.056	84.88
457.276	72.88
457.497	80.88
457.717	80.88
457.937	77.88
458.157	97.88
458.377	86.88
458.598	89.88
458.818	83.88
459.038	82.88
459.258	87.88
459.478	68.88
459.698	74.88
459.918	89.88
460.138	83.88
460.358	89.88
460.578	88.88
460.798	88.88
461.018	79.88
461.238	85.88
461.458	98.88
461.678	85.88
461.898	95.88
462.118	99.88
462.338	88.88
462.558	90.88
462.777	89.88
462.997	91.88
463.217	96.88
463.437	82.88
463.657	90.88
463.876	86.88
464.096	74.88
464.316	86.88
464.536	86.88
464.755	84.88
464.975	97.88
465.195	95.88
465.414	96.88
465.634	94.88
465.854	85.88
466.073	76.88
466.293	107.88
466.512	92.88
466.732	88.88
466.951	85.88
467.171	108.88
467.391	96.88
467.61	93.88
467.829	94.88
468.049	95.88
468.268	96.88
468.488	87.88
468.707	96.88
468.927	101.88
469.146	109.88
469.365	108.88
469.585	104.88
469.804	89.88
470.023	87.88
470.243	99.88
470.462	99.88
470.681	92.88
470.901	86.88
471.12	89.88
471.339	90.88
471.558	95.88
471.777	91.88
471.997	98.88
472.216	98.88
472.435	91.88
472.654	82.88
472.873	82.88
473.092	84.88
473.311	80.88
473.53	90.88
473.749	94.88
473.968	83.88
474.187	87.88
474.406	96.88
474.625	94.88
474.844	97.88
475.063	100.88
475.282	82.88
475.501	86.88
475.72	78.88
475.939	90.88
476.158	82.88
476.377	104.88
476.596	97.88
476.814	77.88
477.033	93.88
477.252	89.88
477.471	99.88
477.69	88.88
477.908	103.88
478.127	102.88
478.346	94.88
478.564	94.88
478.783	86.88
479.002	100.88
479.22	93.88
479.439	96.88
479.658	92.88
479.876	88.88
480.095	90.88
480.313	82.88
480.532	97.88
480.751	84.88
480.969	88.88
481.188	73.88
481.406	93.88
481.624	77.88
481.843	76.88
482.061	88.88
482.28	99.88
482.498	88.88
482.717	91.88
482.935	88.88
483.153	117.88
483.372	89.88
483.59	96.88
483.808	99.88
484.027	101.88
484.245	78.88
484.463	107.88
484.681	98.88
484.9	88.88
485.118	89.88
485.336	94.88
485.554	93.88
485.772	94.88
485.99	88.88
486.209	100.88
486.427	97.88
486.645	84.88
486.863	102.88
487.081	112.88
487.299	89.88
487.517	96.88
487.735	90.88
487.953	109.88
488.171	108.88
488.389	101.88
488.607	109.88
488.825	97.88
489.043	98.88
489.261	80.88
489.479	84.88
489.696	89.88
489.914	96.88
490.132	87.88
490.35	81.88
490.568	104.88
490.786	110.88
491.003	106.88
491.221	103.88
491.439	109.88
491.657	101.88
491.874	108.88
492.092	128.88
492.31	118.88
492.527	120.88
492.745	122.88
492.963	103.88
493.18	112.88
493.398	116.88
493.615	106.88
493.833	113.88
494.05	106.88
494.268	102.88
494.485	103.88
494.703	101.88
494.92	100.88
495.138	99.88
495.355	110.88
495.573	116.88
495.79	107.88
496.008	103.88
496.225	98.88
496.442	106.88
496.66	117.88
496.877	93.88
497.094	104.88
497.312	97.88
497.529	118.88
497.746	96.88
497.963	92.88
498.181	98.88
498.398	88.88
498.615	90.88
498.832	92.88
499.049	86.88
499.267	103.88
499.484	94.88
499.701	95.88
499.918	90.88
500.135	97.88
500.352	87.88
500.569	96.88
500.786	103.88
501.003	100.88
501.22	100.88
501.437	99.88
501.654	88.88
501.871	96.88
502.088	97.88
502.305	98.88
502.522	115.88
502.739	93.88
502.956	82.88
503.172	90.88
503.389	98.88
503.606	85.88
503.823	81.88
504.04	91.88
504.256	95.88
504.473	95.88
504.69	105.88
504.907	101.88
505.123	101.88
505.34	96.88
505.557	99.88
505.773	101.88
505.99	99.88
506.207	86.88
506.423	85.88
506.64	77.88
506.856	84.88
507.073	97.88
507.289	93.88
507.506	94.88
507.722	93.88
507.939	75.88
508.155	86.88
508.372	100.88
508.588	88.88
508.805	105.88
509.021	91.88
509.238	67.88
509.454	90.88
509.67	83.88
509.887	80.88
510.103	79.88
510.319	82.88
510.536	100.88
510.752	93.88
510.968	70.88
511.184	71.88
511.401	90.88
511.617	69.88
511.833	87.88
512.049	84.88
512.265	85.88
512.481	84.88
512.698	90.88
512.914	88.88
513.13	87.88
513.346	89.88
513.562	88.88
513.778	88.88
513.994	82.88
514.21	81.88
514.426	75.88
514.642	81.88
514.858	82.88
515.074	76.88
515.29	83.88
515.506	82.88
515.721	71.88
515.937	81.88
516.153	72.88
516.369	86.88
516.585	86.88
516.801	87.88
517.016	90.88
517.232	77.88
517.448	81.88
517.664	77.88
517.879	82.88
