Data from Location4.07152019.Energy5.Lamp.07192019.3%Agarose_HRD10591_15-24-39-577.txt Node
Date: Fri Jul 19 15:24:39 EDT 2019
User: cochatt
Spectrometer: HR+D1059
Trigger mode: 1
Integration Time (sec): 1.000000E-1
Scans to average: 1
Electric dark correction enabled: true
Nonlinearity correction enabled: false
Boxcar width: 0
XAxis mode: Wavelengths
Number of Pixels in Spectrum: 2048
>>>>>Begin Spectral Data<<<<<
223.165	-8.31
223.4	-8.31
223.635	-8.31
223.869	-28.31
224.104	-32.31
224.338	-28.31
224.573	-13.31
224.808	-23.31
225.042	-3.31
225.277	4.69
225.511	-8.31
225.746	9.69
225.98	-2.31
226.215	15.69
226.449	26.69
226.683	25.69
226.918	24.69
227.152	40.69
227.387	40.69
227.621	32.69
227.856	46.69
228.09	50.69
228.324	53.69
228.559	53.69
228.793	60.69
229.027	45.69
229.262	62.69
229.496	66.69
229.73	69.69
229.964	78.69
230.199	71.69
230.433	76.69
230.667	91.69
230.901	77.69
231.136	88.69
231.37	72.69
231.604	80.69
231.838	81.69
232.072	85.69
232.306	76.69
232.541	90.69
232.775	71.69
233.009	79.69
233.243	74.69
233.477	84.69
233.711	90.69
233.945	86.69
234.179	69.69
234.413	90.69
234.647	86.69
234.881	67.69
235.115	86.69
235.349	84.69
235.583	91.69
235.817	82.69
236.051	82.69
236.285	77.69
236.519	82.69
236.753	73.69
236.987	75.69
237.221	78.69
237.455	68.69
237.689	71.69
237.922	85.69
238.156	80.69
238.39	75.69
238.624	85.69
238.858	69.69
239.091	79.69
239.325	70.69
239.559	79.69
239.793	77.69
240.027	72.69
240.26	79.69
240.494	78.69
240.728	78.69
240.961	85.69
241.195	80.69
241.429	90.69
241.662	65.69
241.896	74.69
242.13	61.69
242.363	76.69
242.597	86.69
242.83	95.69
243.064	71.69
243.298	86.69
243.531	87.69
243.765	91.69
243.998	94.69
244.232	88.69
244.465	75.69
244.699	78.69
244.932	92.69
245.166	81.69
245.399	95.69
245.633	82.69
245.866	88.69
246.099	82.69
246.333	90.69
246.566	93.69
246.8	74.69
247.033	79.69
247.266	78.69
247.5	67.69
247.733	96.69
247.966	98.69
248.2	91.69
248.433	85.69
248.666	82.69
248.899	65.69
249.133	77.69
249.366	89.69
249.599	90.69
249.832	90.69
250.066	92.69
250.299	85.69
250.532	78.69
250.765	77.69
250.998	64.69
251.231	87.69
251.465	77.69
251.698	88.69
251.931	85.69
252.164	85.69
252.397	83.69
252.63	84.69
252.863	70.69
253.096	82.69
253.329	77.69
253.562	91.69
253.795	83.69
254.028	91.69
254.261	75.69
254.494	81.69
254.727	87.69
254.96	88.69
255.193	98.69
255.426	85.69
255.659	87.69
255.892	82.69
256.124	89.69
256.357	88.69
256.59	85.69
256.823	77.69
257.056	81.69
257.289	82.69
257.521	81.69
257.754	83.69
257.987	78.69
258.22	80.69
258.452	82.69
258.685	82.69
258.918	76.69
259.151	89.69
259.383	91.69
259.616	76.69
259.849	75.69
260.081	78.69
260.314	77.69
260.547	75.69
260.779	88.69
261.012	83.69
261.244	74.69
261.477	91.69
261.71	93.69
261.942	81.69
262.175	91.69
262.407	83.69
262.64	86.69
262.872	85.69
263.105	83.69
263.337	73.69
263.57	73.69
263.802	83.69
264.035	91.69
264.267	84.69
264.499	67.69
264.732	71.69
264.964	79.69
265.197	74.69
265.429	80.69
265.661	79.69
265.894	68.69
266.126	92.69
266.358	74.69
266.591	88.69
266.823	99.69
267.055	86.69
267.287	91.69
267.52	80.69
267.752	87.69
267.984	81.69
268.216	90.69
268.448	82.69
268.681	69.69
268.913	81.69
269.145	86.69
269.377	80.69
269.609	72.69
269.841	85.69
270.073	89.69
270.306	77.69
270.538	90.69
270.77	93.69
271.002	73.69
271.234	89.69
271.466	90.69
271.698	83.69
271.93	84.69
272.162	79.69
272.394	86.69
272.626	78.69
272.858	85.69
273.09	88.69
273.322	82.69
273.553	88.69
273.785	88.69
274.017	105.69
274.249	91.69
274.481	84.69
274.713	89.69
274.945	88.69
275.176	90.69
275.408	89.69
275.64	82.69
275.872	87.69
276.104	90.69
276.335	97.69
276.567	107.69
276.799	101.69
277.031	84.69
277.262	87.69
277.494	71.69
277.726	72.69
277.957	96.69
278.189	88.69
278.421	91.69
278.652	82.69
278.884	93.69
279.115	94.69
279.347	93.69
279.579	89.69
279.81	88.69
280.042	93.69
280.273	82.69
280.505	90.69
280.736	83.69
280.968	79.69
281.199	93.69
281.431	102.69
281.662	92.69
281.894	87.69
282.125	92.69
282.356	93.69
282.588	96.69
282.819	81.69
283.051	74.69
283.282	82.69
283.513	100.69
283.745	78.69
283.976	79.69
284.207	88.69
284.439	88.69
284.67	100.69
284.901	98.69
285.132	89.69
285.364	102.69
285.595	89.69
285.826	94.69
286.057	83.69
286.288	87.69
286.52	81.69
286.751	85.69
286.982	86.69
287.213	83.69
287.444	90.69
287.675	89.69
287.906	92.69
288.138	94.69
288.369	88.69
288.6	82.69
288.831	98.69
289.062	86.69
289.293	86.69
289.524	81.69
289.755	97.69
289.986	77.69
290.217	92.69
290.448	89.69
290.679	72.69
290.91	83.69
291.141	89.69
291.371	100.69
291.602	80.69
291.833	90.69
292.064	76.69
292.295	76.69
292.526	88.69
292.757	92.69
292.987	99.69
293.218	92.69
293.449	84.69
293.68	89.69
293.91	86.69
294.141	71.69
294.372	84.69
294.603	91.69
294.833	73.69
295.064	83.69
295.295	83.69
295.525	79.69
295.756	83.69
295.987	88.69
296.217	94.69
296.448	98.69
296.679	97.69
296.909	78.69
297.14	86.69
297.37	84.69
297.601	87.69
297.831	101.69
298.062	92.69
298.292	82.69
298.523	87.69
298.753	69.69
298.984	89.69
299.214	83.69
299.445	85.69
299.675	86.69
299.905	71.69
300.136	86.69
300.366	86.69
300.597	81.69
300.827	78.69
301.057	72.69
301.288	86.69
301.518	80.69
301.748	90.69
301.979	85.69
302.209	77.69
302.439	73.69
302.669	97.69
302.9	82.69
303.13	77.69
303.36	88.69
303.59	93.69
303.82	86.69
304.051	97.69
304.281	78.69
304.511	89.69
304.741	77.69
304.971	91.69
305.201	85.69
305.431	90.69
305.661	91.69
305.891	76.69
306.121	88.69
306.352	93.69
306.582	82.69
306.812	92.69
307.042	98.69
307.272	74.69
307.502	74.69
307.731	93.69
307.961	90.69
308.191	78.69
308.421	108.69
308.651	86.69
308.881	88.69
309.111	90.69
309.341	84.69
309.571	74.69
309.8	93.69
310.03	90.69
310.26	80.69
310.49	87.69
310.72	100.69
310.949	103.69
311.179	87.69
311.409	81.69
311.639	93.69
311.868	88.69
312.098	84.69
312.328	96.69
312.557	82.69
312.787	80.69
313.017	83.69
313.246	89.69
313.476	90.69
313.706	93.69
313.935	88.69
314.165	88.69
314.394	89.69
314.624	85.69
314.853	88.69
315.083	76.69
315.312	90.69
315.542	88.69
315.771	84.69
316.001	89.69
316.23	86.69
316.46	89.69
316.689	74.69
316.919	91.69
317.148	101.69
317.377	85.69
317.607	72.69
317.836	80.69
318.065	88.69
318.295	81.69
318.524	85.69
318.753	84.69
318.983	96.69
319.212	89.69
319.441	94.69
319.67	94.69
319.9	75.69
320.129	74.69
320.358	84.69
320.587	96.69
320.816	85.69
321.046	84.69
321.275	85.69
321.504	90.69
321.733	90.69
321.962	80.69
322.191	78.69
322.42	80.69
322.649	88.69
322.878	79.69
323.108	89.69
323.337	79.69
323.566	100.69
323.795	89.69
324.024	93.69
324.253	88.69
324.482	74.69
324.71	89.69
324.939	97.69
325.168	84.69
325.397	96.69
325.626	84.69
325.855	89.69
326.084	82.69
326.313	78.69
326.542	81.69
326.77	84.69
326.999	88.69
327.228	82.69
327.457	85.69
327.686	93.69
327.914	86.69
328.143	95.69
328.372	74.69
328.6	78.69
328.829	96.69
329.058	90.69
329.287	81.69
329.515	85.69
329.744	108.69
329.972	92.69
330.201	95.69
330.43	78.69
330.658	68.69
330.887	83.69
331.115	81.69
331.344	98.69
331.572	77.69
331.801	78.69
332.03	82.69
332.258	83.69
332.486	70.69
332.715	83.69
332.943	100.69
333.172	78.69
333.4	91.69
333.629	86.69
333.857	92.69
334.085	93.69
334.314	86.69
334.542	76.69
334.771	83.69
334.999	76.69
335.227	81.69
335.455	88.69
335.684	93.69
335.912	79.69
336.14	86.69
336.369	104.69
336.597	74.69
336.825	81.69
337.053	91.69
337.281	94.69
337.51	86.69
337.738	77.69
337.966	87.69
338.194	90.69
338.422	83.69
338.65	93.69
338.878	103.69
339.106	86.69
339.334	92.69
339.562	88.69
339.79	76.69
340.018	73.69
340.246	80.69
340.474	80.69
340.702	92.69
340.93	90.69
341.158	92.69
341.386	82.69
341.614	98.69
341.842	85.69
342.07	97.69
342.298	68.69
342.526	80.69
342.754	84.69
342.981	91.69
343.209	92.69
343.437	93.69
343.665	88.69
343.893	83.69
344.12	80.69
344.348	74.69
344.576	74.69
344.804	85.69
345.031	85.69
345.259	84.69
345.487	100.69
345.714	83.69
345.942	83.69
346.17	93.69
346.397	90.69
346.625	89.69
346.853	92.69
347.08	83.69
347.308	84.69
347.535	91.69
347.763	91.69
347.99	93.69
348.218	86.69
348.445	86.69
348.673	84.69
348.9	68.69
349.128	82.69
349.355	64.69
349.583	78.69
349.81	75.69
350.037	83.69
350.265	90.69
350.492	95.69
350.72	90.69
350.947	92.69
351.174	89.69
351.402	74.69
351.629	81.69
351.856	83.69
352.083	83.69
352.311	85.69
352.538	77.69
352.765	83.69
352.992	90.69
353.22	82.69
353.447	77.69
353.674	92.69
353.901	93.69
354.128	84.69
354.355	94.69
354.583	100.69
354.81	81.69
355.037	83.69
355.264	89.69
355.491	91.69
355.718	94.69
355.945	84.69
356.172	89.69
356.399	97.69
356.626	86.69
356.853	90.69
357.08	87.69
357.307	86.69
357.534	96.69
357.761	85.69
357.988	76.69
358.215	79.69
358.441	85.69
358.668	97.69
358.895	106.69
359.122	90.69
359.349	76.69
359.576	88.69
359.802	77.69
360.029	100.69
360.256	92.69
360.483	82.69
360.709	85.69
360.936	91.69
361.163	81.69
361.39	91.69
361.616	95.69
361.843	68.69
362.07	85.69
362.296	86.69
362.523	70.69
362.749	99.69
362.976	92.69
363.203	87.69
363.429	104.69
363.656	93.69
363.882	80.69
364.109	102.69
364.335	98.69
364.562	76.69
364.788	69.69
365.015	76.69
365.241	94.69
365.468	84.69
365.694	84.69
365.92	90.69
366.147	90.69
366.373	82.69
366.599	85.69
366.826	93.69
367.052	75.69
367.278	88.69
367.505	79.69
367.731	78.69
367.957	106.69
368.184	101.69
368.41	91.69
368.636	82.69
368.862	84.69
369.089	75.69
369.315	93.69
369.541	81.69
369.767	84.69
369.993	89.69
370.219	78.69
370.445	89.69
370.672	86.69
370.898	88.69
371.124	103.69
371.35	104.69
371.576	77.69
371.802	91.69
372.028	89.69
372.254	73.69
372.48	87.69
372.706	78.69
372.932	90.69
373.158	71.69
373.384	88.69
373.61	77.69
373.835	74.69
374.061	76.69
374.287	86.69
374.513	86.69
374.739	75.69
374.965	88.69
375.191	91.69
375.416	84.69
375.642	83.69
375.868	85.69
376.094	85.69
376.319	84.69
376.545	79.69
376.771	97.69
376.997	77.69
377.222	88.69
377.448	84.69
377.674	95.69
377.899	94.69
378.125	89.69
378.35	92.69
378.576	87.69
378.802	77.69
379.027	79.69
379.253	92.69
379.478	95.69
379.704	92.69
379.929	79.69
380.155	76.69
380.38	86.69
380.606	85.69
380.831	110.69
381.057	102.69
381.282	89.69
381.507	93.69
381.733	89.69
381.958	88.69
382.184	101.69
382.409	94.69
382.634	91.69
382.86	90.69
383.085	99.69
383.31	82.69
383.535	90.69
383.761	98.69
383.986	100.69
384.211	100.69
384.436	79.69
384.662	84.69
384.887	95.69
385.112	96.69
385.337	92.69
385.562	91.69
385.787	89.69
386.013	85.69
386.238	96.69
386.463	99.69
386.688	97.69
386.913	94.69
387.138	83.69
387.363	87.69
387.588	90.69
387.813	88.69
388.038	65.69
388.263	82.69
388.488	84.69
388.713	80.69
388.938	91.69
389.163	78.69
389.387	97.69
389.612	76.69
389.837	93.69
390.062	77.69
390.287	90.69
390.512	97.69
390.736	88.69
390.961	81.69
391.186	91.69
391.411	96.69
391.636	94.69
391.86	85.69
392.085	83.69
392.31	100.69
392.534	88.69
392.759	79.69
392.984	92.69
393.208	96.69
393.433	90.69
393.658	85.69
393.882	82.69
394.107	91.69
394.331	87.69
394.556	93.69
394.78	92.69
395.005	91.69
395.229	92.69
395.454	95.69
395.678	93.69
395.903	84.69
396.127	91.69
396.352	89.69
396.576	83.69
396.801	92.69
397.025	86.69
397.249	81.69
397.474	105.69
397.698	87.69
397.922	99.69
398.147	84.69
398.371	102.69
398.595	92.69
398.82	101.69
399.044	92.69
399.268	89.69
399.492	81.69
399.717	104.69
399.941	94.69
400.165	93.69
400.389	91.69
400.613	89.69
400.837	91.69
401.062	90.69
401.286	88.69
401.51	99.69
401.734	102.69
401.958	91.69
402.182	82.69
402.406	90.69
402.63	78.69
402.854	93.69
403.078	96.69
403.302	73.69
403.526	98.69
403.75	99.69
403.974	86.69
404.198	80.69
404.422	92.69
404.645	77.69
404.869	85.69
405.093	88.69
405.317	78.69
405.541	93.69
405.765	98.69
405.988	86.69
406.212	85.69
406.436	87.69
406.66	101.69
406.883	79.69
407.107	84.69
407.331	94.69
407.555	96.69
407.778	97.69
408.002	89.69
408.226	101.69
408.449	94.69
408.673	104.69
408.896	110.69
409.12	94.69
409.344	94.69
409.567	102.69
409.791	74.69
410.014	91.69
410.238	88.69
410.461	88.69
410.685	100.69
410.908	94.69
411.132	91.69
411.355	103.69
411.578	93.69
411.802	86.69
412.025	86.69
412.249	108.69
412.472	97.69
412.695	94.69
412.919	89.69
413.142	117.69
413.365	91.69
413.589	91.69
413.812	92.69
414.035	120.69
414.258	91.69
414.482	91.69
414.705	104.69
414.928	108.69
415.151	97.69
415.374	94.69
415.597	95.69
415.821	94.69
416.044	88.69
416.267	90.69
416.49	96.69
416.713	81.69
416.936	97.69
417.159	70.69
417.382	87.69
417.605	90.69
417.828	94.69
418.051	88.69
418.274	102.69
418.497	103.69
418.72	98.69
418.943	93.69
419.166	99.69
419.389	99.69
419.611	103.69
419.834	84.69
420.057	86.69
420.28	88.69
420.503	88.69
420.726	90.69
420.948	92.69
421.171	119.69
421.394	109.69
421.617	94.69
421.839	100.69
422.062	93.69
422.285	93.69
422.507	105.69
422.73	99.69
422.953	97.69
423.175	77.69
423.398	104.69
423.621	79.69
423.843	90.69
424.066	96.69
424.288	94.69
424.511	97.69
424.733	105.69
424.956	110.69
425.178	99.69
425.401	103.69
425.623	95.69
425.846	104.69
426.068	89.69
426.291	108.69
426.513	103.69
426.735	95.69
426.958	85.69
427.18	101.69
427.402	106.69
427.625	100.69
427.847	94.69
428.069	88.69
428.292	97.69
428.514	92.69
428.736	89.69
428.958	84.69
429.181	92.69
429.403	90.69
429.625	96.69
429.847	106.69
430.069	96.69
430.292	99.69
430.514	101.69
430.736	94.69
430.958	112.69
431.18	101.69
431.402	95.69
431.624	91.69
431.846	83.69
432.068	96.69
432.29	85.69
432.512	102.69
432.734	96.69
432.956	83.69
433.178	97.69
433.4	97.69
433.622	90.69
433.844	92.69
434.066	92.69
434.287	81.69
434.509	78.69
434.731	87.69
434.953	92.69
435.175	109.69
435.397	103.69
435.618	95.69
435.84	85.69
436.062	86.69
436.284	85.69
436.505	88.69
436.727	78.69
436.949	84.69
437.17	94.69
437.392	92.69
437.614	92.69
437.835	88.69
438.057	87.69
438.278	92.69
438.5	85.69
438.721	96.69
438.943	108.69
439.165	103.69
439.386	112.69
439.608	104.69
439.829	113.69
440.05	104.69
440.272	102.69
440.493	108.69
440.715	97.69
440.936	91.69
441.158	114.69
441.379	110.69
441.6	116.69
441.822	104.69
442.043	99.69
442.264	93.69
442.486	108.69
442.707	104.69
442.928	98.69
443.149	109.69
443.371	103.69
443.592	97.69
443.813	82.69
444.034	99.69
444.255	86.69
444.476	101.69
444.698	91.69
444.919	95.69
445.14	234.69
445.361	141.69
445.582	104.69
445.803	107.69
446.024	113.69
446.245	106.69
446.466	105.69
446.687	98.69
446.908	112.69
447.129	97.69
447.35	103.69
447.571	106.69
447.792	88.69
448.013	93.69
448.234	106.69
448.455	94.69
448.675	96.69
448.896	100.69
449.117	102.69
449.338	89.69
449.559	97.69
449.779	92.69
450	96.69
450.221	96.69
450.442	84.69
450.662	85.69
450.883	122.69
451.104	99.69
451.324	98.69
451.545	89.69
451.766	88.69
451.986	104.69
452.207	98.69
452.428	105.69
452.648	86.69
452.869	96.69
453.089	85.69
453.31	101.69
453.53	99.69
453.751	101.69
453.971	86.69
454.192	98.69
454.412	97.69
454.633	84.69
454.853	97.69
455.073	94.69
455.294	94.69
455.514	112.69
455.734	97.69
455.955	94.69
456.175	104.69
456.395	93.69
456.616	97.69
456.836	99.69
457.056	94.69
457.276	82.69
457.497	88.69
457.717	93.69
457.937	110.69
458.157	83.69
458.377	78.69
458.598	97.69
458.818	102.69
459.038	80.69
459.258	82.69
459.478	84.69
459.698	81.69
459.918	96.69
460.138	93.69
460.358	94.69
460.578	104.69
460.798	96.69
461.018	83.69
461.238	89.69
461.458	95.69
461.678	97.69
461.898	91.69
462.118	94.69
462.338	93.69
462.558	84.69
462.777	89.69
462.997	94.69
463.217	97.69
463.437	89.69
463.657	83.69
463.876	89.69
464.096	80.69
464.316	86.69
464.536	81.69
464.755	90.69
464.975	90.69
465.195	109.69
465.414	88.69
465.634	92.69
465.854	93.69
466.073	95.69
466.293	100.69
466.512	93.69
466.732	100.69
466.951	96.69
467.171	99.69
467.391	95.69
467.61	101.69
467.829	81.69
468.049	107.69
468.268	84.69
468.488	94.69
468.707	105.69
468.927	106.69
469.146	98.69
469.365	104.69
469.585	93.69
469.804	101.69
470.023	99.69
470.243	93.69
470.462	92.69
470.681	112.69
470.901	109.69
471.12	106.69
471.339	89.69
471.558	97.69
471.777	102.69
471.997	107.69
472.216	100.69
472.435	104.69
472.654	96.69
472.873	106.69
473.092	87.69
473.311	104.69
473.53	89.69
473.749	108.69
473.968	92.69
474.187	107.69
474.406	100.69
474.625	82.69
474.844	84.69
475.063	87.69
475.282	112.69
475.501	98.69
475.72	101.69
475.939	102.69
476.158	124.69
476.377	108.69
476.596	94.69
476.814	101.69
477.033	93.69
477.252	110.69
477.471	91.69
477.69	88.69
477.908	91.69
478.127	88.69
478.346	85.69
478.564	98.69
478.783	110.69
479.002	98.69
479.22	109.69
479.439	97.69
479.658	82.69
479.876	93.69
480.095	89.69
480.313	82.69
480.532	100.69
480.751	93.69
480.969	92.69
481.188	85.69
481.406	90.69
481.624	74.69
481.843	91.69
482.061	86.69
482.28	89.69
482.498	98.69
482.717	97.69
482.935	75.69
483.153	106.69
483.372	98.69
483.59	95.69
483.808	90.69
484.027	101.69
484.245	112.69
484.463	90.69
484.681	108.69
484.9	86.69
485.118	96.69
485.336	93.69
485.554	89.69
485.772	101.69
485.99	92.69
486.209	92.69
486.427	94.69
486.645	85.69
486.863	86.69
487.081	105.69
487.299	100.69
487.517	90.69
487.735	94.69
487.953	108.69
488.171	116.69
488.389	109.69
488.607	104.69
488.825	110.69
489.043	91.69
489.261	96.69
489.479	100.69
489.696	96.69
489.914	86.69
490.132	100.69
490.35	108.69
490.568	113.69
490.786	102.69
491.003	113.69
491.221	106.69
491.439	96.69
491.657	109.69
491.874	110.69
492.092	125.69
492.31	139.69
492.527	145.69
492.745	112.69
492.963	121.69
493.18	122.69
493.398	107.69
493.615	124.69
493.833	114.69
494.05	124.69
494.268	105.69
494.485	116.69
494.703	94.69
494.92	95.69
495.138	116.69
495.355	107.69
495.573	117.69
495.79	117.69
496.008	94.69
496.225	112.69
496.442	99.69
496.66	115.69
496.877	114.69
497.094	90.69
497.312	112.69
497.529	103.69
497.746	107.69
497.963	96.69
498.181	92.69
498.398	92.69
498.615	95.69
498.832	84.69
499.049	93.69
499.267	93.69
499.484	112.69
499.701	103.69
499.918	104.69
500.135	105.69
500.352	101.69
500.569	105.69
500.786	88.69
501.003	96.69
501.22	89.69
501.437	92.69
501.654	96.69
501.871	99.69
502.088	82.69
502.305	92.69
502.522	89.69
502.739	97.69
502.956	97.69
503.172	91.69
503.389	97.69
503.606	96.69
503.823	89.69
504.04	100.69
504.256	104.69
504.473	82.69
504.69	74.69
504.907	96.69
505.123	98.69
505.34	83.69
505.557	96.69
505.773	89.69
505.99	90.69
506.207	94.69
506.423	95.69
506.64	88.69
506.856	91.69
507.073	97.69
507.289	99.69
507.506	89.69
507.722	108.69
507.939	90.69
508.155	103.69
508.372	91.69
508.588	92.69
508.805	83.69
509.021	90.69
509.238	95.69
509.454	86.69
509.67	79.69
509.887	82.69
510.103	108.69
510.319	72.69
510.536	85.69
510.752	80.69
510.968	83.69
511.184	81.69
511.401	92.69
511.617	90.69
511.833	76.69
512.049	91.69
512.265	83.69
512.481	94.69
512.698	85.69
512.914	93.69
513.13	101.69
513.346	85.69
513.562	84.69
513.778	98.69
513.994	94.69
514.21	69.69
514.426	91.69
514.642	87.69
514.858	81.69
515.074	87.69
515.29	83.69
515.506	78.69
515.721	108.69
515.937	95.69
516.153	76.69
516.369	71.69
516.585	81.69
