Data from Location4.07152019.Energy5.Lamp.07192019.3%Agarose_HRD10591_15-24-57-578.txt Node
Date: Fri Jul 19 15:24:57 EDT 2019
User: cochatt
Spectrometer: HR+D1059
Trigger mode: 1
Integration Time (sec): 1.000000E-1
Scans to average: 1
Electric dark correction enabled: true
Nonlinearity correction enabled: false
Boxcar width: 0
XAxis mode: Wavelengths
Number of Pixels in Spectrum: 2048
>>>>>Begin Spectral Data<<<<<
223.165	-4.81
223.4	-4.81
223.635	-4.81
223.869	-7.81
224.104	-12.81
224.338	-1.81
224.573	-11.81
224.808	-11.81
225.042	-21.81
225.277	-9.81
225.511	6.19
225.746	12.19
225.98	0.19
226.215	6.19
226.449	4.19
226.683	12.19
226.918	21.19
227.152	20.19
227.387	35.19
227.621	32.19
227.856	37.19
228.09	43.19
228.324	44.19
228.559	48.19
228.793	40.19
229.027	46.19
229.262	77.19
229.496	62.19
229.73	69.19
229.964	75.19
230.199	57.19
230.433	71.19
230.667	77.19
230.901	79.19
231.136	87.19
231.37	69.19
231.604	74.19
231.838	83.19
232.072	76.19
232.306	70.19
232.541	70.19
232.775	88.19
233.009	82.19
233.243	79.19
233.477	78.19
233.711	75.19
233.945	70.19
234.179	72.19
234.413	68.19
234.647	80.19
234.881	77.19
235.115	82.19
235.349	78.19
235.583	62.19
235.817	72.19
236.051	77.19
236.285	71.19
236.519	74.19
236.753	82.19
236.987	75.19
237.221	73.19
237.455	80.19
237.689	66.19
237.922	85.19
238.156	69.19
238.39	79.19
238.624	69.19
238.858	83.19
239.091	79.19
239.325	71.19
239.559	81.19
239.793	79.19
240.027	71.19
240.26	81.19
240.494	74.19
240.728	73.19
240.961	56.19
241.195	63.19
241.429	75.19
241.662	68.19
241.896	67.19
242.13	76.19
242.363	71.19
242.597	53.19
242.83	68.19
243.064	68.19
243.298	72.19
243.531	75.19
243.765	71.19
243.998	67.19
244.232	76.19
244.465	91.19
244.699	68.19
244.932	62.19
245.166	67.19
245.399	77.19
245.633	59.19
245.866	53.19
246.099	69.19
246.333	67.19
246.566	71.19
246.8	78.19
247.033	80.19
247.266	77.19
247.5	66.19
247.733	62.19
247.966	72.19
248.2	87.19
248.433	70.19
248.666	98.19
248.899	71.19
249.133	71.19
249.366	87.19
249.599	75.19
249.832	80.19
250.066	63.19
250.299	73.19
250.532	73.19
250.765	67.19
250.998	73.19
251.231	75.19
251.465	75.19
251.698	71.19
251.931	76.19
252.164	78.19
252.397	74.19
252.63	76.19
252.863	71.19
253.096	72.19
253.329	73.19
253.562	67.19
253.795	70.19
254.028	64.19
254.261	82.19
254.494	78.19
254.727	75.19
254.96	92.19
255.193	61.19
255.426	67.19
255.659	72.19
255.892	58.19
256.124	78.19
256.357	63.19
256.59	60.19
256.823	95.19
257.056	78.19
257.289	70.19
257.521	77.19
257.754	62.19
257.987	80.19
258.22	83.19
258.452	80.19
258.685	85.19
258.918	70.19
259.151	87.19
259.383	69.19
259.616	75.19
259.849	88.19
260.081	93.19
260.314	66.19
260.547	76.19
260.779	75.19
261.012	79.19
261.244	86.19
261.477	71.19
261.71	79.19
261.942	81.19
262.175	76.19
262.407	81.19
262.64	77.19
262.872	86.19
263.105	74.19
263.337	76.19
263.57	72.19
263.802	65.19
264.035	66.19
264.267	73.19
264.499	65.19
264.732	78.19
264.964	78.19
265.197	68.19
265.429	83.19
265.661	84.19
265.894	71.19
266.126	76.19
266.358	76.19
266.591	71.19
266.823	71.19
267.055	69.19
267.287	72.19
267.52	67.19
267.752	69.19
267.984	67.19
268.216	84.19
268.448	82.19
268.681	92.19
268.913	80.19
269.145	91.19
269.377	82.19
269.609	84.19
269.841	83.19
270.073	68.19
270.306	86.19
270.538	79.19
270.77	90.19
271.002	79.19
271.234	86.19
271.466	72.19
271.698	87.19
271.93	79.19
272.162	87.19
272.394	87.19
272.626	79.19
272.858	74.19
273.09	75.19
273.322	83.19
273.553	82.19
273.785	87.19
274.017	75.19
274.249	82.19
274.481	75.19
274.713	70.19
274.945	81.19
275.176	81.19
275.408	78.19
275.64	78.19
275.872	68.19
276.104	69.19
276.335	84.19
276.567	78.19
276.799	80.19
277.031	83.19
277.262	94.19
277.494	74.19
277.726	70.19
277.957	80.19
278.189	78.19
278.421	72.19
278.652	94.19
278.884	80.19
279.115	82.19
279.347	70.19
279.579	84.19
279.81	78.19
280.042	96.19
280.273	79.19
280.505	74.19
280.736	81.19
280.968	89.19
281.199	77.19
281.431	70.19
281.662	79.19
281.894	96.19
282.125	80.19
282.356	79.19
282.588	79.19
282.819	86.19
283.051	79.19
283.282	66.19
283.513	90.19
283.745	83.19
283.976	79.19
284.207	84.19
284.439	79.19
284.67	78.19
284.901	74.19
285.132	78.19
285.364	86.19
285.595	89.19
285.826	93.19
286.057	95.19
286.288	87.19
286.52	72.19
286.751	87.19
286.982	74.19
287.213	75.19
287.444	73.19
287.675	74.19
287.906	85.19
288.138	79.19
288.369	86.19
288.6	83.19
288.831	78.19
289.062	77.19
289.293	87.19
289.524	78.19
289.755	97.19
289.986	81.19
290.217	82.19
290.448	82.19
290.679	86.19
290.91	84.19
291.141	79.19
291.371	84.19
291.602	77.19
291.833	75.19
292.064	72.19
292.295	70.19
292.526	92.19
292.757	82.19
292.987	90.19
293.218	75.19
293.449	75.19
293.68	77.19
293.91	86.19
294.141	89.19
294.372	73.19
294.603	72.19
294.833	75.19
295.064	82.19
295.295	81.19
295.525	83.19
295.756	82.19
295.987	92.19
296.217	77.19
296.448	80.19
296.679	73.19
296.909	87.19
297.14	83.19
297.37	89.19
297.601	67.19
297.831	84.19
298.062	75.19
298.292	77.19
298.523	83.19
298.753	78.19
298.984	81.19
299.214	83.19
299.445	80.19
299.675	70.19
299.905	76.19
300.136	72.19
300.366	87.19
300.597	78.19
300.827	79.19
301.057	55.19
301.288	77.19
301.518	67.19
301.748	79.19
301.979	87.19
302.209	82.19
302.439	76.19
302.669	89.19
302.9	88.19
303.13	76.19
303.36	84.19
303.59	80.19
303.82	83.19
304.051	78.19
304.281	86.19
304.511	85.19
304.741	96.19
304.971	73.19
305.201	77.19
305.431	63.19
305.661	80.19
305.891	82.19
306.121	87.19
306.352	74.19
306.582	85.19
306.812	90.19
307.042	80.19
307.272	81.19
307.502	76.19
307.731	61.19
307.961	82.19
308.191	78.19
308.421	87.19
308.651	83.19
308.881	87.19
309.111	73.19
309.341	106.19
309.571	73.19
309.8	75.19
310.03	76.19
310.26	75.19
310.49	85.19
310.72	68.19
310.949	74.19
311.179	73.19
311.409	80.19
311.639	80.19
311.868	82.19
312.098	86.19
312.328	79.19
312.557	80.19
312.787	90.19
313.017	93.19
313.246	87.19
313.476	81.19
313.706	79.19
313.935	73.19
314.165	67.19
314.394	79.19
314.624	53.19
314.853	75.19
315.083	68.19
315.312	71.19
315.542	69.19
315.771	81.19
316.001	83.19
316.23	86.19
316.46	82.19
316.689	73.19
316.919	78.19
317.148	92.19
317.377	84.19
317.607	76.19
317.836	75.19
318.065	82.19
318.295	72.19
318.524	72.19
318.753	62.19
318.983	76.19
319.212	81.19
319.441	81.19
319.67	75.19
319.9	67.19
320.129	86.19
320.358	80.19
320.587	66.19
320.816	78.19
321.046	78.19
321.275	83.19
321.504	79.19
321.733	72.19
321.962	82.19
322.191	90.19
322.42	68.19
322.649	81.19
322.878	91.19
323.108	64.19
323.337	83.19
323.566	81.19
323.795	76.19
324.024	68.19
324.253	76.19
324.482	75.19
324.71	84.19
324.939	92.19
325.168	87.19
325.397	83.19
325.626	79.19
325.855	90.19
326.084	77.19
326.313	84.19
326.542	71.19
326.77	76.19
326.999	80.19
327.228	78.19
327.457	74.19
327.686	86.19
327.914	73.19
328.143	69.19
328.372	71.19
328.6	82.19
328.829	77.19
329.058	74.19
329.287	70.19
329.515	74.19
329.744	65.19
329.972	75.19
330.201	84.19
330.43	81.19
330.658	75.19
330.887	76.19
331.115	79.19
331.344	57.19
331.572	71.19
331.801	77.19
332.03	92.19
332.258	87.19
332.486	84.19
332.715	71.19
332.943	80.19
333.172	60.19
333.4	80.19
333.629	80.19
333.857	71.19
334.085	74.19
334.314	80.19
334.542	90.19
334.771	86.19
334.999	90.19
335.227	84.19
335.455	66.19
335.684	81.19
335.912	87.19
336.14	88.19
336.369	85.19
336.597	77.19
336.825	85.19
337.053	80.19
337.281	76.19
337.51	78.19
337.738	80.19
337.966	63.19
338.194	68.19
338.422	77.19
338.65	90.19
338.878	80.19
339.106	67.19
339.334	74.19
339.562	78.19
339.79	76.19
340.018	88.19
340.246	75.19
340.474	85.19
340.702	95.19
340.93	76.19
341.158	76.19
341.386	80.19
341.614	81.19
341.842	66.19
342.07	70.19
342.298	67.19
342.526	87.19
342.754	74.19
342.981	67.19
343.209	81.19
343.437	70.19
343.665	76.19
343.893	68.19
344.12	84.19
344.348	82.19
344.576	63.19
344.804	80.19
345.031	83.19
345.259	86.19
345.487	68.19
345.714	76.19
345.942	78.19
346.17	92.19
346.397	76.19
346.625	74.19
346.853	79.19
347.08	89.19
347.308	71.19
347.535	88.19
347.763	70.19
347.99	84.19
348.218	64.19
348.445	78.19
348.673	80.19
348.9	77.19
349.128	81.19
349.355	67.19
349.583	78.19
349.81	70.19
350.037	82.19
350.265	87.19
350.492	75.19
350.72	84.19
350.947	83.19
351.174	80.19
351.402	74.19
351.629	73.19
351.856	87.19
352.083	81.19
352.311	76.19
352.538	74.19
352.765	82.19
352.992	87.19
353.22	78.19
353.447	83.19
353.674	68.19
353.901	79.19
354.128	79.19
354.355	94.19
354.583	71.19
354.81	69.19
355.037	67.19
355.264	77.19
355.491	62.19
355.718	85.19
355.945	82.19
356.172	93.19
356.399	88.19
356.626	81.19
356.853	72.19
357.08	75.19
357.307	89.19
357.534	65.19
357.761	89.19
357.988	70.19
358.215	83.19
358.441	64.19
358.668	76.19
358.895	84.19
359.122	80.19
359.349	85.19
359.576	82.19
359.802	81.19
360.029	82.19
360.256	81.19
360.483	76.19
360.709	70.19
360.936	78.19
361.163	80.19
361.39	56.19
361.616	61.19
361.843	75.19
362.07	76.19
362.296	64.19
362.523	76.19
362.749	82.19
362.976	68.19
363.203	79.19
363.429	66.19
363.656	69.19
363.882	78.19
364.109	78.19
364.335	82.19
364.562	72.19
364.788	81.19
365.015	86.19
365.241	78.19
365.468	72.19
365.694	88.19
365.92	80.19
366.147	92.19
366.373	77.19
366.599	76.19
366.826	81.19
367.052	69.19
367.278	66.19
367.505	80.19
367.731	82.19
367.957	92.19
368.184	93.19
368.41	74.19
368.636	74.19
368.862	83.19
369.089	77.19
369.315	77.19
369.541	92.19
369.767	76.19
369.993	80.19
370.219	83.19
370.445	78.19
370.672	62.19
370.898	77.19
371.124	80.19
371.35	89.19
371.576	83.19
371.802	70.19
372.028	68.19
372.254	79.19
372.48	78.19
372.706	59.19
372.932	65.19
373.158	70.19
373.384	85.19
373.61	96.19
373.835	72.19
374.061	75.19
374.287	80.19
374.513	82.19
374.739	79.19
374.965	78.19
375.191	84.19
375.416	74.19
375.642	80.19
375.868	80.19
376.094	69.19
376.319	60.19
376.545	85.19
376.771	83.19
376.997	74.19
377.222	65.19
377.448	67.19
377.674	77.19
377.899	88.19
378.125	89.19
378.35	85.19
378.576	70.19
378.802	82.19
379.027	78.19
379.253	74.19
379.478	80.19
379.704	76.19
379.929	81.19
380.155	72.19
380.38	83.19
380.606	95.19
380.831	87.19
381.057	80.19
381.282	83.19
381.507	69.19
381.733	79.19
381.958	83.19
382.184	73.19
382.409	83.19
382.634	90.19
382.86	69.19
383.085	83.19
383.31	82.19
383.535	77.19
383.761	79.19
383.986	75.19
384.211	71.19
384.436	72.19
384.662	72.19
384.887	74.19
385.112	88.19
385.337	88.19
385.562	88.19
385.787	84.19
386.013	77.19
386.238	71.19
386.463	61.19
386.688	83.19
386.913	92.19
387.138	80.19
387.363	79.19
387.588	85.19
387.813	84.19
388.038	95.19
388.263	81.19
388.488	66.19
388.713	80.19
388.938	72.19
389.163	91.19
389.387	74.19
389.612	68.19
389.837	68.19
390.062	78.19
390.287	62.19
390.512	82.19
390.736	87.19
390.961	90.19
391.186	93.19
391.411	76.19
391.636	70.19
391.86	77.19
392.085	95.19
392.31	69.19
392.534	93.19
392.759	85.19
392.984	75.19
393.208	96.19
393.433	91.19
393.658	76.19
393.882	76.19
394.107	81.19
394.331	74.19
394.556	77.19
394.78	84.19
395.005	82.19
395.229	74.19
395.454	87.19
395.678	75.19
395.903	95.19
396.127	91.19
396.352	88.19
396.576	94.19
396.801	84.19
397.025	93.19
397.249	82.19
397.474	88.19
397.698	88.19
397.922	77.19
398.147	79.19
398.371	80.19
398.595	103.19
398.82	75.19
399.044	82.19
399.268	97.19
399.492	75.19
399.717	69.19
399.941	82.19
400.165	85.19
400.389	83.19
400.613	86.19
400.837	94.19
401.062	78.19
401.286	86.19
401.51	85.19
401.734	77.19
401.958	86.19
402.182	90.19
402.406	85.19
402.63	88.19
402.854	83.19
403.078	91.19
403.302	87.19
403.526	86.19
403.75	79.19
403.974	78.19
404.198	75.19
404.422	76.19
404.645	82.19
404.869	79.19
405.093	78.19
405.317	81.19
405.541	87.19
405.765	84.19
405.988	88.19
406.212	91.19
406.436	84.19
406.66	81.19
406.883	91.19
407.107	66.19
407.331	83.19
407.555	73.19
407.778	91.19
408.002	82.19
408.226	81.19
408.449	88.19
408.673	100.19
408.896	84.19
409.12	68.19
409.344	85.19
409.567	87.19
409.791	81.19
410.014	85.19
410.238	88.19
410.461	96.19
410.685	97.19
410.908	81.19
411.132	108.19
411.355	78.19
411.578	90.19
411.802	94.19
412.025	81.19
412.249	92.19
412.472	80.19
412.695	90.19
412.919	88.19
413.142	78.19
413.365	85.19
413.589	79.19
413.812	91.19
414.035	88.19
414.258	80.19
414.482	77.19
414.705	94.19
414.928	83.19
415.151	84.19
415.374	99.19
415.597	86.19
415.821	64.19
416.044	86.19
416.267	98.19
416.49	93.19
416.713	98.19
416.936	95.19
417.159	90.19
417.382	83.19
417.605	85.19
417.828	95.19
418.051	79.19
418.274	72.19
418.497	74.19
418.72	89.19
418.943	93.19
419.166	70.19
419.389	86.19
419.611	81.19
419.834	70.19
420.057	94.19
420.28	90.19
420.503	85.19
420.726	93.19
420.948	83.19
421.171	81.19
421.394	93.19
421.617	97.19
421.839	79.19
422.062	90.19
422.285	82.19
422.507	93.19
422.73	80.19
422.953	83.19
423.175	79.19
423.398	81.19
423.621	84.19
423.843	76.19
424.066	86.19
424.288	92.19
424.511	100.19
424.733	85.19
424.956	91.19
425.178	85.19
425.401	88.19
425.623	92.19
425.846	87.19
426.068	75.19
426.291	91.19
426.513	81.19
426.735	87.19
426.958	94.19
427.18	87.19
427.402	85.19
427.625	79.19
427.847	77.19
428.069	84.19
428.292	84.19
428.514	82.19
428.736	92.19
428.958	97.19
429.181	88.19
429.403	86.19
429.625	79.19
429.847	85.19
430.069	93.19
430.292	92.19
430.514	96.19
430.736	83.19
430.958	85.19
431.18	79.19
431.402	101.19
431.624	84.19
431.846	79.19
432.068	69.19
432.29	72.19
432.512	87.19
432.734	85.19
432.956	88.19
433.178	90.19
433.4	83.19
433.622	95.19
433.844	95.19
434.066	108.19
434.287	97.19
434.509	83.19
434.731	84.19
434.953	73.19
435.175	85.19
435.397	78.19
435.618	98.19
435.84	84.19
436.062	84.19
436.284	90.19
436.505	94.19
436.727	93.19
436.949	97.19
437.17	89.19
437.392	95.19
437.614	82.19
437.835	90.19
438.057	93.19
438.278	96.19
438.5	83.19
438.721	89.19
438.943	91.19
439.165	73.19
439.386	84.19
439.608	96.19
439.829	92.19
440.05	113.19
440.272	87.19
440.493	99.19
440.715	78.19
440.936	90.19
441.158	83.19
441.379	82.19
441.6	92.19
441.822	109.19
442.043	83.19
442.264	97.19
442.486	100.19
442.707	104.19
442.928	97.19
443.149	98.19
443.371	98.19
443.592	83.19
443.813	80.19
444.034	85.19
444.255	92.19
444.476	93.19
444.698	93.19
444.919	101.19
445.14	207.19
445.361	143.19
445.582	101.19
445.803	83.19
446.024	83.19
446.245	91.19
446.466	92.19
446.687	93.19
446.908	102.19
447.129	89.19
447.35	75.19
447.571	79.19
447.792	77.19
448.013	94.19
448.234	95.19
448.455	100.19
448.675	110.19
448.896	88.19
449.117	98.19
449.338	101.19
449.559	74.19
449.779	82.19
450	87.19
450.221	83.19
450.442	82.19
450.662	86.19
450.883	99.19
451.104	89.19
451.324	77.19
451.545	84.19
451.766	99.19
451.986	98.19
452.207	79.19
452.428	82.19
452.648	89.19
452.869	77.19
453.089	96.19
453.31	96.19
453.53	88.19
453.751	84.19
453.971	83.19
454.192	100.19
454.412	86.19
454.633	78.19
454.853	83.19
455.073	99.19
455.294	87.19
455.514	87.19
455.734	82.19
455.955	86.19
456.175	77.19
456.395	71.19
456.616	87.19
456.836	79.19
457.056	75.19
457.276	80.19
457.497	87.19
457.717	79.19
457.937	81.19
458.157	79.19
458.377	74.19
458.598	83.19
458.818	75.19
459.038	79.19
459.258	77.19
459.478	78.19
459.698	77.19
459.918	82.19
460.138	77.19
460.358	73.19
460.578	79.19
460.798	79.19
461.018	77.19
461.238	80.19
461.458	90.19
461.678	75.19
461.898	80.19
462.118	93.19
462.338	87.19
462.558	72.19
462.777	84.19
462.997	82.19
463.217	82.19
463.437	78.19
463.657	77.19
463.876	83.19
464.096	86.19
464.316	82.19
464.536	79.19
464.755	86.19
464.975	91.19
465.195	83.19
465.414	95.19
465.634	75.19
465.854	98.19
466.073	88.19
466.293	88.19
466.512	84.19
466.732	86.19
466.951	87.19
467.171	84.19
467.391	98.19
467.61	96.19
467.829	94.19
468.049	82.19
468.268	91.19
468.488	95.19
468.707	95.19
468.927	100.19
469.146	93.19
469.365	92.19
469.585	91.19
469.804	107.19
470.023	96.19
470.243	82.19
470.462	96.19
470.681	104.19
470.901	98.19
471.12	89.19
471.339	87.19
471.558	88.19
471.777	98.19
471.997	82.19
472.216	82.19
472.435	80.19
472.654	86.19
472.873	91.19
473.092	79.19
473.311	95.19
473.53	94.19
473.749	90.19
473.968	89.19
474.187	86.19
474.406	88.19
474.625	90.19
474.844	91.19
475.063	95.19
475.282	102.19
475.501	88.19
475.72	88.19
475.939	88.19
476.158	81.19
476.377	79.19
476.596	90.19
476.814	77.19
477.033	86.19
477.252	94.19
477.471	93.19
477.69	85.19
477.908	96.19
478.127	97.19
478.346	85.19
478.564	87.19
478.783	90.19
479.002	88.19
479.22	90.19
479.439	99.19
479.658	94.19
479.876	99.19
480.095	85.19
480.313	79.19
480.532	88.19
480.751	95.19
480.969	78.19
481.188	75.19
481.406	80.19
481.624	80.19
481.843	83.19
482.061	79.19
482.28	77.19
482.498	86.19
482.717	84.19
482.935	76.19
483.153	91.19
483.372	101.19
483.59	95.19
483.808	81.19
484.027	98.19
484.245	97.19
484.463	97.19
484.681	109.19
484.9	82.19
485.118	100.19
485.336	85.19
485.554	83.19
485.772	96.19
485.99	80.19
486.209	80.19
486.427	80.19
486.645	104.19
486.863	97.19
487.081	101.19
487.299	97.19
487.517	92.19
487.735	117.19
487.953	106.19
488.171	92.19
488.389	95.19
488.607	94.19
488.825	83.19
489.043	88.19
489.261	99.19
489.479	92.19
489.696	90.19
489.914	82.19
490.132	89.19
490.35	106.19
490.568	98.19
490.786	94.19
491.003	99.19
491.221	101.19
491.439	122.19
491.657	113.19
491.874	125.19
492.092	108.19
492.31	111.19
492.527	115.19
492.745	99.19
492.963	116.19
493.18	121.19
493.398	129.19
493.615	109.19
493.833	106.19
494.05	108.19
494.268	100.19
494.485	112.19
494.703	116.19
494.92	96.19
495.138	101.19
495.355	101.19
495.573	104.19
495.79	103.19
496.008	108.19
496.225	85.19
496.442	98.19
496.66	111.19
496.877	104.19
497.094	105.19
497.312	97.19
497.529	102.19
497.746	96.19
497.963	81.19
498.181	99.19
498.398	94.19
498.615	98.19
498.832	87.19
499.049	89.19
499.267	84.19
499.484	88.19
499.701	93.19
499.918	97.19
500.135	79.19
500.352	94.19
500.569	95.19
500.786	93.19
501.003	102.19
501.22	86.19
501.437	99.19
501.654	85.19
501.871	97.19
502.088	82.19
502.305	93.19
502.522	84.19
502.739	99.19
502.956	91.19
503.172	100.19
503.389	91.19
503.606	76.19
503.823	75.19
504.04	95.19
504.256	79.19
504.473	84.19
504.69	83.19
504.907	85.19
505.123	88.19
505.34	86.19
505.557	98.19
505.773	88.19
505.99	112.19
506.207	88.19
506.423	85.19
506.64	86.19
506.856	92.19
507.073	97.19
507.289	78.19
507.506	101.19
507.722	102.19
507.939	78.19
508.155	93.19
508.372	91.19
508.588	85.19
508.805	94.19
509.021	98.19
509.238	66.19
509.454	85.19
509.67	91.19
509.887	89.19
510.103	94.19
510.319	87.19
510.536	96.19
510.752	79.19
510.968	70.19
511.184	81.19
511.401	69.19
511.617	77.19
511.833	71.19
512.049	67.19
512.265	71.19
512.481	88.19
512.698	80.19
512.914	84.19
513.13	85.19
513.346	82.19
513.562	95.19
513.778	89.19
513.994	64.19
514.21	90.19
514.426	80.19
514.642	81.19
514.858	79.19
515.074	88.19
515.29	97.19
515.506	83.19
515.721	85.19
515.937	92.19
516.153	79.19
516.369	73.19
516.585	80.19
516.801	90.19
517.016	75.19
517.232	72.19
517.448	79.19
517.664	78.19
517.879	81.19
518.095	79.19
518.311	78.19
518.527	95.19
518.742	95.19
