Data from Location4.07152019.Energy5.Lamp.07192019.3%Agarose_HRD10591_15-26-18-578.txt Node
Date: Fri Jul 19 15:26:18 EDT 2019
User: cochatt
Spectrometer: HR+D1059
Trigger mode: 1
Integration Time (sec): 1.000000E-1
Scans to average: 1
Electric dark correction enabled: true
Nonlinearity correction enabled: false
Boxcar width: 0
XAxis mode: Wavelengths
Number of Pixels in Spectrum: 2048
>>>>>Begin Spectral Data<<<<<
223.165	-18.81
223.4	-18.81
223.635	-18.81
223.869	-15.81
224.104	-15.81
224.338	-18.81
224.573	-19.81
224.808	-1.81
225.042	5.19
225.277	-7.81
225.511	-11.81
225.746	8.19
225.98	-9.81
226.215	13.19
226.449	14.19
226.683	21.19
226.918	26.19
227.152	32.19
227.387	32.19
227.621	30.19
227.856	53.19
228.09	34.19
228.324	44.19
228.559	49.19
228.793	55.19
229.027	64.19
229.262	60.19
229.496	48.19
229.73	57.19
229.964	68.19
230.199	66.19
230.433	66.19
230.667	77.19
230.901	85.19
231.136	72.19
231.37	84.19
231.604	83.19
231.838	75.19
232.072	81.19
232.306	101.19
232.541	82.19
232.775	78.19
233.009	80.19
233.243	82.19
233.477	78.19
233.711	83.19
233.945	67.19
234.179	74.19
234.413	86.19
234.647	65.19
234.881	87.19
235.115	68.19
235.349	90.19
235.583	72.19
235.817	80.19
236.051	87.19
236.285	69.19
236.519	66.19
236.753	77.19
236.987	83.19
237.221	72.19
237.455	80.19
237.689	62.19
237.922	82.19
238.156	74.19
238.39	78.19
238.624	69.19
238.858	82.19
239.091	72.19
239.325	72.19
239.559	82.19
239.793	76.19
240.027	82.19
240.26	63.19
240.494	72.19
240.728	79.19
240.961	69.19
241.195	76.19
241.429	70.19
241.662	71.19
241.896	64.19
242.13	66.19
242.363	69.19
242.597	68.19
242.83	66.19
243.064	65.19
243.298	69.19
243.531	69.19
243.765	80.19
243.998	82.19
244.232	85.19
244.465	73.19
244.699	74.19
244.932	69.19
245.166	83.19
245.399	78.19
245.633	73.19
245.866	69.19
246.099	87.19
246.333	77.19
246.566	71.19
246.8	78.19
247.033	77.19
247.266	78.19
247.5	86.19
247.733	75.19
247.966	71.19
248.2	81.19
248.433	80.19
248.666	75.19
248.899	68.19
249.133	90.19
249.366	89.19
249.599	79.19
249.832	72.19
250.066	85.19
250.299	88.19
250.532	85.19
250.765	80.19
250.998	72.19
251.231	74.19
251.465	72.19
251.698	80.19
251.931	84.19
252.164	77.19
252.397	63.19
252.63	82.19
252.863	85.19
253.096	87.19
253.329	91.19
253.562	64.19
253.795	63.19
254.028	80.19
254.261	71.19
254.494	95.19
254.727	69.19
254.96	89.19
255.193	70.19
255.426	75.19
255.659	96.19
255.892	90.19
256.124	79.19
256.357	73.19
256.59	77.19
256.823	76.19
257.056	70.19
257.289	65.19
257.521	71.19
257.754	81.19
257.987	74.19
258.22	78.19
258.452	84.19
258.685	71.19
258.918	73.19
259.151	96.19
259.383	83.19
259.616	87.19
259.849	85.19
260.081	68.19
260.314	67.19
260.547	72.19
260.779	81.19
261.012	76.19
261.244	80.19
261.477	66.19
261.71	69.19
261.942	72.19
262.175	77.19
262.407	80.19
262.64	91.19
262.872	75.19
263.105	75.19
263.337	69.19
263.57	78.19
263.802	83.19
264.035	76.19
264.267	76.19
264.499	76.19
264.732	77.19
264.964	87.19
265.197	96.19
265.429	81.19
265.661	90.19
265.894	76.19
266.126	73.19
266.358	72.19
266.591	88.19
266.823	76.19
267.055	81.19
267.287	87.19
267.52	89.19
267.752	84.19
267.984	81.19
268.216	74.19
268.448	79.19
268.681	80.19
268.913	85.19
269.145	85.19
269.377	74.19
269.609	82.19
269.841	81.19
270.073	73.19
270.306	73.19
270.538	88.19
270.77	89.19
271.002	85.19
271.234	72.19
271.466	88.19
271.698	81.19
271.93	104.19
272.162	80.19
272.394	88.19
272.626	89.19
272.858	72.19
273.09	73.19
273.322	86.19
273.553	84.19
273.785	73.19
274.017	82.19
274.249	85.19
274.481	85.19
274.713	75.19
274.945	78.19
275.176	76.19
275.408	86.19
275.64	93.19
275.872	84.19
276.104	78.19
276.335	77.19
276.567	81.19
276.799	84.19
277.031	72.19
277.262	96.19
277.494	70.19
277.726	88.19
277.957	76.19
278.189	94.19
278.421	82.19
278.652	89.19
278.884	78.19
279.115	80.19
279.347	80.19
279.579	90.19
279.81	71.19
280.042	66.19
280.273	85.19
280.505	84.19
280.736	74.19
280.968	95.19
281.199	85.19
281.431	92.19
281.662	72.19
281.894	92.19
282.125	88.19
282.356	93.19
282.588	92.19
282.819	73.19
283.051	76.19
283.282	82.19
283.513	73.19
283.745	90.19
283.976	79.19
284.207	80.19
284.439	73.19
284.67	81.19
284.901	101.19
285.132	77.19
285.364	82.19
285.595	88.19
285.826	87.19
286.057	85.19
286.288	88.19
286.52	70.19
286.751	74.19
286.982	75.19
287.213	84.19
287.444	78.19
287.675	77.19
287.906	92.19
288.138	62.19
288.369	75.19
288.6	86.19
288.831	90.19
289.062	82.19
289.293	80.19
289.524	93.19
289.755	92.19
289.986	101.19
290.217	92.19
290.448	85.19
290.679	79.19
290.91	86.19
291.141	86.19
291.371	72.19
291.602	73.19
291.833	81.19
292.064	88.19
292.295	85.19
292.526	86.19
292.757	63.19
292.987	90.19
293.218	77.19
293.449	86.19
293.68	95.19
293.91	77.19
294.141	73.19
294.372	74.19
294.603	85.19
294.833	85.19
295.064	84.19
295.295	77.19
295.525	90.19
295.756	72.19
295.987	90.19
296.217	92.19
296.448	87.19
296.679	87.19
296.909	85.19
297.14	76.19
297.37	85.19
297.601	72.19
297.831	76.19
298.062	66.19
298.292	88.19
298.523	90.19
298.753	82.19
298.984	88.19
299.214	93.19
299.445	73.19
299.675	80.19
299.905	80.19
300.136	77.19
300.366	93.19
300.597	87.19
300.827	84.19
301.057	89.19
301.288	91.19
301.518	88.19
301.748	88.19
301.979	74.19
302.209	80.19
302.439	101.19
302.669	89.19
302.9	93.19
303.13	93.19
303.36	88.19
303.59	91.19
303.82	74.19
304.051	84.19
304.281	96.19
304.511	92.19
304.741	81.19
304.971	73.19
305.201	96.19
305.431	82.19
305.661	89.19
305.891	77.19
306.121	85.19
306.352	89.19
306.582	93.19
306.812	87.19
307.042	94.19
307.272	81.19
307.502	74.19
307.731	60.19
307.961	79.19
308.191	84.19
308.421	80.19
308.651	84.19
308.881	83.19
309.111	81.19
309.341	81.19
309.571	90.19
309.8	85.19
310.03	96.19
310.26	93.19
310.49	89.19
310.72	78.19
310.949	79.19
311.179	83.19
311.409	73.19
311.639	82.19
311.868	90.19
312.098	89.19
312.328	83.19
312.557	74.19
312.787	70.19
313.017	85.19
313.246	89.19
313.476	88.19
313.706	85.19
313.935	73.19
314.165	85.19
314.394	86.19
314.624	85.19
314.853	77.19
315.083	77.19
315.312	84.19
315.542	82.19
315.771	72.19
316.001	68.19
316.23	77.19
316.46	84.19
316.689	85.19
316.919	87.19
317.148	79.19
317.377	97.19
317.607	90.19
317.836	72.19
318.065	83.19
318.295	73.19
318.524	73.19
318.753	83.19
318.983	80.19
319.212	85.19
319.441	90.19
319.67	92.19
319.9	85.19
320.129	90.19
320.358	89.19
320.587	92.19
320.816	81.19
321.046	75.19
321.275	75.19
321.504	87.19
321.733	93.19
321.962	81.19
322.191	80.19
322.42	83.19
322.649	102.19
322.878	96.19
323.108	72.19
323.337	93.19
323.566	95.19
323.795	92.19
324.024	82.19
324.253	79.19
324.482	78.19
324.71	82.19
324.939	88.19
325.168	66.19
325.397	74.19
325.626	78.19
325.855	78.19
326.084	94.19
326.313	81.19
326.542	77.19
326.77	81.19
326.999	95.19
327.228	74.19
327.457	88.19
327.686	80.19
327.914	78.19
328.143	89.19
328.372	67.19
328.6	80.19
328.829	85.19
329.058	84.19
329.287	91.19
329.515	75.19
329.744	80.19
329.972	84.19
330.201	80.19
330.43	86.19
330.658	75.19
330.887	88.19
331.115	85.19
331.344	97.19
331.572	75.19
331.801	73.19
332.03	68.19
332.258	97.19
332.486	89.19
332.715	90.19
332.943	89.19
333.172	88.19
333.4	84.19
333.629	97.19
333.857	85.19
334.085	85.19
334.314	91.19
334.542	82.19
334.771	80.19
334.999	78.19
335.227	96.19
335.455	104.19
335.684	89.19
335.912	74.19
336.14	64.19
336.369	85.19
336.597	94.19
336.825	82.19
337.053	84.19
337.281	80.19
337.51	83.19
337.738	74.19
337.966	79.19
338.194	85.19
338.422	85.19
338.65	83.19
338.878	77.19
339.106	70.19
339.334	79.19
339.562	84.19
339.79	83.19
340.018	86.19
340.246	87.19
340.474	89.19
340.702	83.19
340.93	80.19
341.158	85.19
341.386	72.19
341.614	85.19
341.842	84.19
342.07	82.19
342.298	83.19
342.526	84.19
342.754	79.19
342.981	90.19
343.209	82.19
343.437	87.19
343.665	78.19
343.893	81.19
344.12	80.19
344.348	91.19
344.576	88.19
344.804	84.19
345.031	81.19
345.259	82.19
345.487	79.19
345.714	78.19
345.942	84.19
346.17	79.19
346.397	85.19
346.625	86.19
346.853	70.19
347.08	81.19
347.308	83.19
347.535	71.19
347.763	87.19
347.99	77.19
348.218	79.19
348.445	80.19
348.673	82.19
348.9	96.19
349.128	84.19
349.355	73.19
349.583	75.19
349.81	87.19
350.037	72.19
350.265	95.19
350.492	77.19
350.72	88.19
350.947	88.19
351.174	84.19
351.402	80.19
351.629	83.19
351.856	87.19
352.083	81.19
352.311	89.19
352.538	71.19
352.765	70.19
352.992	74.19
353.22	80.19
353.447	81.19
353.674	72.19
353.901	84.19
354.128	66.19
354.355	73.19
354.583	92.19
354.81	91.19
355.037	91.19
355.264	81.19
355.491	76.19
355.718	69.19
355.945	85.19
356.172	85.19
356.399	91.19
356.626	77.19
356.853	104.19
357.08	92.19
357.307	86.19
357.534	82.19
357.761	88.19
357.988	80.19
358.215	84.19
358.441	86.19
358.668	82.19
358.895	75.19
359.122	93.19
359.349	77.19
359.576	85.19
359.802	96.19
360.029	93.19
360.256	87.19
360.483	81.19
360.709	85.19
360.936	81.19
361.163	87.19
361.39	78.19
361.616	77.19
361.843	78.19
362.07	76.19
362.296	71.19
362.523	90.19
362.749	93.19
362.976	83.19
363.203	68.19
363.429	69.19
363.656	76.19
363.882	87.19
364.109	86.19
364.335	78.19
364.562	67.19
364.788	76.19
365.015	70.19
365.241	84.19
365.468	72.19
365.694	88.19
365.92	84.19
366.147	85.19
366.373	86.19
366.599	83.19
366.826	81.19
367.052	73.19
367.278	65.19
367.505	95.19
367.731	85.19
367.957	82.19
368.184	94.19
368.41	83.19
368.636	84.19
368.862	84.19
369.089	91.19
369.315	70.19
369.541	86.19
369.767	78.19
369.993	86.19
370.219	82.19
370.445	75.19
370.672	75.19
370.898	91.19
371.124	84.19
371.35	82.19
371.576	88.19
371.802	90.19
372.028	92.19
372.254	68.19
372.48	89.19
372.706	93.19
372.932	100.19
373.158	92.19
373.384	87.19
373.61	80.19
373.835	84.19
374.061	80.19
374.287	83.19
374.513	84.19
374.739	82.19
374.965	79.19
375.191	72.19
375.416	88.19
375.642	90.19
375.868	87.19
376.094	93.19
376.319	73.19
376.545	73.19
376.771	71.19
376.997	85.19
377.222	77.19
377.448	81.19
377.674	85.19
377.899	76.19
378.125	87.19
378.35	91.19
378.576	94.19
378.802	84.19
379.027	86.19
379.253	87.19
379.478	86.19
379.704	77.19
379.929	86.19
380.155	53.19
380.38	86.19
380.606	78.19
380.831	79.19
381.057	101.19
381.282	84.19
381.507	84.19
381.733	92.19
381.958	86.19
382.184	86.19
382.409	96.19
382.634	88.19
382.86	92.19
383.085	85.19
383.31	70.19
383.535	81.19
383.761	90.19
383.986	80.19
384.211	82.19
384.436	62.19
384.662	89.19
384.887	81.19
385.112	82.19
385.337	77.19
385.562	72.19
385.787	68.19
386.013	77.19
386.238	85.19
386.463	75.19
386.688	73.19
386.913	85.19
387.138	80.19
387.363	98.19
387.588	82.19
387.813	73.19
388.038	79.19
388.263	87.19
388.488	79.19
388.713	78.19
388.938	80.19
389.163	93.19
389.387	80.19
389.612	87.19
389.837	87.19
390.062	84.19
390.287	67.19
390.512	80.19
390.736	74.19
390.961	80.19
391.186	79.19
391.411	90.19
391.636	78.19
391.86	83.19
392.085	88.19
392.31	85.19
392.534	84.19
392.759	89.19
392.984	97.19
393.208	88.19
393.433	82.19
393.658	79.19
393.882	98.19
394.107	79.19
394.331	89.19
394.556	81.19
394.78	77.19
395.005	75.19
395.229	77.19
395.454	67.19
395.678	83.19
395.903	83.19
396.127	73.19
396.352	76.19
396.576	72.19
396.801	79.19
397.025	80.19
397.249	88.19
397.474	93.19
397.698	92.19
397.922	102.19
398.147	83.19
398.371	71.19
398.595	81.19
398.82	80.19
399.044	89.19
399.268	88.19
399.492	80.19
399.717	97.19
399.941	76.19
400.165	95.19
400.389	99.19
400.613	79.19
400.837	84.19
401.062	87.19
401.286	90.19
401.51	88.19
401.734	85.19
401.958	83.19
402.182	68.19
402.406	81.19
402.63	95.19
402.854	87.19
403.078	91.19
403.302	67.19
403.526	82.19
403.75	96.19
403.974	93.19
404.198	84.19
404.422	86.19
404.645	87.19
404.869	100.19
405.093	92.19
405.317	88.19
405.541	89.19
405.765	74.19
405.988	88.19
406.212	86.19
406.436	87.19
406.66	82.19
406.883	94.19
407.107	93.19
407.331	85.19
407.555	89.19
407.778	78.19
408.002	90.19
408.226	93.19
408.449	87.19
408.673	87.19
408.896	97.19
409.12	98.19
409.344	95.19
409.567	96.19
409.791	90.19
410.014	87.19
410.238	84.19
410.461	89.19
410.685	76.19
410.908	91.19
411.132	75.19
411.355	81.19
411.578	79.19
411.802	91.19
412.025	88.19
412.249	90.19
412.472	72.19
412.695	85.19
412.919	88.19
413.142	78.19
413.365	99.19
413.589	99.19
413.812	97.19
414.035	93.19
414.258	79.19
414.482	88.19
414.705	82.19
414.928	103.19
415.151	84.19
415.374	88.19
415.597	93.19
415.821	85.19
416.044	97.19
416.267	89.19
416.49	84.19
416.713	99.19
416.936	86.19
417.159	97.19
417.382	86.19
417.605	98.19
417.828	104.19
418.051	103.19
418.274	89.19
418.497	88.19
418.72	78.19
418.943	87.19
419.166	95.19
419.389	96.19
419.611	78.19
419.834	80.19
420.057	79.19
420.28	94.19
420.503	89.19
420.726	87.19
420.948	98.19
421.171	90.19
421.394	95.19
421.617	88.19
421.839	103.19
422.062	88.19
422.285	83.19
422.507	85.19
422.73	86.19
422.953	81.19
423.175	101.19
423.398	97.19
423.621	96.19
423.843	93.19
424.066	106.19
424.288	93.19
424.511	112.19
424.733	97.19
424.956	102.19
425.178	95.19
425.401	87.19
425.623	96.19
425.846	93.19
426.068	94.19
426.291	106.19
426.513	74.19
426.735	85.19
426.958	90.19
427.18	81.19
427.402	100.19
427.625	93.19
427.847	80.19
428.069	91.19
428.292	93.19
428.514	85.19
428.736	88.19
428.958	83.19
429.181	96.19
429.403	108.19
429.625	86.19
429.847	82.19
430.069	89.19
430.292	97.19
430.514	91.19
430.736	98.19
430.958	91.19
431.18	86.19
431.402	85.19
431.624	98.19
431.846	84.19
432.068	81.19
432.29	80.19
432.512	85.19
432.734	88.19
432.956	89.19
433.178	90.19
433.4	95.19
433.622	87.19
433.844	90.19
434.066	87.19
434.287	87.19
434.509	83.19
434.731	82.19
434.953	104.19
435.175	91.19
435.397	91.19
435.618	80.19
435.84	94.19
436.062	72.19
436.284	82.19
436.505	57.19
436.727	64.19
436.949	92.19
437.17	72.19
437.392	94.19
437.614	91.19
437.835	81.19
438.057	80.19
438.278	88.19
438.5	88.19
438.721	95.19
438.943	94.19
439.165	83.19
439.386	102.19
439.608	109.19
439.829	86.19
440.05	105.19
440.272	110.19
440.493	101.19
440.715	98.19
440.936	100.19
441.158	95.19
441.379	97.19
441.6	89.19
441.822	108.19
442.043	113.19
442.264	94.19
442.486	97.19
442.707	82.19
442.928	93.19
443.149	87.19
443.371	88.19
443.592	87.19
443.813	102.19
444.034	101.19
444.255	96.19
444.476	92.19
444.698	98.19
444.919	108.19
445.14	208.19
445.361	148.19
445.582	101.19
445.803	99.19
446.024	91.19
446.245	96.19
446.466	104.19
446.687	100.19
446.908	97.19
447.129	100.19
447.35	97.19
447.571	90.19
447.792	111.19
448.013	85.19
448.234	108.19
448.455	90.19
448.675	108.19
448.896	73.19
449.117	94.19
449.338	85.19
449.559	105.19
449.779	100.19
450	99.19
450.221	96.19
450.442	99.19
450.662	98.19
450.883	88.19
451.104	90.19
451.324	92.19
451.545	83.19
451.766	86.19
451.986	90.19
452.207	101.19
452.428	90.19
452.648	81.19
452.869	101.19
453.089	75.19
453.31	96.19
453.53	98.19
453.751	85.19
453.971	82.19
454.192	90.19
454.412	84.19
454.633	75.19
454.853	101.19
455.073	96.19
455.294	105.19
455.514	95.19
455.734	85.19
455.955	94.19
456.175	79.19
456.395	83.19
456.616	87.19
456.836	97.19
457.056	85.19
457.276	79.19
457.497	86.19
457.717	81.19
457.937	87.19
458.157	86.19
458.377	90.19
458.598	95.19
458.818	100.19
459.038	85.19
459.258	86.19
459.478	73.19
459.698	67.19
459.918	85.19
460.138	83.19
460.358	89.19
460.578	83.19
460.798	88.19
461.018	89.19
461.238	91.19
461.458	89.19
461.678	90.19
461.898	76.19
462.118	84.19
462.338	81.19
462.558	88.19
462.777	87.19
462.997	93.19
463.217	76.19
463.437	83.19
463.657	95.19
463.876	87.19
464.096	84.19
464.316	81.19
464.536	74.19
464.755	80.19
464.975	97.19
465.195	96.19
465.414	90.19
465.634	93.19
465.854	102.19
466.073	90.19
466.293	93.19
466.512	95.19
466.732	87.19
466.951	89.19
467.171	74.19
467.391	87.19
467.61	98.19
467.829	93.19
468.049	87.19
468.268	92.19
468.488	88.19
468.707	95.19
468.927	94.19
469.146	100.19
469.365	97.19
469.585	83.19
469.804	84.19
470.023	86.19
470.243	95.19
470.462	99.19
470.681	80.19
470.901	101.19
471.12	96.19
471.339	100.19
471.558	85.19
471.777	101.19
471.997	100.19
472.216	98.19
472.435	94.19
472.654	95.19
472.873	90.19
473.092	78.19
473.311	72.19
473.53	78.19
473.749	85.19
473.968	94.19
474.187	78.19
474.406	84.19
474.625	77.19
474.844	93.19
475.063	98.19
475.282	85.19
475.501	77.19
475.72	97.19
475.939	97.19
476.158	86.19
476.377	90.19
476.596	88.19
476.814	88.19
477.033	95.19
477.252	82.19
477.471	87.19
477.69	88.19
477.908	102.19
478.127	94.19
478.346	105.19
478.564	102.19
478.783	91.19
479.002	98.19
479.22	97.19
479.439	102.19
479.658	93.19
479.876	100.19
480.095	89.19
480.313	81.19
480.532	110.19
480.751	93.19
480.969	77.19
481.188	77.19
481.406	79.19
481.624	88.19
481.843	89.19
482.061	82.19
482.28	94.19
482.498	91.19
482.717	73.19
482.935	89.19
483.153	96.19
483.372	82.19
483.59	94.19
483.808	86.19
484.027	90.19
484.245	90.19
484.463	88.19
484.681	88.19
484.9	90.19
485.118	112.19
485.336	95.19
485.554	108.19
485.772	84.19
485.99	78.19
486.209	101.19
486.427	87.19
486.645	90.19
486.863	98.19
487.081	105.19
487.299	84.19
487.517	104.19
487.735	85.19
487.953	116.19
488.171	112.19
488.389	94.19
488.607	84.19
488.825	97.19
489.043	110.19
489.261	92.19
489.479	97.19
489.696	83.19
489.914	104.19
490.132	95.19
490.35	99.19
490.568	96.19
490.786	92.19
491.003	116.19
491.221	103.19
491.439	105.19
491.657	116.19
491.874	136.19
492.092	122.19
492.31	129.19
492.527	117.19
492.745	114.19
492.963	115.19
493.18	116.19
493.398	101.19
493.615	97.19
493.833	110.19
494.05	101.19
494.268	102.19
494.485	119.19
494.703	108.19
494.92	100.19
495.138	102.19
495.355	114.19
495.573	110.19
495.79	108.19
496.008	109.19
496.225	104.19
496.442	98.19
496.66	115.19
496.877	112.19
497.094	91.19
497.312	98.19
497.529	105.19
497.746	100.19
497.963	95.19
498.181	92.19
498.398	98.19
498.615	84.19
498.832	97.19
499.049	89.19
499.267	106.19
499.484	89.19
499.701	95.19
499.918	106.19
500.135	98.19
500.352	92.19
500.569	110.19
500.786	105.19
501.003	94.19
501.22	90.19
501.437	94.19
501.654	103.19
501.871	108.19
502.088	93.19
502.305	100.19
502.522	97.19
502.739	93.19
502.956	100.19
503.172	77.19
503.389	82.19
503.606	96.19
503.823	86.19
504.04	95.19
504.256	102.19
504.473	89.19
504.69	90.19
504.907	100.19
505.123	103.19
505.34	99.19
505.557	93.19
505.773	88.19
505.99	99.19
506.207	93.19
506.423	89.19
506.64	102.19
506.856	86.19
507.073	93.19
507.289	88.19
507.506	92.19
507.722	97.19
507.939	80.19
508.155	99.19
508.372	102.19
508.588	87.19
508.805	101.19
509.021	94.19
509.238	82.19
509.454	93.19
509.67	82.19
509.887	83.19
510.103	86.19
510.319	97.19
510.536	85.19
510.752	83.19
510.968	65.19
511.184	92.19
511.401	88.19
511.617	86.19
511.833	86.19
512.049	73.19
512.265	76.19
512.481	81.19
512.698	73.19
512.914	75.19
513.13	73.19
513.346	81.19
513.562	86.19
513.778	87.19
513.994	89.19
514.21	88.19
514.426	76.19
514.642	79.19
514.858	81.19
515.074	87.19
515.29	76.19
515.506	82.19
515.721	74.19
515.937	90.19
516.153	79.19
516.369	79.19
516.585	83.19
516.801	80.19
517.016	77.19
517.232	89.19
517.448	91.19
517.664	98.19
517.879	103.19
