Data from Location4.07152019.Energy5.Lamp.07192019.3%Agarose_HRD10591_15-24-45-578.txt Node
Date: Fri Jul 19 15:24:45 EDT 2019
User: cochatt
Spectrometer: HR+D1059
Trigger mode: 1
Integration Time (sec): 1.000000E-1
Scans to average: 1
Electric dark correction enabled: true
Nonlinearity correction enabled: false
Boxcar width: 0
XAxis mode: Wavelengths
Number of Pixels in Spectrum: 2048
>>>>>Begin Spectral Data<<<<<
223.165	-12.38
223.4	-12.38
223.635	-12.38
223.869	-18.38
224.104	-25.38
224.338	-9.38
224.573	-3.38
224.808	-19.38
225.042	2.62
225.277	-5.38
225.511	-6.38
225.746	6.62
225.98	-0.38
226.215	8.62
226.449	27.62
226.683	17.62
226.918	9.62
227.152	27.62
227.387	33.62
227.621	27.62
227.856	40.62
228.09	32.62
228.324	53.62
228.559	59.62
228.793	50.62
229.027	45.62
229.262	56.62
229.496	64.62
229.73	67.62
229.964	70.62
230.199	68.62
230.433	72.62
230.667	75.62
230.901	76.62
231.136	66.62
231.37	67.62
231.604	86.62
231.838	71.62
232.072	84.62
232.306	72.62
232.541	72.62
232.775	95.62
233.009	82.62
233.243	89.62
233.477	70.62
233.711	69.62
233.945	91.62
234.179	83.62
234.413	84.62
234.647	80.62
234.881	85.62
235.115	81.62
235.349	83.62
235.583	79.62
235.817	70.62
236.051	73.62
236.285	71.62
236.519	72.62
236.753	68.62
236.987	85.62
237.221	83.62
237.455	80.62
237.689	83.62
237.922	62.62
238.156	76.62
238.39	62.62
238.624	65.62
238.858	73.62
239.091	72.62
239.325	70.62
239.559	76.62
239.793	76.62
240.027	69.62
240.26	78.62
240.494	65.62
240.728	76.62
240.961	64.62
241.195	56.62
241.429	71.62
241.662	77.62
241.896	67.62
242.13	70.62
242.363	72.62
242.597	84.62
242.83	74.62
243.064	74.62
243.298	63.62
243.531	82.62
243.765	57.62
243.998	71.62
244.232	75.62
244.465	63.62
244.699	67.62
244.932	64.62
245.166	59.62
245.399	80.62
245.633	77.62
245.866	72.62
246.099	71.62
246.333	75.62
246.566	78.62
246.8	82.62
247.033	77.62
247.266	78.62
247.5	67.62
247.733	89.62
247.966	85.62
248.2	88.62
248.433	75.62
248.666	64.62
248.899	77.62
249.133	73.62
249.366	88.62
249.599	71.62
249.832	66.62
250.066	74.62
250.299	71.62
250.532	95.62
250.765	80.62
250.998	77.62
251.231	74.62
251.465	69.62
251.698	79.62
251.931	60.62
252.164	80.62
252.397	61.62
252.63	60.62
252.863	78.62
253.096	68.62
253.329	80.62
253.562	76.62
253.795	86.62
254.028	93.62
254.261	74.62
254.494	62.62
254.727	69.62
254.96	84.62
255.193	77.62
255.426	78.62
255.659	79.62
255.892	80.62
256.124	69.62
256.357	75.62
256.59	75.62
256.823	79.62
257.056	67.62
257.289	78.62
257.521	76.62
257.754	63.62
257.987	68.62
258.22	72.62
258.452	84.62
258.685	68.62
258.918	67.62
259.151	45.62
259.383	78.62
259.616	85.62
259.849	61.62
260.081	72.62
260.314	73.62
260.547	94.62
260.779	71.62
261.012	72.62
261.244	80.62
261.477	79.62
261.71	84.62
261.942	74.62
262.175	87.62
262.407	92.62
262.64	77.62
262.872	79.62
263.105	79.62
263.337	74.62
263.57	78.62
263.802	65.62
264.035	70.62
264.267	79.62
264.499	72.62
264.732	71.62
264.964	72.62
265.197	75.62
265.429	79.62
265.661	80.62
265.894	62.62
266.126	73.62
266.358	78.62
266.591	68.62
266.823	80.62
267.055	77.62
267.287	71.62
267.52	79.62
267.752	82.62
267.984	77.62
268.216	77.62
268.448	88.62
268.681	69.62
268.913	78.62
269.145	78.62
269.377	86.62
269.609	68.62
269.841	81.62
270.073	66.62
270.306	85.62
270.538	79.62
270.77	83.62
271.002	76.62
271.234	74.62
271.466	75.62
271.698	81.62
271.93	75.62
272.162	73.62
272.394	73.62
272.626	81.62
272.858	66.62
273.09	77.62
273.322	77.62
273.553	75.62
273.785	84.62
274.017	72.62
274.249	92.62
274.481	88.62
274.713	78.62
274.945	90.62
275.176	80.62
275.408	76.62
275.64	84.62
275.872	91.62
276.104	79.62
276.335	66.62
276.567	80.62
276.799	74.62
277.031	87.62
277.262	82.62
277.494	78.62
277.726	64.62
277.957	79.62
278.189	83.62
278.421	83.62
278.652	83.62
278.884	87.62
279.115	75.62
279.347	79.62
279.579	78.62
279.81	67.62
280.042	72.62
280.273	71.62
280.505	78.62
280.736	86.62
280.968	73.62
281.199	72.62
281.431	73.62
281.662	82.62
281.894	76.62
282.125	73.62
282.356	88.62
282.588	88.62
282.819	81.62
283.051	90.62
283.282	80.62
283.513	86.62
283.745	75.62
283.976	71.62
284.207	84.62
284.439	61.62
284.67	74.62
284.901	79.62
285.132	91.62
285.364	76.62
285.595	88.62
285.826	74.62
286.057	102.62
286.288	82.62
286.52	76.62
286.751	86.62
286.982	73.62
287.213	83.62
287.444	73.62
287.675	83.62
287.906	84.62
288.138	68.62
288.369	61.62
288.6	86.62
288.831	75.62
289.062	98.62
289.293	93.62
289.524	70.62
289.755	74.62
289.986	72.62
290.217	77.62
290.448	88.62
290.679	82.62
290.91	84.62
291.141	76.62
291.371	72.62
291.602	74.62
291.833	73.62
292.064	78.62
292.295	80.62
292.526	75.62
292.757	91.62
292.987	79.62
293.218	77.62
293.449	68.62
293.68	79.62
293.91	71.62
294.141	76.62
294.372	87.62
294.603	85.62
294.833	92.62
295.064	78.62
295.295	81.62
295.525	79.62
295.756	88.62
295.987	77.62
296.217	75.62
296.448	82.62
296.679	96.62
296.909	76.62
297.14	89.62
297.37	80.62
297.601	85.62
297.831	85.62
298.062	78.62
298.292	76.62
298.523	75.62
298.753	79.62
298.984	84.62
299.214	85.62
299.445	73.62
299.675	77.62
299.905	80.62
300.136	78.62
300.366	72.62
300.597	87.62
300.827	87.62
301.057	78.62
301.288	75.62
301.518	75.62
301.748	77.62
301.979	76.62
302.209	75.62
302.439	76.62
302.669	79.62
302.9	67.62
303.13	84.62
303.36	80.62
303.59	79.62
303.82	77.62
304.051	74.62
304.281	92.62
304.511	81.62
304.741	67.62
304.971	78.62
305.201	81.62
305.431	71.62
305.661	78.62
305.891	96.62
306.121	81.62
306.352	80.62
306.582	82.62
306.812	77.62
307.042	77.62
307.272	85.62
307.502	88.62
307.731	67.62
307.961	71.62
308.191	83.62
308.421	79.62
308.651	90.62
308.881	76.62
309.111	74.62
309.341	90.62
309.571	85.62
309.8	66.62
310.03	90.62
310.26	84.62
310.49	79.62
310.72	76.62
310.949	61.62
311.179	70.62
311.409	87.62
311.639	76.62
311.868	80.62
312.098	81.62
312.328	76.62
312.557	76.62
312.787	81.62
313.017	92.62
313.246	82.62
313.476	89.62
313.706	66.62
313.935	98.62
314.165	83.62
314.394	101.62
314.624	81.62
314.853	73.62
315.083	76.62
315.312	84.62
315.542	77.62
315.771	78.62
316.001	80.62
316.23	82.62
316.46	78.62
316.689	73.62
316.919	77.62
317.148	78.62
317.377	86.62
317.607	88.62
317.836	72.62
318.065	69.62
318.295	81.62
318.524	73.62
318.753	75.62
318.983	70.62
319.212	76.62
319.441	81.62
319.67	77.62
319.9	78.62
320.129	64.62
320.358	71.62
320.587	78.62
320.816	76.62
321.046	83.62
321.275	82.62
321.504	89.62
321.733	81.62
321.962	78.62
322.191	80.62
322.42	85.62
322.649	85.62
322.878	71.62
323.108	76.62
323.337	72.62
323.566	76.62
323.795	77.62
324.024	85.62
324.253	85.62
324.482	86.62
324.71	75.62
324.939	79.62
325.168	86.62
325.397	81.62
325.626	71.62
325.855	82.62
326.084	71.62
326.313	82.62
326.542	82.62
326.77	86.62
326.999	81.62
327.228	81.62
327.457	68.62
327.686	82.62
327.914	80.62
328.143	85.62
328.372	82.62
328.6	82.62
328.829	95.62
329.058	76.62
329.287	81.62
329.515	60.62
329.744	66.62
329.972	90.62
330.201	74.62
330.43	83.62
330.658	87.62
330.887	80.62
331.115	86.62
331.344	80.62
331.572	89.62
331.801	75.62
332.03	78.62
332.258	80.62
332.486	77.62
332.715	73.62
332.943	101.62
333.172	84.62
333.4	79.62
333.629	84.62
333.857	83.62
334.085	81.62
334.314	74.62
334.542	90.62
334.771	81.62
334.999	92.62
335.227	80.62
335.455	75.62
335.684	81.62
335.912	63.62
336.14	67.62
336.369	77.62
336.597	81.62
336.825	75.62
337.053	86.62
337.281	87.62
337.51	82.62
337.738	83.62
337.966	79.62
338.194	83.62
338.422	82.62
338.65	78.62
338.878	78.62
339.106	84.62
339.334	75.62
339.562	82.62
339.79	79.62
340.018	71.62
340.246	73.62
340.474	65.62
340.702	80.62
340.93	85.62
341.158	78.62
341.386	74.62
341.614	84.62
341.842	68.62
342.07	64.62
342.298	76.62
342.526	82.62
342.754	72.62
342.981	75.62
343.209	74.62
343.437	70.62
343.665	78.62
343.893	83.62
344.12	83.62
344.348	85.62
344.576	65.62
344.804	82.62
345.031	87.62
345.259	79.62
345.487	76.62
345.714	70.62
345.942	85.62
346.17	76.62
346.397	79.62
346.625	83.62
346.853	90.62
347.08	76.62
347.308	71.62
347.535	79.62
347.763	86.62
347.99	86.62
348.218	78.62
348.445	64.62
348.673	86.62
348.9	71.62
349.128	73.62
349.355	79.62
349.583	72.62
349.81	82.62
350.037	82.62
350.265	83.62
350.492	81.62
350.72	83.62
350.947	70.62
351.174	67.62
351.402	73.62
351.629	77.62
351.856	75.62
352.083	78.62
352.311	73.62
352.538	87.62
352.765	92.62
352.992	82.62
353.22	72.62
353.447	83.62
353.674	73.62
353.901	91.62
354.128	82.62
354.355	80.62
354.583	79.62
354.81	77.62
355.037	81.62
355.264	89.62
355.491	70.62
355.718	74.62
355.945	73.62
356.172	89.62
356.399	84.62
356.626	89.62
356.853	61.62
357.08	79.62
357.307	77.62
357.534	75.62
357.761	95.62
357.988	73.62
358.215	76.62
358.441	88.62
358.668	77.62
358.895	68.62
359.122	89.62
359.349	79.62
359.576	87.62
359.802	76.62
360.029	80.62
360.256	90.62
360.483	79.62
360.709	84.62
360.936	70.62
361.163	82.62
361.39	94.62
361.616	90.62
361.843	76.62
362.07	61.62
362.296	72.62
362.523	75.62
362.749	78.62
362.976	68.62
363.203	82.62
363.429	65.62
363.656	79.62
363.882	72.62
364.109	84.62
364.335	67.62
364.562	77.62
364.788	77.62
365.015	79.62
365.241	73.62
365.468	92.62
365.694	80.62
365.92	80.62
366.147	77.62
366.373	79.62
366.599	73.62
366.826	84.62
367.052	87.62
367.278	75.62
367.505	77.62
367.731	83.62
367.957	91.62
368.184	82.62
368.41	78.62
368.636	90.62
368.862	89.62
369.089	75.62
369.315	81.62
369.541	83.62
369.767	65.62
369.993	71.62
370.219	75.62
370.445	78.62
370.672	74.62
370.898	81.62
371.124	70.62
371.35	64.62
371.576	76.62
371.802	92.62
372.028	87.62
372.254	86.62
372.48	78.62
372.706	82.62
372.932	77.62
373.158	80.62
373.384	71.62
373.61	70.62
373.835	74.62
374.061	75.62
374.287	76.62
374.513	89.62
374.739	88.62
374.965	60.62
375.191	72.62
375.416	75.62
375.642	70.62
375.868	72.62
376.094	73.62
376.319	82.62
376.545	82.62
376.771	80.62
376.997	72.62
377.222	84.62
377.448	84.62
377.674	76.62
377.899	81.62
378.125	87.62
378.35	84.62
378.576	80.62
378.802	74.62
379.027	75.62
379.253	76.62
379.478	84.62
379.704	83.62
379.929	76.62
380.155	79.62
380.38	84.62
380.606	83.62
380.831	80.62
381.057	95.62
381.282	82.62
381.507	82.62
381.733	86.62
381.958	65.62
382.184	80.62
382.409	85.62
382.634	83.62
382.86	87.62
383.085	83.62
383.31	79.62
383.535	80.62
383.761	76.62
383.986	84.62
384.211	62.62
384.436	75.62
384.662	77.62
384.887	86.62
385.112	90.62
385.337	76.62
385.562	87.62
385.787	76.62
386.013	89.62
386.238	82.62
386.463	88.62
386.688	76.62
386.913	77.62
387.138	88.62
387.363	85.62
387.588	88.62
387.813	86.62
388.038	63.62
388.263	79.62
388.488	72.62
388.713	92.62
388.938	87.62
389.163	66.62
389.387	64.62
389.612	74.62
389.837	77.62
390.062	78.62
390.287	78.62
390.512	79.62
390.736	89.62
390.961	75.62
391.186	79.62
391.411	75.62
391.636	88.62
391.86	74.62
392.085	71.62
392.31	85.62
392.534	76.62
392.759	85.62
392.984	71.62
393.208	83.62
393.433	72.62
393.658	88.62
393.882	96.62
394.107	92.62
394.331	79.62
394.556	87.62
394.78	83.62
395.005	71.62
395.229	76.62
395.454	85.62
395.678	72.62
395.903	79.62
396.127	97.62
396.352	79.62
396.576	78.62
396.801	90.62
397.025	75.62
397.249	78.62
397.474	80.62
397.698	86.62
397.922	91.62
398.147	100.62
398.371	74.62
398.595	92.62
398.82	83.62
399.044	83.62
399.268	93.62
399.492	98.62
399.717	71.62
399.941	75.62
400.165	70.62
400.389	85.62
400.613	96.62
400.837	97.62
401.062	87.62
401.286	94.62
401.51	86.62
401.734	91.62
401.958	78.62
402.182	70.62
402.406	80.62
402.63	91.62
402.854	82.62
403.078	76.62
403.302	82.62
403.526	68.62
403.75	81.62
403.974	72.62
404.198	89.62
404.422	78.62
404.645	76.62
404.869	87.62
405.093	90.62
405.317	86.62
405.541	86.62
405.765	83.62
405.988	90.62
406.212	83.62
406.436	73.62
406.66	80.62
406.883	84.62
407.107	73.62
407.331	82.62
407.555	85.62
407.778	88.62
408.002	76.62
408.226	80.62
408.449	90.62
408.673	79.62
408.896	85.62
409.12	73.62
409.344	90.62
409.567	75.62
409.791	74.62
410.014	86.62
410.238	85.62
410.461	95.62
410.685	93.62
410.908	80.62
411.132	91.62
411.355	73.62
411.578	95.62
411.802	92.62
412.025	81.62
412.249	97.62
412.472	81.62
412.695	81.62
412.919	71.62
413.142	85.62
413.365	77.62
413.589	82.62
413.812	88.62
414.035	99.62
414.258	86.62
414.482	85.62
414.705	95.62
414.928	87.62
415.151	87.62
415.374	88.62
415.597	79.62
415.821	84.62
416.044	93.62
416.267	86.62
416.49	84.62
416.713	78.62
416.936	82.62
417.159	96.62
417.382	79.62
417.605	71.62
417.828	83.62
418.051	72.62
418.274	103.62
418.497	90.62
418.72	94.62
418.943	86.62
419.166	73.62
419.389	79.62
419.611	95.62
419.834	88.62
420.057	96.62
420.28	88.62
420.503	91.62
420.726	80.62
420.948	71.62
421.171	86.62
421.394	81.62
421.617	82.62
421.839	88.62
422.062	107.62
422.285	78.62
422.507	90.62
422.73	82.62
422.953	86.62
423.175	86.62
423.398	92.62
423.621	66.62
423.843	81.62
424.066	94.62
424.288	94.62
424.511	80.62
424.733	98.62
424.956	100.62
425.178	93.62
425.401	83.62
425.623	87.62
425.846	83.62
426.068	98.62
426.291	88.62
426.513	94.62
426.735	91.62
426.958	104.62
427.18	99.62
427.402	91.62
427.625	77.62
427.847	92.62
428.069	89.62
428.292	91.62
428.514	88.62
428.736	83.62
428.958	95.62
429.181	84.62
429.403	99.62
429.625	79.62
429.847	101.62
430.069	87.62
430.292	93.62
430.514	85.62
430.736	90.62
430.958	93.62
431.18	84.62
431.402	84.62
431.624	71.62
431.846	76.62
432.068	79.62
432.29	84.62
432.512	101.62
432.734	83.62
432.956	71.62
433.178	84.62
433.4	93.62
433.622	83.62
433.844	90.62
434.066	86.62
434.287	84.62
434.509	74.62
434.731	89.62
434.953	88.62
435.175	104.62
435.397	96.62
435.618	80.62
435.84	76.62
436.062	87.62
436.284	79.62
436.505	98.62
436.727	87.62
436.949	87.62
437.17	93.62
437.392	94.62
437.614	82.62
437.835	76.62
438.057	83.62
438.278	93.62
438.5	91.62
438.721	90.62
438.943	106.62
439.165	96.62
439.386	94.62
439.608	102.62
439.829	91.62
440.05	91.62
440.272	96.62
440.493	98.62
440.715	81.62
440.936	90.62
441.158	90.62
441.379	94.62
441.6	106.62
441.822	98.62
442.043	86.62
442.264	82.62
442.486	98.62
442.707	92.62
442.928	89.62
443.149	95.62
443.371	95.62
443.592	83.62
443.813	92.62
444.034	103.62
444.255	92.62
444.476	82.62
444.698	83.62
444.919	93.62
445.14	220.62
445.361	146.62
445.582	83.62
445.803	92.62
446.024	86.62
446.245	97.62
446.466	96.62
446.687	79.62
446.908	98.62
447.129	103.62
447.35	107.62
447.571	100.62
447.792	83.62
448.013	107.62
448.234	96.62
448.455	86.62
448.675	96.62
448.896	83.62
449.117	106.62
449.338	92.62
449.559	96.62
449.779	93.62
450	86.62
450.221	91.62
450.442	92.62
450.662	104.62
450.883	86.62
451.104	83.62
451.324	82.62
451.545	82.62
451.766	75.62
451.986	83.62
452.207	81.62
452.428	79.62
452.648	82.62
452.869	87.62
453.089	85.62
453.31	83.62
453.53	77.62
453.751	81.62
453.971	86.62
454.192	71.62
454.412	83.62
454.633	93.62
454.853	78.62
455.073	87.62
455.294	95.62
455.514	95.62
455.734	79.62
455.955	98.62
456.175	77.62
456.395	74.62
456.616	80.62
456.836	79.62
457.056	84.62
457.276	94.62
457.497	82.62
457.717	85.62
457.937	78.62
458.157	75.62
458.377	70.62
458.598	75.62
458.818	75.62
459.038	81.62
459.258	72.62
459.478	85.62
459.698	74.62
459.918	83.62
460.138	72.62
460.358	79.62
460.578	82.62
460.798	92.62
461.018	79.62
461.238	88.62
461.458	67.62
461.678	82.62
461.898	93.62
462.118	87.62
462.338	66.62
462.558	76.62
462.777	79.62
462.997	89.62
463.217	86.62
463.437	76.62
463.657	82.62
463.876	87.62
464.096	103.62
464.316	78.62
464.536	85.62
464.755	73.62
464.975	83.62
465.195	79.62
465.414	98.62
465.634	82.62
465.854	87.62
466.073	86.62
466.293	100.62
466.512	83.62
466.732	89.62
466.951	95.62
467.171	90.62
467.391	77.62
467.61	90.62
467.829	74.62
468.049	78.62
468.268	90.62
468.488	89.62
468.707	107.62
468.927	79.62
469.146	91.62
469.365	94.62
469.585	77.62
469.804	90.62
470.023	95.62
470.243	102.62
470.462	108.62
470.681	87.62
470.901	82.62
471.12	96.62
471.339	101.62
471.558	77.62
471.777	96.62
471.997	81.62
472.216	107.62
472.435	86.62
472.654	85.62
472.873	87.62
473.092	80.62
473.311	91.62
473.53	103.62
473.749	103.62
473.968	85.62
474.187	89.62
474.406	74.62
474.625	88.62
474.844	93.62
475.063	88.62
475.282	88.62
475.501	92.62
475.72	85.62
475.939	79.62
476.158	80.62
476.377	85.62
476.596	92.62
476.814	92.62
477.033	86.62
477.252	77.62
477.471	93.62
477.69	101.62
477.908	87.62
478.127	91.62
478.346	97.62
478.564	91.62
478.783	96.62
479.002	90.62
479.22	92.62
479.439	85.62
479.658	85.62
479.876	83.62
480.095	89.62
480.313	74.62
480.532	86.62
480.751	93.62
480.969	76.62
481.188	71.62
481.406	60.62
481.624	85.62
481.843	76.62
482.061	95.62
482.28	83.62
482.498	92.62
482.717	84.62
482.935	98.62
483.153	82.62
483.372	110.62
483.59	85.62
483.808	102.62
484.027	107.62
484.245	91.62
484.463	92.62
484.681	105.62
484.9	96.62
485.118	93.62
485.336	94.62
485.554	87.62
485.772	81.62
485.99	84.62
486.209	84.62
486.427	104.62
486.645	86.62
486.863	95.62
487.081	93.62
487.299	88.62
487.517	100.62
487.735	101.62
487.953	108.62
488.171	103.62
488.389	108.62
488.607	92.62
488.825	96.62
489.043	78.62
489.261	95.62
489.479	97.62
489.696	87.62
489.914	95.62
490.132	100.62
490.35	102.62
490.568	107.62
490.786	115.62
491.003	96.62
491.221	113.62
491.439	115.62
491.657	113.62
491.874	124.62
492.092	134.62
492.31	118.62
492.527	125.62
492.745	101.62
492.963	103.62
493.18	111.62
493.398	104.62
493.615	101.62
493.833	98.62
494.05	110.62
494.268	113.62
494.485	86.62
494.703	104.62
494.92	110.62
495.138	94.62
495.355	112.62
495.573	108.62
495.79	119.62
496.008	98.62
496.225	106.62
496.442	100.62
496.66	102.62
496.877	91.62
497.094	92.62
497.312	88.62
497.529	100.62
497.746	100.62
497.963	101.62
498.181	108.62
498.398	100.62
498.615	101.62
498.832	98.62
499.049	87.62
499.267	99.62
499.484	74.62
499.701	93.62
499.918	100.62
500.135	90.62
500.352	101.62
500.569	100.62
500.786	92.62
501.003	91.62
501.22	93.62
501.437	91.62
501.654	90.62
501.871	92.62
502.088	89.62
502.305	91.62
502.522	100.62
502.739	107.62
502.956	84.62
503.172	84.62
503.389	95.62
503.606	102.62
503.823	92.62
504.04	99.62
504.256	104.62
504.473	95.62
504.69	87.62
504.907	91.62
505.123	78.62
505.34	100.62
505.557	95.62
505.773	93.62
505.99	80.62
506.207	90.62
506.423	82.62
506.64	81.62
506.856	93.62
507.073	95.62
507.289	82.62
507.506	90.62
507.722	79.62
507.939	77.62
508.155	85.62
508.372	92.62
508.588	74.62
508.805	74.62
509.021	84.62
509.238	84.62
509.454	93.62
509.67	70.62
509.887	80.62
510.103	89.62
510.319	89.62
510.536	77.62
510.752	80.62
510.968	91.62
511.184	91.62
511.401	86.62
511.617	86.62
511.833	74.62
512.049	82.62
512.265	68.62
512.481	83.62
512.698	72.62
512.914	90.62
513.13	79.62
513.346	79.62
513.562	80.62
513.778	82.62
513.994	87.62
514.21	85.62
514.426	85.62
514.642	76.62
514.858	83.62
515.074	88.62
515.29	95.62
515.506	70.62
515.721	87.62
515.937	79.62
516.153	83.62
516.369	77.62
516.585	78.62
516.801	95.62
517.016	83.62
517.232	82.62
517.448	80.62
517.664	75.62
517.879	76.62
518.095	84.62
518.311	76.62
