Data from Location4.07152019.Energy5.Lamp.07192019.3%Agarose_HRD10591_15-23-13-576.txt Node
Date: Fri Jul 19 15:23:13 EDT 2019
User: cochatt
Spectrometer: HR+D1059
Trigger mode: 1
Integration Time (sec): 1.000000E-1
Scans to average: 1
Electric dark correction enabled: true
Nonlinearity correction enabled: false
Boxcar width: 0
XAxis mode: Wavelengths
Number of Pixels in Spectrum: 2048
>>>>>Begin Spectral Data<<<<<
223.165	-13.75
223.4	-13.75
223.635	-13.75
223.869	-21.75
224.104	-14.75
224.338	-15.75
224.573	-2.75
224.808	-30.75
225.042	-1.75
225.277	-7.75
225.511	3.25
225.746	7.25
225.98	1.25
226.215	12.25
226.449	15.25
226.683	22.25
226.918	16.25
227.152	31.25
227.387	51.25
227.621	36.25
227.856	36.25
228.09	48.25
228.324	46.25
228.559	54.25
228.793	50.25
229.027	68.25
229.262	50.25
229.496	61.25
229.73	61.25
229.964	78.25
230.199	73.25
230.433	79.25
230.667	77.25
230.901	78.25
231.136	82.25
231.37	79.25
231.604	76.25
231.838	78.25
232.072	77.25
232.306	68.25
232.541	77.25
232.775	72.25
233.009	79.25
233.243	73.25
233.477	75.25
233.711	78.25
233.945	67.25
234.179	79.25
234.413	82.25
234.647	75.25
234.881	77.25
235.115	75.25
235.349	76.25
235.583	69.25
235.817	51.25
236.051	71.25
236.285	71.25
236.519	78.25
236.753	76.25
236.987	55.25
237.221	74.25
237.455	71.25
237.689	66.25
237.922	77.25
238.156	75.25
238.39	76.25
238.624	61.25
238.858	85.25
239.091	73.25
239.325	71.25
239.559	73.25
239.793	70.25
240.027	75.25
240.26	79.25
240.494	79.25
240.728	73.25
240.961	92.25
241.195	77.25
241.429	66.25
241.662	75.25
241.896	62.25
242.13	70.25
242.363	78.25
242.597	77.25
242.83	81.25
243.064	81.25
243.298	80.25
243.531	77.25
243.765	76.25
243.998	63.25
244.232	85.25
244.465	79.25
244.699	82.25
244.932	76.25
245.166	83.25
245.399	64.25
245.633	71.25
245.866	70.25
246.099	71.25
246.333	75.25
246.566	62.25
246.8	80.25
247.033	65.25
247.266	73.25
247.5	71.25
247.733	73.25
247.966	83.25
248.2	73.25
248.433	86.25
248.666	61.25
248.899	80.25
249.133	87.25
249.366	73.25
249.599	76.25
249.832	82.25
250.066	83.25
250.299	78.25
250.532	75.25
250.765	88.25
250.998	74.25
251.231	86.25
251.465	73.25
251.698	80.25
251.931	84.25
252.164	69.25
252.397	83.25
252.63	71.25
252.863	73.25
253.096	70.25
253.329	75.25
253.562	67.25
253.795	91.25
254.028	94.25
254.261	70.25
254.494	69.25
254.727	81.25
254.96	79.25
255.193	78.25
255.426	81.25
255.659	93.25
255.892	83.25
256.124	74.25
256.357	73.25
256.59	69.25
256.823	66.25
257.056	79.25
257.289	81.25
257.521	72.25
257.754	94.25
257.987	79.25
258.22	87.25
258.452	84.25
258.685	92.25
258.918	73.25
259.151	87.25
259.383	65.25
259.616	83.25
259.849	94.25
260.081	87.25
260.314	75.25
260.547	71.25
260.779	76.25
261.012	71.25
261.244	77.25
261.477	65.25
261.71	78.25
261.942	64.25
262.175	76.25
262.407	75.25
262.64	66.25
262.872	75.25
263.105	81.25
263.337	70.25
263.57	83.25
263.802	77.25
264.035	64.25
264.267	76.25
264.499	70.25
264.732	72.25
264.964	63.25
265.197	83.25
265.429	81.25
265.661	75.25
265.894	71.25
266.126	91.25
266.358	74.25
266.591	91.25
266.823	78.25
267.055	80.25
267.287	88.25
267.52	81.25
267.752	81.25
267.984	79.25
268.216	81.25
268.448	88.25
268.681	79.25
268.913	83.25
269.145	86.25
269.377	76.25
269.609	96.25
269.841	80.25
270.073	72.25
270.306	82.25
270.538	76.25
270.77	88.25
271.002	80.25
271.234	79.25
271.466	88.25
271.698	77.25
271.93	90.25
272.162	77.25
272.394	79.25
272.626	79.25
272.858	77.25
273.09	71.25
273.322	85.25
273.553	69.25
273.785	69.25
274.017	80.25
274.249	73.25
274.481	86.25
274.713	54.25
274.945	90.25
275.176	73.25
275.408	76.25
275.64	77.25
275.872	63.25
276.104	70.25
276.335	84.25
276.567	85.25
276.799	85.25
277.031	76.25
277.262	82.25
277.494	86.25
277.726	85.25
277.957	78.25
278.189	94.25
278.421	73.25
278.652	83.25
278.884	81.25
279.115	86.25
279.347	78.25
279.579	82.25
279.81	73.25
280.042	69.25
280.273	69.25
280.505	80.25
280.736	84.25
280.968	71.25
281.199	83.25
281.431	87.25
281.662	75.25
281.894	80.25
282.125	90.25
282.356	68.25
282.588	87.25
282.819	84.25
283.051	82.25
283.282	73.25
283.513	87.25
283.745	80.25
283.976	86.25
284.207	79.25
284.439	83.25
284.67	92.25
284.901	76.25
285.132	71.25
285.364	77.25
285.595	72.25
285.826	81.25
286.057	87.25
286.288	91.25
286.52	64.25
286.751	81.25
286.982	79.25
287.213	67.25
287.444	73.25
287.675	84.25
287.906	92.25
288.138	89.25
288.369	84.25
288.6	84.25
288.831	88.25
289.062	94.25
289.293	80.25
289.524	78.25
289.755	75.25
289.986	71.25
290.217	89.25
290.448	79.25
290.679	76.25
290.91	88.25
291.141	65.25
291.371	79.25
291.602	78.25
291.833	74.25
292.064	84.25
292.295	73.25
292.526	89.25
292.757	83.25
292.987	68.25
293.218	71.25
293.449	101.25
293.68	92.25
293.91	88.25
294.141	90.25
294.372	94.25
294.603	75.25
294.833	77.25
295.064	87.25
295.295	83.25
295.525	94.25
295.756	76.25
295.987	77.25
296.217	78.25
296.448	83.25
296.679	87.25
296.909	79.25
297.14	95.25
297.37	87.25
297.601	63.25
297.831	77.25
298.062	91.25
298.292	87.25
298.523	86.25
298.753	75.25
298.984	84.25
299.214	80.25
299.445	98.25
299.675	84.25
299.905	81.25
300.136	78.25
300.366	80.25
300.597	87.25
300.827	97.25
301.057	87.25
301.288	81.25
301.518	78.25
301.748	85.25
301.979	82.25
302.209	81.25
302.439	68.25
302.669	65.25
302.9	81.25
303.13	74.25
303.36	81.25
303.59	87.25
303.82	71.25
304.051	77.25
304.281	71.25
304.511	81.25
304.741	81.25
304.971	78.25
305.201	85.25
305.431	79.25
305.661	86.25
305.891	80.25
306.121	88.25
306.352	79.25
306.582	94.25
306.812	92.25
307.042	77.25
307.272	71.25
307.502	91.25
307.731	86.25
307.961	85.25
308.191	92.25
308.421	79.25
308.651	77.25
308.881	86.25
309.111	86.25
309.341	76.25
309.571	87.25
309.8	75.25
310.03	70.25
310.26	85.25
310.49	79.25
310.72	79.25
310.949	77.25
311.179	80.25
311.409	77.25
311.639	81.25
311.868	86.25
312.098	92.25
312.328	88.25
312.557	86.25
312.787	81.25
313.017	84.25
313.246	78.25
313.476	90.25
313.706	79.25
313.935	87.25
314.165	83.25
314.394	77.25
314.624	80.25
314.853	87.25
315.083	91.25
315.312	83.25
315.542	77.25
315.771	84.25
316.001	74.25
316.23	90.25
316.46	66.25
316.689	64.25
316.919	76.25
317.148	72.25
317.377	86.25
317.607	87.25
317.836	91.25
318.065	72.25
318.295	87.25
318.524	68.25
318.753	83.25
318.983	79.25
319.212	82.25
319.441	83.25
319.67	90.25
319.9	80.25
320.129	92.25
320.358	82.25
320.587	75.25
320.816	83.25
321.046	81.25
321.275	90.25
321.504	83.25
321.733	82.25
321.962	87.25
322.191	86.25
322.42	78.25
322.649	87.25
322.878	93.25
323.108	89.25
323.337	73.25
323.566	73.25
323.795	79.25
324.024	72.25
324.253	91.25
324.482	80.25
324.71	73.25
324.939	92.25
325.168	85.25
325.397	81.25
325.626	95.25
325.855	88.25
326.084	78.25
326.313	85.25
326.542	90.25
326.77	79.25
326.999	75.25
327.228	76.25
327.457	91.25
327.686	83.25
327.914	100.25
328.143	82.25
328.372	78.25
328.6	91.25
328.829	83.25
329.058	86.25
329.287	93.25
329.515	98.25
329.744	78.25
329.972	100.25
330.201	91.25
330.43	81.25
330.658	75.25
330.887	87.25
331.115	86.25
331.344	92.25
331.572	80.25
331.801	85.25
332.03	81.25
332.258	72.25
332.486	76.25
332.715	81.25
332.943	72.25
333.172	86.25
333.4	80.25
333.629	84.25
333.857	79.25
334.085	79.25
334.314	69.25
334.542	86.25
334.771	88.25
334.999	77.25
335.227	94.25
335.455	91.25
335.684	76.25
335.912	77.25
336.14	85.25
336.369	71.25
336.597	87.25
336.825	82.25
337.053	84.25
337.281	64.25
337.51	77.25
337.738	84.25
337.966	91.25
338.194	79.25
338.422	78.25
338.65	94.25
338.878	93.25
339.106	76.25
339.334	99.25
339.562	85.25
339.79	81.25
340.018	91.25
340.246	76.25
340.474	90.25
340.702	83.25
340.93	77.25
341.158	93.25
341.386	76.25
341.614	81.25
341.842	81.25
342.07	86.25
342.298	63.25
342.526	86.25
342.754	81.25
342.981	91.25
343.209	95.25
343.437	89.25
343.665	78.25
343.893	69.25
344.12	86.25
344.348	75.25
344.576	80.25
344.804	77.25
345.031	83.25
345.259	91.25
345.487	98.25
345.714	81.25
345.942	79.25
346.17	88.25
346.397	95.25
346.625	83.25
346.853	69.25
347.08	89.25
347.308	70.25
347.535	66.25
347.763	81.25
347.99	84.25
348.218	89.25
348.445	91.25
348.673	78.25
348.9	72.25
349.128	92.25
349.355	93.25
349.583	89.25
349.81	81.25
350.037	69.25
350.265	88.25
350.492	81.25
350.72	85.25
350.947	82.25
351.174	88.25
351.402	88.25
351.629	80.25
351.856	88.25
352.083	79.25
352.311	75.25
352.538	77.25
352.765	86.25
352.992	84.25
353.22	99.25
353.447	85.25
353.674	80.25
353.901	77.25
354.128	81.25
354.355	81.25
354.583	66.25
354.81	76.25
355.037	92.25
355.264	78.25
355.491	84.25
355.718	76.25
355.945	86.25
356.172	97.25
356.399	90.25
356.626	85.25
356.853	93.25
357.08	73.25
357.307	85.25
357.534	102.25
357.761	78.25
357.988	80.25
358.215	81.25
358.441	92.25
358.668	73.25
358.895	80.25
359.122	89.25
359.349	68.25
359.576	83.25
359.802	88.25
360.029	89.25
360.256	97.25
360.483	83.25
360.709	78.25
360.936	79.25
361.163	77.25
361.39	80.25
361.616	86.25
361.843	87.25
362.07	83.25
362.296	74.25
362.523	86.25
362.749	93.25
362.976	79.25
363.203	70.25
363.429	75.25
363.656	79.25
363.882	70.25
364.109	78.25
364.335	91.25
364.562	80.25
364.788	78.25
365.015	81.25
365.241	65.25
365.468	78.25
365.694	67.25
365.92	73.25
366.147	76.25
366.373	87.25
366.599	84.25
366.826	71.25
367.052	74.25
367.278	83.25
367.505	74.25
367.731	89.25
367.957	92.25
368.184	75.25
368.41	76.25
368.636	88.25
368.862	99.25
369.089	77.25
369.315	87.25
369.541	83.25
369.767	84.25
369.993	88.25
370.219	84.25
370.445	84.25
370.672	83.25
370.898	82.25
371.124	75.25
371.35	70.25
371.576	96.25
371.802	93.25
372.028	77.25
372.254	92.25
372.48	77.25
372.706	83.25
372.932	79.25
373.158	77.25
373.384	79.25
373.61	98.25
373.835	70.25
374.061	66.25
374.287	95.25
374.513	83.25
374.739	81.25
374.965	91.25
375.191	84.25
375.416	73.25
375.642	86.25
375.868	95.25
376.094	84.25
376.319	88.25
376.545	89.25
376.771	83.25
376.997	73.25
377.222	65.25
377.448	73.25
377.674	81.25
377.899	90.25
378.125	71.25
378.35	87.25
378.576	78.25
378.802	84.25
379.027	91.25
379.253	66.25
379.478	69.25
379.704	93.25
379.929	77.25
380.155	81.25
380.38	80.25
380.606	67.25
380.831	86.25
381.057	93.25
381.282	78.25
381.507	78.25
381.733	73.25
381.958	81.25
382.184	89.25
382.409	78.25
382.634	90.25
382.86	82.25
383.085	78.25
383.31	94.25
383.535	95.25
383.761	91.25
383.986	81.25
384.211	91.25
384.436	80.25
384.662	85.25
384.887	86.25
385.112	90.25
385.337	100.25
385.562	91.25
385.787	78.25
386.013	76.25
386.238	93.25
386.463	89.25
386.688	87.25
386.913	85.25
387.138	82.25
387.363	89.25
387.588	89.25
387.813	93.25
388.038	79.25
388.263	88.25
388.488	87.25
388.713	84.25
388.938	79.25
389.163	83.25
389.387	89.25
389.612	99.25
389.837	81.25
390.062	91.25
390.287	83.25
390.512	75.25
390.736	71.25
390.961	81.25
391.186	98.25
391.411	91.25
391.636	89.25
391.86	94.25
392.085	88.25
392.31	97.25
392.534	80.25
392.759	82.25
392.984	84.25
393.208	79.25
393.433	78.25
393.658	80.25
393.882	74.25
394.107	71.25
394.331	82.25
394.556	79.25
394.78	84.25
395.005	88.25
395.229	76.25
395.454	84.25
395.678	91.25
395.903	79.25
396.127	77.25
396.352	91.25
396.576	87.25
396.801	93.25
397.025	83.25
397.249	76.25
397.474	83.25
397.698	83.25
397.922	87.25
398.147	88.25
398.371	81.25
398.595	83.25
398.82	70.25
399.044	74.25
399.268	77.25
399.492	76.25
399.717	86.25
399.941	83.25
400.165	87.25
400.389	80.25
400.613	88.25
400.837	84.25
401.062	86.25
401.286	81.25
401.51	80.25
401.734	78.25
401.958	88.25
402.182	79.25
402.406	70.25
402.63	79.25
402.854	89.25
403.078	86.25
403.302	83.25
403.526	88.25
403.75	88.25
403.974	78.25
404.198	78.25
404.422	87.25
404.645	77.25
404.869	93.25
405.093	82.25
405.317	88.25
405.541	95.25
405.765	78.25
405.988	85.25
406.212	92.25
406.436	88.25
406.66	96.25
406.883	85.25
407.107	82.25
407.331	94.25
407.555	92.25
407.778	80.25
408.002	94.25
408.226	81.25
408.449	83.25
408.673	89.25
408.896	93.25
409.12	86.25
409.344	87.25
409.567	88.25
409.791	85.25
410.014	81.25
410.238	94.25
410.461	81.25
410.685	81.25
410.908	83.25
411.132	85.25
411.355	103.25
411.578	101.25
411.802	91.25
412.025	84.25
412.249	76.25
412.472	92.25
412.695	83.25
412.919	85.25
413.142	88.25
413.365	97.25
413.589	79.25
413.812	98.25
414.035	87.25
414.258	77.25
414.482	89.25
414.705	87.25
414.928	73.25
415.151	84.25
415.374	82.25
415.597	80.25
415.821	92.25
416.044	97.25
416.267	99.25
416.49	93.25
416.713	75.25
416.936	99.25
417.159	82.25
417.382	73.25
417.605	85.25
417.828	68.25
418.051	97.25
418.274	103.25
418.497	90.25
418.72	98.25
418.943	90.25
419.166	89.25
419.389	89.25
419.611	97.25
419.834	86.25
420.057	85.25
420.28	93.25
420.503	82.25
420.726	96.25
420.948	98.25
421.171	76.25
421.394	89.25
421.617	102.25
421.839	95.25
422.062	95.25
422.285	101.25
422.507	79.25
422.73	90.25
422.953	83.25
423.175	93.25
423.398	92.25
423.621	75.25
423.843	73.25
424.066	97.25
424.288	102.25
424.511	85.25
424.733	85.25
424.956	93.25
425.178	83.25
425.401	80.25
425.623	95.25
425.846	89.25
426.068	91.25
426.291	81.25
426.513	85.25
426.735	102.25
426.958	95.25
427.18	88.25
427.402	92.25
427.625	76.25
427.847	95.25
428.069	88.25
428.292	97.25
428.514	93.25
428.736	91.25
428.958	77.25
429.181	101.25
429.403	112.25
429.625	90.25
429.847	76.25
430.069	92.25
430.292	89.25
430.514	86.25
430.736	90.25
430.958	101.25
431.18	98.25
431.402	97.25
431.624	83.25
431.846	86.25
432.068	97.25
432.29	84.25
432.512	87.25
432.734	96.25
432.956	88.25
433.178	93.25
433.4	87.25
433.622	97.25
433.844	86.25
434.066	79.25
434.287	71.25
434.509	79.25
434.731	85.25
434.953	88.25
435.175	75.25
435.397	96.25
435.618	90.25
435.84	76.25
436.062	71.25
436.284	91.25
436.505	86.25
436.727	105.25
436.949	93.25
437.17	86.25
437.392	97.25
437.614	84.25
437.835	88.25
438.057	92.25
438.278	86.25
438.5	88.25
438.721	108.25
438.943	95.25
439.165	80.25
439.386	93.25
439.608	101.25
439.829	89.25
440.05	101.25
440.272	82.25
440.493	87.25
440.715	83.25
440.936	94.25
441.158	99.25
441.379	95.25
441.6	103.25
441.822	105.25
442.043	105.25
442.264	99.25
442.486	99.25
442.707	83.25
442.928	85.25
443.149	76.25
443.371	97.25
443.592	91.25
443.813	100.25
444.034	97.25
444.255	94.25
444.476	99.25
444.698	99.25
444.919	84.25
445.14	173.25
445.361	131.25
445.582	96.25
445.803	85.25
446.024	95.25
446.245	98.25
446.466	94.25
446.687	104.25
446.908	95.25
447.129	99.25
447.35	94.25
447.571	102.25
447.792	105.25
448.013	91.25
448.234	99.25
448.455	90.25
448.675	97.25
448.896	101.25
449.117	82.25
449.338	106.25
449.559	90.25
449.779	94.25
450	87.25
450.221	96.25
450.442	99.25
450.662	96.25
450.883	94.25
451.104	84.25
451.324	86.25
451.545	85.25
451.766	86.25
451.986	88.25
452.207	92.25
452.428	93.25
452.648	82.25
452.869	71.25
453.089	71.25
453.31	78.25
453.53	87.25
453.751	92.25
453.971	74.25
454.192	94.25
454.412	67.25
454.633	81.25
454.853	83.25
455.073	77.25
455.294	99.25
455.514	86.25
455.734	83.25
455.955	110.25
456.175	87.25
456.395	89.25
456.616	98.25
456.836	88.25
457.056	84.25
457.276	83.25
457.497	88.25
457.717	95.25
457.937	85.25
458.157	82.25
458.377	84.25
458.598	76.25
458.818	88.25
459.038	93.25
459.258	91.25
459.478	92.25
459.698	80.25
459.918	87.25
460.138	87.25
460.358	93.25
460.578	85.25
460.798	89.25
461.018	86.25
461.238	91.25
461.458	90.25
461.678	88.25
461.898	83.25
462.118	85.25
462.338	87.25
462.558	87.25
462.777	98.25
462.997	94.25
463.217	99.25
463.437	81.25
463.657	86.25
463.876	94.25
464.096	95.25
464.316	89.25
464.536	88.25
464.755	100.25
464.975	93.25
465.195	91.25
465.414	91.25
465.634	88.25
465.854	93.25
466.073	109.25
466.293	99.25
466.512	74.25
466.732	95.25
466.951	79.25
467.171	90.25
467.391	97.25
467.61	88.25
467.829	94.25
468.049	78.25
468.268	88.25
468.488	88.25
468.707	91.25
468.927	91.25
469.146	99.25
469.365	101.25
469.585	97.25
469.804	99.25
470.023	108.25
470.243	107.25
470.462	100.25
470.681	81.25
470.901	91.25
471.12	96.25
471.339	93.25
471.558	94.25
471.777	82.25
471.997	93.25
472.216	81.25
472.435	95.25
472.654	81.25
472.873	93.25
473.092	73.25
473.311	86.25
473.53	85.25
473.749	98.25
473.968	100.25
474.187	85.25
474.406	100.25
474.625	92.25
474.844	97.25
475.063	80.25
475.282	84.25
475.501	78.25
475.72	98.25
475.939	96.25
476.158	89.25
476.377	90.25
476.596	96.25
476.814	86.25
477.033	80.25
477.252	83.25
477.471	94.25
477.69	92.25
477.908	93.25
478.127	89.25
478.346	96.25
478.564	110.25
478.783	102.25
479.002	85.25
479.22	91.25
479.439	98.25
479.658	91.25
479.876	100.25
480.095	77.25
480.313	91.25
480.532	90.25
480.751	86.25
480.969	84.25
481.188	86.25
481.406	93.25
481.624	87.25
481.843	63.25
482.061	83.25
482.28	91.25
482.498	80.25
482.717	88.25
482.935	115.25
483.153	85.25
483.372	84.25
483.59	99.25
483.808	93.25
484.027	93.25
484.245	96.25
484.463	94.25
484.681	104.25
484.9	90.25
485.118	104.25
485.336	97.25
485.554	91.25
485.772	87.25
485.99	83.25
486.209	78.25
486.427	59.25
486.645	88.25
486.863	94.25
487.081	102.25
487.299	96.25
487.517	109.25
487.735	107.25
487.953	110.25
488.171	115.25
488.389	103.25
488.607	92.25
488.825	94.25
489.043	82.25
489.261	103.25
489.479	102.25
489.696	99.25
489.914	87.25
490.132	97.25
490.35	100.25
490.568	118.25
490.786	99.25
491.003	103.25
491.221	95.25
491.439	103.25
491.657	111.25
491.874	111.25
492.092	122.25
492.31	126.25
492.527	112.25
492.745	105.25
492.963	106.25
493.18	99.25
493.398	98.25
493.615	99.25
493.833	118.25
494.05	91.25
494.268	109.25
494.485	108.25
494.703	111.25
494.92	109.25
495.138	114.25
495.355	115.25
495.573	104.25
495.79	105.25
496.008	100.25
496.225	115.25
496.442	109.25
496.66	113.25
496.877	101.25
497.094	100.25
497.312	103.25
497.529	91.25
497.746	110.25
497.963	84.25
498.181	87.25
498.398	92.25
498.615	77.25
498.832	98.25
499.049	88.25
499.267	84.25
499.484	98.25
499.701	96.25
499.918	111.25
500.135	97.25
500.352	107.25
500.569	87.25
500.786	100.25
501.003	87.25
501.22	82.25
501.437	91.25
501.654	93.25
501.871	94.25
502.088	99.25
502.305	82.25
502.522	82.25
502.739	98.25
502.956	107.25
503.172	94.25
503.389	91.25
503.606	83.25
503.823	88.25
504.04	94.25
504.256	87.25
504.473	86.25
504.69	93.25
504.907	99.25
505.123	80.25
505.34	92.25
505.557	86.25
505.773	108.25
505.99	92.25
506.207	82.25
506.423	89.25
506.64	109.25
506.856	87.25
507.073	90.25
507.289	99.25
507.506	93.25
507.722	87.25
507.939	78.25
508.155	77.25
508.372	84.25
508.588	95.25
508.805	83.25
509.021	87.25
509.238	88.25
509.454	75.25
509.67	85.25
509.887	88.25
510.103	94.25
510.319	70.25
510.536	73.25
510.752	88.25
510.968	90.25
511.184	87.25
511.401	85.25
511.617	84.25
511.833	86.25
512.049	75.25
512.265	94.25
512.481	92.25
512.698	91.25
512.914	97.25
513.13	95.25
513.346	79.25
513.562	78.25
513.778	89.25
513.994	80.25
514.21	86.25
514.426	88.25
514.642	83.25
514.858	81.25
515.074	91.25
515.29	80.25
515.506	83.25
515.721	96.25
515.937	75.25
516.153	79.25
516.369	83.25
516.585	78.25
516.801	93.25
517.016	83.25
517.232	98.25
517.448	80.25
517.664	77.25
517.879	90.25
518.095	78.25
518.311	65.25
