Data from Location4.07152019.Energy5.Lamp.07192019.3%Agarose_HRD10591_15-24-52-578.txt Node
Date: Fri Jul 19 15:24:52 EDT 2019
User: cochatt
Spectrometer: HR+D1059
Trigger mode: 1
Integration Time (sec): 1.000000E-1
Scans to average: 1
Electric dark correction enabled: true
Nonlinearity correction enabled: false
Boxcar width: 0
XAxis mode: Wavelengths
Number of Pixels in Spectrum: 2048
>>>>>Begin Spectral Data<<<<<
223.165	-13.44
223.4	-13.44
223.635	-13.44
223.869	-1.44
224.104	-15.44
224.338	-24.44
224.573	-17.44
224.808	-23.44
225.042	2.56
225.277	-13.44
225.511	9.56
225.746	-0.44
225.98	-3.44
226.215	6.56
226.449	11.56
226.683	19.56
226.918	25.56
227.152	37.56
227.387	41.56
227.621	30.56
227.856	46.56
228.09	41.56
228.324	43.56
228.559	57.56
228.793	62.56
229.027	64.56
229.262	60.56
229.496	66.56
229.73	70.56
229.964	65.56
230.199	72.56
230.433	72.56
230.667	79.56
230.901	59.56
231.136	55.56
231.37	66.56
231.604	79.56
231.838	76.56
232.072	75.56
232.306	69.56
232.541	73.56
232.775	78.56
233.009	77.56
233.243	85.56
233.477	94.56
233.711	77.56
233.945	78.56
234.179	90.56
234.413	85.56
234.647	94.56
234.881	79.56
235.115	77.56
235.349	96.56
235.583	76.56
235.817	87.56
236.051	90.56
236.285	88.56
236.519	71.56
236.753	91.56
236.987	80.56
237.221	79.56
237.455	70.56
237.689	78.56
237.922	68.56
238.156	75.56
238.39	74.56
238.624	72.56
238.858	88.56
239.091	79.56
239.325	83.56
239.559	91.56
239.793	92.56
240.027	67.56
240.26	80.56
240.494	70.56
240.728	70.56
240.961	79.56
241.195	80.56
241.429	73.56
241.662	80.56
241.896	66.56
242.13	76.56
242.363	89.56
242.597	91.56
242.83	72.56
243.064	76.56
243.298	82.56
243.531	69.56
243.765	78.56
243.998	78.56
244.232	79.56
244.465	94.56
244.699	75.56
244.932	78.56
245.166	78.56
245.399	90.56
245.633	81.56
245.866	82.56
246.099	77.56
246.333	73.56
246.566	77.56
246.8	85.56
247.033	83.56
247.266	65.56
247.5	82.56
247.733	71.56
247.966	82.56
248.2	69.56
248.433	78.56
248.666	90.56
248.899	87.56
249.133	69.56
249.366	83.56
249.599	82.56
249.832	69.56
250.066	76.56
250.299	76.56
250.532	79.56
250.765	71.56
250.998	80.56
251.231	74.56
251.465	80.56
251.698	79.56
251.931	84.56
252.164	78.56
252.397	89.56
252.63	81.56
252.863	76.56
253.096	91.56
253.329	78.56
253.562	87.56
253.795	78.56
254.028	80.56
254.261	76.56
254.494	70.56
254.727	93.56
254.96	86.56
255.193	84.56
255.426	85.56
255.659	84.56
255.892	75.56
256.124	78.56
256.357	97.56
256.59	78.56
256.823	76.56
257.056	71.56
257.289	77.56
257.521	74.56
257.754	83.56
257.987	84.56
258.22	83.56
258.452	91.56
258.685	80.56
258.918	96.56
259.151	90.56
259.383	65.56
259.616	76.56
259.849	71.56
260.081	80.56
260.314	86.56
260.547	72.56
260.779	82.56
261.012	78.56
261.244	77.56
261.477	99.56
261.71	75.56
261.942	65.56
262.175	82.56
262.407	64.56
262.64	90.56
262.872	84.56
263.105	82.56
263.337	75.56
263.57	73.56
263.802	80.56
264.035	83.56
264.267	77.56
264.499	84.56
264.732	74.56
264.964	97.56
265.197	86.56
265.429	81.56
265.661	88.56
265.894	80.56
266.126	85.56
266.358	84.56
266.591	81.56
266.823	88.56
267.055	88.56
267.287	75.56
267.52	98.56
267.752	87.56
267.984	76.56
268.216	86.56
268.448	93.56
268.681	82.56
268.913	75.56
269.145	70.56
269.377	72.56
269.609	86.56
269.841	85.56
270.073	87.56
270.306	95.56
270.538	76.56
270.77	78.56
271.002	90.56
271.234	82.56
271.466	85.56
271.698	82.56
271.93	100.56
272.162	95.56
272.394	91.56
272.626	78.56
272.858	76.56
273.09	88.56
273.322	76.56
273.553	76.56
273.785	86.56
274.017	88.56
274.249	71.56
274.481	80.56
274.713	80.56
274.945	80.56
275.176	86.56
275.408	81.56
275.64	95.56
275.872	85.56
276.104	76.56
276.335	85.56
276.567	80.56
276.799	69.56
277.031	92.56
277.262	70.56
277.494	82.56
277.726	87.56
277.957	84.56
278.189	90.56
278.421	85.56
278.652	91.56
278.884	87.56
279.115	70.56
279.347	101.56
279.579	89.56
279.81	77.56
280.042	79.56
280.273	76.56
280.505	66.56
280.736	70.56
280.968	84.56
281.199	75.56
281.431	83.56
281.662	82.56
281.894	71.56
282.125	79.56
282.356	89.56
282.588	91.56
282.819	83.56
283.051	75.56
283.282	72.56
283.513	79.56
283.745	78.56
283.976	85.56
284.207	90.56
284.439	87.56
284.67	90.56
284.901	66.56
285.132	72.56
285.364	77.56
285.595	98.56
285.826	89.56
286.057	76.56
286.288	75.56
286.52	80.56
286.751	82.56
286.982	83.56
287.213	94.56
287.444	82.56
287.675	74.56
287.906	88.56
288.138	72.56
288.369	81.56
288.6	86.56
288.831	82.56
289.062	72.56
289.293	82.56
289.524	79.56
289.755	92.56
289.986	83.56
290.217	96.56
290.448	73.56
290.679	82.56
290.91	74.56
291.141	92.56
291.371	89.56
291.602	72.56
291.833	77.56
292.064	91.56
292.295	89.56
292.526	81.56
292.757	88.56
292.987	65.56
293.218	88.56
293.449	87.56
293.68	76.56
293.91	83.56
294.141	96.56
294.372	88.56
294.603	84.56
294.833	88.56
295.064	88.56
295.295	78.56
295.525	74.56
295.756	91.56
295.987	91.56
296.217	75.56
296.448	75.56
296.679	81.56
296.909	81.56
297.14	91.56
297.37	86.56
297.601	87.56
297.831	80.56
298.062	101.56
298.292	80.56
298.523	84.56
298.753	88.56
298.984	83.56
299.214	75.56
299.445	85.56
299.675	86.56
299.905	69.56
300.136	88.56
300.366	68.56
300.597	80.56
300.827	85.56
301.057	82.56
301.288	84.56
301.518	92.56
301.748	68.56
301.979	81.56
302.209	88.56
302.439	82.56
302.669	84.56
302.9	79.56
303.13	76.56
303.36	75.56
303.59	92.56
303.82	99.56
304.051	95.56
304.281	85.56
304.511	65.56
304.741	79.56
304.971	75.56
305.201	83.56
305.431	82.56
305.661	81.56
305.891	72.56
306.121	97.56
306.352	97.56
306.582	94.56
306.812	99.56
307.042	87.56
307.272	71.56
307.502	84.56
307.731	87.56
307.961	82.56
308.191	85.56
308.421	75.56
308.651	80.56
308.881	89.56
309.111	90.56
309.341	84.56
309.571	92.56
309.8	84.56
310.03	92.56
310.26	86.56
310.49	79.56
310.72	60.56
310.949	75.56
311.179	94.56
311.409	79.56
311.639	77.56
311.868	88.56
312.098	87.56
312.328	82.56
312.557	81.56
312.787	83.56
313.017	74.56
313.246	86.56
313.476	78.56
313.706	84.56
313.935	81.56
314.165	86.56
314.394	82.56
314.624	83.56
314.853	84.56
315.083	81.56
315.312	78.56
315.542	72.56
315.771	83.56
316.001	80.56
316.23	87.56
316.46	88.56
316.689	95.56
316.919	72.56
317.148	80.56
317.377	78.56
317.607	90.56
317.836	92.56
318.065	87.56
318.295	79.56
318.524	79.56
318.753	82.56
318.983	72.56
319.212	90.56
319.441	81.56
319.67	91.56
319.9	95.56
320.129	93.56
320.358	88.56
320.587	84.56
320.816	88.56
321.046	95.56
321.275	81.56
321.504	74.56
321.733	86.56
321.962	78.56
322.191	81.56
322.42	70.56
322.649	101.56
322.878	79.56
323.108	73.56
323.337	82.56
323.566	71.56
323.795	80.56
324.024	78.56
324.253	81.56
324.482	84.56
324.71	69.56
324.939	85.56
325.168	86.56
325.397	75.56
325.626	85.56
325.855	78.56
326.084	81.56
326.313	83.56
326.542	87.56
326.77	70.56
326.999	75.56
327.228	85.56
327.457	89.56
327.686	76.56
327.914	90.56
328.143	79.56
328.372	85.56
328.6	96.56
328.829	91.56
329.058	73.56
329.287	83.56
329.515	78.56
329.744	98.56
329.972	96.56
330.201	82.56
330.43	81.56
330.658	76.56
330.887	74.56
331.115	80.56
331.344	87.56
331.572	91.56
331.801	90.56
332.03	81.56
332.258	80.56
332.486	86.56
332.715	81.56
332.943	85.56
333.172	80.56
333.4	78.56
333.629	89.56
333.857	74.56
334.085	83.56
334.314	93.56
334.542	92.56
334.771	78.56
334.999	89.56
335.227	94.56
335.455	96.56
335.684	73.56
335.912	64.56
336.14	76.56
336.369	95.56
336.597	82.56
336.825	75.56
337.053	83.56
337.281	82.56
337.51	95.56
337.738	89.56
337.966	95.56
338.194	87.56
338.422	65.56
338.65	85.56
338.878	91.56
339.106	84.56
339.334	87.56
339.562	96.56
339.79	70.56
340.018	85.56
340.246	72.56
340.474	84.56
340.702	92.56
340.93	92.56
341.158	79.56
341.386	72.56
341.614	84.56
341.842	86.56
342.07	73.56
342.298	82.56
342.526	80.56
342.754	87.56
342.981	91.56
343.209	85.56
343.437	82.56
343.665	81.56
343.893	66.56
344.12	72.56
344.348	88.56
344.576	94.56
344.804	85.56
345.031	73.56
345.259	83.56
345.487	76.56
345.714	74.56
345.942	83.56
346.17	82.56
346.397	84.56
346.625	92.56
346.853	90.56
347.08	89.56
347.308	87.56
347.535	72.56
347.763	74.56
347.99	79.56
348.218	76.56
348.445	76.56
348.673	97.56
348.9	91.56
349.128	95.56
349.355	89.56
349.583	87.56
349.81	87.56
350.037	98.56
350.265	91.56
350.492	90.56
350.72	71.56
350.947	80.56
351.174	92.56
351.402	97.56
351.629	94.56
351.856	89.56
352.083	82.56
352.311	74.56
352.538	75.56
352.765	84.56
352.992	88.56
353.22	69.56
353.447	80.56
353.674	95.56
353.901	82.56
354.128	89.56
354.355	78.56
354.583	82.56
354.81	81.56
355.037	76.56
355.264	84.56
355.491	70.56
355.718	75.56
355.945	83.56
356.172	68.56
356.399	90.56
356.626	84.56
356.853	83.56
357.08	76.56
357.307	99.56
357.534	84.56
357.761	79.56
357.988	92.56
358.215	86.56
358.441	82.56
358.668	90.56
358.895	79.56
359.122	87.56
359.349	86.56
359.576	78.56
359.802	78.56
360.029	85.56
360.256	91.56
360.483	87.56
360.709	67.56
360.936	83.56
361.163	89.56
361.39	78.56
361.616	76.56
361.843	87.56
362.07	74.56
362.296	84.56
362.523	86.56
362.749	73.56
362.976	87.56
363.203	98.56
363.429	78.56
363.656	81.56
363.882	82.56
364.109	78.56
364.335	88.56
364.562	75.56
364.788	74.56
365.015	79.56
365.241	74.56
365.468	75.56
365.694	82.56
365.92	84.56
366.147	85.56
366.373	75.56
366.599	82.56
366.826	95.56
367.052	85.56
367.278	69.56
367.505	73.56
367.731	86.56
367.957	91.56
368.184	76.56
368.41	83.56
368.636	91.56
368.862	83.56
369.089	86.56
369.315	75.56
369.541	88.56
369.767	86.56
369.993	71.56
370.219	88.56
370.445	70.56
370.672	88.56
370.898	84.56
371.124	79.56
371.35	82.56
371.576	84.56
371.802	77.56
372.028	78.56
372.254	75.56
372.48	88.56
372.706	84.56
372.932	89.56
373.158	69.56
373.384	76.56
373.61	89.56
373.835	94.56
374.061	83.56
374.287	89.56
374.513	84.56
374.739	95.56
374.965	87.56
375.191	74.56
375.416	71.56
375.642	82.56
375.868	88.56
376.094	68.56
376.319	79.56
376.545	90.56
376.771	89.56
376.997	80.56
377.222	71.56
377.448	81.56
377.674	90.56
377.899	82.56
378.125	79.56
378.35	70.56
378.576	85.56
378.802	84.56
379.027	85.56
379.253	93.56
379.478	102.56
379.704	77.56
379.929	64.56
380.155	85.56
380.38	83.56
380.606	88.56
380.831	96.56
381.057	76.56
381.282	78.56
381.507	86.56
381.733	85.56
381.958	107.56
382.184	94.56
382.409	77.56
382.634	82.56
382.86	96.56
383.085	93.56
383.31	83.56
383.535	85.56
383.761	81.56
383.986	81.56
384.211	90.56
384.436	77.56
384.662	80.56
384.887	85.56
385.112	73.56
385.337	92.56
385.562	63.56
385.787	73.56
386.013	84.56
386.238	76.56
386.463	79.56
386.688	85.56
386.913	72.56
387.138	83.56
387.363	78.56
387.588	89.56
387.813	93.56
388.038	91.56
388.263	76.56
388.488	75.56
388.713	79.56
388.938	86.56
389.163	86.56
389.387	84.56
389.612	84.56
389.837	89.56
390.062	91.56
390.287	96.56
390.512	92.56
390.736	75.56
390.961	86.56
391.186	93.56
391.411	96.56
391.636	88.56
391.86	80.56
392.085	76.56
392.31	67.56
392.534	77.56
392.759	92.56
392.984	104.56
393.208	86.56
393.433	73.56
393.658	86.56
393.882	71.56
394.107	74.56
394.331	76.56
394.556	94.56
394.78	92.56
395.005	83.56
395.229	73.56
395.454	97.56
395.678	75.56
395.903	95.56
396.127	93.56
396.352	82.56
396.576	82.56
396.801	90.56
397.025	78.56
397.249	107.56
397.474	90.56
397.698	68.56
397.922	81.56
398.147	90.56
398.371	80.56
398.595	80.56
398.82	88.56
399.044	93.56
399.268	74.56
399.492	69.56
399.717	91.56
399.941	84.56
400.165	89.56
400.389	80.56
400.613	88.56
400.837	85.56
401.062	98.56
401.286	80.56
401.51	76.56
401.734	79.56
401.958	79.56
402.182	87.56
402.406	99.56
402.63	92.56
402.854	106.56
403.078	82.56
403.302	73.56
403.526	101.56
403.75	84.56
403.974	94.56
404.198	92.56
404.422	91.56
404.645	79.56
404.869	87.56
405.093	99.56
405.317	103.56
405.541	81.56
405.765	74.56
405.988	95.56
406.212	82.56
406.436	76.56
406.66	91.56
406.883	93.56
407.107	100.56
407.331	76.56
407.555	87.56
407.778	96.56
408.002	93.56
408.226	96.56
408.449	97.56
408.673	85.56
408.896	95.56
409.12	100.56
409.344	92.56
409.567	89.56
409.791	84.56
410.014	83.56
410.238	80.56
410.461	88.56
410.685	85.56
410.908	99.56
411.132	92.56
411.355	76.56
411.578	83.56
411.802	84.56
412.025	75.56
412.249	88.56
412.472	104.56
412.695	87.56
412.919	94.56
413.142	95.56
413.365	94.56
413.589	83.56
413.812	75.56
414.035	82.56
414.258	101.56
414.482	91.56
414.705	81.56
414.928	98.56
415.151	97.56
415.374	87.56
415.597	102.56
415.821	97.56
416.044	98.56
416.267	96.56
416.49	90.56
416.713	92.56
416.936	91.56
417.159	103.56
417.382	71.56
417.605	90.56
417.828	92.56
418.051	76.56
418.274	99.56
418.497	89.56
418.72	104.56
418.943	94.56
419.166	97.56
419.389	95.56
419.611	96.56
419.834	96.56
420.057	98.56
420.28	89.56
420.503	92.56
420.726	94.56
420.948	80.56
421.171	78.56
421.394	104.56
421.617	99.56
421.839	96.56
422.062	88.56
422.285	110.56
422.507	96.56
422.73	86.56
422.953	102.56
423.175	92.56
423.398	90.56
423.621	90.56
423.843	90.56
424.066	86.56
424.288	104.56
424.511	105.56
424.733	89.56
424.956	88.56
425.178	95.56
425.401	92.56
425.623	84.56
425.846	84.56
426.068	89.56
426.291	86.56
426.513	75.56
426.735	92.56
426.958	87.56
427.18	91.56
427.402	91.56
427.625	94.56
427.847	94.56
428.069	105.56
428.292	93.56
428.514	107.56
428.736	103.56
428.958	97.56
429.181	89.56
429.403	101.56
429.625	89.56
429.847	87.56
430.069	89.56
430.292	105.56
430.514	87.56
430.736	88.56
430.958	90.56
431.18	99.56
431.402	91.56
431.624	94.56
431.846	84.56
432.068	92.56
432.29	85.56
432.512	80.56
432.734	99.56
432.956	81.56
433.178	99.56
433.4	87.56
433.622	95.56
433.844	91.56
434.066	96.56
434.287	77.56
434.509	72.56
434.731	73.56
434.953	83.56
435.175	99.56
435.397	107.56
435.618	80.56
435.84	79.56
436.062	89.56
436.284	75.56
436.505	85.56
436.727	86.56
436.949	91.56
437.17	94.56
437.392	98.56
437.614	96.56
437.835	82.56
438.057	80.56
438.278	81.56
438.5	79.56
438.721	90.56
438.943	91.56
439.165	90.56
439.386	84.56
439.608	88.56
439.829	89.56
440.05	95.56
440.272	87.56
440.493	97.56
440.715	94.56
440.936	104.56
441.158	90.56
441.379	91.56
441.6	99.56
441.822	94.56
442.043	86.56
442.264	103.56
442.486	98.56
442.707	100.56
442.928	96.56
443.149	82.56
443.371	99.56
443.592	96.56
443.813	90.56
444.034	93.56
444.255	91.56
444.476	85.56
444.698	86.56
444.919	95.56
445.14	218.56
445.361	149.56
445.582	94.56
445.803	96.56
446.024	111.56
446.245	107.56
446.466	94.56
446.687	90.56
446.908	105.56
447.129	99.56
447.35	98.56
447.571	89.56
447.792	99.56
448.013	103.56
448.234	90.56
448.455	88.56
448.675	74.56
448.896	101.56
449.117	92.56
449.338	92.56
449.559	79.56
449.779	90.56
450	97.56
450.221	89.56
450.442	93.56
450.662	93.56
450.883	97.56
451.104	83.56
451.324	91.56
451.545	90.56
451.766	99.56
451.986	83.56
452.207	105.56
452.428	92.56
452.648	95.56
452.869	87.56
453.089	86.56
453.31	97.56
453.53	90.56
453.751	80.56
453.971	75.56
454.192	82.56
454.412	88.56
454.633	101.56
454.853	81.56
455.073	91.56
455.294	106.56
455.514	90.56
455.734	90.56
455.955	96.56
456.175	91.56
456.395	90.56
456.616	74.56
456.836	85.56
457.056	84.56
457.276	78.56
457.497	74.56
457.717	106.56
457.937	90.56
458.157	68.56
458.377	80.56
458.598	87.56
458.818	84.56
459.038	83.56
459.258	89.56
459.478	75.56
459.698	92.56
459.918	84.56
460.138	94.56
460.358	99.56
460.578	81.56
460.798	94.56
461.018	81.56
461.238	89.56
461.458	94.56
461.678	85.56
461.898	88.56
462.118	93.56
462.338	87.56
462.558	93.56
462.777	90.56
462.997	85.56
463.217	95.56
463.437	94.56
463.657	71.56
463.876	78.56
464.096	96.56
464.316	90.56
464.536	93.56
464.755	88.56
464.975	101.56
465.195	88.56
465.414	90.56
465.634	87.56
465.854	91.56
466.073	94.56
466.293	88.56
466.512	92.56
466.732	94.56
466.951	95.56
467.171	88.56
467.391	90.56
467.61	95.56
467.829	94.56
468.049	96.56
468.268	93.56
468.488	90.56
468.707	96.56
468.927	95.56
469.146	100.56
469.365	102.56
469.585	103.56
469.804	89.56
470.023	86.56
470.243	98.56
470.462	95.56
470.681	99.56
470.901	104.56
471.12	96.56
471.339	86.56
471.558	90.56
471.777	92.56
471.997	85.56
472.216	92.56
472.435	98.56
472.654	87.56
472.873	94.56
473.092	90.56
473.311	100.56
473.53	90.56
473.749	100.56
473.968	101.56
474.187	95.56
474.406	84.56
474.625	96.56
474.844	96.56
475.063	90.56
475.282	107.56
475.501	82.56
475.72	84.56
475.939	80.56
476.158	94.56
476.377	87.56
476.596	87.56
476.814	95.56
477.033	89.56
477.252	102.56
477.471	100.56
477.69	86.56
477.908	101.56
478.127	94.56
478.346	95.56
478.564	102.56
478.783	103.56
479.002	92.56
479.22	97.56
479.439	87.56
479.658	81.56
479.876	78.56
480.095	91.56
480.313	83.56
480.532	94.56
480.751	93.56
480.969	89.56
481.188	70.56
481.406	76.56
481.624	79.56
481.843	92.56
482.061	100.56
482.28	97.56
482.498	84.56
482.717	98.56
482.935	89.56
483.153	92.56
483.372	108.56
483.59	105.56
483.808	88.56
484.027	87.56
484.245	107.56
484.463	96.56
484.681	102.56
484.9	104.56
485.118	99.56
485.336	94.56
485.554	88.56
485.772	89.56
485.99	88.56
486.209	99.56
486.427	88.56
486.645	103.56
486.863	103.56
487.081	113.56
487.299	96.56
487.517	96.56
487.735	120.56
487.953	119.56
488.171	106.56
488.389	96.56
488.607	100.56
488.825	96.56
489.043	84.56
489.261	101.56
489.479	98.56
489.696	104.56
489.914	89.56
490.132	92.56
490.35	95.56
490.568	98.56
490.786	106.56
491.003	98.56
491.221	111.56
491.439	126.56
491.657	106.56
491.874	128.56
492.092	131.56
492.31	124.56
492.527	127.56
492.745	113.56
492.963	96.56
493.18	116.56
493.398	118.56
493.615	120.56
493.833	106.56
494.05	96.56
494.268	86.56
494.485	110.56
494.703	120.56
494.92	98.56
495.138	105.56
495.355	134.56
495.573	111.56
495.79	115.56
496.008	107.56
496.225	112.56
496.442	103.56
496.66	110.56
496.877	99.56
497.094	104.56
497.312	88.56
497.529	95.56
497.746	100.56
497.963	99.56
498.181	88.56
498.398	93.56
498.615	90.56
498.832	97.56
499.049	95.56
499.267	86.56
499.484	93.56
499.701	100.56
499.918	105.56
500.135	102.56
500.352	103.56
500.569	103.56
500.786	107.56
501.003	102.56
501.22	111.56
501.437	103.56
501.654	105.56
501.871	92.56
502.088	95.56
502.305	100.56
502.522	100.56
502.739	105.56
502.956	104.56
503.172	103.56
503.389	85.56
503.606	92.56
503.823	102.56
504.04	93.56
504.256	99.56
504.473	88.56
504.69	99.56
504.907	98.56
505.123	93.56
505.34	101.56
505.557	101.56
505.773	94.56
505.99	93.56
506.207	97.56
506.423	92.56
506.64	110.56
506.856	70.56
507.073	87.56
507.289	88.56
507.506	93.56
507.722	88.56
507.939	88.56
508.155	97.56
508.372	89.56
508.588	101.56
508.805	90.56
509.021	89.56
509.238	101.56
509.454	83.56
509.67	76.56
509.887	81.56
510.103	84.56
510.319	76.56
510.536	92.56
510.752	83.56
510.968	71.56
511.184	83.56
511.401	84.56
511.617	75.56
511.833	83.56
512.049	74.56
512.265	71.56
512.481	68.56
512.698	80.56
512.914	91.56
513.13	79.56
513.346	82.56
513.562	80.56
513.778	80.56
513.994	88.56
514.21	73.56
514.426	85.56
514.642	79.56
514.858	79.56
515.074	94.56
515.29	94.56
515.506	70.56
515.721	82.56
515.937	79.56
516.153	73.56
516.369	90.56
516.585	75.56
516.801	82.56
517.016	93.56
517.232	82.56
517.448	84.56
517.664	80.56
517.879	82.56
