Data from Location4.07152019.Energy5.Lamp.07192019.3%Agarose_HRD10591_15-26-09-578.txt Node
Date: Fri Jul 19 15:26:09 EDT 2019
User: cochatt
Spectrometer: HR+D1059
Trigger mode: 1
Integration Time (sec): 1.000000E-1
Scans to average: 1
Electric dark correction enabled: true
Nonlinearity correction enabled: false
Boxcar width: 0
XAxis mode: Wavelengths
Number of Pixels in Spectrum: 2048
>>>>>Begin Spectral Data<<<<<
223.165	-10.25
223.4	-10.25
223.635	-10.25
223.869	-22.25
224.104	-21.25
224.338	-20.25
224.573	-17.25
224.808	-12.25
225.042	-15.25
225.277	-0.25
225.511	-5.25
225.746	2.75
225.98	13.75
226.215	15.75
226.449	6.75
226.683	24.75
226.918	27.75
227.152	32.75
227.387	45.75
227.621	37.75
227.856	35.75
228.09	38.75
228.324	52.75
228.559	48.75
228.793	54.75
229.027	59.75
229.262	51.75
229.496	74.75
229.73	70.75
229.964	69.75
230.199	72.75
230.433	76.75
230.667	83.75
230.901	96.75
231.136	94.75
231.37	87.75
231.604	70.75
231.838	86.75
232.072	83.75
232.306	89.75
232.541	94.75
232.775	67.75
233.009	85.75
233.243	86.75
233.477	82.75
233.711	92.75
233.945	87.75
234.179	93.75
234.413	97.75
234.647	78.75
234.881	72.75
235.115	65.75
235.349	79.75
235.583	87.75
235.817	70.75
236.051	76.75
236.285	67.75
236.519	93.75
236.753	79.75
236.987	87.75
237.221	80.75
237.455	74.75
237.689	71.75
237.922	91.75
238.156	89.75
238.39	77.75
238.624	67.75
238.858	78.75
239.091	72.75
239.325	82.75
239.559	82.75
239.793	85.75
240.027	84.75
240.26	67.75
240.494	61.75
240.728	80.75
240.961	82.75
241.195	82.75
241.429	88.75
241.662	86.75
241.896	71.75
242.13	76.75
242.363	83.75
242.597	81.75
242.83	84.75
243.064	80.75
243.298	75.75
243.531	99.75
243.765	82.75
243.998	92.75
244.232	84.75
244.465	76.75
244.699	85.75
244.932	69.75
245.166	82.75
245.399	77.75
245.633	83.75
245.866	75.75
246.099	72.75
246.333	96.75
246.566	77.75
246.8	94.75
247.033	103.75
247.266	83.75
247.5	82.75
247.733	86.75
247.966	91.75
248.2	82.75
248.433	86.75
248.666	77.75
248.899	76.75
249.133	91.75
249.366	70.75
249.599	84.75
249.832	85.75
250.066	78.75
250.299	93.75
250.532	70.75
250.765	81.75
250.998	86.75
251.231	78.75
251.465	76.75
251.698	84.75
251.931	86.75
252.164	80.75
252.397	82.75
252.63	89.75
252.863	86.75
253.096	67.75
253.329	82.75
253.562	92.75
253.795	81.75
254.028	74.75
254.261	78.75
254.494	74.75
254.727	69.75
254.96	87.75
255.193	78.75
255.426	76.75
255.659	90.75
255.892	77.75
256.124	73.75
256.357	98.75
256.59	83.75
256.823	80.75
257.056	98.75
257.289	84.75
257.521	87.75
257.754	79.75
257.987	74.75
258.22	72.75
258.452	82.75
258.685	89.75
258.918	89.75
259.151	78.75
259.383	77.75
259.616	101.75
259.849	79.75
260.081	85.75
260.314	81.75
260.547	96.75
260.779	71.75
261.012	82.75
261.244	81.75
261.477	95.75
261.71	74.75
261.942	69.75
262.175	82.75
262.407	65.75
262.64	81.75
262.872	81.75
263.105	66.75
263.337	76.75
263.57	77.75
263.802	80.75
264.035	84.75
264.267	95.75
264.499	78.75
264.732	97.75
264.964	74.75
265.197	73.75
265.429	72.75
265.661	88.75
265.894	88.75
266.126	85.75
266.358	87.75
266.591	90.75
266.823	79.75
267.055	92.75
267.287	88.75
267.52	75.75
267.752	62.75
267.984	80.75
268.216	78.75
268.448	77.75
268.681	84.75
268.913	79.75
269.145	83.75
269.377	77.75
269.609	84.75
269.841	79.75
270.073	85.75
270.306	96.75
270.538	76.75
270.77	78.75
271.002	81.75
271.234	69.75
271.466	75.75
271.698	86.75
271.93	80.75
272.162	75.75
272.394	86.75
272.626	76.75
272.858	78.75
273.09	99.75
273.322	63.75
273.553	78.75
273.785	80.75
274.017	73.75
274.249	74.75
274.481	81.75
274.713	86.75
274.945	78.75
275.176	84.75
275.408	89.75
275.64	85.75
275.872	89.75
276.104	76.75
276.335	96.75
276.567	68.75
276.799	88.75
277.031	83.75
277.262	97.75
277.494	86.75
277.726	101.75
277.957	86.75
278.189	83.75
278.421	90.75
278.652	78.75
278.884	87.75
279.115	85.75
279.347	93.75
279.579	92.75
279.81	87.75
280.042	84.75
280.273	86.75
280.505	82.75
280.736	95.75
280.968	97.75
281.199	80.75
281.431	86.75
281.662	76.75
281.894	88.75
282.125	89.75
282.356	93.75
282.588	76.75
282.819	86.75
283.051	88.75
283.282	76.75
283.513	90.75
283.745	76.75
283.976	75.75
284.207	80.75
284.439	74.75
284.67	86.75
284.901	103.75
285.132	89.75
285.364	76.75
285.595	77.75
285.826	92.75
286.057	64.75
286.288	89.75
286.52	87.75
286.751	80.75
286.982	76.75
287.213	84.75
287.444	82.75
287.675	72.75
287.906	86.75
288.138	102.75
288.369	86.75
288.6	85.75
288.831	97.75
289.062	85.75
289.293	95.75
289.524	86.75
289.755	91.75
289.986	79.75
290.217	84.75
290.448	91.75
290.679	95.75
290.91	83.75
291.141	89.75
291.371	94.75
291.602	82.75
291.833	74.75
292.064	101.75
292.295	87.75
292.526	64.75
292.757	88.75
292.987	86.75
293.218	88.75
293.449	85.75
293.68	89.75
293.91	83.75
294.141	80.75
294.372	83.75
294.603	87.75
294.833	82.75
295.064	78.75
295.295	90.75
295.525	98.75
295.756	94.75
295.987	73.75
296.217	87.75
296.448	80.75
296.679	88.75
296.909	88.75
297.14	94.75
297.37	105.75
297.601	85.75
297.831	99.75
298.062	75.75
298.292	84.75
298.523	79.75
298.753	99.75
298.984	75.75
299.214	69.75
299.445	82.75
299.675	93.75
299.905	88.75
300.136	81.75
300.366	82.75
300.597	83.75
300.827	95.75
301.057	94.75
301.288	77.75
301.518	88.75
301.748	81.75
301.979	87.75
302.209	80.75
302.439	77.75
302.669	90.75
302.9	100.75
303.13	86.75
303.36	84.75
303.59	92.75
303.82	78.75
304.051	87.75
304.281	88.75
304.511	93.75
304.741	88.75
304.971	85.75
305.201	87.75
305.431	86.75
305.661	98.75
305.891	77.75
306.121	93.75
306.352	76.75
306.582	73.75
306.812	97.75
307.042	86.75
307.272	70.75
307.502	99.75
307.731	83.75
307.961	79.75
308.191	82.75
308.421	73.75
308.651	88.75
308.881	92.75
309.111	86.75
309.341	91.75
309.571	81.75
309.8	90.75
310.03	74.75
310.26	80.75
310.49	97.75
310.72	86.75
310.949	96.75
311.179	83.75
311.409	85.75
311.639	87.75
311.868	95.75
312.098	85.75
312.328	79.75
312.557	94.75
312.787	96.75
313.017	79.75
313.246	90.75
313.476	90.75
313.706	70.75
313.935	81.75
314.165	93.75
314.394	74.75
314.624	74.75
314.853	73.75
315.083	75.75
315.312	78.75
315.542	86.75
315.771	79.75
316.001	77.75
316.23	77.75
316.46	78.75
316.689	105.75
316.919	87.75
317.148	82.75
317.377	93.75
317.607	73.75
317.836	91.75
318.065	94.75
318.295	88.75
318.524	93.75
318.753	92.75
318.983	85.75
319.212	74.75
319.441	87.75
319.67	88.75
319.9	76.75
320.129	84.75
320.358	81.75
320.587	89.75
320.816	86.75
321.046	89.75
321.275	84.75
321.504	71.75
321.733	76.75
321.962	74.75
322.191	88.75
322.42	79.75
322.649	84.75
322.878	86.75
323.108	85.75
323.337	96.75
323.566	85.75
323.795	71.75
324.024	96.75
324.253	82.75
324.482	82.75
324.71	108.75
324.939	85.75
325.168	86.75
325.397	97.75
325.626	85.75
325.855	103.75
326.084	93.75
326.313	70.75
326.542	96.75
326.77	94.75
326.999	84.75
327.228	86.75
327.457	77.75
327.686	77.75
327.914	93.75
328.143	95.75
328.372	82.75
328.6	88.75
328.829	89.75
329.058	80.75
329.287	97.75
329.515	93.75
329.744	79.75
329.972	68.75
330.201	75.75
330.43	85.75
330.658	90.75
330.887	69.75
331.115	86.75
331.344	75.75
331.572	95.75
331.801	79.75
332.03	90.75
332.258	76.75
332.486	86.75
332.715	70.75
332.943	97.75
333.172	80.75
333.4	68.75
333.629	91.75
333.857	76.75
334.085	82.75
334.314	92.75
334.542	91.75
334.771	78.75
334.999	85.75
335.227	76.75
335.455	86.75
335.684	87.75
335.912	91.75
336.14	89.75
336.369	104.75
336.597	93.75
336.825	89.75
337.053	89.75
337.281	81.75
337.51	88.75
337.738	91.75
337.966	85.75
338.194	86.75
338.422	82.75
338.65	65.75
338.878	76.75
339.106	91.75
339.334	94.75
339.562	87.75
339.79	81.75
340.018	77.75
340.246	84.75
340.474	85.75
340.702	86.75
340.93	93.75
341.158	80.75
341.386	76.75
341.614	84.75
341.842	101.75
342.07	78.75
342.298	84.75
342.526	80.75
342.754	80.75
342.981	101.75
343.209	89.75
343.437	92.75
343.665	77.75
343.893	75.75
344.12	78.75
344.348	88.75
344.576	94.75
344.804	83.75
345.031	93.75
345.259	84.75
345.487	76.75
345.714	76.75
345.942	78.75
346.17	86.75
346.397	79.75
346.625	92.75
346.853	84.75
347.08	88.75
347.308	76.75
347.535	73.75
347.763	82.75
347.99	80.75
348.218	77.75
348.445	93.75
348.673	80.75
348.9	88.75
349.128	80.75
349.355	71.75
349.583	78.75
349.81	82.75
350.037	92.75
350.265	85.75
350.492	89.75
350.72	71.75
350.947	84.75
351.174	77.75
351.402	75.75
351.629	93.75
351.856	80.75
352.083	77.75
352.311	91.75
352.538	88.75
352.765	84.75
352.992	77.75
353.22	83.75
353.447	83.75
353.674	81.75
353.901	66.75
354.128	81.75
354.355	85.75
354.583	77.75
354.81	83.75
355.037	88.75
355.264	72.75
355.491	88.75
355.718	72.75
355.945	82.75
356.172	71.75
356.399	73.75
356.626	86.75
356.853	78.75
357.08	89.75
357.307	76.75
357.534	79.75
357.761	88.75
357.988	85.75
358.215	87.75
358.441	79.75
358.668	80.75
358.895	79.75
359.122	69.75
359.349	97.75
359.576	85.75
359.802	83.75
360.029	80.75
360.256	77.75
360.483	76.75
360.709	94.75
360.936	80.75
361.163	77.75
361.39	76.75
361.616	86.75
361.843	81.75
362.07	81.75
362.296	77.75
362.523	75.75
362.749	78.75
362.976	102.75
363.203	79.75
363.429	84.75
363.656	86.75
363.882	90.75
364.109	79.75
364.335	69.75
364.562	82.75
364.788	82.75
365.015	78.75
365.241	66.75
365.468	84.75
365.694	81.75
365.92	92.75
366.147	79.75
366.373	77.75
366.599	79.75
366.826	86.75
367.052	87.75
367.278	96.75
367.505	88.75
367.731	89.75
367.957	70.75
368.184	90.75
368.41	96.75
368.636	76.75
368.862	84.75
369.089	92.75
369.315	78.75
369.541	84.75
369.767	90.75
369.993	80.75
370.219	77.75
370.445	90.75
370.672	97.75
370.898	97.75
371.124	90.75
371.35	75.75
371.576	60.75
371.802	78.75
372.028	79.75
372.254	96.75
372.48	82.75
372.706	70.75
372.932	88.75
373.158	77.75
373.384	66.75
373.61	94.75
373.835	84.75
374.061	100.75
374.287	76.75
374.513	93.75
374.739	76.75
374.965	94.75
375.191	82.75
375.416	75.75
375.642	90.75
375.868	91.75
376.094	63.75
376.319	79.75
376.545	87.75
376.771	86.75
376.997	86.75
377.222	62.75
377.448	87.75
377.674	83.75
377.899	74.75
378.125	88.75
378.35	95.75
378.576	76.75
378.802	88.75
379.027	92.75
379.253	92.75
379.478	74.75
379.704	74.75
379.929	76.75
380.155	82.75
380.38	76.75
380.606	83.75
380.831	78.75
381.057	94.75
381.282	83.75
381.507	86.75
381.733	71.75
381.958	76.75
382.184	92.75
382.409	76.75
382.634	81.75
382.86	77.75
383.085	91.75
383.31	94.75
383.535	94.75
383.761	96.75
383.986	94.75
384.211	99.75
384.436	83.75
384.662	81.75
384.887	88.75
385.112	86.75
385.337	93.75
385.562	97.75
385.787	86.75
386.013	100.75
386.238	87.75
386.463	87.75
386.688	92.75
386.913	65.75
387.138	83.75
387.363	89.75
387.588	82.75
387.813	89.75
388.038	93.75
388.263	82.75
388.488	98.75
388.713	84.75
388.938	83.75
389.163	94.75
389.387	90.75
389.612	98.75
389.837	76.75
390.062	71.75
390.287	84.75
390.512	83.75
390.736	89.75
390.961	85.75
391.186	93.75
391.411	86.75
391.636	91.75
391.86	100.75
392.085	84.75
392.31	92.75
392.534	86.75
392.759	90.75
392.984	87.75
393.208	98.75
393.433	89.75
393.658	77.75
393.882	94.75
394.107	99.75
394.331	86.75
394.556	92.75
394.78	78.75
395.005	75.75
395.229	97.75
395.454	85.75
395.678	91.75
395.903	77.75
396.127	88.75
396.352	94.75
396.576	60.75
396.801	87.75
397.025	88.75
397.249	88.75
397.474	94.75
397.698	83.75
397.922	96.75
398.147	84.75
398.371	81.75
398.595	94.75
398.82	96.75
399.044	98.75
399.268	87.75
399.492	98.75
399.717	89.75
399.941	94.75
400.165	102.75
400.389	78.75
400.613	86.75
400.837	87.75
401.062	81.75
401.286	78.75
401.51	92.75
401.734	89.75
401.958	100.75
402.182	90.75
402.406	95.75
402.63	74.75
402.854	85.75
403.078	86.75
403.302	96.75
403.526	108.75
403.75	84.75
403.974	104.75
404.198	94.75
404.422	89.75
404.645	86.75
404.869	81.75
405.093	103.75
405.317	90.75
405.541	75.75
405.765	89.75
405.988	107.75
406.212	83.75
406.436	96.75
406.66	84.75
406.883	93.75
407.107	101.75
407.331	86.75
407.555	85.75
407.778	87.75
408.002	95.75
408.226	96.75
408.449	104.75
408.673	93.75
408.896	72.75
409.12	92.75
409.344	77.75
409.567	97.75
409.791	88.75
410.014	83.75
410.238	97.75
410.461	99.75
410.685	95.75
410.908	100.75
411.132	84.75
411.355	78.75
411.578	97.75
411.802	105.75
412.025	75.75
412.249	89.75
412.472	104.75
412.695	72.75
412.919	88.75
413.142	91.75
413.365	84.75
413.589	78.75
413.812	96.75
414.035	108.75
414.258	105.75
414.482	93.75
414.705	101.75
414.928	89.75
415.151	80.75
415.374	83.75
415.597	77.75
415.821	91.75
416.044	97.75
416.267	95.75
416.49	84.75
416.713	86.75
416.936	93.75
417.159	91.75
417.382	96.75
417.605	89.75
417.828	85.75
418.051	96.75
418.274	88.75
418.497	108.75
418.72	89.75
418.943	94.75
419.166	97.75
419.389	102.75
419.611	88.75
419.834	104.75
420.057	81.75
420.28	95.75
420.503	92.75
420.726	93.75
420.948	88.75
421.171	99.75
421.394	98.75
421.617	96.75
421.839	103.75
422.062	102.75
422.285	99.75
422.507	103.75
422.73	101.75
422.953	89.75
423.175	90.75
423.398	88.75
423.621	97.75
423.843	92.75
424.066	87.75
424.288	109.75
424.511	102.75
424.733	97.75
424.956	96.75
425.178	110.75
425.401	101.75
425.623	112.75
425.846	95.75
426.068	99.75
426.291	98.75
426.513	92.75
426.735	86.75
426.958	78.75
427.18	96.75
427.402	88.75
427.625	84.75
427.847	101.75
428.069	100.75
428.292	90.75
428.514	97.75
428.736	90.75
428.958	115.75
429.181	88.75
429.403	95.75
429.625	88.75
429.847	87.75
430.069	105.75
430.292	92.75
430.514	93.75
430.736	98.75
430.958	85.75
431.18	74.75
431.402	85.75
431.624	86.75
431.846	87.75
432.068	86.75
432.29	102.75
432.512	87.75
432.734	94.75
432.956	79.75
433.178	82.75
433.4	100.75
433.622	99.75
433.844	102.75
434.066	94.75
434.287	95.75
434.509	83.75
434.731	86.75
434.953	95.75
435.175	99.75
435.397	100.75
435.618	96.75
435.84	82.75
436.062	91.75
436.284	99.75
436.505	84.75
436.727	90.75
436.949	97.75
437.17	81.75
437.392	99.75
437.614	88.75
437.835	90.75
438.057	78.75
438.278	94.75
438.5	100.75
438.721	98.75
438.943	92.75
439.165	96.75
439.386	106.75
439.608	99.75
439.829	86.75
440.05	102.75
440.272	99.75
440.493	101.75
440.715	94.75
440.936	94.75
441.158	99.75
441.379	94.75
441.6	106.75
441.822	117.75
442.043	84.75
442.264	88.75
442.486	95.75
442.707	91.75
442.928	113.75
443.149	104.75
443.371	88.75
443.592	93.75
443.813	100.75
444.034	98.75
444.255	98.75
444.476	93.75
444.698	90.75
444.919	95.75
445.14	219.75
445.361	151.75
445.582	105.75
445.803	101.75
446.024	103.75
446.245	109.75
446.466	84.75
446.687	106.75
446.908	95.75
447.129	90.75
447.35	99.75
447.571	116.75
447.792	105.75
448.013	96.75
448.234	93.75
448.455	87.75
448.675	92.75
448.896	104.75
449.117	94.75
449.338	83.75
449.559	97.75
449.779	94.75
450	93.75
450.221	89.75
450.442	98.75
450.662	102.75
450.883	77.75
451.104	91.75
451.324	89.75
451.545	87.75
451.766	103.75
451.986	84.75
452.207	89.75
452.428	86.75
452.648	98.75
452.869	95.75
453.089	73.75
453.31	95.75
453.53	97.75
453.751	97.75
453.971	88.75
454.192	87.75
454.412	101.75
454.633	98.75
454.853	98.75
455.073	75.75
455.294	83.75
455.514	99.75
455.734	103.75
455.955	93.75
456.175	97.75
456.395	93.75
456.616	93.75
456.836	90.75
457.056	98.75
457.276	89.75
457.497	99.75
457.717	83.75
457.937	99.75
458.157	79.75
458.377	84.75
458.598	93.75
458.818	80.75
459.038	87.75
459.258	87.75
459.478	97.75
459.698	78.75
459.918	81.75
460.138	101.75
460.358	88.75
460.578	97.75
460.798	80.75
461.018	72.75
461.238	89.75
461.458	93.75
461.678	94.75
461.898	81.75
462.118	112.75
462.338	84.75
462.558	92.75
462.777	92.75
462.997	85.75
463.217	91.75
463.437	107.75
463.657	82.75
463.876	104.75
464.096	91.75
464.316	88.75
464.536	92.75
464.755	116.75
464.975	97.75
465.195	96.75
465.414	89.75
465.634	89.75
465.854	90.75
466.073	98.75
466.293	91.75
466.512	93.75
466.732	90.75
466.951	99.75
467.171	85.75
467.391	92.75
467.61	97.75
467.829	84.75
468.049	96.75
468.268	105.75
468.488	88.75
468.707	102.75
468.927	112.75
469.146	91.75
469.365	102.75
469.585	101.75
469.804	105.75
470.023	98.75
470.243	95.75
470.462	99.75
470.681	109.75
470.901	87.75
471.12	92.75
471.339	79.75
471.558	104.75
471.777	104.75
471.997	93.75
472.216	89.75
472.435	76.75
472.654	96.75
472.873	81.75
473.092	91.75
473.311	114.75
473.53	92.75
473.749	108.75
473.968	88.75
474.187	91.75
474.406	90.75
474.625	87.75
474.844	104.75
475.063	79.75
475.282	99.75
475.501	88.75
475.72	86.75
475.939	95.75
476.158	94.75
476.377	100.75
476.596	88.75
476.814	100.75
477.033	89.75
477.252	86.75
477.471	99.75
477.69	94.75
477.908	114.75
478.127	105.75
478.346	94.75
478.564	93.75
478.783	88.75
479.002	107.75
479.22	101.75
479.439	109.75
479.658	97.75
479.876	92.75
480.095	83.75
480.313	82.75
480.532	98.75
480.751	91.75
480.969	87.75
481.188	70.75
481.406	72.75
481.624	96.75
481.843	86.75
482.061	78.75
482.28	99.75
482.498	80.75
482.717	90.75
482.935	85.75
483.153	118.75
483.372	109.75
483.59	114.75
483.808	92.75
484.027	98.75
484.245	93.75
484.463	86.75
484.681	109.75
484.9	109.75
485.118	104.75
485.336	94.75
485.554	96.75
485.772	81.75
485.99	94.75
486.209	96.75
486.427	89.75
486.645	89.75
486.863	113.75
487.081	96.75
487.299	98.75
487.517	85.75
487.735	109.75
487.953	116.75
488.171	108.75
488.389	113.75
488.607	99.75
488.825	101.75
489.043	94.75
489.261	113.75
489.479	98.75
489.696	105.75
489.914	91.75
490.132	100.75
490.35	98.75
490.568	109.75
490.786	116.75
491.003	126.75
491.221	109.75
491.439	109.75
491.657	113.75
491.874	104.75
492.092	120.75
492.31	124.75
492.527	112.75
492.745	124.75
492.963	113.75
493.18	124.75
493.398	118.75
493.615	121.75
493.833	106.75
494.05	118.75
494.268	95.75
494.485	109.75
494.703	111.75
494.92	109.75
495.138	104.75
495.355	103.75
495.573	116.75
495.79	102.75
496.008	106.75
496.225	108.75
496.442	116.75
496.66	107.75
496.877	102.75
497.094	105.75
497.312	103.75
497.529	104.75
497.746	94.75
497.963	113.75
498.181	93.75
498.398	96.75
498.615	76.75
498.832	98.75
499.049	87.75
499.267	122.75
499.484	94.75
499.701	109.75
499.918	98.75
500.135	97.75
500.352	119.75
500.569	104.75
500.786	93.75
501.003	95.75
501.22	94.75
501.437	105.75
501.654	105.75
501.871	98.75
502.088	82.75
502.305	97.75
502.522	95.75
502.739	86.75
502.956	82.75
503.172	97.75
503.389	88.75
503.606	103.75
503.823	89.75
504.04	101.75
504.256	92.75
504.473	93.75
504.69	82.75
504.907	86.75
505.123	82.75
505.34	96.75
505.557	93.75
505.773	105.75
505.99	94.75
506.207	89.75
506.423	105.75
506.64	97.75
506.856	89.75
507.073	90.75
507.289	88.75
507.506	113.75
507.722	100.75
507.939	107.75
508.155	106.75
508.372	86.75
508.588	93.75
508.805	100.75
509.021	96.75
509.238	98.75
509.454	93.75
509.67	79.75
509.887	90.75
510.103	99.75
510.319	84.75
510.536	78.75
510.752	81.75
510.968	82.75
511.184	84.75
511.401	101.75
511.617	80.75
511.833	84.75
512.049	77.75
512.265	78.75
512.481	88.75
512.698	91.75
512.914	90.75
513.13	85.75
513.346	83.75
513.562	84.75
513.778	88.75
513.994	80.75
514.21	90.75
514.426	98.75
514.642	89.75
514.858	77.75
515.074	76.75
515.29	86.75
515.506	70.75
515.721	85.75
515.937	90.75
516.153	81.75
516.369	98.75
516.585	79.75
516.801	96.75
517.016	83.75
517.232	91.75
