Data from Location4.07152019.Energy5.Lamp.07192019.3%Agarose_HRD10591_15-23-04-576.txt Node
Date: Fri Jul 19 15:23:04 EDT 2019
User: cochatt
Spectrometer: HR+D1059
Trigger mode: 1
Integration Time (sec): 1.000000E-1
Scans to average: 1
Electric dark correction enabled: true
Nonlinearity correction enabled: false
Boxcar width: 0
XAxis mode: Wavelengths
Number of Pixels in Spectrum: 2048
>>>>>Begin Spectral Data<<<<<
223.165	-4.19
223.4	-4.19
223.635	-4.19
223.869	-28.19
224.104	-16.19
224.338	-17.19
224.573	-18.19
224.808	-20.19
225.042	-14.19
225.277	-8.19
225.511	-8.19
225.746	18.81
225.98	15.81
226.215	20.81
226.449	2.81
226.683	12.81
226.918	33.81
227.152	29.81
227.387	36.81
227.621	34.81
227.856	49.81
228.09	44.81
228.324	48.81
228.559	60.81
228.793	62.81
229.027	55.81
229.262	57.81
229.496	72.81
229.73	70.81
229.964	83.81
230.199	62.81
230.433	72.81
230.667	81.81
230.901	58.81
231.136	65.81
231.37	75.81
231.604	73.81
231.838	84.81
232.072	72.81
232.306	94.81
232.541	84.81
232.775	87.81
233.009	72.81
233.243	88.81
233.477	72.81
233.711	73.81
233.945	97.81
234.179	79.81
234.413	79.81
234.647	71.81
234.881	80.81
235.115	80.81
235.349	70.81
235.583	94.81
235.817	86.81
236.051	74.81
236.285	78.81
236.519	72.81
236.753	69.81
236.987	81.81
237.221	80.81
237.455	72.81
237.689	63.81
237.922	78.81
238.156	75.81
238.39	73.81
238.624	78.81
238.858	70.81
239.091	79.81
239.325	71.81
239.559	79.81
239.793	68.81
240.027	80.81
240.26	79.81
240.494	71.81
240.728	79.81
240.961	89.81
241.195	75.81
241.429	72.81
241.662	77.81
241.896	75.81
242.13	75.81
242.363	72.81
242.597	67.81
242.83	79.81
243.064	57.81
243.298	79.81
243.531	79.81
243.765	75.81
243.998	87.81
244.232	83.81
244.465	70.81
244.699	75.81
244.932	80.81
245.166	64.81
245.399	79.81
245.633	81.81
245.866	70.81
246.099	87.81
246.333	82.81
246.566	73.81
246.8	73.81
247.033	73.81
247.266	70.81
247.5	80.81
247.733	77.81
247.966	89.81
248.2	88.81
248.433	51.81
248.666	74.81
248.899	77.81
249.133	79.81
249.366	72.81
249.599	79.81
249.832	87.81
250.066	79.81
250.299	78.81
250.532	70.81
250.765	75.81
250.998	87.81
251.231	74.81
251.465	66.81
251.698	75.81
251.931	75.81
252.164	79.81
252.397	58.81
252.63	73.81
252.863	81.81
253.096	73.81
253.329	86.81
253.562	85.81
253.795	83.81
254.028	77.81
254.261	68.81
254.494	75.81
254.727	87.81
254.96	72.81
255.193	65.81
255.426	81.81
255.659	81.81
255.892	72.81
256.124	80.81
256.357	81.81
256.59	82.81
256.823	88.81
257.056	84.81
257.289	71.81
257.521	92.81
257.754	75.81
257.987	86.81
258.22	85.81
258.452	82.81
258.685	78.81
258.918	72.81
259.151	76.81
259.383	68.81
259.616	94.81
259.849	91.81
260.081	84.81
260.314	70.81
260.547	81.81
260.779	63.81
261.012	84.81
261.244	90.81
261.477	58.81
261.71	91.81
261.942	79.81
262.175	86.81
262.407	90.81
262.64	83.81
262.872	70.81
263.105	75.81
263.337	84.81
263.57	80.81
263.802	94.81
264.035	84.81
264.267	85.81
264.499	82.81
264.732	77.81
264.964	75.81
265.197	65.81
265.429	79.81
265.661	81.81
265.894	80.81
266.126	73.81
266.358	68.81
266.591	84.81
266.823	67.81
267.055	90.81
267.287	94.81
267.52	93.81
267.752	73.81
267.984	95.81
268.216	74.81
268.448	87.81
268.681	88.81
268.913	77.81
269.145	74.81
269.377	79.81
269.609	77.81
269.841	72.81
270.073	79.81
270.306	86.81
270.538	70.81
270.77	83.81
271.002	79.81
271.234	84.81
271.466	90.81
271.698	78.81
271.93	91.81
272.162	87.81
272.394	83.81
272.626	90.81
272.858	95.81
273.09	90.81
273.322	75.81
273.553	81.81
273.785	89.81
274.017	90.81
274.249	94.81
274.481	90.81
274.713	84.81
274.945	80.81
275.176	72.81
275.408	73.81
275.64	78.81
275.872	65.81
276.104	75.81
276.335	89.81
276.567	81.81
276.799	73.81
277.031	95.81
277.262	69.81
277.494	79.81
277.726	94.81
277.957	73.81
278.189	67.81
278.421	86.81
278.652	76.81
278.884	79.81
279.115	78.81
279.347	89.81
279.579	83.81
279.81	65.81
280.042	85.81
280.273	76.81
280.505	66.81
280.736	72.81
280.968	79.81
281.199	81.81
281.431	102.81
281.662	91.81
281.894	88.81
282.125	88.81
282.356	85.81
282.588	73.81
282.819	88.81
283.051	69.81
283.282	98.81
283.513	98.81
283.745	80.81
283.976	82.81
284.207	70.81
284.439	70.81
284.67	97.81
284.901	75.81
285.132	83.81
285.364	70.81
285.595	66.81
285.826	86.81
286.057	87.81
286.288	91.81
286.52	85.81
286.751	84.81
286.982	86.81
287.213	80.81
287.444	79.81
287.675	79.81
287.906	97.81
288.138	80.81
288.369	83.81
288.6	85.81
288.831	69.81
289.062	85.81
289.293	85.81
289.524	81.81
289.755	90.81
289.986	90.81
290.217	95.81
290.448	81.81
290.679	71.81
290.91	83.81
291.141	100.81
291.371	77.81
291.602	85.81
291.833	91.81
292.064	73.81
292.295	101.81
292.526	78.81
292.757	89.81
292.987	84.81
293.218	74.81
293.449	71.81
293.68	81.81
293.91	95.81
294.141	90.81
294.372	97.81
294.603	79.81
294.833	76.81
295.064	91.81
295.295	89.81
295.525	88.81
295.756	99.81
295.987	81.81
296.217	91.81
296.448	85.81
296.679	96.81
296.909	84.81
297.14	97.81
297.37	89.81
297.601	85.81
297.831	79.81
298.062	90.81
298.292	98.81
298.523	85.81
298.753	83.81
298.984	86.81
299.214	77.81
299.445	94.81
299.675	78.81
299.905	91.81
300.136	85.81
300.366	71.81
300.597	81.81
300.827	90.81
301.057	89.81
301.288	81.81
301.518	81.81
301.748	71.81
301.979	85.81
302.209	82.81
302.439	73.81
302.669	81.81
302.9	73.81
303.13	80.81
303.36	90.81
303.59	91.81
303.82	80.81
304.051	68.81
304.281	91.81
304.511	94.81
304.741	74.81
304.971	87.81
305.201	78.81
305.431	81.81
305.661	89.81
305.891	93.81
306.121	83.81
306.352	72.81
306.582	86.81
306.812	69.81
307.042	81.81
307.272	87.81
307.502	71.81
307.731	89.81
307.961	69.81
308.191	67.81
308.421	90.81
308.651	96.81
308.881	75.81
309.111	81.81
309.341	76.81
309.571	80.81
309.8	87.81
310.03	78.81
310.26	76.81
310.49	79.81
310.72	82.81
310.949	83.81
311.179	81.81
311.409	75.81
311.639	79.81
311.868	83.81
312.098	74.81
312.328	91.81
312.557	86.81
312.787	93.81
313.017	97.81
313.246	85.81
313.476	82.81
313.706	79.81
313.935	79.81
314.165	104.81
314.394	89.81
314.624	81.81
314.853	94.81
315.083	74.81
315.312	93.81
315.542	93.81
315.771	92.81
316.001	72.81
316.23	88.81
316.46	86.81
316.689	83.81
316.919	85.81
317.148	80.81
317.377	82.81
317.607	93.81
317.836	73.81
318.065	79.81
318.295	97.81
318.524	72.81
318.753	76.81
318.983	79.81
319.212	83.81
319.441	90.81
319.67	94.81
319.9	79.81
320.129	75.81
320.358	88.81
320.587	76.81
320.816	76.81
321.046	66.81
321.275	76.81
321.504	68.81
321.733	87.81
321.962	90.81
322.191	79.81
322.42	77.81
322.649	77.81
322.878	100.81
323.108	78.81
323.337	86.81
323.566	80.81
323.795	88.81
324.024	83.81
324.253	97.81
324.482	78.81
324.71	82.81
324.939	90.81
325.168	70.81
325.397	87.81
325.626	93.81
325.855	75.81
326.084	71.81
326.313	80.81
326.542	79.81
326.77	94.81
326.999	86.81
327.228	77.81
327.457	81.81
327.686	98.81
327.914	83.81
328.143	89.81
328.372	85.81
328.6	98.81
328.829	90.81
329.058	71.81
329.287	79.81
329.515	96.81
329.744	74.81
329.972	80.81
330.201	94.81
330.43	94.81
330.658	83.81
330.887	74.81
331.115	88.81
331.344	82.81
331.572	90.81
331.801	84.81
332.03	81.81
332.258	85.81
332.486	82.81
332.715	74.81
332.943	76.81
333.172	85.81
333.4	88.81
333.629	81.81
333.857	86.81
334.085	87.81
334.314	94.81
334.542	71.81
334.771	84.81
334.999	84.81
335.227	89.81
335.455	86.81
335.684	82.81
335.912	77.81
336.14	85.81
336.369	91.81
336.597	86.81
336.825	79.81
337.053	83.81
337.281	83.81
337.51	93.81
337.738	86.81
337.966	76.81
338.194	91.81
338.422	89.81
338.65	79.81
338.878	79.81
339.106	81.81
339.334	86.81
339.562	73.81
339.79	96.81
340.018	75.81
340.246	88.81
340.474	82.81
340.702	87.81
340.93	88.81
341.158	80.81
341.386	77.81
341.614	75.81
341.842	74.81
342.07	80.81
342.298	79.81
342.526	69.81
342.754	73.81
342.981	81.81
343.209	82.81
343.437	80.81
343.665	93.81
343.893	90.81
344.12	83.81
344.348	71.81
344.576	70.81
344.804	75.81
345.031	64.81
345.259	83.81
345.487	83.81
345.714	89.81
345.942	68.81
346.17	70.81
346.397	80.81
346.625	97.81
346.853	83.81
347.08	74.81
347.308	81.81
347.535	75.81
347.763	68.81
347.99	88.81
348.218	68.81
348.445	72.81
348.673	75.81
348.9	89.81
349.128	81.81
349.355	82.81
349.583	86.81
349.81	89.81
350.037	80.81
350.265	85.81
350.492	75.81
350.72	82.81
350.947	85.81
351.174	78.81
351.402	86.81
351.629	88.81
351.856	87.81
352.083	77.81
352.311	81.81
352.538	80.81
352.765	93.81
352.992	84.81
353.22	89.81
353.447	85.81
353.674	85.81
353.901	75.81
354.128	88.81
354.355	69.81
354.583	80.81
354.81	85.81
355.037	85.81
355.264	89.81
355.491	89.81
355.718	80.81
355.945	86.81
356.172	86.81
356.399	95.81
356.626	66.81
356.853	74.81
357.08	74.81
357.307	88.81
357.534	80.81
357.761	71.81
357.988	96.81
358.215	82.81
358.441	94.81
358.668	76.81
358.895	81.81
359.122	79.81
359.349	80.81
359.576	75.81
359.802	75.81
360.029	76.81
360.256	83.81
360.483	83.81
360.709	75.81
360.936	89.81
361.163	94.81
361.39	83.81
361.616	86.81
361.843	79.81
362.07	87.81
362.296	67.81
362.523	69.81
362.749	90.81
362.976	75.81
363.203	92.81
363.429	85.81
363.656	80.81
363.882	80.81
364.109	91.81
364.335	95.81
364.562	78.81
364.788	83.81
365.015	93.81
365.241	77.81
365.468	80.81
365.694	86.81
365.92	85.81
366.147	62.81
366.373	73.81
366.599	82.81
366.826	86.81
367.052	78.81
367.278	83.81
367.505	89.81
367.731	86.81
367.957	77.81
368.184	75.81
368.41	79.81
368.636	85.81
368.862	84.81
369.089	96.81
369.315	86.81
369.541	72.81
369.767	86.81
369.993	83.81
370.219	75.81
370.445	77.81
370.672	81.81
370.898	77.81
371.124	82.81
371.35	75.81
371.576	88.81
371.802	84.81
372.028	76.81
372.254	100.81
372.48	81.81
372.706	69.81
372.932	90.81
373.158	88.81
373.384	88.81
373.61	72.81
373.835	82.81
374.061	91.81
374.287	87.81
374.513	88.81
374.739	89.81
374.965	85.81
375.191	82.81
375.416	84.81
375.642	90.81
375.868	81.81
376.094	84.81
376.319	84.81
376.545	93.81
376.771	88.81
376.997	65.81
377.222	78.81
377.448	80.81
377.674	77.81
377.899	81.81
378.125	85.81
378.35	87.81
378.576	79.81
378.802	89.81
379.027	83.81
379.253	80.81
379.478	91.81
379.704	81.81
379.929	78.81
380.155	75.81
380.38	87.81
380.606	105.81
380.831	82.81
381.057	81.81
381.282	78.81
381.507	85.81
381.733	92.81
381.958	72.81
382.184	94.81
382.409	81.81
382.634	71.81
382.86	82.81
383.085	80.81
383.31	90.81
383.535	85.81
383.761	59.81
383.986	82.81
384.211	83.81
384.436	82.81
384.662	80.81
384.887	83.81
385.112	82.81
385.337	84.81
385.562	81.81
385.787	96.81
386.013	93.81
386.238	113.81
386.463	77.81
386.688	87.81
386.913	92.81
387.138	72.81
387.363	89.81
387.588	83.81
387.813	74.81
388.038	102.81
388.263	93.81
388.488	83.81
388.713	88.81
388.938	87.81
389.163	72.81
389.387	85.81
389.612	90.81
389.837	86.81
390.062	82.81
390.287	83.81
390.512	89.81
390.736	93.81
390.961	77.81
391.186	89.81
391.411	92.81
391.636	81.81
391.86	83.81
392.085	86.81
392.31	79.81
392.534	81.81
392.759	74.81
392.984	88.81
393.208	91.81
393.433	84.81
393.658	88.81
393.882	82.81
394.107	93.81
394.331	80.81
394.556	67.81
394.78	75.81
395.005	85.81
395.229	93.81
395.454	77.81
395.678	85.81
395.903	89.81
396.127	100.81
396.352	88.81
396.576	94.81
396.801	73.81
397.025	63.81
397.249	71.81
397.474	87.81
397.698	89.81
397.922	76.81
398.147	91.81
398.371	104.81
398.595	81.81
398.82	103.81
399.044	91.81
399.268	87.81
399.492	85.81
399.717	86.81
399.941	97.81
400.165	81.81
400.389	87.81
400.613	80.81
400.837	80.81
401.062	87.81
401.286	89.81
401.51	93.81
401.734	86.81
401.958	86.81
402.182	76.81
402.406	87.81
402.63	92.81
402.854	98.81
403.078	102.81
403.302	95.81
403.526	82.81
403.75	86.81
403.974	88.81
404.198	97.81
404.422	82.81
404.645	85.81
404.869	88.81
405.093	97.81
405.317	79.81
405.541	87.81
405.765	83.81
405.988	87.81
406.212	81.81
406.436	88.81
406.66	87.81
406.883	97.81
407.107	88.81
407.331	85.81
407.555	83.81
407.778	82.81
408.002	85.81
408.226	85.81
408.449	86.81
408.673	83.81
408.896	87.81
409.12	90.81
409.344	88.81
409.567	87.81
409.791	89.81
410.014	81.81
410.238	100.81
410.461	90.81
410.685	93.81
410.908	81.81
411.132	82.81
411.355	94.81
411.578	103.81
411.802	100.81
412.025	85.81
412.249	91.81
412.472	74.81
412.695	82.81
412.919	90.81
413.142	87.81
413.365	82.81
413.589	82.81
413.812	88.81
414.035	83.81
414.258	90.81
414.482	71.81
414.705	93.81
414.928	86.81
415.151	93.81
415.374	95.81
415.597	88.81
415.821	99.81
416.044	96.81
416.267	86.81
416.49	98.81
416.713	103.81
416.936	99.81
417.159	92.81
417.382	106.81
417.605	85.81
417.828	90.81
418.051	96.81
418.274	88.81
418.497	101.81
418.72	104.81
418.943	99.81
419.166	86.81
419.389	94.81
419.611	87.81
419.834	88.81
420.057	85.81
420.28	91.81
420.503	97.81
420.726	104.81
420.948	79.81
421.171	92.81
421.394	89.81
421.617	82.81
421.839	90.81
422.062	92.81
422.285	81.81
422.507	87.81
422.73	83.81
422.953	85.81
423.175	93.81
423.398	99.81
423.621	95.81
423.843	88.81
424.066	93.81
424.288	103.81
424.511	94.81
424.733	95.81
424.956	92.81
425.178	99.81
425.401	103.81
425.623	93.81
425.846	95.81
426.068	93.81
426.291	94.81
426.513	100.81
426.735	104.81
426.958	99.81
427.18	106.81
427.402	105.81
427.625	91.81
427.847	106.81
428.069	99.81
428.292	92.81
428.514	97.81
428.736	85.81
428.958	87.81
429.181	95.81
429.403	90.81
429.625	88.81
429.847	89.81
430.069	100.81
430.292	98.81
430.514	84.81
430.736	80.81
430.958	93.81
431.18	87.81
431.402	90.81
431.624	92.81
431.846	90.81
432.068	80.81
432.29	81.81
432.512	88.81
432.734	93.81
432.956	103.81
433.178	95.81
433.4	104.81
433.622	109.81
433.844	89.81
434.066	85.81
434.287	99.81
434.509	75.81
434.731	91.81
434.953	97.81
435.175	80.81
435.397	82.81
435.618	92.81
435.84	91.81
436.062	96.81
436.284	87.81
436.505	93.81
436.727	73.81
436.949	84.81
437.17	85.81
437.392	88.81
437.614	96.81
437.835	94.81
438.057	96.81
438.278	98.81
438.5	91.81
438.721	113.81
438.943	100.81
439.165	88.81
439.386	105.81
439.608	94.81
439.829	93.81
440.05	101.81
440.272	97.81
440.493	100.81
440.715	102.81
440.936	101.81
441.158	89.81
441.379	96.81
441.6	98.81
441.822	95.81
442.043	103.81
442.264	97.81
442.486	89.81
442.707	97.81
442.928	92.81
443.149	90.81
443.371	93.81
443.592	99.81
443.813	104.81
444.034	97.81
444.255	103.81
444.476	90.81
444.698	97.81
444.919	81.81
445.14	189.81
445.361	136.81
445.582	93.81
445.803	90.81
446.024	94.81
446.245	95.81
446.466	105.81
446.687	98.81
446.908	99.81
447.129	99.81
447.35	87.81
447.571	98.81
447.792	111.81
448.013	95.81
448.234	99.81
448.455	101.81
448.675	94.81
448.896	88.81
449.117	83.81
449.338	96.81
449.559	95.81
449.779	104.81
450	95.81
450.221	110.81
450.442	102.81
450.662	85.81
450.883	102.81
451.104	94.81
451.324	99.81
451.545	82.81
451.766	84.81
451.986	90.81
452.207	89.81
452.428	87.81
452.648	86.81
452.869	99.81
453.089	88.81
453.31	90.81
453.53	99.81
453.751	91.81
453.971	90.81
454.192	91.81
454.412	79.81
454.633	82.81
454.853	84.81
455.073	77.81
455.294	103.81
455.514	105.81
455.734	87.81
455.955	93.81
456.175	84.81
456.395	85.81
456.616	93.81
456.836	95.81
457.056	85.81
457.276	92.81
457.497	99.81
457.717	96.81
457.937	77.81
458.157	92.81
458.377	75.81
458.598	87.81
458.818	83.81
459.038	63.81
459.258	82.81
459.478	86.81
459.698	77.81
459.918	97.81
460.138	98.81
460.358	84.81
460.578	82.81
460.798	90.81
461.018	87.81
461.238	90.81
461.458	87.81
461.678	98.81
461.898	91.81
462.118	83.81
462.338	80.81
462.558	85.81
462.777	91.81
462.997	96.81
463.217	86.81
463.437	86.81
463.657	90.81
463.876	89.81
464.096	105.81
464.316	85.81
464.536	98.81
464.755	94.81
464.975	91.81
465.195	98.81
465.414	89.81
465.634	95.81
465.854	106.81
466.073	88.81
466.293	97.81
466.512	99.81
466.732	82.81
466.951	90.81
467.171	81.81
467.391	74.81
467.61	90.81
467.829	103.81
468.049	100.81
468.268	89.81
468.488	90.81
468.707	91.81
468.927	95.81
469.146	103.81
469.365	90.81
469.585	79.81
469.804	84.81
470.023	82.81
470.243	93.81
470.462	91.81
470.681	98.81
470.901	93.81
471.12	106.81
471.339	103.81
471.558	92.81
471.777	94.81
471.997	94.81
472.216	99.81
472.435	95.81
472.654	76.81
472.873	111.81
473.092	88.81
473.311	93.81
473.53	90.81
473.749	94.81
473.968	96.81
474.187	86.81
474.406	83.81
474.625	69.81
474.844	97.81
475.063	87.81
475.282	92.81
475.501	91.81
475.72	85.81
475.939	82.81
476.158	92.81
476.377	99.81
476.596	77.81
476.814	83.81
477.033	73.81
477.252	89.81
477.471	99.81
477.69	92.81
477.908	96.81
478.127	101.81
478.346	105.81
478.564	94.81
478.783	99.81
479.002	105.81
479.22	97.81
479.439	93.81
479.658	94.81
479.876	84.81
480.095	83.81
480.313	104.81
480.532	90.81
480.751	91.81
480.969	91.81
481.188	75.81
481.406	83.81
481.624	89.81
481.843	85.81
482.061	84.81
482.28	90.81
482.498	88.81
482.717	98.81
482.935	97.81
483.153	109.81
483.372	99.81
483.59	105.81
483.808	94.81
484.027	106.81
484.245	94.81
484.463	91.81
484.681	96.81
484.9	98.81
485.118	90.81
485.336	92.81
485.554	101.81
485.772	93.81
485.99	85.81
486.209	66.81
486.427	97.81
486.645	97.81
486.863	102.81
487.081	98.81
487.299	105.81
487.517	100.81
487.735	107.81
487.953	120.81
488.171	110.81
488.389	112.81
488.607	106.81
488.825	91.81
489.043	94.81
489.261	104.81
489.479	87.81
489.696	96.81
489.914	107.81
490.132	110.81
490.35	105.81
490.568	106.81
490.786	117.81
491.003	117.81
491.221	123.81
491.439	126.81
491.657	110.81
491.874	112.81
492.092	133.81
492.31	127.81
492.527	137.81
492.745	111.81
492.963	113.81
493.18	113.81
493.398	113.81
493.615	115.81
493.833	102.81
494.05	119.81
494.268	115.81
494.485	103.81
494.703	96.81
494.92	113.81
495.138	115.81
495.355	106.81
495.573	98.81
495.79	99.81
496.008	106.81
496.225	98.81
496.442	109.81
496.66	106.81
496.877	99.81
497.094	113.81
497.312	117.81
497.529	99.81
497.746	95.81
497.963	103.81
498.181	99.81
498.398	94.81
498.615	80.81
498.832	92.81
499.049	91.81
499.267	94.81
499.484	89.81
499.701	90.81
499.918	104.81
500.135	100.81
500.352	92.81
500.569	93.81
500.786	110.81
501.003	91.81
501.22	100.81
501.437	107.81
501.654	105.81
501.871	101.81
502.088	101.81
502.305	98.81
502.522	91.81
502.739	88.81
502.956	88.81
503.172	88.81
503.389	96.81
503.606	90.81
503.823	98.81
504.04	92.81
504.256	88.81
504.473	99.81
504.69	106.81
504.907	95.81
505.123	84.81
505.34	89.81
505.557	97.81
505.773	75.81
505.99	90.81
506.207	98.81
506.423	79.81
506.64	85.81
506.856	86.81
507.073	80.81
507.289	95.81
507.506	96.81
507.722	86.81
507.939	99.81
508.155	86.81
508.372	83.81
508.588	100.81
508.805	91.81
509.021	84.81
509.238	89.81
509.454	101.81
509.67	80.81
509.887	81.81
510.103	82.81
510.319	85.81
510.536	91.81
510.752	65.81
510.968	71.81
511.184	76.81
511.401	75.81
511.617	77.81
511.833	78.81
512.049	75.81
512.265	83.81
512.481	91.81
512.698	88.81
512.914	99.81
513.13	88.81
513.346	79.81
513.562	83.81
513.778	94.81
513.994	95.81
514.21	83.81
514.426	71.81
514.642	79.81
514.858	77.81
515.074	97.81
515.29	88.81
515.506	92.81
515.721	81.81
515.937	79.81
516.153	71.81
516.369	87.81
516.585	87.81
516.801	74.81
517.016	88.81
517.232	85.81
517.448	88.81
517.664	84.81
517.879	91.81
