Data from Location4.07152019.Energy5.Lamp.07192019.3%Agarose_HRD10591_15-23-51-578.txt Node
Date: Fri Jul 19 15:23:51 EDT 2019
User: cochatt
Spectrometer: HR+D1059
Trigger mode: 1
Integration Time (sec): 1.000000E-1
Scans to average: 1
Electric dark correction enabled: true
Nonlinearity correction enabled: false
Boxcar width: 0
XAxis mode: Wavelengths
Number of Pixels in Spectrum: 2048
>>>>>Begin Spectral Data<<<<<
223.165	-4.5
223.4	-4.5
223.635	-4.5
223.869	-21.5
224.104	-21.5
224.338	-14.5
224.573	-11.5
224.808	-9.5
225.042	-7.5
225.277	-4.5
225.511	7.5
225.746	2.5
225.98	-9.5
226.215	13.5
226.449	21.5
226.683	27.5
226.918	19.5
227.152	12.5
227.387	19.5
227.621	41.5
227.856	42.5
228.09	29.5
228.324	59.5
228.559	57.5
228.793	62.5
229.027	56.5
229.262	64.5
229.496	53.5
229.73	66.5
229.964	72.5
230.199	67.5
230.433	83.5
230.667	60.5
230.901	63.5
231.136	78.5
231.37	64.5
231.604	89.5
231.838	73.5
232.072	90.5
232.306	94.5
232.541	87.5
232.775	85.5
233.009	77.5
233.243	83.5
233.477	77.5
233.711	75.5
233.945	80.5
234.179	84.5
234.413	74.5
234.647	86.5
234.881	73.5
235.115	74.5
235.349	80.5
235.583	85.5
235.817	61.5
236.051	75.5
236.285	78.5
236.519	79.5
236.753	67.5
236.987	66.5
237.221	66.5
237.455	76.5
237.689	66.5
237.922	66.5
238.156	71.5
238.39	81.5
238.624	69.5
238.858	75.5
239.091	78.5
239.325	79.5
239.559	71.5
239.793	74.5
240.027	81.5
240.26	87.5
240.494	72.5
240.728	78.5
240.961	72.5
241.195	63.5
241.429	75.5
241.662	70.5
241.896	72.5
242.13	76.5
242.363	87.5
242.597	81.5
242.83	71.5
243.064	81.5
243.298	65.5
243.531	89.5
243.765	91.5
243.998	71.5
244.232	79.5
244.465	64.5
244.699	90.5
244.932	72.5
245.166	80.5
245.399	70.5
245.633	62.5
245.866	64.5
246.099	89.5
246.333	77.5
246.566	85.5
246.8	74.5
247.033	69.5
247.266	78.5
247.5	73.5
247.733	66.5
247.966	73.5
248.2	73.5
248.433	74.5
248.666	79.5
248.899	71.5
249.133	81.5
249.366	83.5
249.599	74.5
249.832	73.5
250.066	82.5
250.299	58.5
250.532	80.5
250.765	76.5
250.998	71.5
251.231	81.5
251.465	74.5
251.698	73.5
251.931	76.5
252.164	87.5
252.397	81.5
252.63	79.5
252.863	57.5
253.096	87.5
253.329	81.5
253.562	82.5
253.795	95.5
254.028	80.5
254.261	95.5
254.494	82.5
254.727	63.5
254.96	101.5
255.193	82.5
255.426	67.5
255.659	81.5
255.892	83.5
256.124	81.5
256.357	93.5
256.59	85.5
256.823	81.5
257.056	84.5
257.289	71.5
257.521	80.5
257.754	83.5
257.987	89.5
258.22	80.5
258.452	78.5
258.685	81.5
258.918	80.5
259.151	68.5
259.383	74.5
259.616	76.5
259.849	74.5
260.081	79.5
260.314	72.5
260.547	67.5
260.779	71.5
261.012	83.5
261.244	95.5
261.477	90.5
261.71	75.5
261.942	83.5
262.175	83.5
262.407	73.5
262.64	81.5
262.872	76.5
263.105	83.5
263.337	91.5
263.57	89.5
263.802	78.5
264.035	77.5
264.267	88.5
264.499	84.5
264.732	82.5
264.964	77.5
265.197	88.5
265.429	96.5
265.661	83.5
265.894	82.5
266.126	78.5
266.358	89.5
266.591	102.5
266.823	69.5
267.055	79.5
267.287	88.5
267.52	77.5
267.752	86.5
267.984	74.5
268.216	88.5
268.448	82.5
268.681	80.5
268.913	69.5
269.145	105.5
269.377	94.5
269.609	78.5
269.841	84.5
270.073	91.5
270.306	89.5
270.538	80.5
270.77	89.5
271.002	81.5
271.234	79.5
271.466	92.5
271.698	86.5
271.93	88.5
272.162	85.5
272.394	79.5
272.626	95.5
272.858	74.5
273.09	75.5
273.322	78.5
273.553	67.5
273.785	81.5
274.017	81.5
274.249	89.5
274.481	74.5
274.713	82.5
274.945	92.5
275.176	87.5
275.408	76.5
275.64	77.5
275.872	84.5
276.104	70.5
276.335	79.5
276.567	81.5
276.799	73.5
277.031	77.5
277.262	74.5
277.494	78.5
277.726	73.5
277.957	83.5
278.189	87.5
278.421	93.5
278.652	78.5
278.884	78.5
279.115	104.5
279.347	84.5
279.579	82.5
279.81	69.5
280.042	90.5
280.273	72.5
280.505	96.5
280.736	70.5
280.968	74.5
281.199	88.5
281.431	88.5
281.662	101.5
281.894	92.5
282.125	85.5
282.356	78.5
282.588	88.5
282.819	68.5
283.051	82.5
283.282	89.5
283.513	85.5
283.745	68.5
283.976	90.5
284.207	78.5
284.439	85.5
284.67	75.5
284.901	72.5
285.132	80.5
285.364	84.5
285.595	91.5
285.826	89.5
286.057	77.5
286.288	96.5
286.52	94.5
286.751	78.5
286.982	94.5
287.213	81.5
287.444	77.5
287.675	66.5
287.906	78.5
288.138	85.5
288.369	79.5
288.6	81.5
288.831	75.5
289.062	72.5
289.293	87.5
289.524	88.5
289.755	95.5
289.986	91.5
290.217	74.5
290.448	75.5
290.679	80.5
290.91	79.5
291.141	79.5
291.371	93.5
291.602	86.5
291.833	75.5
292.064	86.5
292.295	74.5
292.526	67.5
292.757	86.5
292.987	80.5
293.218	97.5
293.449	93.5
293.68	90.5
293.91	73.5
294.141	80.5
294.372	83.5
294.603	73.5
294.833	75.5
295.064	83.5
295.295	79.5
295.525	81.5
295.756	78.5
295.987	74.5
296.217	86.5
296.448	83.5
296.679	83.5
296.909	90.5
297.14	82.5
297.37	84.5
297.601	83.5
297.831	82.5
298.062	84.5
298.292	78.5
298.523	94.5
298.753	97.5
298.984	77.5
299.214	88.5
299.445	88.5
299.675	74.5
299.905	78.5
300.136	90.5
300.366	86.5
300.597	80.5
300.827	89.5
301.057	81.5
301.288	71.5
301.518	63.5
301.748	87.5
301.979	72.5
302.209	76.5
302.439	88.5
302.669	93.5
302.9	96.5
303.13	82.5
303.36	82.5
303.59	90.5
303.82	94.5
304.051	88.5
304.281	85.5
304.511	86.5
304.741	82.5
304.971	70.5
305.201	73.5
305.431	73.5
305.661	94.5
305.891	86.5
306.121	83.5
306.352	102.5
306.582	77.5
306.812	77.5
307.042	95.5
307.272	79.5
307.502	78.5
307.731	84.5
307.961	99.5
308.191	71.5
308.421	78.5
308.651	81.5
308.881	79.5
309.111	95.5
309.341	80.5
309.571	80.5
309.8	94.5
310.03	72.5
310.26	97.5
310.49	81.5
310.72	79.5
310.949	73.5
311.179	79.5
311.409	87.5
311.639	91.5
311.868	90.5
312.098	74.5
312.328	92.5
312.557	79.5
312.787	87.5
313.017	95.5
313.246	79.5
313.476	76.5
313.706	82.5
313.935	89.5
314.165	85.5
314.394	74.5
314.624	86.5
314.853	91.5
315.083	90.5
315.312	78.5
315.542	91.5
315.771	77.5
316.001	70.5
316.23	73.5
316.46	81.5
316.689	88.5
316.919	91.5
317.148	88.5
317.377	97.5
317.607	82.5
317.836	87.5
318.065	77.5
318.295	82.5
318.524	90.5
318.753	75.5
318.983	86.5
319.212	82.5
319.441	87.5
319.67	95.5
319.9	94.5
320.129	78.5
320.358	99.5
320.587	75.5
320.816	76.5
321.046	86.5
321.275	76.5
321.504	70.5
321.733	86.5
321.962	84.5
322.191	80.5
322.42	89.5
322.649	80.5
322.878	95.5
323.108	87.5
323.337	89.5
323.566	86.5
323.795	83.5
324.024	77.5
324.253	80.5
324.482	95.5
324.71	99.5
324.939	74.5
325.168	77.5
325.397	85.5
325.626	86.5
325.855	88.5
326.084	84.5
326.313	94.5
326.542	74.5
326.77	90.5
326.999	88.5
327.228	83.5
327.457	93.5
327.686	90.5
327.914	81.5
328.143	77.5
328.372	75.5
328.6	97.5
328.829	77.5
329.058	79.5
329.287	79.5
329.515	83.5
329.744	84.5
329.972	88.5
330.201	79.5
330.43	69.5
330.658	85.5
330.887	90.5
331.115	78.5
331.344	97.5
331.572	81.5
331.801	83.5
332.03	89.5
332.258	84.5
332.486	87.5
332.715	87.5
332.943	80.5
333.172	94.5
333.4	81.5
333.629	82.5
333.857	83.5
334.085	79.5
334.314	81.5
334.542	94.5
334.771	91.5
334.999	81.5
335.227	73.5
335.455	78.5
335.684	80.5
335.912	82.5
336.14	80.5
336.369	76.5
336.597	90.5
336.825	78.5
337.053	81.5
337.281	76.5
337.51	85.5
337.738	64.5
337.966	85.5
338.194	69.5
338.422	77.5
338.65	89.5
338.878	86.5
339.106	89.5
339.334	80.5
339.562	84.5
339.79	74.5
340.018	87.5
340.246	84.5
340.474	86.5
340.702	94.5
340.93	89.5
341.158	87.5
341.386	76.5
341.614	70.5
341.842	86.5
342.07	81.5
342.298	86.5
342.526	79.5
342.754	66.5
342.981	79.5
343.209	91.5
343.437	84.5
343.665	89.5
343.893	83.5
344.12	95.5
344.348	81.5
344.576	88.5
344.804	90.5
345.031	96.5
345.259	77.5
345.487	91.5
345.714	94.5
345.942	87.5
346.17	82.5
346.397	63.5
346.625	85.5
346.853	74.5
347.08	93.5
347.308	80.5
347.535	89.5
347.763	86.5
347.99	79.5
348.218	74.5
348.445	72.5
348.673	83.5
348.9	94.5
349.128	80.5
349.355	78.5
349.583	72.5
349.81	94.5
350.037	73.5
350.265	78.5
350.492	81.5
350.72	78.5
350.947	90.5
351.174	75.5
351.402	80.5
351.629	64.5
351.856	79.5
352.083	91.5
352.311	79.5
352.538	79.5
352.765	84.5
352.992	82.5
353.22	72.5
353.447	80.5
353.674	82.5
353.901	79.5
354.128	77.5
354.355	89.5
354.583	73.5
354.81	82.5
355.037	85.5
355.264	78.5
355.491	78.5
355.718	81.5
355.945	79.5
356.172	85.5
356.399	89.5
356.626	93.5
356.853	79.5
357.08	83.5
357.307	83.5
357.534	77.5
357.761	74.5
357.988	75.5
358.215	79.5
358.441	79.5
358.668	87.5
358.895	88.5
359.122	110.5
359.349	82.5
359.576	79.5
359.802	62.5
360.029	75.5
360.256	95.5
360.483	75.5
360.709	80.5
360.936	85.5
361.163	91.5
361.39	81.5
361.616	78.5
361.843	90.5
362.07	82.5
362.296	93.5
362.523	68.5
362.749	87.5
362.976	95.5
363.203	85.5
363.429	67.5
363.656	81.5
363.882	82.5
364.109	81.5
364.335	81.5
364.562	78.5
364.788	79.5
365.015	80.5
365.241	80.5
365.468	88.5
365.694	81.5
365.92	88.5
366.147	68.5
366.373	73.5
366.599	81.5
366.826	80.5
367.052	87.5
367.278	86.5
367.505	87.5
367.731	89.5
367.957	85.5
368.184	91.5
368.41	83.5
368.636	70.5
368.862	81.5
369.089	81.5
369.315	90.5
369.541	73.5
369.767	79.5
369.993	79.5
370.219	85.5
370.445	82.5
370.672	88.5
370.898	91.5
371.124	81.5
371.35	88.5
371.576	94.5
371.802	76.5
372.028	72.5
372.254	83.5
372.48	94.5
372.706	90.5
372.932	81.5
373.158	89.5
373.384	75.5
373.61	84.5
373.835	101.5
374.061	99.5
374.287	81.5
374.513	89.5
374.739	81.5
374.965	77.5
375.191	78.5
375.416	92.5
375.642	68.5
375.868	77.5
376.094	74.5
376.319	81.5
376.545	86.5
376.771	76.5
376.997	100.5
377.222	74.5
377.448	82.5
377.674	81.5
377.899	75.5
378.125	78.5
378.35	89.5
378.576	89.5
378.802	73.5
379.027	86.5
379.253	79.5
379.478	89.5
379.704	90.5
379.929	71.5
380.155	67.5
380.38	82.5
380.606	88.5
380.831	89.5
381.057	76.5
381.282	81.5
381.507	87.5
381.733	79.5
381.958	83.5
382.184	78.5
382.409	85.5
382.634	81.5
382.86	87.5
383.085	87.5
383.31	56.5
383.535	85.5
383.761	77.5
383.986	76.5
384.211	74.5
384.436	80.5
384.662	95.5
384.887	66.5
385.112	94.5
385.337	85.5
385.562	93.5
385.787	84.5
386.013	82.5
386.238	76.5
386.463	78.5
386.688	90.5
386.913	98.5
387.138	88.5
387.363	80.5
387.588	88.5
387.813	88.5
388.038	86.5
388.263	88.5
388.488	86.5
388.713	89.5
388.938	98.5
389.163	94.5
389.387	87.5
389.612	79.5
389.837	83.5
390.062	73.5
390.287	81.5
390.512	91.5
390.736	87.5
390.961	86.5
391.186	83.5
391.411	74.5
391.636	74.5
391.86	90.5
392.085	94.5
392.31	89.5
392.534	91.5
392.759	83.5
392.984	89.5
393.208	87.5
393.433	94.5
393.658	92.5
393.882	86.5
394.107	96.5
394.331	81.5
394.556	69.5
394.78	74.5
395.005	83.5
395.229	96.5
395.454	84.5
395.678	87.5
395.903	94.5
396.127	94.5
396.352	75.5
396.576	79.5
396.801	83.5
397.025	94.5
397.249	82.5
397.474	86.5
397.698	89.5
397.922	87.5
398.147	83.5
398.371	92.5
398.595	101.5
398.82	79.5
399.044	99.5
399.268	79.5
399.492	90.5
399.717	78.5
399.941	79.5
400.165	88.5
400.389	78.5
400.613	90.5
400.837	105.5
401.062	81.5
401.286	88.5
401.51	88.5
401.734	93.5
401.958	82.5
402.182	93.5
402.406	81.5
402.63	81.5
402.854	74.5
403.078	89.5
403.302	81.5
403.526	89.5
403.75	96.5
403.974	102.5
404.198	84.5
404.422	98.5
404.645	75.5
404.869	97.5
405.093	79.5
405.317	91.5
405.541	90.5
405.765	86.5
405.988	76.5
406.212	87.5
406.436	82.5
406.66	89.5
406.883	84.5
407.107	93.5
407.331	78.5
407.555	89.5
407.778	78.5
408.002	76.5
408.226	83.5
408.449	83.5
408.673	79.5
408.896	104.5
409.12	100.5
409.344	83.5
409.567	98.5
409.791	94.5
410.014	98.5
410.238	83.5
410.461	102.5
410.685	98.5
410.908	79.5
411.132	98.5
411.355	94.5
411.578	85.5
411.802	82.5
412.025	83.5
412.249	85.5
412.472	89.5
412.695	89.5
412.919	102.5
413.142	83.5
413.365	83.5
413.589	77.5
413.812	91.5
414.035	83.5
414.258	90.5
414.482	102.5
414.705	108.5
414.928	101.5
415.151	101.5
415.374	85.5
415.597	76.5
415.821	87.5
416.044	100.5
416.267	81.5
416.49	81.5
416.713	90.5
416.936	88.5
417.159	85.5
417.382	67.5
417.605	75.5
417.828	95.5
418.051	94.5
418.274	89.5
418.497	91.5
418.72	98.5
418.943	100.5
419.166	97.5
419.389	87.5
419.611	83.5
419.834	88.5
420.057	97.5
420.28	86.5
420.503	87.5
420.726	90.5
420.948	94.5
421.171	98.5
421.394	89.5
421.617	97.5
421.839	105.5
422.062	99.5
422.285	100.5
422.507	76.5
422.73	90.5
422.953	73.5
423.175	85.5
423.398	96.5
423.621	110.5
423.843	87.5
424.066	100.5
424.288	94.5
424.511	80.5
424.733	102.5
424.956	87.5
425.178	97.5
425.401	100.5
425.623	89.5
425.846	91.5
426.068	97.5
426.291	86.5
426.513	91.5
426.735	87.5
426.958	84.5
427.18	98.5
427.402	95.5
427.625	98.5
427.847	82.5
428.069	98.5
428.292	93.5
428.514	90.5
428.736	92.5
428.958	102.5
429.181	91.5
429.403	79.5
429.625	81.5
429.847	93.5
430.069	91.5
430.292	95.5
430.514	101.5
430.736	81.5
430.958	102.5
431.18	105.5
431.402	107.5
431.624	86.5
431.846	79.5
432.068	88.5
432.29	68.5
432.512	80.5
432.734	86.5
432.956	86.5
433.178	94.5
433.4	85.5
433.622	87.5
433.844	80.5
434.066	82.5
434.287	83.5
434.509	77.5
434.731	89.5
434.953	87.5
435.175	84.5
435.397	86.5
435.618	84.5
435.84	83.5
436.062	85.5
436.284	91.5
436.505	101.5
436.727	81.5
436.949	86.5
437.17	98.5
437.392	94.5
437.614	101.5
437.835	92.5
438.057	80.5
438.278	86.5
438.5	81.5
438.721	85.5
438.943	102.5
439.165	87.5
439.386	94.5
439.608	98.5
439.829	104.5
440.05	98.5
440.272	107.5
440.493	98.5
440.715	94.5
440.936	95.5
441.158	89.5
441.379	94.5
441.6	100.5
441.822	99.5
442.043	94.5
442.264	101.5
442.486	99.5
442.707	111.5
442.928	98.5
443.149	103.5
443.371	105.5
443.592	92.5
443.813	98.5
444.034	94.5
444.255	84.5
444.476	87.5
444.698	92.5
444.919	87.5
445.14	171.5
445.361	138.5
445.582	110.5
445.803	105.5
446.024	94.5
446.245	98.5
446.466	90.5
446.687	103.5
446.908	101.5
447.129	108.5
447.35	94.5
447.571	85.5
447.792	103.5
448.013	94.5
448.234	109.5
448.455	105.5
448.675	100.5
448.896	96.5
449.117	121.5
449.338	94.5
449.559	108.5
449.779	89.5
450	85.5
450.221	84.5
450.442	93.5
450.662	83.5
450.883	96.5
451.104	83.5
451.324	101.5
451.545	89.5
451.766	95.5
451.986	87.5
452.207	80.5
452.428	85.5
452.648	97.5
452.869	82.5
453.089	91.5
453.31	88.5
453.53	87.5
453.751	90.5
453.971	90.5
454.192	84.5
454.412	86.5
454.633	90.5
454.853	94.5
455.073	87.5
455.294	84.5
455.514	98.5
455.734	84.5
455.955	95.5
456.175	100.5
456.395	83.5
456.616	75.5
456.836	77.5
457.056	93.5
457.276	88.5
457.497	91.5
457.717	92.5
457.937	90.5
458.157	94.5
458.377	85.5
458.598	94.5
458.818	90.5
459.038	90.5
459.258	85.5
459.478	81.5
459.698	69.5
459.918	91.5
460.138	77.5
460.358	94.5
460.578	94.5
460.798	87.5
461.018	97.5
461.238	88.5
461.458	93.5
461.678	99.5
461.898	98.5
462.118	88.5
462.338	101.5
462.558	89.5
462.777	67.5
462.997	91.5
463.217	86.5
463.437	94.5
463.657	79.5
463.876	99.5
464.096	101.5
464.316	88.5
464.536	94.5
464.755	93.5
464.975	88.5
465.195	94.5
465.414	93.5
465.634	87.5
465.854	89.5
466.073	93.5
466.293	92.5
466.512	89.5
466.732	88.5
466.951	88.5
467.171	80.5
467.391	104.5
467.61	89.5
467.829	99.5
468.049	88.5
468.268	97.5
468.488	101.5
468.707	101.5
468.927	87.5
469.146	92.5
469.365	107.5
469.585	84.5
469.804	90.5
470.023	89.5
470.243	95.5
470.462	81.5
470.681	100.5
470.901	80.5
471.12	99.5
471.339	101.5
471.558	85.5
471.777	112.5
471.997	91.5
472.216	103.5
472.435	99.5
472.654	87.5
472.873	95.5
473.092	88.5
473.311	97.5
473.53	102.5
473.749	107.5
473.968	97.5
474.187	94.5
474.406	86.5
474.625	103.5
474.844	106.5
475.063	100.5
475.282	103.5
475.501	91.5
475.72	82.5
475.939	104.5
476.158	92.5
476.377	74.5
476.596	75.5
476.814	69.5
477.033	86.5
477.252	94.5
477.471	98.5
477.69	95.5
477.908	97.5
478.127	104.5
478.346	90.5
478.564	100.5
478.783	92.5
479.002	99.5
479.22	95.5
479.439	90.5
479.658	100.5
479.876	91.5
480.095	72.5
480.313	90.5
480.532	91.5
480.751	89.5
480.969	89.5
481.188	93.5
481.406	78.5
481.624	84.5
481.843	78.5
482.061	93.5
482.28	99.5
482.498	89.5
482.717	81.5
482.935	91.5
483.153	99.5
483.372	99.5
483.59	88.5
483.808	92.5
484.027	88.5
484.245	100.5
484.463	100.5
484.681	104.5
484.9	98.5
485.118	101.5
485.336	96.5
485.554	93.5
485.772	82.5
485.99	87.5
486.209	98.5
486.427	94.5
486.645	91.5
486.863	104.5
487.081	99.5
487.299	104.5
487.517	87.5
487.735	96.5
487.953	115.5
488.171	110.5
488.389	123.5
488.607	118.5
488.825	78.5
489.043	82.5
489.261	92.5
489.479	93.5
489.696	103.5
489.914	98.5
490.132	97.5
490.35	94.5
490.568	103.5
490.786	105.5
491.003	103.5
491.221	104.5
491.439	98.5
491.657	119.5
491.874	115.5
492.092	114.5
492.31	124.5
492.527	111.5
492.745	113.5
492.963	115.5
493.18	113.5
493.398	99.5
493.615	102.5
493.833	116.5
494.05	98.5
494.268	110.5
494.485	114.5
494.703	111.5
494.92	111.5
495.138	114.5
495.355	122.5
495.573	117.5
495.79	113.5
496.008	104.5
496.225	116.5
496.442	117.5
496.66	114.5
496.877	105.5
497.094	120.5
497.312	101.5
497.529	99.5
497.746	99.5
497.963	98.5
498.181	81.5
498.398	91.5
498.615	104.5
498.832	103.5
499.049	93.5
499.267	98.5
499.484	82.5
499.701	102.5
499.918	97.5
500.135	88.5
500.352	110.5
500.569	105.5
500.786	94.5
501.003	108.5
501.22	100.5
501.437	89.5
501.654	110.5
501.871	106.5
502.088	91.5
502.305	99.5
502.522	85.5
502.739	105.5
502.956	85.5
503.172	95.5
503.389	97.5
503.606	100.5
503.823	87.5
504.04	98.5
504.256	97.5
504.473	89.5
504.69	91.5
504.907	112.5
505.123	91.5
505.34	93.5
505.557	112.5
505.773	95.5
505.99	90.5
506.207	94.5
506.423	97.5
506.64	79.5
506.856	72.5
507.073	89.5
507.289	90.5
507.506	96.5
507.722	93.5
507.939	110.5
508.155	101.5
508.372	81.5
508.588	105.5
508.805	95.5
509.021	86.5
509.238	97.5
509.454	94.5
509.67	93.5
509.887	85.5
510.103	72.5
510.319	87.5
510.536	82.5
510.752	80.5
510.968	85.5
511.184	67.5
511.401	101.5
511.617	85.5
511.833	91.5
512.049	89.5
512.265	80.5
512.481	96.5
512.698	87.5
512.914	98.5
513.13	79.5
513.346	97.5
513.562	84.5
513.778	87.5
513.994	77.5
514.21	86.5
514.426	78.5
514.642	91.5
514.858	89.5
515.074	95.5
515.29	86.5
515.506	86.5
515.721	79.5
515.937	93.5
516.153	77.5
516.369	79.5
516.585	85.5
516.801	82.5
517.016	92.5
517.232	72.5
517.448	84.5
517.664	76.5
517.879	83.5
518.095	83.5
518.311	82.5
518.527	85.5
518.742	92.5
518.958	96.5
519.173	106.5
519.389	103.5
519.605	94.5
519.82	87.5
520.036	80.5
520.251	91.5
520.467	110.5
520.682	100.5
520.898	90.5
521.113	93.5
521.329	77.5
521.544	80.5
521.76	90.5
521.975	71.5
522.19	89.5
522.406	81.5
522.621	81.5
522.836	70.5
523.052	89.5
523.267	93.5
523.482	100.5
523.698	90.5
523.913	76.5
524.128	91.5
524.343	83.5
524.559	89.5
524.774	101.5
524.989	93.5
525.204	94.5
525.419	87.5
525.634	98.5
525.849	95.5
526.064	79.5
526.28	112.5
526.495	90.5
526.71	94.5
526.925	85.5
527.14	91.5
527.355	78.5
527.57	92.5
527.785	82.5
527.999	103.5
528.214	107.5
528.429	91.5
528.644	80.5
528.859	108.5
529.074	96.5
529.289	106.5
529.503	100.5
529.718	98.5
529.933	88.5
530.148	84.5
530.363	81.5
530.577	79.5
530.792	83.5
531.007	77.5
531.221	79.5
531.436	76.5
531.651	86.5
531.865	77.5
532.08	90.5
532.295	86.5
532.509	81.5
532.724	89.5
532.938	94.5
533.153	86.5
533.367	97.5
533.582	94.5
533.796	101.5
534.011	81.5
534.225	84.5
534.44	90.5
534.654	94.5
534.868	82.5
535.083	79.5
535.297	90.5
535.511	81.5
535.726	96.5
535.94	79.5
536.154	74.5
536.369	84.5
536.583	90.5
536.797	84.5
537.011	97.5
537.225	86.5
537.44	87.5
537.654	90.5
