Data from Location4.07152019.Energy5.Lamp.07192019.3%Agarose_HRD10591_15-24-40-577.txt Node
Date: Fri Jul 19 15:24:40 EDT 2019
User: cochatt
Spectrometer: HR+D1059
Trigger mode: 1
Integration Time (sec): 1.000000E-1
Scans to average: 1
Electric dark correction enabled: true
Nonlinearity correction enabled: false
Boxcar width: 0
XAxis mode: Wavelengths
Number of Pixels in Spectrum: 2048
>>>>>Begin Spectral Data<<<<<
223.165	-27.12
223.4	-27.12
223.635	-27.12
223.869	-19.12
224.104	-5.12
224.338	-10.12
224.573	-20.12
224.808	-19.12
225.042	-0.12
225.277	-2.12
225.511	-2.12
225.746	4.88
225.98	-2.12
226.215	12.88
226.449	7.88
226.683	21.88
226.918	30.88
227.152	28.88
227.387	24.88
227.621	31.88
227.856	40.88
228.09	33.88
228.324	38.88
228.559	48.88
228.793	31.88
229.027	45.88
229.262	65.88
229.496	54.88
229.73	57.88
229.964	56.88
230.199	76.88
230.433	71.88
230.667	73.88
230.901	80.88
231.136	74.88
231.37	77.88
231.604	78.88
231.838	66.88
232.072	64.88
232.306	79.88
232.541	77.88
232.775	82.88
233.009	89.88
233.243	78.88
233.477	71.88
233.711	80.88
233.945	85.88
234.179	74.88
234.413	79.88
234.647	59.88
234.881	76.88
235.115	71.88
235.349	69.88
235.583	75.88
235.817	82.88
236.051	73.88
236.285	82.88
236.519	77.88
236.753	73.88
236.987	63.88
237.221	73.88
237.455	82.88
237.689	66.88
237.922	68.88
238.156	65.88
238.39	78.88
238.624	76.88
238.858	72.88
239.091	60.88
239.325	65.88
239.559	79.88
239.793	45.88
240.027	74.88
240.26	55.88
240.494	55.88
240.728	61.88
240.961	70.88
241.195	69.88
241.429	63.88
241.662	75.88
241.896	61.88
242.13	66.88
242.363	63.88
242.597	58.88
242.83	65.88
243.064	78.88
243.298	68.88
243.531	63.88
243.765	75.88
243.998	68.88
244.232	69.88
244.465	60.88
244.699	84.88
244.932	78.88
245.166	76.88
245.399	68.88
245.633	72.88
245.866	67.88
246.099	77.88
246.333	82.88
246.566	71.88
246.8	69.88
247.033	64.88
247.266	66.88
247.5	70.88
247.733	88.88
247.966	77.88
248.2	65.88
248.433	73.88
248.666	65.88
248.899	79.88
249.133	87.88
249.366	74.88
249.599	74.88
249.832	81.88
250.066	74.88
250.299	74.88
250.532	90.88
250.765	48.88
250.998	69.88
251.231	62.88
251.465	72.88
251.698	70.88
251.931	84.88
252.164	88.88
252.397	85.88
252.63	75.88
252.863	96.88
253.096	63.88
253.329	63.88
253.562	62.88
253.795	68.88
254.028	86.88
254.261	85.88
254.494	86.88
254.727	82.88
254.96	85.88
255.193	77.88
255.426	69.88
255.659	74.88
255.892	58.88
256.124	70.88
256.357	78.88
256.59	62.88
256.823	69.88
257.056	70.88
257.289	59.88
257.521	72.88
257.754	70.88
257.987	67.88
258.22	73.88
258.452	85.88
258.685	81.88
258.918	86.88
259.151	73.88
259.383	72.88
259.616	80.88
259.849	76.88
260.081	57.88
260.314	66.88
260.547	77.88
260.779	76.88
261.012	60.88
261.244	67.88
261.477	81.88
261.71	83.88
261.942	77.88
262.175	77.88
262.407	77.88
262.64	62.88
262.872	84.88
263.105	69.88
263.337	80.88
263.57	77.88
263.802	85.88
264.035	80.88
264.267	76.88
264.499	78.88
264.732	82.88
264.964	61.88
265.197	78.88
265.429	64.88
265.661	75.88
265.894	80.88
266.126	81.88
266.358	88.88
266.591	80.88
266.823	70.88
267.055	76.88
267.287	75.88
267.52	76.88
267.752	76.88
267.984	69.88
268.216	77.88
268.448	67.88
268.681	70.88
268.913	85.88
269.145	76.88
269.377	77.88
269.609	77.88
269.841	79.88
270.073	70.88
270.306	81.88
270.538	75.88
270.77	76.88
271.002	66.88
271.234	69.88
271.466	69.88
271.698	85.88
271.93	81.88
272.162	75.88
272.394	80.88
272.626	70.88
272.858	68.88
273.09	85.88
273.322	81.88
273.553	76.88
273.785	73.88
274.017	74.88
274.249	82.88
274.481	74.88
274.713	69.88
274.945	81.88
275.176	67.88
275.408	81.88
275.64	79.88
275.872	78.88
276.104	79.88
276.335	78.88
276.567	77.88
276.799	69.88
277.031	74.88
277.262	87.88
277.494	74.88
277.726	75.88
277.957	73.88
278.189	80.88
278.421	68.88
278.652	87.88
278.884	79.88
279.115	73.88
279.347	86.88
279.579	86.88
279.81	81.88
280.042	73.88
280.273	76.88
280.505	83.88
280.736	83.88
280.968	66.88
281.199	88.88
281.431	96.88
281.662	87.88
281.894	77.88
282.125	89.88
282.356	83.88
282.588	77.88
282.819	70.88
283.051	79.88
283.282	67.88
283.513	77.88
283.745	88.88
283.976	88.88
284.207	71.88
284.439	73.88
284.67	69.88
284.901	73.88
285.132	69.88
285.364	63.88
285.595	81.88
285.826	67.88
286.057	74.88
286.288	78.88
286.52	84.88
286.751	78.88
286.982	75.88
287.213	74.88
287.444	78.88
287.675	65.88
287.906	79.88
288.138	90.88
288.369	95.88
288.6	79.88
288.831	80.88
289.062	88.88
289.293	67.88
289.524	73.88
289.755	74.88
289.986	72.88
290.217	79.88
290.448	76.88
290.679	63.88
290.91	82.88
291.141	86.88
291.371	83.88
291.602	66.88
291.833	61.88
292.064	65.88
292.295	84.88
292.526	82.88
292.757	71.88
292.987	85.88
293.218	76.88
293.449	68.88
293.68	83.88
293.91	80.88
294.141	75.88
294.372	70.88
294.603	76.88
294.833	80.88
295.064	67.88
295.295	80.88
295.525	81.88
295.756	81.88
295.987	75.88
296.217	81.88
296.448	95.88
296.679	87.88
296.909	93.88
297.14	83.88
297.37	77.88
297.601	91.88
297.831	78.88
298.062	76.88
298.292	78.88
298.523	80.88
298.753	65.88
298.984	77.88
299.214	80.88
299.445	89.88
299.675	69.88
299.905	73.88
300.136	79.88
300.366	75.88
300.597	77.88
300.827	75.88
301.057	89.88
301.288	70.88
301.518	83.88
301.748	81.88
301.979	59.88
302.209	82.88
302.439	81.88
302.669	83.88
302.9	89.88
303.13	93.88
303.36	72.88
303.59	83.88
303.82	86.88
304.051	74.88
304.281	86.88
304.511	79.88
304.741	75.88
304.971	80.88
305.201	82.88
305.431	72.88
305.661	82.88
305.891	68.88
306.121	83.88
306.352	77.88
306.582	76.88
306.812	66.88
307.042	91.88
307.272	74.88
307.502	77.88
307.731	89.88
307.961	78.88
308.191	80.88
308.421	72.88
308.651	78.88
308.881	87.88
309.111	86.88
309.341	74.88
309.571	89.88
309.8	90.88
310.03	66.88
310.26	77.88
310.49	70.88
310.72	86.88
310.949	86.88
311.179	76.88
311.409	88.88
311.639	94.88
311.868	87.88
312.098	86.88
312.328	80.88
312.557	76.88
312.787	66.88
313.017	82.88
313.246	85.88
313.476	81.88
313.706	75.88
313.935	72.88
314.165	93.88
314.394	77.88
314.624	79.88
314.853	92.88
315.083	82.88
315.312	83.88
315.542	83.88
315.771	76.88
316.001	71.88
316.23	74.88
316.46	83.88
316.689	79.88
316.919	86.88
317.148	90.88
317.377	81.88
317.607	83.88
317.836	67.88
318.065	78.88
318.295	89.88
318.524	62.88
318.753	77.88
318.983	84.88
319.212	79.88
319.441	76.88
319.67	71.88
319.9	85.88
320.129	90.88
320.358	93.88
320.587	84.88
320.816	69.88
321.046	68.88
321.275	90.88
321.504	66.88
321.733	75.88
321.962	72.88
322.191	82.88
322.42	76.88
322.649	74.88
322.878	86.88
323.108	78.88
323.337	77.88
323.566	68.88
323.795	72.88
324.024	87.88
324.253	86.88
324.482	66.88
324.71	83.88
324.939	80.88
325.168	73.88
325.397	82.88
325.626	79.88
325.855	66.88
326.084	70.88
326.313	69.88
326.542	85.88
326.77	64.88
326.999	82.88
327.228	80.88
327.457	79.88
327.686	89.88
327.914	92.88
328.143	70.88
328.372	70.88
328.6	73.88
328.829	88.88
329.058	86.88
329.287	83.88
329.515	92.88
329.744	85.88
329.972	82.88
330.201	77.88
330.43	84.88
330.658	85.88
330.887	92.88
331.115	83.88
331.344	84.88
331.572	99.88
331.801	76.88
332.03	87.88
332.258	85.88
332.486	70.88
332.715	69.88
332.943	71.88
333.172	72.88
333.4	80.88
333.629	78.88
333.857	60.88
334.085	76.88
334.314	83.88
334.542	83.88
334.771	68.88
334.999	84.88
335.227	82.88
335.455	83.88
335.684	73.88
335.912	69.88
336.14	73.88
336.369	76.88
336.597	86.88
336.825	66.88
337.053	90.88
337.281	69.88
337.51	82.88
337.738	91.88
337.966	67.88
338.194	81.88
338.422	85.88
338.65	85.88
338.878	82.88
339.106	80.88
339.334	97.88
339.562	79.88
339.79	74.88
340.018	78.88
340.246	83.88
340.474	85.88
340.702	77.88
340.93	83.88
341.158	74.88
341.386	76.88
341.614	71.88
341.842	83.88
342.07	75.88
342.298	70.88
342.526	72.88
342.754	79.88
342.981	88.88
343.209	73.88
343.437	85.88
343.665	66.88
343.893	59.88
344.12	76.88
344.348	78.88
344.576	82.88
344.804	84.88
345.031	78.88
345.259	77.88
345.487	88.88
345.714	93.88
345.942	82.88
346.17	85.88
346.397	71.88
346.625	92.88
346.853	80.88
347.08	73.88
347.308	77.88
347.535	86.88
347.763	84.88
347.99	72.88
348.218	78.88
348.445	77.88
348.673	75.88
348.9	83.88
349.128	77.88
349.355	83.88
349.583	84.88
349.81	81.88
350.037	72.88
350.265	97.88
350.492	80.88
350.72	85.88
350.947	90.88
351.174	87.88
351.402	77.88
351.629	83.88
351.856	69.88
352.083	76.88
352.311	84.88
352.538	83.88
352.765	86.88
352.992	101.88
353.22	72.88
353.447	74.88
353.674	84.88
353.901	76.88
354.128	102.88
354.355	66.88
354.583	86.88
354.81	85.88
355.037	84.88
355.264	80.88
355.491	78.88
355.718	82.88
355.945	84.88
356.172	92.88
356.399	84.88
356.626	75.88
356.853	92.88
357.08	91.88
357.307	62.88
357.534	83.88
357.761	72.88
357.988	74.88
358.215	74.88
358.441	79.88
358.668	82.88
358.895	89.88
359.122	84.88
359.349	74.88
359.576	78.88
359.802	70.88
360.029	92.88
360.256	82.88
360.483	85.88
360.709	67.88
360.936	86.88
361.163	85.88
361.39	85.88
361.616	68.88
361.843	68.88
362.07	90.88
362.296	86.88
362.523	89.88
362.749	69.88
362.976	84.88
363.203	79.88
363.429	77.88
363.656	97.88
363.882	77.88
364.109	81.88
364.335	66.88
364.562	73.88
364.788	77.88
365.015	80.88
365.241	78.88
365.468	92.88
365.694	79.88
365.92	80.88
366.147	77.88
366.373	80.88
366.599	82.88
366.826	66.88
367.052	79.88
367.278	80.88
367.505	102.88
367.731	82.88
367.957	77.88
368.184	74.88
368.41	73.88
368.636	97.88
368.862	74.88
369.089	81.88
369.315	85.88
369.541	81.88
369.767	91.88
369.993	60.88
370.219	67.88
370.445	76.88
370.672	76.88
370.898	80.88
371.124	82.88
371.35	88.88
371.576	93.88
371.802	97.88
372.028	80.88
372.254	71.88
372.48	85.88
372.706	74.88
372.932	71.88
373.158	68.88
373.384	92.88
373.61	91.88
373.835	86.88
374.061	88.88
374.287	85.88
374.513	82.88
374.739	78.88
374.965	96.88
375.191	72.88
375.416	80.88
375.642	74.88
375.868	90.88
376.094	84.88
376.319	75.88
376.545	82.88
376.771	78.88
376.997	84.88
377.222	68.88
377.448	77.88
377.674	90.88
377.899	84.88
378.125	68.88
378.35	65.88
378.576	76.88
378.802	80.88
379.027	77.88
379.253	71.88
379.478	93.88
379.704	84.88
379.929	83.88
380.155	88.88
380.38	82.88
380.606	75.88
380.831	76.88
381.057	105.88
381.282	77.88
381.507	86.88
381.733	79.88
381.958	77.88
382.184	85.88
382.409	95.88
382.634	65.88
382.86	85.88
383.085	87.88
383.31	80.88
383.535	94.88
383.761	80.88
383.986	88.88
384.211	84.88
384.436	75.88
384.662	84.88
384.887	69.88
385.112	70.88
385.337	89.88
385.562	79.88
385.787	83.88
386.013	87.88
386.238	85.88
386.463	93.88
386.688	86.88
386.913	73.88
387.138	76.88
387.363	86.88
387.588	78.88
387.813	79.88
388.038	84.88
388.263	81.88
388.488	84.88
388.713	80.88
388.938	76.88
389.163	80.88
389.387	82.88
389.612	78.88
389.837	86.88
390.062	87.88
390.287	80.88
390.512	80.88
390.736	78.88
390.961	98.88
391.186	90.88
391.411	73.88
391.636	89.88
391.86	85.88
392.085	99.88
392.31	71.88
392.534	71.88
392.759	71.88
392.984	82.88
393.208	85.88
393.433	77.88
393.658	89.88
393.882	91.88
394.107	77.88
394.331	99.88
394.556	80.88
394.78	72.88
395.005	77.88
395.229	79.88
395.454	77.88
395.678	80.88
395.903	84.88
396.127	91.88
396.352	81.88
396.576	79.88
396.801	80.88
397.025	87.88
397.249	77.88
397.474	75.88
397.698	85.88
397.922	83.88
398.147	92.88
398.371	78.88
398.595	81.88
398.82	82.88
399.044	94.88
399.268	81.88
399.492	84.88
399.717	92.88
399.941	76.88
400.165	88.88
400.389	93.88
400.613	93.88
400.837	95.88
401.062	86.88
401.286	96.88
401.51	93.88
401.734	83.88
401.958	88.88
402.182	92.88
402.406	105.88
402.63	95.88
402.854	83.88
403.078	79.88
403.302	86.88
403.526	77.88
403.75	92.88
403.974	69.88
404.198	95.88
404.422	82.88
404.645	92.88
404.869	76.88
405.093	79.88
405.317	72.88
405.541	74.88
405.765	84.88
405.988	78.88
406.212	81.88
406.436	81.88
406.66	88.88
406.883	66.88
407.107	92.88
407.331	90.88
407.555	90.88
407.778	83.88
408.002	92.88
408.226	81.88
408.449	89.88
408.673	82.88
408.896	89.88
409.12	86.88
409.344	85.88
409.567	84.88
409.791	94.88
410.014	96.88
410.238	92.88
410.461	93.88
410.685	81.88
410.908	88.88
411.132	87.88
411.355	88.88
411.578	84.88
411.802	84.88
412.025	81.88
412.249	85.88
412.472	74.88
412.695	82.88
412.919	83.88
413.142	94.88
413.365	82.88
413.589	80.88
413.812	72.88
414.035	70.88
414.258	93.88
414.482	93.88
414.705	92.88
414.928	89.88
415.151	83.88
415.374	93.88
415.597	93.88
415.821	92.88
416.044	75.88
416.267	90.88
416.49	94.88
416.713	84.88
416.936	101.88
417.159	93.88
417.382	85.88
417.605	83.88
417.828	87.88
418.051	81.88
418.274	85.88
418.497	91.88
418.72	84.88
418.943	84.88
419.166	90.88
419.389	103.88
419.611	80.88
419.834	81.88
420.057	77.88
420.28	90.88
420.503	76.88
420.726	81.88
420.948	80.88
421.171	84.88
421.394	95.88
421.617	84.88
421.839	98.88
422.062	92.88
422.285	83.88
422.507	85.88
422.73	89.88
422.953	79.88
423.175	81.88
423.398	106.88
423.621	90.88
423.843	90.88
424.066	90.88
424.288	92.88
424.511	88.88
424.733	96.88
424.956	70.88
425.178	97.88
425.401	91.88
425.623	83.88
425.846	86.88
426.068	91.88
426.291	87.88
426.513	92.88
426.735	94.88
426.958	89.88
427.18	85.88
427.402	75.88
427.625	100.88
427.847	102.88
428.069	100.88
428.292	94.88
428.514	93.88
428.736	86.88
428.958	89.88
429.181	81.88
429.403	81.88
429.625	96.88
429.847	87.88
430.069	86.88
430.292	85.88
430.514	72.88
430.736	89.88
430.958	74.88
431.18	87.88
431.402	92.88
431.624	76.88
431.846	81.88
432.068	95.88
432.29	64.88
432.512	88.88
432.734	98.88
432.956	98.88
433.178	84.88
433.4	93.88
433.622	76.88
433.844	85.88
434.066	90.88
434.287	72.88
434.509	88.88
434.731	85.88
434.953	93.88
435.175	80.88
435.397	82.88
435.618	78.88
435.84	81.88
436.062	85.88
436.284	92.88
436.505	90.88
436.727	99.88
436.949	84.88
437.17	85.88
437.392	99.88
437.614	87.88
437.835	77.88
438.057	69.88
438.278	77.88
438.5	98.88
438.721	92.88
438.943	89.88
439.165	95.88
439.386	92.88
439.608	89.88
439.829	82.88
440.05	99.88
440.272	105.88
440.493	90.88
440.715	82.88
440.936	85.88
441.158	77.88
441.379	84.88
441.6	88.88
441.822	94.88
442.043	85.88
442.264	88.88
442.486	91.88
442.707	88.88
442.928	85.88
443.149	92.88
443.371	96.88
443.592	75.88
443.813	98.88
444.034	90.88
444.255	97.88
444.476	107.88
444.698	91.88
444.919	105.88
445.14	223.88
445.361	164.88
445.582	93.88
445.803	82.88
446.024	95.88
446.245	90.88
446.466	92.88
446.687	101.88
446.908	99.88
447.129	109.88
447.35	88.88
447.571	92.88
447.792	82.88
448.013	85.88
448.234	89.88
448.455	82.88
448.675	91.88
448.896	105.88
449.117	90.88
449.338	92.88
449.559	85.88
449.779	80.88
450	86.88
450.221	92.88
450.442	87.88
450.662	97.88
450.883	86.88
451.104	95.88
451.324	81.88
451.545	79.88
451.766	91.88
451.986	80.88
452.207	81.88
452.428	90.88
452.648	85.88
452.869	67.88
453.089	89.88
453.31	83.88
453.53	92.88
453.751	92.88
453.971	92.88
454.192	82.88
454.412	80.88
454.633	73.88
454.853	95.88
455.073	86.88
455.294	65.88
455.514	75.88
455.734	71.88
455.955	77.88
456.175	79.88
456.395	89.88
456.616	87.88
456.836	88.88
457.056	77.88
457.276	75.88
457.497	86.88
457.717	80.88
457.937	73.88
458.157	76.88
458.377	76.88
458.598	74.88
458.818	66.88
459.038	85.88
459.258	87.88
459.478	70.88
459.698	89.88
459.918	84.88
460.138	80.88
460.358	81.88
460.578	86.88
460.798	83.88
461.018	85.88
461.238	89.88
461.458	91.88
461.678	70.88
461.898	89.88
462.118	83.88
462.338	81.88
462.558	92.88
462.777	70.88
462.997	82.88
463.217	87.88
463.437	81.88
463.657	89.88
463.876	75.88
464.096	89.88
464.316	82.88
464.536	93.88
464.755	85.88
464.975	82.88
465.195	88.88
465.414	87.88
465.634	83.88
465.854	81.88
466.073	76.88
466.293	85.88
466.512	88.88
466.732	76.88
466.951	73.88
467.171	70.88
467.391	80.88
467.61	102.88
467.829	91.88
468.049	88.88
468.268	85.88
468.488	82.88
468.707	98.88
468.927	91.88
469.146	72.88
469.365	83.88
469.585	89.88
469.804	88.88
470.023	81.88
470.243	86.88
470.462	99.88
470.681	81.88
470.901	96.88
471.12	76.88
471.339	80.88
471.558	94.88
471.777	101.88
471.997	90.88
472.216	86.88
472.435	83.88
472.654	86.88
472.873	88.88
473.092	82.88
473.311	84.88
473.53	88.88
473.749	82.88
473.968	114.88
474.187	84.88
474.406	86.88
474.625	80.88
474.844	89.88
475.063	78.88
475.282	98.88
475.501	90.88
475.72	94.88
475.939	92.88
476.158	81.88
476.377	79.88
476.596	85.88
476.814	87.88
477.033	83.88
477.252	74.88
477.471	87.88
477.69	82.88
477.908	79.88
478.127	97.88
478.346	84.88
478.564	92.88
478.783	87.88
479.002	69.88
479.22	77.88
479.439	94.88
479.658	92.88
479.876	96.88
480.095	88.88
480.313	85.88
480.532	85.88
480.751	77.88
480.969	78.88
481.188	68.88
481.406	78.88
481.624	75.88
481.843	83.88
482.061	70.88
482.28	65.88
482.498	84.88
482.717	81.88
482.935	98.88
483.153	93.88
483.372	95.88
483.59	94.88
483.808	94.88
484.027	93.88
484.245	96.88
484.463	79.88
484.681	103.88
484.9	104.88
485.118	94.88
485.336	99.88
485.554	86.88
485.772	85.88
485.99	82.88
486.209	74.88
486.427	88.88
486.645	83.88
486.863	98.88
487.081	92.88
487.299	89.88
487.517	92.88
487.735	115.88
487.953	104.88
488.171	118.88
488.389	104.88
488.607	93.88
488.825	95.88
489.043	88.88
489.261	95.88
489.479	92.88
489.696	101.88
489.914	91.88
490.132	92.88
490.35	91.88
490.568	92.88
490.786	92.88
491.003	83.88
491.221	96.88
491.439	106.88
491.657	98.88
491.874	111.88
492.092	113.88
492.31	120.88
492.527	122.88
492.745	113.88
492.963	112.88
493.18	102.88
493.398	104.88
493.615	99.88
493.833	107.88
494.05	106.88
494.268	106.88
494.485	113.88
494.703	112.88
494.92	105.88
495.138	107.88
495.355	101.88
495.573	87.88
495.79	82.88
496.008	95.88
496.225	105.88
496.442	107.88
496.66	97.88
496.877	105.88
497.094	94.88
497.312	92.88
497.529	96.88
497.746	95.88
497.963	97.88
498.181	85.88
498.398	87.88
498.615	85.88
498.832	80.88
499.049	81.88
499.267	90.88
499.484	61.88
499.701	80.88
499.918	90.88
500.135	93.88
500.352	90.88
500.569	89.88
500.786	90.88
501.003	92.88
501.22	90.88
501.437	85.88
501.654	88.88
501.871	79.88
502.088	86.88
502.305	95.88
502.522	74.88
502.739	88.88
502.956	93.88
503.172	76.88
503.389	75.88
503.606	90.88
503.823	89.88
504.04	73.88
504.256	87.88
504.473	97.88
504.69	93.88
504.907	92.88
505.123	94.88
505.34	82.88
505.557	88.88
505.773	90.88
505.99	89.88
506.207	81.88
506.423	98.88
506.64	99.88
506.856	82.88
507.073	91.88
507.289	97.88
507.506	84.88
507.722	82.88
507.939	73.88
508.155	82.88
508.372	90.88
508.588	70.88
508.805	78.88
509.021	90.88
509.238	89.88
509.454	83.88
509.67	80.88
509.887	77.88
510.103	77.88
510.319	67.88
510.536	68.88
510.752	69.88
510.968	85.88
511.184	85.88
511.401	70.88
511.617	73.88
511.833	62.88
512.049	82.88
512.265	76.88
512.481	80.88
512.698	77.88
512.914	62.88
513.13	69.88
513.346	80.88
513.562	82.88
513.778	84.88
513.994	90.88
514.21	88.88
514.426	86.88
514.642	75.88
514.858	70.88
515.074	62.88
515.29	74.88
515.506	69.88
515.721	66.88
515.937	85.88
516.153	89.88
516.369	92.88
516.585	81.88
516.801	69.88
517.016	87.88
517.232	77.88
517.448	94.88
517.664	77.88
517.879	78.88
518.095	76.88
518.311	80.88
518.527	80.88
518.742	84.88
