Data from Location4.07152019.Energy5.Lamp.07192019.3%Agarose_HRD10591_15-25-19-577.txt Node
Date: Fri Jul 19 15:25:19 EDT 2019
User: cochatt
Spectrometer: HR+D1059
Trigger mode: 1
Integration Time (sec): 1.000000E-1
Scans to average: 1
Electric dark correction enabled: true
Nonlinearity correction enabled: false
Boxcar width: 0
XAxis mode: Wavelengths
Number of Pixels in Spectrum: 2048
>>>>>Begin Spectral Data<<<<<
223.165	-18.88
223.4	-18.88
223.635	-18.88
223.869	-18.88
224.104	-16.88
224.338	-8.88
224.573	-18.88
224.808	-6.88
225.042	-8.88
225.277	-11.88
225.511	2.12
225.746	-6.88
225.98	8.12
226.215	10.12
226.449	17.12
226.683	30.12
226.918	25.12
227.152	24.12
227.387	31.12
227.621	34.12
227.856	54.12
228.09	50.12
228.324	38.12
228.559	51.12
228.793	57.12
229.027	64.12
229.262	73.12
229.496	70.12
229.73	62.12
229.964	80.12
230.199	81.12
230.433	80.12
230.667	91.12
230.901	78.12
231.136	86.12
231.37	89.12
231.604	78.12
231.838	88.12
232.072	77.12
232.306	86.12
232.541	84.12
232.775	82.12
233.009	91.12
233.243	74.12
233.477	89.12
233.711	83.12
233.945	81.12
234.179	87.12
234.413	85.12
234.647	91.12
234.881	75.12
235.115	73.12
235.349	76.12
235.583	70.12
235.817	83.12
236.051	83.12
236.285	66.12
236.519	77.12
236.753	74.12
236.987	81.12
237.221	76.12
237.455	87.12
237.689	90.12
237.922	82.12
238.156	87.12
238.39	68.12
238.624	82.12
238.858	65.12
239.091	71.12
239.325	70.12
239.559	86.12
239.793	84.12
240.027	70.12
240.26	76.12
240.494	74.12
240.728	88.12
240.961	69.12
241.195	78.12
241.429	62.12
241.662	70.12
241.896	77.12
242.13	74.12
242.363	69.12
242.597	69.12
242.83	71.12
243.064	85.12
243.298	78.12
243.531	84.12
243.765	78.12
243.998	77.12
244.232	75.12
244.465	60.12
244.699	83.12
244.932	69.12
245.166	68.12
245.399	83.12
245.633	82.12
245.866	61.12
246.099	77.12
246.333	77.12
246.566	87.12
246.8	86.12
247.033	85.12
247.266	72.12
247.5	91.12
247.733	88.12
247.966	83.12
248.2	78.12
248.433	73.12
248.666	73.12
248.899	83.12
249.133	82.12
249.366	89.12
249.599	83.12
249.832	77.12
250.066	73.12
250.299	74.12
250.532	75.12
250.765	75.12
250.998	75.12
251.231	70.12
251.465	83.12
251.698	85.12
251.931	86.12
252.164	75.12
252.397	86.12
252.63	72.12
252.863	75.12
253.096	70.12
253.329	64.12
253.562	70.12
253.795	78.12
254.028	84.12
254.261	77.12
254.494	80.12
254.727	74.12
254.96	78.12
255.193	78.12
255.426	78.12
255.659	77.12
255.892	90.12
256.124	80.12
256.357	81.12
256.59	87.12
256.823	70.12
257.056	72.12
257.289	82.12
257.521	93.12
257.754	59.12
257.987	79.12
258.22	83.12
258.452	90.12
258.685	80.12
258.918	88.12
259.151	71.12
259.383	65.12
259.616	84.12
259.849	77.12
260.081	84.12
260.314	77.12
260.547	73.12
260.779	78.12
261.012	89.12
261.244	89.12
261.477	89.12
261.71	85.12
261.942	89.12
262.175	85.12
262.407	77.12
262.64	72.12
262.872	74.12
263.105	82.12
263.337	87.12
263.57	73.12
263.802	84.12
264.035	88.12
264.267	76.12
264.499	78.12
264.732	92.12
264.964	88.12
265.197	85.12
265.429	96.12
265.661	99.12
265.894	89.12
266.126	84.12
266.358	79.12
266.591	84.12
266.823	88.12
267.055	75.12
267.287	97.12
267.52	80.12
267.752	83.12
267.984	92.12
268.216	90.12
268.448	88.12
268.681	88.12
268.913	84.12
269.145	86.12
269.377	90.12
269.609	73.12
269.841	85.12
270.073	72.12
270.306	94.12
270.538	90.12
270.77	87.12
271.002	82.12
271.234	80.12
271.466	69.12
271.698	72.12
271.93	84.12
272.162	102.12
272.394	96.12
272.626	98.12
272.858	84.12
273.09	89.12
273.322	85.12
273.553	81.12
273.785	91.12
274.017	86.12
274.249	77.12
274.481	89.12
274.713	78.12
274.945	104.12
275.176	75.12
275.408	70.12
275.64	85.12
275.872	86.12
276.104	96.12
276.335	71.12
276.567	71.12
276.799	78.12
277.031	94.12
277.262	84.12
277.494	86.12
277.726	68.12
277.957	66.12
278.189	91.12
278.421	84.12
278.652	78.12
278.884	67.12
279.115	88.12
279.347	85.12
279.579	87.12
279.81	94.12
280.042	80.12
280.273	82.12
280.505	82.12
280.736	86.12
280.968	92.12
281.199	97.12
281.431	90.12
281.662	77.12
281.894	83.12
282.125	73.12
282.356	96.12
282.588	93.12
282.819	88.12
283.051	81.12
283.282	80.12
283.513	82.12
283.745	88.12
283.976	80.12
284.207	89.12
284.439	87.12
284.67	70.12
284.901	87.12
285.132	86.12
285.364	75.12
285.595	76.12
285.826	91.12
286.057	98.12
286.288	90.12
286.52	92.12
286.751	73.12
286.982	77.12
287.213	78.12
287.444	78.12
287.675	80.12
287.906	76.12
288.138	96.12
288.369	78.12
288.6	76.12
288.831	71.12
289.062	79.12
289.293	93.12
289.524	89.12
289.755	79.12
289.986	76.12
290.217	92.12
290.448	85.12
290.679	85.12
290.91	89.12
291.141	82.12
291.371	78.12
291.602	77.12
291.833	86.12
292.064	87.12
292.295	96.12
292.526	71.12
292.757	88.12
292.987	90.12
293.218	78.12
293.449	87.12
293.68	88.12
293.91	95.12
294.141	99.12
294.372	87.12
294.603	85.12
294.833	85.12
295.064	74.12
295.295	92.12
295.525	78.12
295.756	82.12
295.987	87.12
296.217	84.12
296.448	85.12
296.679	75.12
296.909	87.12
297.14	86.12
297.37	92.12
297.601	86.12
297.831	91.12
298.062	81.12
298.292	90.12
298.523	85.12
298.753	83.12
298.984	92.12
299.214	75.12
299.445	78.12
299.675	78.12
299.905	94.12
300.136	89.12
300.366	86.12
300.597	79.12
300.827	76.12
301.057	85.12
301.288	81.12
301.518	86.12
301.748	83.12
301.979	73.12
302.209	96.12
302.439	87.12
302.669	98.12
302.9	88.12
303.13	87.12
303.36	82.12
303.59	90.12
303.82	98.12
304.051	89.12
304.281	96.12
304.511	88.12
304.741	92.12
304.971	95.12
305.201	84.12
305.431	89.12
305.661	82.12
305.891	82.12
306.121	87.12
306.352	70.12
306.582	87.12
306.812	92.12
307.042	78.12
307.272	72.12
307.502	82.12
307.731	92.12
307.961	81.12
308.191	80.12
308.421	65.12
308.651	91.12
308.881	72.12
309.111	86.12
309.341	83.12
309.571	83.12
309.8	101.12
310.03	75.12
310.26	79.12
310.49	77.12
310.72	93.12
310.949	77.12
311.179	79.12
311.409	94.12
311.639	83.12
311.868	88.12
312.098	84.12
312.328	84.12
312.557	65.12
312.787	81.12
313.017	83.12
313.246	89.12
313.476	83.12
313.706	98.12
313.935	73.12
314.165	88.12
314.394	81.12
314.624	99.12
314.853	76.12
315.083	77.12
315.312	78.12
315.542	88.12
315.771	100.12
316.001	106.12
316.23	101.12
316.46	78.12
316.689	86.12
316.919	86.12
317.148	91.12
317.377	81.12
317.607	98.12
317.836	90.12
318.065	88.12
318.295	106.12
318.524	86.12
318.753	93.12
318.983	79.12
319.212	64.12
319.441	73.12
319.67	77.12
319.9	82.12
320.129	87.12
320.358	84.12
320.587	85.12
320.816	96.12
321.046	84.12
321.275	89.12
321.504	83.12
321.733	88.12
321.962	76.12
322.191	77.12
322.42	87.12
322.649	91.12
322.878	76.12
323.108	97.12
323.337	69.12
323.566	91.12
323.795	102.12
324.024	81.12
324.253	96.12
324.482	90.12
324.71	85.12
324.939	95.12
325.168	79.12
325.397	83.12
325.626	87.12
325.855	81.12
326.084	78.12
326.313	73.12
326.542	72.12
326.77	80.12
326.999	90.12
327.228	85.12
327.457	78.12
327.686	90.12
327.914	78.12
328.143	86.12
328.372	101.12
328.6	88.12
328.829	88.12
329.058	88.12
329.287	85.12
329.515	66.12
329.744	88.12
329.972	81.12
330.201	96.12
330.43	92.12
330.658	81.12
330.887	90.12
331.115	88.12
331.344	64.12
331.572	79.12
331.801	93.12
332.03	89.12
332.258	69.12
332.486	82.12
332.715	77.12
332.943	88.12
333.172	94.12
333.4	98.12
333.629	79.12
333.857	81.12
334.085	78.12
334.314	105.12
334.542	84.12
334.771	91.12
334.999	79.12
335.227	93.12
335.455	78.12
335.684	89.12
335.912	103.12
336.14	80.12
336.369	96.12
336.597	77.12
336.825	97.12
337.053	88.12
337.281	82.12
337.51	81.12
337.738	85.12
337.966	83.12
338.194	90.12
338.422	92.12
338.65	85.12
338.878	70.12
339.106	81.12
339.334	80.12
339.562	83.12
339.79	86.12
340.018	81.12
340.246	99.12
340.474	96.12
340.702	85.12
340.93	69.12
341.158	78.12
341.386	88.12
341.614	97.12
341.842	75.12
342.07	85.12
342.298	91.12
342.526	73.12
342.754	72.12
342.981	85.12
343.209	88.12
343.437	91.12
343.665	92.12
343.893	87.12
344.12	87.12
344.348	85.12
344.576	80.12
344.804	71.12
345.031	83.12
345.259	83.12
345.487	86.12
345.714	85.12
345.942	93.12
346.17	83.12
346.397	84.12
346.625	90.12
346.853	69.12
347.08	86.12
347.308	86.12
347.535	76.12
347.763	83.12
347.99	88.12
348.218	97.12
348.445	89.12
348.673	74.12
348.9	80.12
349.128	83.12
349.355	89.12
349.583	85.12
349.81	88.12
350.037	86.12
350.265	80.12
350.492	84.12
350.72	85.12
350.947	92.12
351.174	79.12
351.402	73.12
351.629	80.12
351.856	92.12
352.083	82.12
352.311	98.12
352.538	94.12
352.765	97.12
352.992	82.12
353.22	87.12
353.447	70.12
353.674	81.12
353.901	97.12
354.128	82.12
354.355	95.12
354.583	84.12
354.81	92.12
355.037	94.12
355.264	86.12
355.491	96.12
355.718	79.12
355.945	78.12
356.172	96.12
356.399	89.12
356.626	73.12
356.853	85.12
357.08	87.12
357.307	78.12
357.534	86.12
357.761	76.12
357.988	87.12
358.215	81.12
358.441	85.12
358.668	77.12
358.895	98.12
359.122	93.12
359.349	97.12
359.576	93.12
359.802	78.12
360.029	82.12
360.256	93.12
360.483	82.12
360.709	86.12
360.936	82.12
361.163	77.12
361.39	91.12
361.616	92.12
361.843	93.12
362.07	88.12
362.296	89.12
362.523	80.12
362.749	86.12
362.976	73.12
363.203	97.12
363.429	80.12
363.656	77.12
363.882	92.12
364.109	80.12
364.335	96.12
364.562	77.12
364.788	92.12
365.015	91.12
365.241	80.12
365.468	90.12
365.694	89.12
365.92	78.12
366.147	82.12
366.373	82.12
366.599	99.12
366.826	83.12
367.052	69.12
367.278	89.12
367.505	88.12
367.731	87.12
367.957	89.12
368.184	93.12
368.41	92.12
368.636	90.12
368.862	89.12
369.089	84.12
369.315	91.12
369.541	83.12
369.767	77.12
369.993	93.12
370.219	84.12
370.445	93.12
370.672	93.12
370.898	82.12
371.124	79.12
371.35	86.12
371.576	88.12
371.802	85.12
372.028	91.12
372.254	83.12
372.48	76.12
372.706	80.12
372.932	82.12
373.158	93.12
373.384	92.12
373.61	83.12
373.835	92.12
374.061	89.12
374.287	82.12
374.513	81.12
374.739	93.12
374.965	99.12
375.191	82.12
375.416	85.12
375.642	86.12
375.868	83.12
376.094	77.12
376.319	84.12
376.545	87.12
376.771	84.12
376.997	100.12
377.222	90.12
377.448	91.12
377.674	88.12
377.899	67.12
378.125	80.12
378.35	97.12
378.576	92.12
378.802	81.12
379.027	76.12
379.253	93.12
379.478	86.12
379.704	86.12
379.929	86.12
380.155	77.12
380.38	85.12
380.606	82.12
380.831	76.12
381.057	94.12
381.282	86.12
381.507	83.12
381.733	81.12
381.958	78.12
382.184	90.12
382.409	92.12
382.634	91.12
382.86	78.12
383.085	91.12
383.31	92.12
383.535	103.12
383.761	90.12
383.986	66.12
384.211	100.12
384.436	89.12
384.662	97.12
384.887	86.12
385.112	74.12
385.337	93.12
385.562	80.12
385.787	75.12
386.013	82.12
386.238	80.12
386.463	94.12
386.688	90.12
386.913	88.12
387.138	97.12
387.363	86.12
387.588	106.12
387.813	91.12
388.038	106.12
388.263	82.12
388.488	86.12
388.713	68.12
388.938	76.12
389.163	87.12
389.387	96.12
389.612	94.12
389.837	81.12
390.062	87.12
390.287	90.12
390.512	89.12
390.736	69.12
390.961	73.12
391.186	84.12
391.411	90.12
391.636	82.12
391.86	74.12
392.085	93.12
392.31	112.12
392.534	86.12
392.759	82.12
392.984	85.12
393.208	99.12
393.433	85.12
393.658	93.12
393.882	76.12
394.107	80.12
394.331	92.12
394.556	84.12
394.78	83.12
395.005	86.12
395.229	92.12
395.454	81.12
395.678	92.12
395.903	91.12
396.127	86.12
396.352	80.12
396.576	99.12
396.801	97.12
397.025	88.12
397.249	92.12
397.474	92.12
397.698	95.12
397.922	84.12
398.147	91.12
398.371	85.12
398.595	91.12
398.82	89.12
399.044	78.12
399.268	79.12
399.492	92.12
399.717	95.12
399.941	88.12
400.165	93.12
400.389	105.12
400.613	91.12
400.837	86.12
401.062	89.12
401.286	99.12
401.51	89.12
401.734	96.12
401.958	93.12
402.182	70.12
402.406	90.12
402.63	108.12
402.854	106.12
403.078	70.12
403.302	76.12
403.526	101.12
403.75	90.12
403.974	91.12
404.198	91.12
404.422	83.12
404.645	85.12
404.869	85.12
405.093	104.12
405.317	99.12
405.541	91.12
405.765	101.12
405.988	84.12
406.212	108.12
406.436	93.12
406.66	78.12
406.883	81.12
407.107	77.12
407.331	84.12
407.555	84.12
407.778	102.12
408.002	100.12
408.226	89.12
408.449	84.12
408.673	92.12
408.896	82.12
409.12	92.12
409.344	100.12
409.567	88.12
409.791	99.12
410.014	91.12
410.238	101.12
410.461	86.12
410.685	79.12
410.908	75.12
411.132	96.12
411.355	90.12
411.578	78.12
411.802	95.12
412.025	96.12
412.249	96.12
412.472	94.12
412.695	94.12
412.919	86.12
413.142	91.12
413.365	88.12
413.589	79.12
413.812	92.12
414.035	90.12
414.258	91.12
414.482	87.12
414.705	89.12
414.928	96.12
415.151	85.12
415.374	89.12
415.597	88.12
415.821	89.12
416.044	83.12
416.267	101.12
416.49	98.12
416.713	100.12
416.936	84.12
417.159	104.12
417.382	89.12
417.605	89.12
417.828	92.12
418.051	93.12
418.274	92.12
418.497	110.12
418.72	102.12
418.943	91.12
419.166	95.12
419.389	100.12
419.611	89.12
419.834	84.12
420.057	84.12
420.28	99.12
420.503	91.12
420.726	88.12
420.948	105.12
421.171	100.12
421.394	98.12
421.617	100.12
421.839	98.12
422.062	92.12
422.285	89.12
422.507	120.12
422.73	88.12
422.953	106.12
423.175	88.12
423.398	88.12
423.621	89.12
423.843	99.12
424.066	97.12
424.288	83.12
424.511	97.12
424.733	94.12
424.956	109.12
425.178	94.12
425.401	95.12
425.623	76.12
425.846	88.12
426.068	84.12
426.291	93.12
426.513	87.12
426.735	89.12
426.958	110.12
427.18	92.12
427.402	96.12
427.625	112.12
427.847	100.12
428.069	95.12
428.292	81.12
428.514	91.12
428.736	91.12
428.958	94.12
429.181	109.12
429.403	105.12
429.625	92.12
429.847	103.12
430.069	97.12
430.292	102.12
430.514	89.12
430.736	90.12
430.958	93.12
431.18	100.12
431.402	101.12
431.624	96.12
431.846	86.12
432.068	85.12
432.29	82.12
432.512	84.12
432.734	93.12
432.956	96.12
433.178	90.12
433.4	95.12
433.622	99.12
433.844	103.12
434.066	95.12
434.287	98.12
434.509	62.12
434.731	86.12
434.953	97.12
435.175	112.12
435.397	94.12
435.618	86.12
435.84	98.12
436.062	93.12
436.284	96.12
436.505	98.12
436.727	88.12
436.949	89.12
437.17	97.12
437.392	108.12
437.614	75.12
437.835	97.12
438.057	95.12
438.278	100.12
438.5	97.12
438.721	84.12
438.943	99.12
439.165	123.12
439.386	89.12
439.608	95.12
439.829	102.12
440.05	93.12
440.272	115.12
440.493	90.12
440.715	90.12
440.936	104.12
441.158	96.12
441.379	96.12
441.6	95.12
441.822	107.12
442.043	93.12
442.264	91.12
442.486	94.12
442.707	91.12
442.928	96.12
443.149	91.12
443.371	100.12
443.592	97.12
443.813	93.12
444.034	109.12
444.255	113.12
444.476	101.12
444.698	110.12
444.919	98.12
445.14	224.12
445.361	147.12
445.582	109.12
445.803	107.12
446.024	98.12
446.245	102.12
446.466	101.12
446.687	103.12
446.908	103.12
447.129	100.12
447.35	100.12
447.571	118.12
447.792	82.12
448.013	89.12
448.234	89.12
448.455	92.12
448.675	86.12
448.896	86.12
449.117	100.12
449.338	108.12
449.559	102.12
449.779	106.12
450	77.12
450.221	96.12
450.442	86.12
450.662	93.12
450.883	89.12
451.104	97.12
451.324	96.12
451.545	108.12
451.766	84.12
451.986	98.12
452.207	78.12
452.428	92.12
452.648	95.12
452.869	94.12
453.089	92.12
453.31	83.12
453.53	101.12
453.751	84.12
453.971	85.12
454.192	79.12
454.412	97.12
454.633	77.12
454.853	90.12
455.073	86.12
455.294	86.12
455.514	97.12
455.734	94.12
455.955	100.12
456.175	91.12
456.395	98.12
456.616	87.12
456.836	93.12
457.056	89.12
457.276	89.12
457.497	86.12
457.717	79.12
457.937	101.12
458.157	76.12
458.377	76.12
458.598	92.12
458.818	97.12
459.038	72.12
459.258	94.12
459.478	86.12
459.698	84.12
459.918	81.12
460.138	101.12
460.358	82.12
460.578	91.12
460.798	88.12
461.018	91.12
461.238	94.12
461.458	88.12
461.678	97.12
461.898	99.12
462.118	91.12
462.338	94.12
462.558	95.12
462.777	95.12
462.997	97.12
463.217	95.12
463.437	87.12
463.657	85.12
463.876	87.12
464.096	92.12
464.316	92.12
464.536	81.12
464.755	99.12
464.975	86.12
465.195	96.12
465.414	107.12
465.634	94.12
465.854	118.12
466.073	101.12
466.293	90.12
466.512	89.12
466.732	100.12
466.951	95.12
467.171	86.12
467.391	85.12
467.61	103.12
467.829	92.12
468.049	113.12
468.268	100.12
468.488	90.12
468.707	79.12
468.927	105.12
469.146	84.12
469.365	99.12
469.585	99.12
469.804	91.12
470.023	99.12
470.243	92.12
470.462	98.12
470.681	101.12
470.901	92.12
471.12	102.12
471.339	90.12
471.558	115.12
471.777	97.12
471.997	92.12
472.216	107.12
472.435	83.12
472.654	86.12
472.873	86.12
473.092	94.12
473.311	90.12
473.53	86.12
473.749	108.12
473.968	112.12
474.187	98.12
474.406	105.12
474.625	78.12
474.844	90.12
475.063	94.12
475.282	101.12
475.501	101.12
475.72	89.12
475.939	84.12
476.158	97.12
476.377	93.12
476.596	99.12
476.814	93.12
477.033	85.12
477.252	90.12
477.471	95.12
477.69	93.12
477.908	97.12
478.127	102.12
478.346	86.12
478.564	102.12
478.783	83.12
479.002	101.12
479.22	96.12
479.439	90.12
479.658	101.12
479.876	93.12
480.095	84.12
480.313	86.12
480.532	109.12
480.751	82.12
480.969	93.12
481.188	80.12
481.406	80.12
481.624	98.12
481.843	70.12
482.061	96.12
482.28	90.12
482.498	96.12
482.717	75.12
482.935	86.12
483.153	86.12
483.372	89.12
483.59	102.12
483.808	108.12
484.027	102.12
484.245	104.12
484.463	112.12
484.681	109.12
484.9	109.12
485.118	104.12
485.336	100.12
485.554	87.12
485.772	82.12
485.99	96.12
486.209	90.12
486.427	81.12
486.645	92.12
486.863	107.12
487.081	104.12
487.299	99.12
487.517	94.12
487.735	107.12
487.953	107.12
488.171	113.12
488.389	110.12
488.607	86.12
488.825	95.12
489.043	104.12
489.261	99.12
489.479	106.12
489.696	104.12
489.914	96.12
490.132	100.12
490.35	100.12
490.568	106.12
490.786	126.12
491.003	117.12
491.221	94.12
491.439	125.12
491.657	111.12
491.874	123.12
492.092	118.12
492.31	119.12
492.527	115.12
492.745	126.12
492.963	117.12
493.18	105.12
493.398	118.12
493.615	99.12
493.833	110.12
494.05	96.12
494.268	115.12
494.485	100.12
494.703	108.12
494.92	117.12
495.138	113.12
495.355	117.12
495.573	123.12
495.79	110.12
496.008	124.12
496.225	97.12
496.442	105.12
496.66	119.12
496.877	114.12
497.094	110.12
497.312	108.12
497.529	109.12
497.746	88.12
497.963	104.12
498.181	100.12
498.398	90.12
498.615	90.12
498.832	96.12
499.049	98.12
499.267	101.12
499.484	103.12
499.701	106.12
499.918	94.12
500.135	96.12
500.352	112.12
500.569	107.12
500.786	101.12
501.003	98.12
501.22	98.12
501.437	91.12
501.654	102.12
501.871	109.12
502.088	105.12
502.305	97.12
502.522	84.12
502.739	96.12
502.956	81.12
503.172	97.12
503.389	97.12
503.606	77.12
503.823	103.12
504.04	93.12
504.256	95.12
504.473	96.12
504.69	94.12
504.907	109.12
505.123	97.12
505.34	95.12
505.557	105.12
505.773	83.12
505.99	109.12
506.207	88.12
506.423	72.12
506.64	104.12
506.856	84.12
507.073	92.12
507.289	102.12
507.506	94.12
507.722	103.12
507.939	100.12
508.155	95.12
508.372	90.12
508.588	104.12
508.805	82.12
509.021	88.12
509.238	84.12
509.454	87.12
509.67	77.12
509.887	97.12
510.103	97.12
510.319	92.12
510.536	80.12
510.752	91.12
510.968	81.12
511.184	74.12
511.401	85.12
511.617	86.12
511.833	86.12
512.049	80.12
512.265	88.12
512.481	84.12
512.698	91.12
512.914	83.12
513.13	90.12
513.346	74.12
513.562	70.12
513.778	97.12
513.994	90.12
514.21	80.12
514.426	87.12
514.642	87.12
514.858	83.12
515.074	81.12
515.29	85.12
515.506	89.12
515.721	86.12
515.937	80.12
516.153	84.12
516.369	86.12
516.585	80.12
516.801	76.12
517.016	93.12
