Data from Location4.07152019.Energy5.Lamp.07192019.3%Agarose_HRD10591_15-23-07-576.txt Node
Date: Fri Jul 19 15:23:07 EDT 2019
User: cochatt
Spectrometer: HR+D1059
Trigger mode: 1
Integration Time (sec): 1.000000E-1
Scans to average: 1
Electric dark correction enabled: true
Nonlinearity correction enabled: false
Boxcar width: 0
XAxis mode: Wavelengths
Number of Pixels in Spectrum: 2048
>>>>>Begin Spectral Data<<<<<
223.165	-30.31
223.4	-30.31
223.635	-30.31
223.869	-9.31
224.104	-27.31
224.338	-19.31
224.573	-9.31
224.808	-13.31
225.042	-10.31
225.277	-14.31
225.511	6.69
225.746	6.69
225.98	7.69
226.215	14.69
226.449	4.69
226.683	17.69
226.918	36.69
227.152	38.69
227.387	51.69
227.621	34.69
227.856	52.69
228.09	41.69
228.324	59.69
228.559	62.69
228.793	56.69
229.027	56.69
229.262	59.69
229.496	64.69
229.73	57.69
229.964	77.69
230.199	71.69
230.433	65.69
230.667	84.69
230.901	80.69
231.136	83.69
231.37	78.69
231.604	88.69
231.838	88.69
232.072	84.69
232.306	82.69
232.541	77.69
232.775	95.69
233.009	75.69
233.243	86.69
233.477	85.69
233.711	76.69
233.945	78.69
234.179	79.69
234.413	72.69
234.647	84.69
234.881	93.69
235.115	86.69
235.349	86.69
235.583	90.69
235.817	93.69
236.051	77.69
236.285	84.69
236.519	81.69
236.753	90.69
236.987	91.69
237.221	87.69
237.455	81.69
237.689	79.69
237.922	81.69
238.156	80.69
238.39	74.69
238.624	75.69
238.858	93.69
239.091	78.69
239.325	72.69
239.559	72.69
239.793	78.69
240.027	92.69
240.26	76.69
240.494	71.69
240.728	78.69
240.961	79.69
241.195	89.69
241.429	70.69
241.662	73.69
241.896	86.69
242.13	84.69
242.363	69.69
242.597	84.69
242.83	77.69
243.064	103.69
243.298	86.69
243.531	78.69
243.765	74.69
243.998	75.69
244.232	64.69
244.465	66.69
244.699	91.69
244.932	71.69
245.166	70.69
245.399	77.69
245.633	88.69
245.866	82.69
246.099	87.69
246.333	76.69
246.566	85.69
246.8	86.69
247.033	90.69
247.266	75.69
247.5	81.69
247.733	78.69
247.966	86.69
248.2	81.69
248.433	83.69
248.666	87.69
248.899	78.69
249.133	80.69
249.366	82.69
249.599	76.69
249.832	79.69
250.066	91.69
250.299	91.69
250.532	90.69
250.765	83.69
250.998	89.69
251.231	72.69
251.465	77.69
251.698	88.69
251.931	63.69
252.164	101.69
252.397	83.69
252.63	89.69
252.863	78.69
253.096	92.69
253.329	83.69
253.562	88.69
253.795	80.69
254.028	105.69
254.261	80.69
254.494	79.69
254.727	85.69
254.96	89.69
255.193	74.69
255.426	75.69
255.659	81.69
255.892	70.69
256.124	77.69
256.357	80.69
256.59	97.69
256.823	76.69
257.056	106.69
257.289	81.69
257.521	90.69
257.754	88.69
257.987	76.69
258.22	84.69
258.452	86.69
258.685	94.69
258.918	84.69
259.151	67.69
259.383	88.69
259.616	95.69
259.849	84.69
260.081	90.69
260.314	88.69
260.547	97.69
260.779	67.69
261.012	75.69
261.244	87.69
261.477	88.69
261.71	83.69
261.942	70.69
262.175	74.69
262.407	85.69
262.64	85.69
262.872	75.69
263.105	94.69
263.337	78.69
263.57	83.69
263.802	89.69
264.035	95.69
264.267	100.69
264.499	89.69
264.732	80.69
264.964	85.69
265.197	86.69
265.429	91.69
265.661	80.69
265.894	83.69
266.126	86.69
266.358	81.69
266.591	90.69
266.823	79.69
267.055	77.69
267.287	80.69
267.52	78.69
267.752	91.69
267.984	90.69
268.216	74.69
268.448	82.69
268.681	88.69
268.913	85.69
269.145	90.69
269.377	82.69
269.609	89.69
269.841	93.69
270.073	82.69
270.306	92.69
270.538	81.69
270.77	77.69
271.002	97.69
271.234	94.69
271.466	78.69
271.698	92.69
271.93	81.69
272.162	84.69
272.394	76.69
272.626	80.69
272.858	79.69
273.09	82.69
273.322	76.69
273.553	81.69
273.785	79.69
274.017	95.69
274.249	96.69
274.481	91.69
274.713	91.69
274.945	71.69
275.176	83.69
275.408	84.69
275.64	87.69
275.872	88.69
276.104	74.69
276.335	92.69
276.567	87.69
276.799	90.69
277.031	78.69
277.262	88.69
277.494	80.69
277.726	90.69
277.957	78.69
278.189	86.69
278.421	79.69
278.652	98.69
278.884	92.69
279.115	76.69
279.347	96.69
279.579	80.69
279.81	90.69
280.042	81.69
280.273	87.69
280.505	96.69
280.736	88.69
280.968	87.69
281.199	90.69
281.431	84.69
281.662	81.69
281.894	96.69
282.125	98.69
282.356	85.69
282.588	91.69
282.819	94.69
283.051	83.69
283.282	80.69
283.513	86.69
283.745	92.69
283.976	86.69
284.207	91.69
284.439	92.69
284.67	95.69
284.901	90.69
285.132	77.69
285.364	82.69
285.595	84.69
285.826	80.69
286.057	81.69
286.288	80.69
286.52	84.69
286.751	101.69
286.982	96.69
287.213	90.69
287.444	94.69
287.675	81.69
287.906	90.69
288.138	90.69
288.369	81.69
288.6	81.69
288.831	87.69
289.062	90.69
289.293	83.69
289.524	87.69
289.755	89.69
289.986	100.69
290.217	95.69
290.448	76.69
290.679	92.69
290.91	93.69
291.141	88.69
291.371	89.69
291.602	92.69
291.833	82.69
292.064	89.69
292.295	86.69
292.526	88.69
292.757	84.69
292.987	88.69
293.218	80.69
293.449	88.69
293.68	81.69
293.91	98.69
294.141	88.69
294.372	90.69
294.603	103.69
294.833	94.69
295.064	84.69
295.295	85.69
295.525	90.69
295.756	83.69
295.987	84.69
296.217	92.69
296.448	89.69
296.679	86.69
296.909	92.69
297.14	82.69
297.37	92.69
297.601	79.69
297.831	86.69
298.062	88.69
298.292	84.69
298.523	90.69
298.753	84.69
298.984	99.69
299.214	93.69
299.445	102.69
299.675	91.69
299.905	84.69
300.136	90.69
300.366	100.69
300.597	94.69
300.827	90.69
301.057	91.69
301.288	87.69
301.518	85.69
301.748	91.69
301.979	82.69
302.209	92.69
302.439	88.69
302.669	93.69
302.9	84.69
303.13	89.69
303.36	89.69
303.59	99.69
303.82	103.69
304.051	90.69
304.281	86.69
304.511	94.69
304.741	84.69
304.971	91.69
305.201	86.69
305.431	90.69
305.661	80.69
305.891	92.69
306.121	80.69
306.352	86.69
306.582	91.69
306.812	78.69
307.042	88.69
307.272	94.69
307.502	85.69
307.731	83.69
307.961	92.69
308.191	85.69
308.421	87.69
308.651	84.69
308.881	103.69
309.111	89.69
309.341	82.69
309.571	94.69
309.8	86.69
310.03	90.69
310.26	85.69
310.49	100.69
310.72	77.69
310.949	94.69
311.179	91.69
311.409	85.69
311.639	99.69
311.868	92.69
312.098	87.69
312.328	95.69
312.557	88.69
312.787	79.69
313.017	78.69
313.246	98.69
313.476	79.69
313.706	79.69
313.935	93.69
314.165	100.69
314.394	82.69
314.624	82.69
314.853	79.69
315.083	93.69
315.312	71.69
315.542	81.69
315.771	96.69
316.001	92.69
316.23	84.69
316.46	79.69
316.689	97.69
316.919	83.69
317.148	91.69
317.377	89.69
317.607	72.69
317.836	86.69
318.065	95.69
318.295	84.69
318.524	85.69
318.753	93.69
318.983	85.69
319.212	99.69
319.441	81.69
319.67	87.69
319.9	84.69
320.129	86.69
320.358	84.69
320.587	81.69
320.816	72.69
321.046	75.69
321.275	98.69
321.504	80.69
321.733	81.69
321.962	96.69
322.191	88.69
322.42	86.69
322.649	81.69
322.878	92.69
323.108	92.69
323.337	92.69
323.566	99.69
323.795	84.69
324.024	85.69
324.253	105.69
324.482	98.69
324.71	86.69
324.939	82.69
325.168	93.69
325.397	81.69
325.626	85.69
325.855	88.69
326.084	101.69
326.313	87.69
326.542	91.69
326.77	90.69
326.999	97.69
327.228	85.69
327.457	91.69
327.686	82.69
327.914	88.69
328.143	75.69
328.372	87.69
328.6	101.69
328.829	78.69
329.058	91.69
329.287	75.69
329.515	77.69
329.744	90.69
329.972	88.69
330.201	71.69
330.43	93.69
330.658	82.69
330.887	91.69
331.115	82.69
331.344	98.69
331.572	71.69
331.801	96.69
332.03	79.69
332.258	92.69
332.486	84.69
332.715	102.69
332.943	95.69
333.172	86.69
333.4	76.69
333.629	89.69
333.857	92.69
334.085	80.69
334.314	94.69
334.542	88.69
334.771	81.69
334.999	107.69
335.227	91.69
335.455	86.69
335.684	87.69
335.912	94.69
336.14	78.69
336.369	90.69
336.597	97.69
336.825	84.69
337.053	101.69
337.281	98.69
337.51	93.69
337.738	98.69
337.966	85.69
338.194	89.69
338.422	89.69
338.65	102.69
338.878	78.69
339.106	89.69
339.334	82.69
339.562	88.69
339.79	80.69
340.018	94.69
340.246	83.69
340.474	94.69
340.702	99.69
340.93	86.69
341.158	88.69
341.386	91.69
341.614	78.69
341.842	80.69
342.07	89.69
342.298	90.69
342.526	74.69
342.754	84.69
342.981	85.69
343.209	71.69
343.437	94.69
343.665	89.69
343.893	97.69
344.12	86.69
344.348	85.69
344.576	88.69
344.804	77.69
345.031	76.69
345.259	96.69
345.487	76.69
345.714	90.69
345.942	87.69
346.17	90.69
346.397	90.69
346.625	95.69
346.853	92.69
347.08	93.69
347.308	96.69
347.535	87.69
347.763	84.69
347.99	98.69
348.218	80.69
348.445	92.69
348.673	93.69
348.9	87.69
349.128	87.69
349.355	91.69
349.583	98.69
349.81	90.69
350.037	91.69
350.265	93.69
350.492	79.69
350.72	86.69
350.947	91.69
351.174	95.69
351.402	81.69
351.629	99.69
351.856	90.69
352.083	88.69
352.311	86.69
352.538	98.69
352.765	80.69
352.992	100.69
353.22	91.69
353.447	92.69
353.674	91.69
353.901	84.69
354.128	92.69
354.355	77.69
354.583	85.69
354.81	107.69
355.037	107.69
355.264	85.69
355.491	77.69
355.718	85.69
355.945	92.69
356.172	88.69
356.399	99.69
356.626	87.69
356.853	87.69
357.08	114.69
357.307	94.69
357.534	89.69
357.761	91.69
357.988	103.69
358.215	95.69
358.441	88.69
358.668	88.69
358.895	80.69
359.122	90.69
359.349	76.69
359.576	74.69
359.802	75.69
360.029	88.69
360.256	90.69
360.483	81.69
360.709	87.69
360.936	77.69
361.163	76.69
361.39	100.69
361.616	99.69
361.843	89.69
362.07	82.69
362.296	100.69
362.523	89.69
362.749	90.69
362.976	80.69
363.203	93.69
363.429	88.69
363.656	86.69
363.882	104.69
364.109	83.69
364.335	80.69
364.562	80.69
364.788	90.69
365.015	84.69
365.241	87.69
365.468	92.69
365.694	93.69
365.92	85.69
366.147	84.69
366.373	90.69
366.599	85.69
366.826	87.69
367.052	83.69
367.278	80.69
367.505	87.69
367.731	88.69
367.957	98.69
368.184	79.69
368.41	94.69
368.636	80.69
368.862	83.69
369.089	88.69
369.315	91.69
369.541	80.69
369.767	92.69
369.993	97.69
370.219	72.69
370.445	102.69
370.672	101.69
370.898	74.69
371.124	77.69
371.35	90.69
371.576	93.69
371.802	83.69
372.028	90.69
372.254	83.69
372.48	68.69
372.706	90.69
372.932	113.69
373.158	82.69
373.384	99.69
373.61	91.69
373.835	91.69
374.061	94.69
374.287	76.69
374.513	85.69
374.739	91.69
374.965	90.69
375.191	92.69
375.416	85.69
375.642	77.69
375.868	104.69
376.094	92.69
376.319	101.69
376.545	93.69
376.771	91.69
376.997	95.69
377.222	98.69
377.448	97.69
377.674	88.69
377.899	83.69
378.125	91.69
378.35	98.69
378.576	90.69
378.802	89.69
379.027	90.69
379.253	84.69
379.478	95.69
379.704	86.69
379.929	96.69
380.155	105.69
380.38	101.69
380.606	84.69
380.831	86.69
381.057	99.69
381.282	87.69
381.507	86.69
381.733	99.69
381.958	87.69
382.184	86.69
382.409	91.69
382.634	81.69
382.86	76.69
383.085	95.69
383.31	84.69
383.535	90.69
383.761	106.69
383.986	92.69
384.211	79.69
384.436	80.69
384.662	99.69
384.887	92.69
385.112	83.69
385.337	68.69
385.562	74.69
385.787	83.69
386.013	96.69
386.238	92.69
386.463	95.69
386.688	92.69
386.913	85.69
387.138	80.69
387.363	79.69
387.588	103.69
387.813	102.69
388.038	84.69
388.263	82.69
388.488	105.69
388.713	85.69
388.938	93.69
389.163	87.69
389.387	91.69
389.612	98.69
389.837	76.69
390.062	87.69
390.287	95.69
390.512	86.69
390.736	83.69
390.961	86.69
391.186	84.69
391.411	90.69
391.636	83.69
391.86	85.69
392.085	101.69
392.31	100.69
392.534	84.69
392.759	88.69
392.984	98.69
393.208	95.69
393.433	91.69
393.658	92.69
393.882	91.69
394.107	101.69
394.331	94.69
394.556	92.69
394.78	100.69
395.005	95.69
395.229	95.69
395.454	91.69
395.678	88.69
395.903	86.69
396.127	103.69
396.352	103.69
396.576	95.69
396.801	99.69
397.025	101.69
397.249	102.69
397.474	91.69
397.698	96.69
397.922	83.69
398.147	81.69
398.371	82.69
398.595	92.69
398.82	90.69
399.044	95.69
399.268	93.69
399.492	96.69
399.717	91.69
399.941	91.69
400.165	106.69
400.389	91.69
400.613	95.69
400.837	75.69
401.062	89.69
401.286	95.69
401.51	98.69
401.734	84.69
401.958	105.69
402.182	89.69
402.406	106.69
402.63	94.69
402.854	90.69
403.078	97.69
403.302	78.69
403.526	90.69
403.75	95.69
403.974	97.69
404.198	73.69
404.422	93.69
404.645	89.69
404.869	91.69
405.093	97.69
405.317	93.69
405.541	82.69
405.765	101.69
405.988	95.69
406.212	80.69
406.436	93.69
406.66	86.69
406.883	78.69
407.107	101.69
407.331	80.69
407.555	86.69
407.778	87.69
408.002	104.69
408.226	86.69
408.449	89.69
408.673	100.69
408.896	111.69
409.12	88.69
409.344	105.69
409.567	95.69
409.791	93.69
410.014	93.69
410.238	90.69
410.461	90.69
410.685	98.69
410.908	106.69
411.132	100.69
411.355	104.69
411.578	104.69
411.802	84.69
412.025	90.69
412.249	93.69
412.472	87.69
412.695	99.69
412.919	103.69
413.142	87.69
413.365	100.69
413.589	77.69
413.812	92.69
414.035	113.69
414.258	103.69
414.482	98.69
414.705	106.69
414.928	99.69
415.151	96.69
415.374	115.69
415.597	84.69
415.821	98.69
416.044	87.69
416.267	98.69
416.49	90.69
416.713	91.69
416.936	96.69
417.159	100.69
417.382	83.69
417.605	96.69
417.828	89.69
418.051	97.69
418.274	95.69
418.497	85.69
418.72	95.69
418.943	96.69
419.166	111.69
419.389	98.69
419.611	104.69
419.834	100.69
420.057	100.69
420.28	89.69
420.503	103.69
420.726	95.69
420.948	104.69
421.171	95.69
421.394	90.69
421.617	106.69
421.839	99.69
422.062	99.69
422.285	92.69
422.507	91.69
422.73	96.69
422.953	90.69
423.175	87.69
423.398	103.69
423.621	103.69
423.843	95.69
424.066	95.69
424.288	102.69
424.511	103.69
424.733	104.69
424.956	90.69
425.178	87.69
425.401	102.69
425.623	103.69
425.846	116.69
426.068	100.69
426.291	94.69
426.513	99.69
426.735	92.69
426.958	89.69
427.18	102.69
427.402	94.69
427.625	104.69
427.847	106.69
428.069	81.69
428.292	103.69
428.514	106.69
428.736	110.69
428.958	94.69
429.181	105.69
429.403	105.69
429.625	93.69
429.847	94.69
430.069	104.69
430.292	99.69
430.514	96.69
430.736	102.69
430.958	96.69
431.18	117.69
431.402	98.69
431.624	82.69
431.846	105.69
432.068	98.69
432.29	82.69
432.512	92.69
432.734	99.69
432.956	87.69
433.178	115.69
433.4	108.69
433.622	102.69
433.844	92.69
434.066	98.69
434.287	87.69
434.509	88.69
434.731	78.69
434.953	92.69
435.175	95.69
435.397	93.69
435.618	93.69
435.84	91.69
436.062	101.69
436.284	101.69
436.505	106.69
436.727	101.69
436.949	89.69
437.17	103.69
437.392	93.69
437.614	88.69
437.835	93.69
438.057	106.69
438.278	95.69
438.5	99.69
438.721	110.69
438.943	109.69
439.165	125.69
439.386	107.69
439.608	116.69
439.829	108.69
440.05	90.69
440.272	115.69
440.493	98.69
440.715	113.69
440.936	102.69
441.158	106.69
441.379	115.69
441.6	102.69
441.822	105.69
442.043	108.69
442.264	100.69
442.486	102.69
442.707	101.69
442.928	107.69
443.149	115.69
443.371	95.69
443.592	110.69
443.813	88.69
444.034	112.69
444.255	89.69
444.476	108.69
444.698	110.69
444.919	97.69
445.14	195.69
445.361	141.69
445.582	93.69
445.803	90.69
446.024	121.69
446.245	106.69
446.466	112.69
446.687	95.69
446.908	106.69
447.129	99.69
447.35	98.69
447.571	110.69
447.792	106.69
448.013	104.69
448.234	110.69
448.455	91.69
448.675	94.69
448.896	93.69
449.117	92.69
449.338	117.69
449.559	107.69
449.779	93.69
450	87.69
450.221	102.69
450.442	100.69
450.662	100.69
450.883	114.69
451.104	102.69
451.324	106.69
451.545	100.69
451.766	100.69
451.986	98.69
452.207	108.69
452.428	103.69
452.648	97.69
452.869	104.69
453.089	100.69
453.31	78.69
453.53	83.69
453.751	100.69
453.971	90.69
454.192	87.69
454.412	86.69
454.633	85.69
454.853	81.69
455.073	84.69
455.294	105.69
455.514	105.69
455.734	107.69
455.955	90.69
456.175	87.69
456.395	89.69
456.616	97.69
456.836	95.69
457.056	96.69
457.276	91.69
457.497	86.69
457.717	100.69
457.937	91.69
458.157	92.69
458.377	72.69
458.598	82.69
458.818	88.69
459.038	87.69
459.258	106.69
459.478	83.69
459.698	91.69
459.918	95.69
460.138	79.69
460.358	72.69
460.578	87.69
460.798	91.69
461.018	90.69
461.238	95.69
461.458	96.69
461.678	96.69
461.898	106.69
462.118	95.69
462.338	108.69
462.558	99.69
462.777	88.69
462.997	87.69
463.217	88.69
463.437	84.69
463.657	81.69
463.876	103.69
464.096	81.69
464.316	87.69
464.536	84.69
464.755	81.69
464.975	93.69
465.195	102.69
465.414	88.69
465.634	70.69
465.854	88.69
466.073	96.69
466.293	90.69
466.512	91.69
466.732	96.69
466.951	104.69
467.171	80.69
467.391	97.69
467.61	97.69
467.829	89.69
468.049	108.69
468.268	98.69
468.488	96.69
468.707	98.69
468.927	98.69
469.146	102.69
469.365	95.69
469.585	105.69
469.804	111.69
470.023	111.69
470.243	91.69
470.462	109.69
470.681	94.69
470.901	83.69
471.12	108.69
471.339	99.69
471.558	110.69
471.777	102.69
471.997	102.69
472.216	97.69
472.435	94.69
472.654	86.69
472.873	93.69
473.092	102.69
473.311	87.69
473.53	100.69
473.749	105.69
473.968	91.69
474.187	91.69
474.406	89.69
474.625	95.69
474.844	120.69
475.063	98.69
475.282	94.69
475.501	107.69
475.72	96.69
475.939	88.69
476.158	95.69
476.377	90.69
476.596	95.69
476.814	98.69
477.033	88.69
477.252	95.69
477.471	111.69
477.69	110.69
477.908	107.69
478.127	108.69
478.346	93.69
478.564	101.69
478.783	91.69
479.002	100.69
479.22	94.69
479.439	87.69
479.658	71.69
479.876	84.69
480.095	88.69
480.313	103.69
480.532	90.69
480.751	96.69
480.969	89.69
481.188	91.69
481.406	92.69
481.624	86.69
481.843	90.69
482.061	87.69
482.28	95.69
482.498	84.69
482.717	92.69
482.935	105.69
483.153	92.69
483.372	99.69
483.59	108.69
483.808	109.69
484.027	102.69
484.245	108.69
484.463	101.69
484.681	93.69
484.9	102.69
485.118	109.69
485.336	98.69
485.554	81.69
485.772	90.69
485.99	83.69
486.209	108.69
486.427	103.69
486.645	96.69
486.863	117.69
487.081	106.69
487.299	93.69
487.517	96.69
487.735	102.69
487.953	107.69
488.171	122.69
488.389	100.69
488.607	113.69
488.825	107.69
489.043	108.69
489.261	102.69
489.479	109.69
489.696	116.69
489.914	101.69
490.132	101.69
490.35	97.69
490.568	107.69
490.786	118.69
491.003	111.69
491.221	114.69
491.439	122.69
491.657	112.69
491.874	124.69
492.092	116.69
492.31	145.69
492.527	121.69
492.745	110.69
492.963	101.69
493.18	118.69
493.398	112.69
493.615	118.69
493.833	122.69
494.05	106.69
494.268	111.69
494.485	105.69
494.703	115.69
494.92	108.69
495.138	112.69
495.355	118.69
495.573	122.69
495.79	106.69
496.008	116.69
496.225	110.69
496.442	122.69
496.66	121.69
496.877	108.69
497.094	114.69
497.312	103.69
497.529	110.69
497.746	94.69
497.963	93.69
498.181	104.69
498.398	101.69
498.615	99.69
498.832	92.69
499.049	89.69
499.267	98.69
499.484	107.69
499.701	95.69
499.918	115.69
500.135	106.69
500.352	105.69
500.569	104.69
500.786	86.69
501.003	101.69
501.22	102.69
501.437	92.69
501.654	105.69
501.871	104.69
502.088	101.69
502.305	100.69
502.522	101.69
502.739	92.69
502.956	99.69
503.172	103.69
503.389	99.69
503.606	99.69
503.823	99.69
504.04	92.69
504.256	107.69
504.473	82.69
504.69	85.69
504.907	92.69
505.123	97.69
505.34	80.69
505.557	89.69
505.773	90.69
505.99	106.69
506.207	88.69
506.423	93.69
506.64	99.69
506.856	98.69
507.073	100.69
507.289	94.69
507.506	96.69
507.722	103.69
507.939	96.69
508.155	102.69
508.372	81.69
508.588	93.69
508.805	103.69
509.021	90.69
509.238	85.69
509.454	91.69
509.67	84.69
509.887	95.69
510.103	94.69
510.319	88.69
510.536	95.69
510.752	95.69
510.968	92.69
511.184	84.69
511.401	106.69
511.617	84.69
511.833	82.69
512.049	79.69
512.265	71.69
512.481	90.69
512.698	90.69
512.914	79.69
513.13	91.69
513.346	89.69
513.562	77.69
513.778	109.69
513.994	104.69
514.21	98.69
514.426	104.69
514.642	86.69
514.858	93.69
515.074	95.69
515.29	99.69
515.506	78.69
515.721	88.69
