Data from Location4.07152019.Energy5.Lamp.07192019.3%Agarose_HRD10591_15-26-07-578.txt Node
Date: Fri Jul 19 15:26:07 EDT 2019
User: cochatt
Spectrometer: HR+D1059
Trigger mode: 1
Integration Time (sec): 1.000000E-1
Scans to average: 1
Electric dark correction enabled: true
Nonlinearity correction enabled: false
Boxcar width: 0
XAxis mode: Wavelengths
Number of Pixels in Spectrum: 2048
>>>>>Begin Spectral Data<<<<<
223.165	-9.56
223.4	-9.56
223.635	-9.56
223.869	-24.56
224.104	-24.56
224.338	-19.56
224.573	-1.56
224.808	-8.56
225.042	-22.56
225.277	-13.56
225.511	1.44
225.746	2.44
225.98	25.44
226.215	9.44
226.449	9.44
226.683	31.44
226.918	24.44
227.152	20.44
227.387	31.44
227.621	31.44
227.856	42.44
228.09	35.44
228.324	48.44
228.559	71.44
228.793	60.44
229.027	42.44
229.262	68.44
229.496	69.44
229.73	71.44
229.964	67.44
230.199	67.44
230.433	71.44
230.667	73.44
230.901	98.44
231.136	79.44
231.37	86.44
231.604	79.44
231.838	82.44
232.072	72.44
232.306	84.44
232.541	77.44
232.775	82.44
233.009	87.44
233.243	78.44
233.477	71.44
233.711	77.44
233.945	68.44
234.179	95.44
234.413	82.44
234.647	81.44
234.881	76.44
235.115	90.44
235.349	90.44
235.583	78.44
235.817	67.44
236.051	83.44
236.285	88.44
236.519	84.44
236.753	93.44
236.987	64.44
237.221	73.44
237.455	80.44
237.689	51.44
237.922	73.44
238.156	74.44
238.39	75.44
238.624	82.44
238.858	72.44
239.091	58.44
239.325	83.44
239.559	81.44
239.793	69.44
240.027	80.44
240.26	95.44
240.494	87.44
240.728	76.44
240.961	68.44
241.195	79.44
241.429	74.44
241.662	89.44
241.896	79.44
242.13	70.44
242.363	85.44
242.597	62.44
242.83	83.44
243.064	81.44
243.298	78.44
243.531	90.44
243.765	67.44
243.998	71.44
244.232	61.44
244.465	74.44
244.699	75.44
244.932	74.44
245.166	85.44
245.399	67.44
245.633	68.44
245.866	85.44
246.099	86.44
246.333	82.44
246.566	79.44
246.8	75.44
247.033	88.44
247.266	84.44
247.5	92.44
247.733	81.44
247.966	75.44
248.2	76.44
248.433	79.44
248.666	69.44
248.899	76.44
249.133	83.44
249.366	92.44
249.599	83.44
249.832	87.44
250.066	94.44
250.299	79.44
250.532	81.44
250.765	81.44
250.998	74.44
251.231	77.44
251.465	80.44
251.698	81.44
251.931	73.44
252.164	79.44
252.397	77.44
252.63	81.44
252.863	71.44
253.096	74.44
253.329	78.44
253.562	80.44
253.795	84.44
254.028	86.44
254.261	78.44
254.494	74.44
254.727	77.44
254.96	86.44
255.193	69.44
255.426	92.44
255.659	77.44
255.892	81.44
256.124	81.44
256.357	92.44
256.59	73.44
256.823	85.44
257.056	86.44
257.289	73.44
257.521	69.44
257.754	69.44
257.987	83.44
258.22	79.44
258.452	91.44
258.685	90.44
258.918	71.44
259.151	80.44
259.383	75.44
259.616	72.44
259.849	75.44
260.081	74.44
260.314	87.44
260.547	80.44
260.779	82.44
261.012	80.44
261.244	68.44
261.477	100.44
261.71	77.44
261.942	84.44
262.175	87.44
262.407	83.44
262.64	81.44
262.872	91.44
263.105	82.44
263.337	83.44
263.57	80.44
263.802	83.44
264.035	84.44
264.267	76.44
264.499	88.44
264.732	78.44
264.964	72.44
265.197	82.44
265.429	72.44
265.661	75.44
265.894	92.44
266.126	87.44
266.358	71.44
266.591	88.44
266.823	92.44
267.055	87.44
267.287	80.44
267.52	88.44
267.752	89.44
267.984	72.44
268.216	86.44
268.448	95.44
268.681	75.44
268.913	77.44
269.145	88.44
269.377	84.44
269.609	83.44
269.841	90.44
270.073	71.44
270.306	82.44
270.538	84.44
270.77	97.44
271.002	84.44
271.234	74.44
271.466	79.44
271.698	93.44
271.93	93.44
272.162	72.44
272.394	82.44
272.626	89.44
272.858	74.44
273.09	91.44
273.322	89.44
273.553	72.44
273.785	84.44
274.017	83.44
274.249	99.44
274.481	74.44
274.713	69.44
274.945	81.44
275.176	80.44
275.408	80.44
275.64	85.44
275.872	82.44
276.104	98.44
276.335	72.44
276.567	70.44
276.799	73.44
277.031	75.44
277.262	75.44
277.494	92.44
277.726	77.44
277.957	77.44
278.189	83.44
278.421	100.44
278.652	76.44
278.884	100.44
279.115	76.44
279.347	77.44
279.579	88.44
279.81	77.44
280.042	95.44
280.273	91.44
280.505	84.44
280.736	87.44
280.968	69.44
281.199	67.44
281.431	68.44
281.662	95.44
281.894	95.44
282.125	87.44
282.356	100.44
282.588	75.44
282.819	97.44
283.051	79.44
283.282	79.44
283.513	76.44
283.745	72.44
283.976	83.44
284.207	86.44
284.439	98.44
284.67	95.44
284.901	89.44
285.132	77.44
285.364	81.44
285.595	77.44
285.826	88.44
286.057	89.44
286.288	80.44
286.52	82.44
286.751	91.44
286.982	95.44
287.213	80.44
287.444	92.44
287.675	94.44
287.906	85.44
288.138	84.44
288.369	84.44
288.6	85.44
288.831	81.44
289.062	78.44
289.293	84.44
289.524	94.44
289.755	97.44
289.986	93.44
290.217	94.44
290.448	84.44
290.679	79.44
290.91	86.44
291.141	85.44
291.371	86.44
291.602	82.44
291.833	82.44
292.064	76.44
292.295	80.44
292.526	93.44
292.757	86.44
292.987	82.44
293.218	99.44
293.449	92.44
293.68	81.44
293.91	77.44
294.141	79.44
294.372	92.44
294.603	81.44
294.833	96.44
295.064	92.44
295.295	94.44
295.525	82.44
295.756	100.44
295.987	95.44
296.217	88.44
296.448	84.44
296.679	67.44
296.909	82.44
297.14	80.44
297.37	91.44
297.601	89.44
297.831	89.44
298.062	87.44
298.292	81.44
298.523	76.44
298.753	81.44
298.984	79.44
299.214	94.44
299.445	85.44
299.675	81.44
299.905	83.44
300.136	85.44
300.366	89.44
300.597	90.44
300.827	90.44
301.057	81.44
301.288	76.44
301.518	81.44
301.748	91.44
301.979	86.44
302.209	89.44
302.439	80.44
302.669	82.44
302.9	79.44
303.13	82.44
303.36	88.44
303.59	85.44
303.82	75.44
304.051	87.44
304.281	91.44
304.511	87.44
304.741	86.44
304.971	91.44
305.201	90.44
305.431	89.44
305.661	89.44
305.891	71.44
306.121	86.44
306.352	86.44
306.582	88.44
306.812	82.44
307.042	92.44
307.272	82.44
307.502	90.44
307.731	83.44
307.961	84.44
308.191	72.44
308.421	82.44
308.651	77.44
308.881	89.44
309.111	87.44
309.341	72.44
309.571	83.44
309.8	92.44
310.03	88.44
310.26	91.44
310.49	77.44
310.72	87.44
310.949	72.44
311.179	94.44
311.409	79.44
311.639	77.44
311.868	81.44
312.098	90.44
312.328	90.44
312.557	82.44
312.787	92.44
313.017	88.44
313.246	88.44
313.476	68.44
313.706	93.44
313.935	87.44
314.165	81.44
314.394	73.44
314.624	88.44
314.853	80.44
315.083	90.44
315.312	93.44
315.542	90.44
315.771	95.44
316.001	86.44
316.23	82.44
316.46	77.44
316.689	84.44
316.919	77.44
317.148	79.44
317.377	84.44
317.607	75.44
317.836	82.44
318.065	111.44
318.295	89.44
318.524	83.44
318.753	92.44
318.983	87.44
319.212	89.44
319.441	95.44
319.67	75.44
319.9	87.44
320.129	91.44
320.358	89.44
320.587	81.44
320.816	67.44
321.046	86.44
321.275	81.44
321.504	92.44
321.733	83.44
321.962	81.44
322.191	82.44
322.42	75.44
322.649	80.44
322.878	91.44
323.108	77.44
323.337	85.44
323.566	72.44
323.795	89.44
324.024	88.44
324.253	85.44
324.482	90.44
324.71	93.44
324.939	80.44
325.168	98.44
325.397	98.44
325.626	78.44
325.855	96.44
326.084	85.44
326.313	85.44
326.542	82.44
326.77	93.44
326.999	91.44
327.228	85.44
327.457	88.44
327.686	72.44
327.914	81.44
328.143	72.44
328.372	89.44
328.6	78.44
328.829	85.44
329.058	92.44
329.287	89.44
329.515	95.44
329.744	99.44
329.972	93.44
330.201	83.44
330.43	84.44
330.658	83.44
330.887	91.44
331.115	70.44
331.344	90.44
331.572	86.44
331.801	84.44
332.03	68.44
332.258	93.44
332.486	83.44
332.715	85.44
332.943	94.44
333.172	86.44
333.4	84.44
333.629	98.44
333.857	102.44
334.085	80.44
334.314	73.44
334.542	88.44
334.771	87.44
334.999	87.44
335.227	89.44
335.455	77.44
335.684	86.44
335.912	91.44
336.14	91.44
336.369	89.44
336.597	78.44
336.825	99.44
337.053	91.44
337.281	79.44
337.51	87.44
337.738	88.44
337.966	80.44
338.194	80.44
338.422	83.44
338.65	82.44
338.878	85.44
339.106	85.44
339.334	77.44
339.562	74.44
339.79	82.44
340.018	77.44
340.246	73.44
340.474	80.44
340.702	87.44
340.93	82.44
341.158	75.44
341.386	84.44
341.614	86.44
341.842	82.44
342.07	77.44
342.298	82.44
342.526	88.44
342.754	84.44
342.981	73.44
343.209	85.44
343.437	85.44
343.665	85.44
343.893	99.44
344.12	76.44
344.348	92.44
344.576	93.44
344.804	92.44
345.031	88.44
345.259	77.44
345.487	88.44
345.714	81.44
345.942	80.44
346.17	88.44
346.397	83.44
346.625	85.44
346.853	81.44
347.08	74.44
347.308	80.44
347.535	75.44
347.763	80.44
347.99	78.44
348.218	68.44
348.445	78.44
348.673	81.44
348.9	84.44
349.128	104.44
349.355	69.44
349.583	84.44
349.81	92.44
350.037	84.44
350.265	86.44
350.492	89.44
350.72	80.44
350.947	89.44
351.174	91.44
351.402	85.44
351.629	87.44
351.856	92.44
352.083	92.44
352.311	89.44
352.538	76.44
352.765	85.44
352.992	83.44
353.22	80.44
353.447	79.44
353.674	92.44
353.901	87.44
354.128	73.44
354.355	85.44
354.583	77.44
354.81	86.44
355.037	78.44
355.264	95.44
355.491	80.44
355.718	82.44
355.945	89.44
356.172	83.44
356.399	85.44
356.626	78.44
356.853	77.44
357.08	86.44
357.307	78.44
357.534	84.44
357.761	90.44
357.988	104.44
358.215	95.44
358.441	78.44
358.668	93.44
358.895	89.44
359.122	91.44
359.349	83.44
359.576	83.44
359.802	82.44
360.029	84.44
360.256	88.44
360.483	86.44
360.709	90.44
360.936	84.44
361.163	77.44
361.39	79.44
361.616	85.44
361.843	97.44
362.07	96.44
362.296	89.44
362.523	89.44
362.749	72.44
362.976	67.44
363.203	83.44
363.429	84.44
363.656	83.44
363.882	71.44
364.109	76.44
364.335	97.44
364.562	88.44
364.788	76.44
365.015	83.44
365.241	87.44
365.468	87.44
365.694	94.44
365.92	82.44
366.147	87.44
366.373	84.44
366.599	80.44
366.826	84.44
367.052	94.44
367.278	90.44
367.505	89.44
367.731	83.44
367.957	92.44
368.184	86.44
368.41	90.44
368.636	81.44
368.862	78.44
369.089	79.44
369.315	79.44
369.541	95.44
369.767	87.44
369.993	81.44
370.219	77.44
370.445	75.44
370.672	87.44
370.898	76.44
371.124	81.44
371.35	87.44
371.576	82.44
371.802	87.44
372.028	84.44
372.254	81.44
372.48	87.44
372.706	83.44
372.932	85.44
373.158	89.44
373.384	73.44
373.61	88.44
373.835	81.44
374.061	86.44
374.287	91.44
374.513	81.44
374.739	94.44
374.965	75.44
375.191	79.44
375.416	92.44
375.642	89.44
375.868	90.44
376.094	77.44
376.319	82.44
376.545	95.44
376.771	73.44
376.997	91.44
377.222	89.44
377.448	96.44
377.674	91.44
377.899	96.44
378.125	96.44
378.35	100.44
378.576	88.44
378.802	80.44
379.027	84.44
379.253	85.44
379.478	97.44
379.704	106.44
379.929	89.44
380.155	92.44
380.38	87.44
380.606	94.44
380.831	101.44
381.057	102.44
381.282	69.44
381.507	79.44
381.733	71.44
381.958	76.44
382.184	80.44
382.409	82.44
382.634	96.44
382.86	85.44
383.085	91.44
383.31	84.44
383.535	82.44
383.761	83.44
383.986	80.44
384.211	79.44
384.436	93.44
384.662	82.44
384.887	80.44
385.112	70.44
385.337	84.44
385.562	80.44
385.787	84.44
386.013	86.44
386.238	84.44
386.463	85.44
386.688	80.44
386.913	76.44
387.138	81.44
387.363	89.44
387.588	85.44
387.813	91.44
388.038	87.44
388.263	84.44
388.488	87.44
388.713	84.44
388.938	88.44
389.163	100.44
389.387	78.44
389.612	92.44
389.837	88.44
390.062	99.44
390.287	80.44
390.512	92.44
390.736	73.44
390.961	84.44
391.186	102.44
391.411	72.44
391.636	81.44
391.86	85.44
392.085	93.44
392.31	89.44
392.534	83.44
392.759	97.44
392.984	89.44
393.208	76.44
393.433	65.44
393.658	94.44
393.882	76.44
394.107	84.44
394.331	84.44
394.556	88.44
394.78	90.44
395.005	84.44
395.229	79.44
395.454	88.44
395.678	97.44
395.903	100.44
396.127	93.44
396.352	78.44
396.576	84.44
396.801	87.44
397.025	90.44
397.249	89.44
397.474	87.44
397.698	92.44
397.922	75.44
398.147	97.44
398.371	99.44
398.595	85.44
398.82	90.44
399.044	95.44
399.268	87.44
399.492	87.44
399.717	86.44
399.941	87.44
400.165	79.44
400.389	85.44
400.613	86.44
400.837	87.44
401.062	95.44
401.286	102.44
401.51	83.44
401.734	73.44
401.958	85.44
402.182	90.44
402.406	95.44
402.63	106.44
402.854	101.44
403.078	86.44
403.302	95.44
403.526	97.44
403.75	101.44
403.974	89.44
404.198	86.44
404.422	87.44
404.645	97.44
404.869	88.44
405.093	88.44
405.317	85.44
405.541	89.44
405.765	71.44
405.988	93.44
406.212	86.44
406.436	84.44
406.66	106.44
406.883	89.44
407.107	82.44
407.331	88.44
407.555	92.44
407.778	107.44
408.002	98.44
408.226	95.44
408.449	100.44
408.673	88.44
408.896	100.44
409.12	88.44
409.344	82.44
409.567	97.44
409.791	97.44
410.014	100.44
410.238	85.44
410.461	90.44
410.685	82.44
410.908	89.44
411.132	100.44
411.355	97.44
411.578	105.44
411.802	99.44
412.025	90.44
412.249	92.44
412.472	96.44
412.695	88.44
412.919	97.44
413.142	91.44
413.365	96.44
413.589	94.44
413.812	96.44
414.035	81.44
414.258	87.44
414.482	91.44
414.705	81.44
414.928	92.44
415.151	79.44
415.374	97.44
415.597	100.44
415.821	95.44
416.044	81.44
416.267	97.44
416.49	98.44
416.713	112.44
416.936	99.44
417.159	72.44
417.382	85.44
417.605	93.44
417.828	84.44
418.051	89.44
418.274	101.44
418.497	99.44
418.72	96.44
418.943	80.44
419.166	86.44
419.389	89.44
419.611	98.44
419.834	89.44
420.057	79.44
420.28	86.44
420.503	105.44
420.726	77.44
420.948	96.44
421.171	87.44
421.394	87.44
421.617	100.44
421.839	107.44
422.062	90.44
422.285	94.44
422.507	96.44
422.73	101.44
422.953	75.44
423.175	103.44
423.398	95.44
423.621	97.44
423.843	96.44
424.066	107.44
424.288	100.44
424.511	89.44
424.733	95.44
424.956	93.44
425.178	108.44
425.401	95.44
425.623	86.44
425.846	95.44
426.068	91.44
426.291	78.44
426.513	93.44
426.735	100.44
426.958	76.44
427.18	104.44
427.402	91.44
427.625	101.44
427.847	84.44
428.069	87.44
428.292	94.44
428.514	88.44
428.736	91.44
428.958	91.44
429.181	109.44
429.403	97.44
429.625	95.44
429.847	88.44
430.069	97.44
430.292	88.44
430.514	89.44
430.736	78.44
430.958	95.44
431.18	81.44
431.402	101.44
431.624	85.44
431.846	86.44
432.068	85.44
432.29	77.44
432.512	85.44
432.734	86.44
432.956	97.44
433.178	100.44
433.4	113.44
433.622	86.44
433.844	86.44
434.066	97.44
434.287	94.44
434.509	72.44
434.731	83.44
434.953	81.44
435.175	96.44
435.397	106.44
435.618	96.44
435.84	77.44
436.062	81.44
436.284	92.44
436.505	90.44
436.727	100.44
436.949	90.44
437.17	95.44
437.392	92.44
437.614	93.44
437.835	94.44
438.057	79.44
438.278	83.44
438.5	89.44
438.721	105.44
438.943	104.44
439.165	101.44
439.386	98.44
439.608	102.44
439.829	91.44
440.05	97.44
440.272	95.44
440.493	98.44
440.715	107.44
440.936	95.44
441.158	92.44
441.379	86.44
441.6	101.44
441.822	89.44
442.043	97.44
442.264	96.44
442.486	105.44
442.707	89.44
442.928	95.44
443.149	106.44
443.371	94.44
443.592	108.44
443.813	111.44
444.034	97.44
444.255	89.44
444.476	85.44
444.698	105.44
444.919	86.44
445.14	213.44
445.361	147.44
445.582	106.44
445.803	93.44
446.024	102.44
446.245	87.44
446.466	97.44
446.687	97.44
446.908	102.44
447.129	122.44
447.35	98.44
447.571	101.44
447.792	82.44
448.013	104.44
448.234	92.44
448.455	94.44
448.675	101.44
448.896	83.44
449.117	105.44
449.338	86.44
449.559	91.44
449.779	104.44
450	92.44
450.221	95.44
450.442	101.44
450.662	88.44
450.883	78.44
451.104	97.44
451.324	98.44
451.545	90.44
451.766	97.44
451.986	97.44
452.207	91.44
452.428	91.44
452.648	96.44
452.869	87.44
453.089	84.44
453.31	86.44
453.53	100.44
453.751	89.44
453.971	79.44
454.192	93.44
454.412	93.44
454.633	80.44
454.853	93.44
455.073	95.44
455.294	94.44
455.514	79.44
455.734	81.44
455.955	102.44
456.175	90.44
456.395	86.44
456.616	78.44
456.836	78.44
457.056	86.44
457.276	87.44
457.497	85.44
457.717	84.44
457.937	99.44
458.157	95.44
458.377	92.44
458.598	93.44
458.818	97.44
459.038	76.44
459.258	74.44
459.478	69.44
459.698	84.44
459.918	86.44
460.138	102.44
460.358	90.44
460.578	91.44
460.798	83.44
461.018	83.44
461.238	92.44
461.458	97.44
461.678	77.44
461.898	95.44
462.118	94.44
462.338	91.44
462.558	96.44
462.777	83.44
462.997	94.44
463.217	81.44
463.437	83.44
463.657	102.44
463.876	89.44
464.096	99.44
464.316	76.44
464.536	93.44
464.755	85.44
464.975	82.44
465.195	89.44
465.414	75.44
465.634	103.44
465.854	84.44
466.073	91.44
466.293	99.44
466.512	87.44
466.732	82.44
466.951	84.44
467.171	84.44
467.391	83.44
467.61	108.44
467.829	82.44
468.049	105.44
468.268	83.44
468.488	86.44
468.707	112.44
468.927	97.44
469.146	83.44
469.365	98.44
469.585	82.44
469.804	96.44
470.023	94.44
470.243	96.44
470.462	92.44
470.681	91.44
470.901	86.44
471.12	99.44
471.339	100.44
471.558	100.44
471.777	89.44
471.997	84.44
472.216	89.44
472.435	91.44
472.654	88.44
472.873	88.44
473.092	92.44
473.311	107.44
473.53	90.44
473.749	76.44
473.968	86.44
474.187	95.44
474.406	93.44
474.625	78.44
474.844	111.44
475.063	92.44
475.282	81.44
475.501	92.44
475.72	84.44
475.939	99.44
476.158	89.44
476.377	91.44
476.596	88.44
476.814	88.44
477.033	97.44
477.252	78.44
477.471	84.44
477.69	105.44
477.908	97.44
478.127	93.44
478.346	98.44
478.564	88.44
478.783	87.44
479.002	98.44
479.22	93.44
479.439	97.44
479.658	91.44
479.876	108.44
480.095	95.44
480.313	83.44
480.532	77.44
480.751	99.44
480.969	82.44
481.188	86.44
481.406	90.44
481.624	80.44
481.843	76.44
482.061	84.44
482.28	95.44
482.498	104.44
482.717	95.44
482.935	100.44
483.153	101.44
483.372	93.44
483.59	97.44
483.808	116.44
484.027	109.44
484.245	94.44
484.463	86.44
484.681	111.44
484.9	100.44
485.118	95.44
485.336	91.44
485.554	82.44
485.772	89.44
485.99	98.44
486.209	69.44
486.427	89.44
486.645	97.44
486.863	80.44
487.081	112.44
487.299	95.44
487.517	98.44
487.735	112.44
487.953	102.44
488.171	99.44
488.389	116.44
488.607	99.44
488.825	99.44
489.043	93.44
489.261	95.44
489.479	92.44
489.696	112.44
489.914	97.44
490.132	99.44
490.35	109.44
490.568	97.44
490.786	121.44
491.003	109.44
491.221	96.44
491.439	107.44
491.657	123.44
491.874	106.44
492.092	126.44
492.31	133.44
492.527	124.44
492.745	121.44
492.963	108.44
493.18	99.44
493.398	118.44
493.615	95.44
493.833	115.44
494.05	111.44
494.268	115.44
494.485	108.44
494.703	118.44
494.92	92.44
495.138	104.44
495.355	101.44
495.573	108.44
495.79	116.44
496.008	115.44
496.225	100.44
496.442	103.44
496.66	101.44
496.877	98.44
497.094	107.44
497.312	99.44
497.529	100.44
497.746	103.44
497.963	94.44
498.181	89.44
498.398	88.44
498.615	101.44
498.832	83.44
499.049	80.44
499.267	82.44
499.484	107.44
499.701	104.44
499.918	113.44
500.135	92.44
500.352	92.44
500.569	87.44
500.786	104.44
501.003	97.44
501.22	93.44
501.437	96.44
501.654	113.44
501.871	91.44
502.088	88.44
502.305	97.44
502.522	81.44
502.739	91.44
502.956	83.44
503.172	81.44
503.389	99.44
503.606	95.44
503.823	80.44
504.04	87.44
504.256	91.44
504.473	88.44
504.69	85.44
504.907	102.44
505.123	84.44
505.34	87.44
505.557	85.44
505.773	98.44
505.99	96.44
506.207	98.44
506.423	99.44
506.64	75.44
506.856	81.44
507.073	101.44
507.289	84.44
507.506	89.44
507.722	91.44
507.939	87.44
508.155	96.44
508.372	92.44
508.588	87.44
508.805	112.44
509.021	78.44
509.238	84.44
509.454	77.44
509.67	91.44
509.887	97.44
510.103	78.44
510.319	88.44
510.536	65.44
510.752	89.44
510.968	91.44
511.184	85.44
511.401	84.44
511.617	84.44
511.833	74.44
512.049	89.44
512.265	89.44
512.481	78.44
512.698	83.44
512.914	84.44
513.13	88.44
513.346	79.44
513.562	79.44
513.778	89.44
513.994	85.44
514.21	89.44
514.426	102.44
514.642	82.44
514.858	89.44
515.074	77.44
515.29	90.44
515.506	74.44
515.721	88.44
515.937	89.44
516.153	90.44
516.369	83.44
516.585	86.44
516.801	82.44
517.016	83.44
517.232	82.44
517.448	80.44
517.664	84.44
