Data from Location4.07152019.Energy5.Lamp.07192019.3%Agarose_HRD10591_15-24-04-577.txt Node
Date: Fri Jul 19 15:24:04 EDT 2019
User: cochatt
Spectrometer: HR+D1059
Trigger mode: 1
Integration Time (sec): 1.000000E-1
Scans to average: 1
Electric dark correction enabled: true
Nonlinearity correction enabled: false
Boxcar width: 0
XAxis mode: Wavelengths
Number of Pixels in Spectrum: 2048
>>>>>Begin Spectral Data<<<<<
223.165	-14.44
223.4	-14.44
223.635	-14.44
223.869	2.56
224.104	-20.44
224.338	-15.44
224.573	-20.44
224.808	-12.44
225.042	-11.44
225.277	0.56
225.511	0.56
225.746	-10.44
225.98	0.56
226.215	-2.44
226.449	12.56
226.683	24.56
226.918	26.56
227.152	39.56
227.387	27.56
227.621	35.56
227.856	39.56
228.09	44.56
228.324	45.56
228.559	49.56
228.793	48.56
229.027	74.56
229.262	58.56
229.496	60.56
229.73	77.56
229.964	71.56
230.199	70.56
230.433	73.56
230.667	84.56
230.901	78.56
231.136	89.56
231.37	78.56
231.604	78.56
231.838	91.56
232.072	90.56
232.306	83.56
232.541	97.56
232.775	77.56
233.009	85.56
233.243	88.56
233.477	94.56
233.711	82.56
233.945	80.56
234.179	86.56
234.413	97.56
234.647	80.56
234.881	77.56
235.115	65.56
235.349	80.56
235.583	64.56
235.817	66.56
236.051	68.56
236.285	70.56
236.519	75.56
236.753	75.56
236.987	74.56
237.221	88.56
237.455	82.56
237.689	71.56
237.922	97.56
238.156	81.56
238.39	71.56
238.624	83.56
238.858	70.56
239.091	70.56
239.325	84.56
239.559	87.56
239.793	81.56
240.027	84.56
240.26	69.56
240.494	81.56
240.728	78.56
240.961	74.56
241.195	76.56
241.429	75.56
241.662	84.56
241.896	92.56
242.13	81.56
242.363	93.56
242.597	80.56
242.83	81.56
243.064	64.56
243.298	75.56
243.531	88.56
243.765	77.56
243.998	88.56
244.232	74.56
244.465	77.56
244.699	73.56
244.932	76.56
245.166	78.56
245.399	90.56
245.633	74.56
245.866	82.56
246.099	76.56
246.333	85.56
246.566	78.56
246.8	76.56
247.033	68.56
247.266	73.56
247.5	72.56
247.733	76.56
247.966	89.56
248.2	68.56
248.433	89.56
248.666	62.56
248.899	84.56
249.133	88.56
249.366	91.56
249.599	98.56
249.832	70.56
250.066	90.56
250.299	83.56
250.532	70.56
250.765	83.56
250.998	75.56
251.231	69.56
251.465	71.56
251.698	57.56
251.931	76.56
252.164	82.56
252.397	76.56
252.63	87.56
252.863	65.56
253.096	78.56
253.329	81.56
253.562	89.56
253.795	86.56
254.028	84.56
254.261	69.56
254.494	85.56
254.727	90.56
254.96	88.56
255.193	87.56
255.426	92.56
255.659	70.56
255.892	95.56
256.124	85.56
256.357	81.56
256.59	70.56
256.823	74.56
257.056	78.56
257.289	76.56
257.521	88.56
257.754	90.56
257.987	89.56
258.22	79.56
258.452	70.56
258.685	74.56
258.918	88.56
259.151	69.56
259.383	86.56
259.616	76.56
259.849	80.56
260.081	90.56
260.314	87.56
260.547	85.56
260.779	88.56
261.012	76.56
261.244	83.56
261.477	92.56
261.71	84.56
261.942	77.56
262.175	78.56
262.407	84.56
262.64	75.56
262.872	91.56
263.105	77.56
263.337	97.56
263.57	80.56
263.802	84.56
264.035	87.56
264.267	91.56
264.499	85.56
264.732	84.56
264.964	68.56
265.197	77.56
265.429	78.56
265.661	90.56
265.894	82.56
266.126	76.56
266.358	70.56
266.591	75.56
266.823	82.56
267.055	93.56
267.287	95.56
267.52	90.56
267.752	92.56
267.984	90.56
268.216	76.56
268.448	90.56
268.681	85.56
268.913	82.56
269.145	99.56
269.377	86.56
269.609	87.56
269.841	88.56
270.073	80.56
270.306	85.56
270.538	89.56
270.77	75.56
271.002	98.56
271.234	91.56
271.466	85.56
271.698	84.56
271.93	79.56
272.162	81.56
272.394	78.56
272.626	104.56
272.858	93.56
273.09	89.56
273.322	87.56
273.553	79.56
273.785	75.56
274.017	86.56
274.249	86.56
274.481	74.56
274.713	90.56
274.945	65.56
275.176	78.56
275.408	78.56
275.64	79.56
275.872	89.56
276.104	86.56
276.335	90.56
276.567	72.56
276.799	95.56
277.031	68.56
277.262	79.56
277.494	86.56
277.726	82.56
277.957	83.56
278.189	80.56
278.421	83.56
278.652	85.56
278.884	91.56
279.115	90.56
279.347	91.56
279.579	92.56
279.81	79.56
280.042	97.56
280.273	86.56
280.505	83.56
280.736	78.56
280.968	73.56
281.199	83.56
281.431	89.56
281.662	91.56
281.894	89.56
282.125	93.56
282.356	92.56
282.588	89.56
282.819	90.56
283.051	86.56
283.282	95.56
283.513	95.56
283.745	92.56
283.976	95.56
284.207	81.56
284.439	98.56
284.67	82.56
284.901	86.56
285.132	77.56
285.364	87.56
285.595	75.56
285.826	87.56
286.057	75.56
286.288	85.56
286.52	91.56
286.751	90.56
286.982	83.56
287.213	82.56
287.444	81.56
287.675	87.56
287.906	77.56
288.138	88.56
288.369	100.56
288.6	89.56
288.831	67.56
289.062	88.56
289.293	84.56
289.524	93.56
289.755	92.56
289.986	115.56
290.217	90.56
290.448	93.56
290.679	93.56
290.91	101.56
291.141	90.56
291.371	97.56
291.602	77.56
291.833	78.56
292.064	64.56
292.295	86.56
292.526	92.56
292.757	85.56
292.987	84.56
293.218	82.56
293.449	81.56
293.68	82.56
293.91	82.56
294.141	85.56
294.372	84.56
294.603	85.56
294.833	81.56
295.064	73.56
295.295	85.56
295.525	80.56
295.756	95.56
295.987	92.56
296.217	82.56
296.448	94.56
296.679	90.56
296.909	97.56
297.14	85.56
297.37	77.56
297.601	90.56
297.831	81.56
298.062	102.56
298.292	84.56
298.523	86.56
298.753	93.56
298.984	86.56
299.214	88.56
299.445	76.56
299.675	87.56
299.905	81.56
300.136	75.56
300.366	85.56
300.597	86.56
300.827	80.56
301.057	80.56
301.288	89.56
301.518	84.56
301.748	75.56
301.979	91.56
302.209	84.56
302.439	100.56
302.669	91.56
302.9	92.56
303.13	72.56
303.36	83.56
303.59	84.56
303.82	83.56
304.051	89.56
304.281	85.56
304.511	93.56
304.741	87.56
304.971	71.56
305.201	96.56
305.431	89.56
305.661	84.56
305.891	86.56
306.121	92.56
306.352	89.56
306.582	83.56
306.812	97.56
307.042	84.56
307.272	83.56
307.502	91.56
307.731	90.56
307.961	91.56
308.191	97.56
308.421	83.56
308.651	88.56
308.881	68.56
309.111	83.56
309.341	85.56
309.571	95.56
309.8	91.56
310.03	89.56
310.26	76.56
310.49	84.56
310.72	74.56
310.949	90.56
311.179	97.56
311.409	87.56
311.639	85.56
311.868	95.56
312.098	81.56
312.328	95.56
312.557	98.56
312.787	95.56
313.017	87.56
313.246	87.56
313.476	87.56
313.706	104.56
313.935	94.56
314.165	81.56
314.394	82.56
314.624	87.56
314.853	101.56
315.083	91.56
315.312	93.56
315.542	89.56
315.771	77.56
316.001	110.56
316.23	83.56
316.46	75.56
316.689	86.56
316.919	94.56
317.148	74.56
317.377	85.56
317.607	87.56
317.836	88.56
318.065	75.56
318.295	77.56
318.524	88.56
318.753	81.56
318.983	89.56
319.212	85.56
319.441	90.56
319.67	92.56
319.9	87.56
320.129	89.56
320.358	84.56
320.587	73.56
320.816	101.56
321.046	89.56
321.275	100.56
321.504	72.56
321.733	76.56
321.962	91.56
322.191	77.56
322.42	96.56
322.649	84.56
322.878	88.56
323.108	94.56
323.337	88.56
323.566	88.56
323.795	86.56
324.024	104.56
324.253	92.56
324.482	78.56
324.71	99.56
324.939	96.56
325.168	97.56
325.397	91.56
325.626	93.56
325.855	89.56
326.084	85.56
326.313	84.56
326.542	71.56
326.77	81.56
326.999	88.56
327.228	82.56
327.457	74.56
327.686	89.56
327.914	100.56
328.143	104.56
328.372	91.56
328.6	89.56
328.829	85.56
329.058	83.56
329.287	86.56
329.515	91.56
329.744	98.56
329.972	84.56
330.201	79.56
330.43	104.56
330.658	80.56
330.887	84.56
331.115	93.56
331.344	80.56
331.572	100.56
331.801	84.56
332.03	91.56
332.258	77.56
332.486	90.56
332.715	93.56
332.943	95.56
333.172	73.56
333.4	89.56
333.629	79.56
333.857	92.56
334.085	84.56
334.314	84.56
334.542	81.56
334.771	92.56
334.999	85.56
335.227	85.56
335.455	87.56
335.684	77.56
335.912	100.56
336.14	88.56
336.369	80.56
336.597	84.56
336.825	97.56
337.053	105.56
337.281	94.56
337.51	97.56
337.738	77.56
337.966	98.56
338.194	85.56
338.422	79.56
338.65	82.56
338.878	84.56
339.106	80.56
339.334	85.56
339.562	99.56
339.79	86.56
340.018	89.56
340.246	85.56
340.474	73.56
340.702	78.56
340.93	92.56
341.158	95.56
341.386	87.56
341.614	90.56
341.842	85.56
342.07	81.56
342.298	84.56
342.526	80.56
342.754	97.56
342.981	90.56
343.209	96.56
343.437	91.56
343.665	85.56
343.893	91.56
344.12	96.56
344.348	90.56
344.576	83.56
344.804	79.56
345.031	77.56
345.259	88.56
345.487	79.56
345.714	86.56
345.942	92.56
346.17	75.56
346.397	91.56
346.625	88.56
346.853	74.56
347.08	91.56
347.308	93.56
347.535	78.56
347.763	77.56
347.99	80.56
348.218	85.56
348.445	63.56
348.673	100.56
348.9	88.56
349.128	89.56
349.355	84.56
349.583	85.56
349.81	90.56
350.037	94.56
350.265	96.56
350.492	98.56
350.72	85.56
350.947	78.56
351.174	94.56
351.402	85.56
351.629	90.56
351.856	86.56
352.083	87.56
352.311	85.56
352.538	75.56
352.765	90.56
352.992	88.56
353.22	85.56
353.447	76.56
353.674	67.56
353.901	90.56
354.128	103.56
354.355	80.56
354.583	84.56
354.81	75.56
355.037	89.56
355.264	96.56
355.491	94.56
355.718	93.56
355.945	100.56
356.172	96.56
356.399	76.56
356.626	78.56
356.853	73.56
357.08	86.56
357.307	78.56
357.534	84.56
357.761	96.56
357.988	95.56
358.215	88.56
358.441	89.56
358.668	97.56
358.895	76.56
359.122	79.56
359.349	89.56
359.576	83.56
359.802	82.56
360.029	92.56
360.256	86.56
360.483	81.56
360.709	91.56
360.936	84.56
361.163	79.56
361.39	74.56
361.616	80.56
361.843	82.56
362.07	90.56
362.296	82.56
362.523	80.56
362.749	97.56
362.976	84.56
363.203	91.56
363.429	84.56
363.656	79.56
363.882	89.56
364.109	87.56
364.335	85.56
364.562	82.56
364.788	101.56
365.015	87.56
365.241	83.56
365.468	81.56
365.694	84.56
365.92	91.56
366.147	103.56
366.373	90.56
366.599	82.56
366.826	77.56
367.052	96.56
367.278	91.56
367.505	98.56
367.731	72.56
367.957	76.56
368.184	89.56
368.41	75.56
368.636	92.56
368.862	98.56
369.089	88.56
369.315	69.56
369.541	81.56
369.767	90.56
369.993	86.56
370.219	80.56
370.445	78.56
370.672	74.56
370.898	95.56
371.124	99.56
371.35	76.56
371.576	93.56
371.802	94.56
372.028	85.56
372.254	83.56
372.48	91.56
372.706	97.56
372.932	80.56
373.158	86.56
373.384	81.56
373.61	88.56
373.835	86.56
374.061	90.56
374.287	94.56
374.513	79.56
374.739	87.56
374.965	87.56
375.191	97.56
375.416	83.56
375.642	84.56
375.868	98.56
376.094	100.56
376.319	84.56
376.545	101.56
376.771	94.56
376.997	84.56
377.222	84.56
377.448	85.56
377.674	88.56
377.899	99.56
378.125	77.56
378.35	82.56
378.576	89.56
378.802	68.56
379.027	87.56
379.253	94.56
379.478	89.56
379.704	85.56
379.929	86.56
380.155	91.56
380.38	78.56
380.606	101.56
380.831	81.56
381.057	93.56
381.282	80.56
381.507	88.56
381.733	91.56
381.958	97.56
382.184	85.56
382.409	84.56
382.634	86.56
382.86	85.56
383.085	89.56
383.31	89.56
383.535	82.56
383.761	86.56
383.986	86.56
384.211	101.56
384.436	82.56
384.662	96.56
384.887	89.56
385.112	83.56
385.337	93.56
385.562	98.56
385.787	94.56
386.013	93.56
386.238	93.56
386.463	106.56
386.688	83.56
386.913	87.56
387.138	85.56
387.363	93.56
387.588	115.56
387.813	82.56
388.038	86.56
388.263	107.56
388.488	90.56
388.713	88.56
388.938	96.56
389.163	91.56
389.387	77.56
389.612	80.56
389.837	77.56
390.062	89.56
390.287	78.56
390.512	95.56
390.736	87.56
390.961	80.56
391.186	82.56
391.411	83.56
391.636	65.56
391.86	95.56
392.085	92.56
392.31	87.56
392.534	86.56
392.759	95.56
392.984	95.56
393.208	87.56
393.433	81.56
393.658	99.56
393.882	81.56
394.107	76.56
394.331	90.56
394.556	87.56
394.78	88.56
395.005	86.56
395.229	87.56
395.454	72.56
395.678	94.56
395.903	82.56
396.127	82.56
396.352	92.56
396.576	92.56
396.801	94.56
397.025	97.56
397.249	96.56
397.474	79.56
397.698	85.56
397.922	95.56
398.147	85.56
398.371	93.56
398.595	90.56
398.82	84.56
399.044	82.56
399.268	83.56
399.492	92.56
399.717	107.56
399.941	93.56
400.165	90.56
400.389	82.56
400.613	98.56
400.837	113.56
401.062	112.56
401.286	87.56
401.51	81.56
401.734	82.56
401.958	84.56
402.182	107.56
402.406	90.56
402.63	96.56
402.854	82.56
403.078	95.56
403.302	87.56
403.526	99.56
403.75	102.56
403.974	88.56
404.198	84.56
404.422	104.56
404.645	92.56
404.869	96.56
405.093	90.56
405.317	83.56
405.541	92.56
405.765	88.56
405.988	82.56
406.212	103.56
406.436	102.56
406.66	81.56
406.883	91.56
407.107	80.56
407.331	92.56
407.555	98.56
407.778	74.56
408.002	90.56
408.226	89.56
408.449	92.56
408.673	98.56
408.896	91.56
409.12	92.56
409.344	73.56
409.567	96.56
409.791	70.56
410.014	96.56
410.238	88.56
410.461	86.56
410.685	99.56
410.908	92.56
411.132	109.56
411.355	99.56
411.578	93.56
411.802	92.56
412.025	85.56
412.249	84.56
412.472	75.56
412.695	88.56
412.919	101.56
413.142	105.56
413.365	97.56
413.589	96.56
413.812	102.56
414.035	96.56
414.258	92.56
414.482	95.56
414.705	96.56
414.928	88.56
415.151	98.56
415.374	96.56
415.597	85.56
415.821	90.56
416.044	99.56
416.267	87.56
416.49	84.56
416.713	86.56
416.936	99.56
417.159	103.56
417.382	96.56
417.605	93.56
417.828	92.56
418.051	98.56
418.274	112.56
418.497	104.56
418.72	86.56
418.943	90.56
419.166	105.56
419.389	91.56
419.611	95.56
419.834	104.56
420.057	108.56
420.28	101.56
420.503	89.56
420.726	82.56
420.948	98.56
421.171	110.56
421.394	95.56
421.617	87.56
421.839	98.56
422.062	73.56
422.285	112.56
422.507	100.56
422.73	89.56
422.953	104.56
423.175	100.56
423.398	101.56
423.621	108.56
423.843	110.56
424.066	115.56
424.288	108.56
424.511	103.56
424.733	80.56
424.956	100.56
425.178	97.56
425.401	112.56
425.623	112.56
425.846	98.56
426.068	107.56
426.291	107.56
426.513	100.56
426.735	105.56
426.958	93.56
427.18	96.56
427.402	85.56
427.625	98.56
427.847	88.56
428.069	93.56
428.292	105.56
428.514	79.56
428.736	86.56
428.958	105.56
429.181	92.56
429.403	100.56
429.625	88.56
429.847	97.56
430.069	96.56
430.292	105.56
430.514	103.56
430.736	99.56
430.958	82.56
431.18	100.56
431.402	85.56
431.624	102.56
431.846	99.56
432.068	84.56
432.29	79.56
432.512	88.56
432.734	103.56
432.956	112.56
433.178	102.56
433.4	108.56
433.622	105.56
433.844	107.56
434.066	85.56
434.287	99.56
434.509	88.56
434.731	100.56
434.953	81.56
435.175	102.56
435.397	88.56
435.618	102.56
435.84	81.56
436.062	99.56
436.284	91.56
436.505	87.56
436.727	84.56
436.949	88.56
437.17	102.56
437.392	88.56
437.614	88.56
437.835	86.56
438.057	92.56
438.278	93.56
438.5	97.56
438.721	99.56
438.943	93.56
439.165	89.56
439.386	119.56
439.608	102.56
439.829	97.56
440.05	105.56
440.272	100.56
440.493	86.56
440.715	109.56
440.936	113.56
441.158	104.56
441.379	98.56
441.6	97.56
441.822	100.56
442.043	89.56
442.264	102.56
442.486	94.56
442.707	102.56
442.928	102.56
443.149	102.56
443.371	80.56
443.592	106.56
443.813	97.56
444.034	91.56
444.255	94.56
444.476	96.56
444.698	92.56
444.919	93.56
445.14	249.56
445.361	147.56
445.582	98.56
445.803	93.56
446.024	81.56
446.245	104.56
446.466	102.56
446.687	102.56
446.908	94.56
447.129	105.56
447.35	106.56
447.571	99.56
447.792	80.56
448.013	93.56
448.234	106.56
448.455	108.56
448.675	112.56
448.896	93.56
449.117	104.56
449.338	104.56
449.559	87.56
449.779	117.56
450	95.56
450.221	110.56
450.442	97.56
450.662	94.56
450.883	96.56
451.104	99.56
451.324	97.56
451.545	100.56
451.766	95.56
451.986	102.56
452.207	107.56
452.428	103.56
452.648	92.56
452.869	97.56
453.089	90.56
453.31	88.56
453.53	89.56
453.751	82.56
453.971	95.56
454.192	96.56
454.412	79.56
454.633	90.56
454.853	89.56
455.073	104.56
455.294	97.56
455.514	93.56
455.734	100.56
455.955	92.56
456.175	96.56
456.395	85.56
456.616	112.56
456.836	102.56
457.056	90.56
457.276	113.56
457.497	86.56
457.717	103.56
457.937	101.56
458.157	88.56
458.377	90.56
458.598	84.56
458.818	74.56
459.038	81.56
459.258	89.56
459.478	83.56
459.698	85.56
459.918	77.56
460.138	77.56
460.358	89.56
460.578	96.56
460.798	90.56
461.018	86.56
461.238	92.56
461.458	92.56
461.678	108.56
461.898	105.56
462.118	91.56
462.338	114.56
462.558	85.56
462.777	91.56
462.997	86.56
463.217	96.56
463.437	87.56
463.657	103.56
463.876	87.56
464.096	91.56
464.316	82.56
464.536	95.56
464.755	91.56
464.975	94.56
465.195	95.56
465.414	91.56
465.634	94.56
465.854	100.56
466.073	84.56
466.293	100.56
466.512	91.56
466.732	74.56
466.951	89.56
467.171	93.56
467.391	102.56
467.61	87.56
467.829	93.56
468.049	92.56
468.268	87.56
468.488	90.56
468.707	104.56
468.927	99.56
469.146	93.56
469.365	106.56
469.585	110.56
469.804	92.56
470.023	105.56
470.243	109.56
470.462	93.56
470.681	102.56
470.901	100.56
471.12	96.56
471.339	90.56
471.558	89.56
471.777	90.56
471.997	107.56
472.216	84.56
472.435	94.56
472.654	92.56
472.873	89.56
473.092	110.56
473.311	83.56
473.53	105.56
473.749	100.56
473.968	96.56
474.187	96.56
474.406	104.56
474.625	101.56
474.844	109.56
475.063	91.56
475.282	87.56
475.501	95.56
475.72	93.56
475.939	96.56
476.158	85.56
476.377	103.56
476.596	98.56
476.814	97.56
477.033	96.56
477.252	88.56
477.471	91.56
477.69	95.56
477.908	115.56
478.127	97.56
478.346	88.56
478.564	99.56
478.783	117.56
479.002	91.56
479.22	90.56
479.439	107.56
479.658	95.56
479.876	89.56
480.095	89.56
480.313	92.56
480.532	97.56
480.751	108.56
480.969	82.56
481.188	87.56
481.406	83.56
481.624	88.56
481.843	77.56
482.061	77.56
482.28	77.56
482.498	83.56
482.717	81.56
482.935	98.56
483.153	118.56
483.372	95.56
483.59	106.56
483.808	100.56
484.027	93.56
484.245	97.56
484.463	108.56
484.681	96.56
484.9	99.56
485.118	102.56
485.336	91.56
485.554	89.56
485.772	93.56
485.99	85.56
486.209	87.56
486.427	91.56
486.645	93.56
486.863	100.56
487.081	105.56
487.299	104.56
487.517	104.56
487.735	98.56
487.953	118.56
488.171	121.56
488.389	125.56
488.607	96.56
488.825	106.56
489.043	101.56
489.261	101.56
489.479	93.56
489.696	113.56
489.914	93.56
490.132	100.56
490.35	99.56
490.568	113.56
490.786	109.56
491.003	116.56
491.221	127.56
491.439	103.56
491.657	110.56
491.874	120.56
492.092	132.56
492.31	143.56
492.527	128.56
492.745	119.56
492.963	108.56
493.18	114.56
493.398	121.56
493.615	128.56
493.833	104.56
494.05	113.56
494.268	106.56
494.485	102.56
494.703	92.56
494.92	98.56
495.138	121.56
495.355	115.56
495.573	114.56
495.79	100.56
496.008	109.56
496.225	98.56
496.442	101.56
496.66	114.56
496.877	100.56
497.094	104.56
497.312	107.56
497.529	95.56
497.746	106.56
497.963	86.56
498.181	112.56
498.398	89.56
498.615	102.56
498.832	92.56
499.049	80.56
499.267	93.56
499.484	106.56
499.701	106.56
499.918	103.56
500.135	91.56
500.352	90.56
500.569	111.56
500.786	105.56
501.003	116.56
501.22	113.56
501.437	109.56
501.654	89.56
501.871	89.56
502.088	96.56
502.305	83.56
502.522	91.56
502.739	101.56
502.956	95.56
503.172	92.56
503.389	95.56
503.606	90.56
503.823	102.56
504.04	94.56
504.256	106.56
504.473	114.56
504.69	110.56
504.907	93.56
505.123	87.56
505.34	97.56
505.557	96.56
505.773	108.56
505.99	98.56
506.207	88.56
506.423	91.56
506.64	109.56
506.856	87.56
507.073	97.56
507.289	107.56
507.506	98.56
507.722	108.56
507.939	97.56
508.155	76.56
508.372	98.56
508.588	96.56
508.805	106.56
509.021	93.56
509.238	85.56
509.454	88.56
509.67	91.56
509.887	98.56
510.103	95.56
510.319	93.56
510.536	87.56
510.752	80.56
510.968	81.56
511.184	89.56
511.401	71.56
511.617	89.56
511.833	84.56
512.049	69.56
512.265	77.56
512.481	85.56
512.698	86.56
512.914	89.56
513.13	85.56
513.346	103.56
513.562	87.56
513.778	98.56
513.994	99.56
514.21	83.56
514.426	89.56
514.642	70.56
514.858	80.56
515.074	92.56
515.29	92.56
515.506	89.56
515.721	92.56
515.937	86.56
516.153	86.56
516.369	83.56
