Data from Location4.07152019.Energy5.Lamp.07192019.3%Agarose_HRD10591_15-23-29-577.txt Node
Date: Fri Jul 19 15:23:29 EDT 2019
User: cochatt
Spectrometer: HR+D1059
Trigger mode: 1
Integration Time (sec): 1.000000E-1
Scans to average: 1
Electric dark correction enabled: true
Nonlinearity correction enabled: false
Boxcar width: 0
XAxis mode: Wavelengths
Number of Pixels in Spectrum: 2048
>>>>>Begin Spectral Data<<<<<
223.165	-11.06
223.4	-11.06
223.635	-11.06
223.869	-20.06
224.104	-29.06
224.338	-21.06
224.573	-15.06
224.808	-10.06
225.042	-18.06
225.277	-12.06
225.511	1.94
225.746	4.94
225.98	0.94
226.215	23.94
226.449	20.94
226.683	16.94
226.918	29.94
227.152	36.94
227.387	22.94
227.621	31.94
227.856	42.94
228.09	54.94
228.324	48.94
228.559	30.94
228.793	61.94
229.027	63.94
229.262	52.94
229.496	66.94
229.73	57.94
229.964	78.94
230.199	69.94
230.433	82.94
230.667	77.94
230.901	67.94
231.136	71.94
231.37	76.94
231.604	86.94
231.838	75.94
232.072	66.94
232.306	82.94
232.541	84.94
232.775	85.94
233.009	83.94
233.243	99.94
233.477	73.94
233.711	88.94
233.945	72.94
234.179	91.94
234.413	82.94
234.647	78.94
234.881	80.94
235.115	70.94
235.349	80.94
235.583	76.94
235.817	87.94
236.051	83.94
236.285	85.94
236.519	79.94
236.753	78.94
236.987	88.94
237.221	75.94
237.455	76.94
237.689	76.94
237.922	83.94
238.156	84.94
238.39	84.94
238.624	61.94
238.858	78.94
239.091	70.94
239.325	69.94
239.559	71.94
239.793	78.94
240.027	82.94
240.26	77.94
240.494	71.94
240.728	78.94
240.961	77.94
241.195	80.94
241.429	94.94
241.662	73.94
241.896	77.94
242.13	74.94
242.363	71.94
242.597	75.94
242.83	85.94
243.064	78.94
243.298	70.94
243.531	78.94
243.765	87.94
243.998	69.94
244.232	73.94
244.465	74.94
244.699	89.94
244.932	94.94
245.166	84.94
245.399	80.94
245.633	85.94
245.866	75.94
246.099	86.94
246.333	84.94
246.566	75.94
246.8	71.94
247.033	70.94
247.266	90.94
247.5	75.94
247.733	70.94
247.966	80.94
248.2	67.94
248.433	82.94
248.666	81.94
248.899	90.94
249.133	75.94
249.366	77.94
249.599	82.94
249.832	89.94
250.066	83.94
250.299	74.94
250.532	75.94
250.765	76.94
250.998	73.94
251.231	78.94
251.465	75.94
251.698	81.94
251.931	77.94
252.164	84.94
252.397	75.94
252.63	88.94
252.863	63.94
253.096	66.94
253.329	80.94
253.562	81.94
253.795	89.94
254.028	80.94
254.261	85.94
254.494	82.94
254.727	68.94
254.96	70.94
255.193	81.94
255.426	67.94
255.659	87.94
255.892	82.94
256.124	88.94
256.357	75.94
256.59	76.94
256.823	72.94
257.056	99.94
257.289	70.94
257.521	85.94
257.754	77.94
257.987	83.94
258.22	83.94
258.452	96.94
258.685	81.94
258.918	79.94
259.151	83.94
259.383	73.94
259.616	80.94
259.849	74.94
260.081	82.94
260.314	89.94
260.547	81.94
260.779	81.94
261.012	95.94
261.244	74.94
261.477	88.94
261.71	81.94
261.942	94.94
262.175	79.94
262.407	83.94
262.64	81.94
262.872	96.94
263.105	81.94
263.337	86.94
263.57	81.94
263.802	80.94
264.035	76.94
264.267	78.94
264.499	84.94
264.732	87.94
264.964	84.94
265.197	89.94
265.429	80.94
265.661	85.94
265.894	90.94
266.126	89.94
266.358	98.94
266.591	81.94
266.823	88.94
267.055	86.94
267.287	75.94
267.52	74.94
267.752	92.94
267.984	86.94
268.216	80.94
268.448	67.94
268.681	78.94
268.913	79.94
269.145	83.94
269.377	88.94
269.609	73.94
269.841	91.94
270.073	88.94
270.306	84.94
270.538	82.94
270.77	78.94
271.002	74.94
271.234	92.94
271.466	82.94
271.698	81.94
271.93	75.94
272.162	74.94
272.394	97.94
272.626	82.94
272.858	86.94
273.09	85.94
273.322	83.94
273.553	92.94
273.785	98.94
274.017	81.94
274.249	90.94
274.481	85.94
274.713	89.94
274.945	88.94
275.176	87.94
275.408	81.94
275.64	76.94
275.872	84.94
276.104	89.94
276.335	82.94
276.567	85.94
276.799	83.94
277.031	79.94
277.262	83.94
277.494	94.94
277.726	81.94
277.957	90.94
278.189	91.94
278.421	79.94
278.652	74.94
278.884	80.94
279.115	73.94
279.347	74.94
279.579	69.94
279.81	71.94
280.042	87.94
280.273	79.94
280.505	75.94
280.736	83.94
280.968	79.94
281.199	95.94
281.431	85.94
281.662	73.94
281.894	96.94
282.125	92.94
282.356	78.94
282.588	86.94
282.819	80.94
283.051	72.94
283.282	83.94
283.513	83.94
283.745	79.94
283.976	86.94
284.207	74.94
284.439	84.94
284.67	106.94
284.901	92.94
285.132	76.94
285.364	84.94
285.595	92.94
285.826	89.94
286.057	82.94
286.288	79.94
286.52	79.94
286.751	86.94
286.982	76.94
287.213	70.94
287.444	77.94
287.675	77.94
287.906	81.94
288.138	91.94
288.369	86.94
288.6	96.94
288.831	69.94
289.062	91.94
289.293	79.94
289.524	80.94
289.755	73.94
289.986	85.94
290.217	82.94
290.448	88.94
290.679	74.94
290.91	83.94
291.141	88.94
291.371	85.94
291.602	101.94
291.833	89.94
292.064	76.94
292.295	82.94
292.526	82.94
292.757	76.94
292.987	78.94
293.218	74.94
293.449	76.94
293.68	70.94
293.91	84.94
294.141	65.94
294.372	85.94
294.603	86.94
294.833	75.94
295.064	77.94
295.295	92.94
295.525	90.94
295.756	76.94
295.987	93.94
296.217	86.94
296.448	81.94
296.679	78.94
296.909	70.94
297.14	81.94
297.37	93.94
297.601	80.94
297.831	86.94
298.062	87.94
298.292	80.94
298.523	79.94
298.753	83.94
298.984	85.94
299.214	78.94
299.445	76.94
299.675	87.94
299.905	85.94
300.136	93.94
300.366	74.94
300.597	89.94
300.827	89.94
301.057	93.94
301.288	78.94
301.518	94.94
301.748	81.94
301.979	77.94
302.209	89.94
302.439	84.94
302.669	95.94
302.9	89.94
303.13	85.94
303.36	70.94
303.59	85.94
303.82	73.94
304.051	93.94
304.281	82.94
304.511	80.94
304.741	96.94
304.971	87.94
305.201	96.94
305.431	85.94
305.661	74.94
305.891	82.94
306.121	77.94
306.352	82.94
306.582	70.94
306.812	81.94
307.042	98.94
307.272	96.94
307.502	85.94
307.731	82.94
307.961	81.94
308.191	72.94
308.421	78.94
308.651	74.94
308.881	87.94
309.111	78.94
309.341	91.94
309.571	82.94
309.8	82.94
310.03	78.94
310.26	102.94
310.49	90.94
310.72	83.94
310.949	86.94
311.179	73.94
311.409	73.94
311.639	94.94
311.868	81.94
312.098	74.94
312.328	87.94
312.557	76.94
312.787	88.94
313.017	93.94
313.246	83.94
313.476	93.94
313.706	86.94
313.935	82.94
314.165	91.94
314.394	81.94
314.624	66.94
314.853	88.94
315.083	85.94
315.312	86.94
315.542	77.94
315.771	77.94
316.001	83.94
316.23	71.94
316.46	88.94
316.689	83.94
316.919	73.94
317.148	87.94
317.377	90.94
317.607	78.94
317.836	71.94
318.065	81.94
318.295	86.94
318.524	80.94
318.753	94.94
318.983	81.94
319.212	70.94
319.441	85.94
319.67	67.94
319.9	91.94
320.129	83.94
320.358	78.94
320.587	84.94
320.816	77.94
321.046	96.94
321.275	85.94
321.504	83.94
321.733	94.94
321.962	90.94
322.191	83.94
322.42	90.94
322.649	89.94
322.878	76.94
323.108	85.94
323.337	87.94
323.566	79.94
323.795	85.94
324.024	84.94
324.253	90.94
324.482	79.94
324.71	82.94
324.939	79.94
325.168	80.94
325.397	86.94
325.626	87.94
325.855	87.94
326.084	97.94
326.313	73.94
326.542	66.94
326.77	71.94
326.999	84.94
327.228	99.94
327.457	69.94
327.686	86.94
327.914	80.94
328.143	82.94
328.372	82.94
328.6	88.94
328.829	80.94
329.058	74.94
329.287	86.94
329.515	86.94
329.744	62.94
329.972	93.94
330.201	101.94
330.43	77.94
330.658	79.94
330.887	85.94
331.115	73.94
331.344	93.94
331.572	95.94
331.801	75.94
332.03	89.94
332.258	81.94
332.486	81.94
332.715	86.94
332.943	80.94
333.172	95.94
333.4	82.94
333.629	91.94
333.857	81.94
334.085	86.94
334.314	74.94
334.542	79.94
334.771	76.94
334.999	90.94
335.227	80.94
335.455	78.94
335.684	88.94
335.912	103.94
336.14	85.94
336.369	75.94
336.597	76.94
336.825	84.94
337.053	88.94
337.281	85.94
337.51	92.94
337.738	86.94
337.966	83.94
338.194	76.94
338.422	74.94
338.65	79.94
338.878	83.94
339.106	79.94
339.334	88.94
339.562	78.94
339.79	86.94
340.018	81.94
340.246	79.94
340.474	86.94
340.702	82.94
340.93	73.94
341.158	81.94
341.386	86.94
341.614	90.94
341.842	89.94
342.07	72.94
342.298	94.94
342.526	86.94
342.754	85.94
342.981	93.94
343.209	88.94
343.437	81.94
343.665	90.94
343.893	97.94
344.12	87.94
344.348	75.94
344.576	67.94
344.804	81.94
345.031	83.94
345.259	72.94
345.487	70.94
345.714	83.94
345.942	83.94
346.17	77.94
346.397	80.94
346.625	56.94
346.853	83.94
347.08	72.94
347.308	74.94
347.535	75.94
347.763	72.94
347.99	77.94
348.218	85.94
348.445	73.94
348.673	85.94
348.9	77.94
349.128	77.94
349.355	91.94
349.583	75.94
349.81	75.94
350.037	72.94
350.265	75.94
350.492	87.94
350.72	69.94
350.947	61.94
351.174	78.94
351.402	82.94
351.629	82.94
351.856	79.94
352.083	79.94
352.311	79.94
352.538	86.94
352.765	80.94
352.992	89.94
353.22	85.94
353.447	80.94
353.674	94.94
353.901	78.94
354.128	95.94
354.355	88.94
354.583	72.94
354.81	98.94
355.037	88.94
355.264	77.94
355.491	92.94
355.718	80.94
355.945	83.94
356.172	83.94
356.399	87.94
356.626	82.94
356.853	96.94
357.08	85.94
357.307	95.94
357.534	85.94
357.761	77.94
357.988	88.94
358.215	83.94
358.441	79.94
358.668	79.94
358.895	78.94
359.122	80.94
359.349	81.94
359.576	87.94
359.802	89.94
360.029	82.94
360.256	83.94
360.483	86.94
360.709	64.94
360.936	91.94
361.163	78.94
361.39	65.94
361.616	89.94
361.843	88.94
362.07	81.94
362.296	102.94
362.523	77.94
362.749	79.94
362.976	66.94
363.203	87.94
363.429	89.94
363.656	73.94
363.882	64.94
364.109	92.94
364.335	76.94
364.562	90.94
364.788	89.94
365.015	65.94
365.241	78.94
365.468	92.94
365.694	71.94
365.92	89.94
366.147	81.94
366.373	84.94
366.599	99.94
366.826	88.94
367.052	82.94
367.278	95.94
367.505	87.94
367.731	84.94
367.957	80.94
368.184	89.94
368.41	80.94
368.636	90.94
368.862	91.94
369.089	75.94
369.315	98.94
369.541	93.94
369.767	94.94
369.993	80.94
370.219	74.94
370.445	98.94
370.672	82.94
370.898	75.94
371.124	106.94
371.35	86.94
371.576	88.94
371.802	88.94
372.028	89.94
372.254	70.94
372.48	77.94
372.706	78.94
372.932	69.94
373.158	77.94
373.384	86.94
373.61	89.94
373.835	89.94
374.061	86.94
374.287	78.94
374.513	80.94
374.739	89.94
374.965	93.94
375.191	99.94
375.416	73.94
375.642	91.94
375.868	97.94
376.094	82.94
376.319	79.94
376.545	91.94
376.771	87.94
376.997	84.94
377.222	82.94
377.448	75.94
377.674	79.94
377.899	87.94
378.125	73.94
378.35	80.94
378.576	77.94
378.802	69.94
379.027	74.94
379.253	72.94
379.478	81.94
379.704	85.94
379.929	92.94
380.155	79.94
380.38	81.94
380.606	84.94
380.831	88.94
381.057	81.94
381.282	90.94
381.507	80.94
381.733	80.94
381.958	84.94
382.184	90.94
382.409	83.94
382.634	91.94
382.86	88.94
383.085	75.94
383.31	82.94
383.535	79.94
383.761	78.94
383.986	85.94
384.211	72.94
384.436	84.94
384.662	78.94
384.887	85.94
385.112	78.94
385.337	79.94
385.562	92.94
385.787	73.94
386.013	98.94
386.238	86.94
386.463	79.94
386.688	70.94
386.913	69.94
387.138	85.94
387.363	87.94
387.588	71.94
387.813	79.94
388.038	90.94
388.263	89.94
388.488	75.94
388.713	83.94
388.938	82.94
389.163	88.94
389.387	84.94
389.612	89.94
389.837	93.94
390.062	80.94
390.287	93.94
390.512	81.94
390.736	102.94
390.961	76.94
391.186	92.94
391.411	91.94
391.636	89.94
391.86	78.94
392.085	78.94
392.31	72.94
392.534	85.94
392.759	72.94
392.984	82.94
393.208	76.94
393.433	81.94
393.658	83.94
393.882	79.94
394.107	78.94
394.331	80.94
394.556	86.94
394.78	90.94
395.005	89.94
395.229	86.94
395.454	102.94
395.678	84.94
395.903	93.94
396.127	85.94
396.352	73.94
396.576	83.94
396.801	79.94
397.025	86.94
397.249	92.94
397.474	97.94
397.698	102.94
397.922	90.94
398.147	87.94
398.371	93.94
398.595	77.94
398.82	87.94
399.044	75.94
399.268	81.94
399.492	102.94
399.717	81.94
399.941	95.94
400.165	97.94
400.389	78.94
400.613	89.94
400.837	83.94
401.062	90.94
401.286	72.94
401.51	82.94
401.734	92.94
401.958	94.94
402.182	93.94
402.406	85.94
402.63	90.94
402.854	81.94
403.078	83.94
403.302	70.94
403.526	88.94
403.75	91.94
403.974	99.94
404.198	88.94
404.422	90.94
404.645	82.94
404.869	93.94
405.093	83.94
405.317	94.94
405.541	93.94
405.765	84.94
405.988	83.94
406.212	91.94
406.436	87.94
406.66	94.94
406.883	93.94
407.107	81.94
407.331	78.94
407.555	90.94
407.778	81.94
408.002	86.94
408.226	81.94
408.449	80.94
408.673	101.94
408.896	91.94
409.12	81.94
409.344	82.94
409.567	85.94
409.791	96.94
410.014	100.94
410.238	82.94
410.461	83.94
410.685	86.94
410.908	94.94
411.132	83.94
411.355	94.94
411.578	90.94
411.802	94.94
412.025	79.94
412.249	83.94
412.472	72.94
412.695	95.94
412.919	97.94
413.142	71.94
413.365	84.94
413.589	86.94
413.812	98.94
414.035	96.94
414.258	80.94
414.482	95.94
414.705	97.94
414.928	98.94
415.151	90.94
415.374	89.94
415.597	93.94
415.821	83.94
416.044	78.94
416.267	91.94
416.49	82.94
416.713	75.94
416.936	110.94
417.159	83.94
417.382	102.94
417.605	85.94
417.828	97.94
418.051	85.94
418.274	87.94
418.497	87.94
418.72	85.94
418.943	86.94
419.166	88.94
419.389	91.94
419.611	96.94
419.834	85.94
420.057	90.94
420.28	98.94
420.503	94.94
420.726	94.94
420.948	85.94
421.171	85.94
421.394	90.94
421.617	86.94
421.839	92.94
422.062	93.94
422.285	94.94
422.507	87.94
422.73	87.94
422.953	80.94
423.175	96.94
423.398	94.94
423.621	86.94
423.843	87.94
424.066	95.94
424.288	96.94
424.511	104.94
424.733	109.94
424.956	101.94
425.178	93.94
425.401	105.94
425.623	97.94
425.846	83.94
426.068	102.94
426.291	87.94
426.513	100.94
426.735	94.94
426.958	97.94
427.18	94.94
427.402	74.94
427.625	104.94
427.847	97.94
428.069	98.94
428.292	78.94
428.514	103.94
428.736	90.94
428.958	91.94
429.181	100.94
429.403	97.94
429.625	89.94
429.847	97.94
430.069	100.94
430.292	100.94
430.514	93.94
430.736	80.94
430.958	84.94
431.18	97.94
431.402	70.94
431.624	93.94
431.846	78.94
432.068	85.94
432.29	70.94
432.512	102.94
432.734	77.94
432.956	99.94
433.178	84.94
433.4	99.94
433.622	90.94
433.844	90.94
434.066	95.94
434.287	80.94
434.509	68.94
434.731	82.94
434.953	88.94
435.175	96.94
435.397	85.94
435.618	82.94
435.84	97.94
436.062	79.94
436.284	89.94
436.505	84.94
436.727	93.94
436.949	101.94
437.17	86.94
437.392	106.94
437.614	87.94
437.835	77.94
438.057	89.94
438.278	86.94
438.5	93.94
438.721	101.94
438.943	83.94
439.165	89.94
439.386	95.94
439.608	79.94
439.829	94.94
440.05	96.94
440.272	95.94
440.493	106.94
440.715	92.94
440.936	95.94
441.158	90.94
441.379	102.94
441.6	98.94
441.822	102.94
442.043	105.94
442.264	97.94
442.486	102.94
442.707	97.94
442.928	92.94
443.149	105.94
443.371	107.94
443.592	90.94
443.813	99.94
444.034	86.94
444.255	96.94
444.476	79.94
444.698	85.94
444.919	106.94
445.14	181.94
445.361	139.94
445.582	85.94
445.803	102.94
446.024	98.94
446.245	102.94
446.466	106.94
446.687	102.94
446.908	107.94
447.129	95.94
447.35	84.94
447.571	93.94
447.792	100.94
448.013	106.94
448.234	101.94
448.455	91.94
448.675	101.94
448.896	98.94
449.117	89.94
449.338	90.94
449.559	92.94
449.779	97.94
450	93.94
450.221	89.94
450.442	102.94
450.662	104.94
450.883	90.94
451.104	81.94
451.324	84.94
451.545	88.94
451.766	92.94
451.986	110.94
452.207	101.94
452.428	81.94
452.648	75.94
452.869	90.94
453.089	82.94
453.31	91.94
453.53	91.94
453.751	83.94
453.971	81.94
454.192	75.94
454.412	83.94
454.633	89.94
454.853	105.94
455.073	99.94
455.294	100.94
455.514	86.94
455.734	91.94
455.955	103.94
456.175	90.94
456.395	89.94
456.616	78.94
456.836	76.94
457.056	99.94
457.276	83.94
457.497	99.94
457.717	98.94
457.937	97.94
458.157	90.94
458.377	88.94
458.598	74.94
458.818	90.94
459.038	84.94
459.258	76.94
459.478	79.94
459.698	82.94
459.918	89.94
460.138	86.94
460.358	99.94
460.578	87.94
460.798	82.94
461.018	89.94
461.238	91.94
461.458	88.94
461.678	94.94
461.898	88.94
462.118	105.94
462.338	83.94
462.558	89.94
462.777	104.94
462.997	93.94
463.217	91.94
463.437	96.94
463.657	75.94
463.876	94.94
464.096	90.94
464.316	82.94
464.536	88.94
464.755	94.94
464.975	93.94
465.195	101.94
465.414	96.94
465.634	85.94
465.854	94.94
466.073	91.94
466.293	99.94
466.512	92.94
466.732	79.94
466.951	85.94
467.171	110.94
467.391	101.94
467.61	103.94
467.829	77.94
468.049	88.94
468.268	88.94
468.488	99.94
468.707	111.94
468.927	100.94
469.146	106.94
469.365	86.94
469.585	88.94
469.804	90.94
470.023	80.94
470.243	83.94
470.462	86.94
470.681	77.94
470.901	90.94
471.12	110.94
471.339	85.94
471.558	102.94
471.777	89.94
471.997	96.94
472.216	93.94
472.435	98.94
472.654	91.94
472.873	90.94
473.092	81.94
473.311	91.94
473.53	81.94
473.749	105.94
473.968	101.94
474.187	95.94
474.406	84.94
474.625	104.94
474.844	91.94
475.063	99.94
475.282	104.94
475.501	95.94
475.72	92.94
475.939	109.94
476.158	97.94
476.377	82.94
476.596	86.94
476.814	88.94
477.033	83.94
477.252	102.94
477.471	75.94
477.69	81.94
477.908	107.94
478.127	100.94
478.346	97.94
478.564	95.94
478.783	86.94
479.002	99.94
479.22	109.94
479.439	100.94
479.658	86.94
479.876	95.94
480.095	99.94
480.313	101.94
480.532	106.94
480.751	97.94
480.969	78.94
481.188	74.94
481.406	84.94
481.624	75.94
481.843	73.94
482.061	78.94
482.28	86.94
482.498	90.94
482.717	85.94
482.935	88.94
483.153	94.94
483.372	100.94
483.59	99.94
483.808	88.94
484.027	93.94
484.245	104.94
484.463	102.94
484.681	110.94
484.9	104.94
485.118	100.94
485.336	95.94
485.554	85.94
485.772	80.94
485.99	91.94
486.209	95.94
486.427	75.94
486.645	95.94
486.863	98.94
487.081	95.94
487.299	83.94
487.517	103.94
487.735	109.94
487.953	127.94
488.171	113.94
488.389	131.94
488.607	107.94
488.825	114.94
489.043	83.94
489.261	96.94
489.479	107.94
489.696	103.94
489.914	79.94
490.132	109.94
490.35	106.94
490.568	97.94
490.786	89.94
491.003	93.94
491.221	102.94
491.439	109.94
491.657	119.94
491.874	119.94
492.092	112.94
492.31	123.94
492.527	133.94
492.745	113.94
492.963	110.94
493.18	123.94
493.398	113.94
493.615	101.94
493.833	96.94
494.05	104.94
494.268	120.94
494.485	93.94
494.703	117.94
494.92	109.94
495.138	126.94
495.355	105.94
495.573	115.94
495.79	90.94
496.008	104.94
496.225	101.94
496.442	95.94
496.66	118.94
496.877	93.94
497.094	99.94
497.312	110.94
497.529	106.94
497.746	84.94
497.963	89.94
498.181	93.94
498.398	83.94
498.615	88.94
498.832	94.94
499.049	88.94
499.267	99.94
499.484	97.94
499.701	94.94
499.918	102.94
500.135	85.94
500.352	109.94
500.569	115.94
500.786	106.94
501.003	101.94
501.22	96.94
501.437	85.94
501.654	91.94
501.871	94.94
502.088	109.94
502.305	102.94
502.522	95.94
502.739	97.94
502.956	92.94
503.172	105.94
503.389	98.94
503.606	100.94
503.823	102.94
504.04	96.94
504.256	89.94
504.473	93.94
504.69	78.94
504.907	91.94
505.123	80.94
505.34	95.94
505.557	105.94
505.773	96.94
505.99	106.94
506.207	107.94
506.423	99.94
506.64	106.94
506.856	97.94
507.073	96.94
507.289	100.94
507.506	94.94
507.722	100.94
507.939	83.94
508.155	94.94
508.372	89.94
508.588	93.94
508.805	90.94
509.021	86.94
509.238	74.94
509.454	81.94
509.67	76.94
509.887	88.94
510.103	82.94
510.319	79.94
510.536	65.94
510.752	88.94
510.968	83.94
511.184	73.94
511.401	70.94
511.617	84.94
511.833	89.94
512.049	86.94
512.265	99.94
512.481	80.94
512.698	94.94
512.914	81.94
513.13	95.94
513.346	90.94
513.562	79.94
513.778	99.94
513.994	90.94
514.21	90.94
514.426	88.94
514.642	80.94
514.858	92.94
515.074	86.94
515.29	77.94
515.506	79.94
515.721	88.94
515.937	95.94
516.153	76.94
516.369	77.94
516.585	74.94
516.801	82.94
517.016	82.94
517.232	89.94
517.448	79.94
