Data from Location4.07152019.Energy5.Lamp.07192019.3%Agarose_HRD10591_15-24-22-577.txt Node
Date: Fri Jul 19 15:24:22 EDT 2019
User: cochatt
Spectrometer: HR+D1059
Trigger mode: 1
Integration Time (sec): 1.000000E-1
Scans to average: 1
Electric dark correction enabled: true
Nonlinearity correction enabled: false
Boxcar width: 0
XAxis mode: Wavelengths
Number of Pixels in Spectrum: 2048
>>>>>Begin Spectral Data<<<<<
223.165	-9.56
223.4	-9.56
223.635	-9.56
223.869	-12.56
224.104	-20.56
224.338	-10.56
224.573	-13.56
224.808	-5.56
225.042	-17.56
225.277	-9.56
225.511	-12.56
225.746	0.44
225.98	6.44
226.215	5.44
226.449	11.44
226.683	28.44
226.918	28.44
227.152	31.44
227.387	38.44
227.621	38.44
227.856	36.44
228.09	30.44
228.324	55.44
228.559	50.44
228.793	57.44
229.027	76.44
229.262	55.44
229.496	68.44
229.73	66.44
229.964	68.44
230.199	67.44
230.433	68.44
230.667	78.44
230.901	75.44
231.136	73.44
231.37	92.44
231.604	75.44
231.838	72.44
232.072	90.44
232.306	73.44
232.541	70.44
232.775	94.44
233.009	86.44
233.243	84.44
233.477	83.44
233.711	80.44
233.945	80.44
234.179	88.44
234.413	65.44
234.647	85.44
234.881	71.44
235.115	86.44
235.349	74.44
235.583	87.44
235.817	81.44
236.051	68.44
236.285	82.44
236.519	73.44
236.753	76.44
236.987	82.44
237.221	80.44
237.455	92.44
237.689	74.44
237.922	77.44
238.156	84.44
238.39	71.44
238.624	86.44
238.858	78.44
239.091	79.44
239.325	72.44
239.559	68.44
239.793	84.44
240.027	78.44
240.26	74.44
240.494	68.44
240.728	75.44
240.961	80.44
241.195	71.44
241.429	83.44
241.662	72.44
241.896	73.44
242.13	83.44
242.363	75.44
242.597	80.44
242.83	82.44
243.064	71.44
243.298	66.44
243.531	76.44
243.765	83.44
243.998	82.44
244.232	79.44
244.465	76.44
244.699	73.44
244.932	84.44
245.166	81.44
245.399	86.44
245.633	74.44
245.866	68.44
246.099	70.44
246.333	79.44
246.566	76.44
246.8	81.44
247.033	66.44
247.266	65.44
247.5	66.44
247.733	76.44
247.966	75.44
248.2	62.44
248.433	76.44
248.666	80.44
248.899	79.44
249.133	70.44
249.366	79.44
249.599	86.44
249.832	75.44
250.066	86.44
250.299	74.44
250.532	76.44
250.765	73.44
250.998	75.44
251.231	78.44
251.465	73.44
251.698	80.44
251.931	96.44
252.164	87.44
252.397	80.44
252.63	82.44
252.863	71.44
253.096	58.44
253.329	70.44
253.562	75.44
253.795	80.44
254.028	88.44
254.261	85.44
254.494	70.44
254.727	78.44
254.96	82.44
255.193	83.44
255.426	85.44
255.659	68.44
255.892	92.44
256.124	76.44
256.357	71.44
256.59	68.44
256.823	73.44
257.056	76.44
257.289	76.44
257.521	77.44
257.754	66.44
257.987	80.44
258.22	72.44
258.452	87.44
258.685	83.44
258.918	79.44
259.151	71.44
259.383	64.44
259.616	82.44
259.849	84.44
260.081	86.44
260.314	83.44
260.547	62.44
260.779	79.44
261.012	74.44
261.244	94.44
261.477	78.44
261.71	74.44
261.942	71.44
262.175	81.44
262.407	71.44
262.64	75.44
262.872	68.44
263.105	73.44
263.337	82.44
263.57	95.44
263.802	77.44
264.035	89.44
264.267	85.44
264.499	81.44
264.732	82.44
264.964	93.44
265.197	69.44
265.429	82.44
265.661	80.44
265.894	68.44
266.126	83.44
266.358	80.44
266.591	74.44
266.823	71.44
267.055	76.44
267.287	75.44
267.52	79.44
267.752	80.44
267.984	73.44
268.216	77.44
268.448	81.44
268.681	71.44
268.913	90.44
269.145	83.44
269.377	80.44
269.609	85.44
269.841	85.44
270.073	96.44
270.306	91.44
270.538	66.44
270.77	83.44
271.002	89.44
271.234	72.44
271.466	86.44
271.698	88.44
271.93	75.44
272.162	88.44
272.394	89.44
272.626	85.44
272.858	85.44
273.09	75.44
273.322	74.44
273.553	80.44
273.785	76.44
274.017	79.44
274.249	88.44
274.481	82.44
274.713	75.44
274.945	100.44
275.176	86.44
275.408	88.44
275.64	91.44
275.872	81.44
276.104	81.44
276.335	88.44
276.567	89.44
276.799	73.44
277.031	86.44
277.262	82.44
277.494	82.44
277.726	86.44
277.957	80.44
278.189	78.44
278.421	82.44
278.652	92.44
278.884	74.44
279.115	80.44
279.347	74.44
279.579	77.44
279.81	70.44
280.042	66.44
280.273	84.44
280.505	68.44
280.736	61.44
280.968	79.44
281.199	73.44
281.431	86.44
281.662	87.44
281.894	84.44
282.125	72.44
282.356	85.44
282.588	84.44
282.819	72.44
283.051	91.44
283.282	82.44
283.513	97.44
283.745	87.44
283.976	88.44
284.207	82.44
284.439	88.44
284.67	75.44
284.901	79.44
285.132	82.44
285.364	89.44
285.595	82.44
285.826	97.44
286.057	92.44
286.288	82.44
286.52	88.44
286.751	86.44
286.982	77.44
287.213	76.44
287.444	86.44
287.675	94.44
287.906	88.44
288.138	79.44
288.369	91.44
288.6	83.44
288.831	90.44
289.062	79.44
289.293	72.44
289.524	89.44
289.755	78.44
289.986	83.44
290.217	92.44
290.448	87.44
290.679	89.44
290.91	85.44
291.141	77.44
291.371	90.44
291.602	89.44
291.833	92.44
292.064	76.44
292.295	91.44
292.526	97.44
292.757	80.44
292.987	73.44
293.218	87.44
293.449	71.44
293.68	73.44
293.91	87.44
294.141	78.44
294.372	82.44
294.603	88.44
294.833	91.44
295.064	87.44
295.295	86.44
295.525	72.44
295.756	83.44
295.987	98.44
296.217	85.44
296.448	80.44
296.679	82.44
296.909	82.44
297.14	91.44
297.37	84.44
297.601	87.44
297.831	79.44
298.062	70.44
298.292	80.44
298.523	76.44
298.753	76.44
298.984	84.44
299.214	86.44
299.445	102.44
299.675	80.44
299.905	87.44
300.136	81.44
300.366	90.44
300.597	72.44
300.827	75.44
301.057	72.44
301.288	82.44
301.518	75.44
301.748	76.44
301.979	88.44
302.209	77.44
302.439	87.44
302.669	87.44
302.9	73.44
303.13	73.44
303.36	75.44
303.59	69.44
303.82	81.44
304.051	84.44
304.281	99.44
304.511	82.44
304.741	88.44
304.971	90.44
305.201	90.44
305.431	81.44
305.661	89.44
305.891	96.44
306.121	84.44
306.352	85.44
306.582	95.44
306.812	85.44
307.042	88.44
307.272	88.44
307.502	79.44
307.731	77.44
307.961	74.44
308.191	80.44
308.421	76.44
308.651	77.44
308.881	82.44
309.111	87.44
309.341	85.44
309.571	83.44
309.8	68.44
310.03	82.44
310.26	89.44
310.49	88.44
310.72	80.44
310.949	94.44
311.179	89.44
311.409	80.44
311.639	87.44
311.868	90.44
312.098	84.44
312.328	76.44
312.557	74.44
312.787	79.44
313.017	88.44
313.246	89.44
313.476	85.44
313.706	77.44
313.935	75.44
314.165	83.44
314.394	94.44
314.624	94.44
314.853	99.44
315.083	94.44
315.312	85.44
315.542	91.44
315.771	74.44
316.001	77.44
316.23	76.44
316.46	79.44
316.689	81.44
316.919	73.44
317.148	99.44
317.377	88.44
317.607	82.44
317.836	80.44
318.065	102.44
318.295	76.44
318.524	87.44
318.753	82.44
318.983	98.44
319.212	71.44
319.441	88.44
319.67	80.44
319.9	76.44
320.129	80.44
320.358	87.44
320.587	84.44
320.816	89.44
321.046	69.44
321.275	94.44
321.504	80.44
321.733	88.44
321.962	83.44
322.191	80.44
322.42	82.44
322.649	70.44
322.878	89.44
323.108	84.44
323.337	83.44
323.566	94.44
323.795	82.44
324.024	75.44
324.253	80.44
324.482	75.44
324.71	95.44
324.939	84.44
325.168	77.44
325.397	83.44
325.626	83.44
325.855	80.44
326.084	84.44
326.313	99.44
326.542	84.44
326.77	99.44
326.999	76.44
327.228	96.44
327.457	98.44
327.686	74.44
327.914	80.44
328.143	100.44
328.372	87.44
328.6	79.44
328.829	83.44
329.058	89.44
329.287	78.44
329.515	78.44
329.744	81.44
329.972	84.44
330.201	80.44
330.43	83.44
330.658	89.44
330.887	92.44
331.115	80.44
331.344	74.44
331.572	82.44
331.801	77.44
332.03	86.44
332.258	69.44
332.486	82.44
332.715	85.44
332.943	80.44
333.172	88.44
333.4	76.44
333.629	83.44
333.857	70.44
334.085	78.44
334.314	68.44
334.542	91.44
334.771	73.44
334.999	85.44
335.227	94.44
335.455	88.44
335.684	87.44
335.912	82.44
336.14	80.44
336.369	75.44
336.597	79.44
336.825	74.44
337.053	78.44
337.281	80.44
337.51	78.44
337.738	85.44
337.966	82.44
338.194	86.44
338.422	76.44
338.65	76.44
338.878	79.44
339.106	82.44
339.334	100.44
339.562	88.44
339.79	81.44
340.018	90.44
340.246	75.44
340.474	83.44
340.702	85.44
340.93	87.44
341.158	89.44
341.386	66.44
341.614	87.44
341.842	79.44
342.07	89.44
342.298	94.44
342.526	78.44
342.754	69.44
342.981	84.44
343.209	82.44
343.437	74.44
343.665	77.44
343.893	82.44
344.12	80.44
344.348	88.44
344.576	74.44
344.804	79.44
345.031	80.44
345.259	83.44
345.487	85.44
345.714	82.44
345.942	80.44
346.17	70.44
346.397	84.44
346.625	86.44
346.853	87.44
347.08	74.44
347.308	75.44
347.535	90.44
347.763	82.44
347.99	90.44
348.218	83.44
348.445	78.44
348.673	79.44
348.9	80.44
349.128	90.44
349.355	75.44
349.583	75.44
349.81	67.44
350.037	81.44
350.265	81.44
350.492	80.44
350.72	75.44
350.947	79.44
351.174	88.44
351.402	78.44
351.629	85.44
351.856	77.44
352.083	85.44
352.311	75.44
352.538	76.44
352.765	86.44
352.992	93.44
353.22	66.44
353.447	94.44
353.674	89.44
353.901	87.44
354.128	90.44
354.355	75.44
354.583	90.44
354.81	78.44
355.037	71.44
355.264	87.44
355.491	69.44
355.718	81.44
355.945	80.44
356.172	90.44
356.399	83.44
356.626	80.44
356.853	81.44
357.08	80.44
357.307	94.44
357.534	77.44
357.761	86.44
357.988	79.44
358.215	81.44
358.441	66.44
358.668	81.44
358.895	88.44
359.122	93.44
359.349	79.44
359.576	68.44
359.802	78.44
360.029	83.44
360.256	81.44
360.483	72.44
360.709	74.44
360.936	78.44
361.163	75.44
361.39	92.44
361.616	77.44
361.843	82.44
362.07	75.44
362.296	80.44
362.523	72.44
362.749	86.44
362.976	82.44
363.203	99.44
363.429	85.44
363.656	71.44
363.882	79.44
364.109	73.44
364.335	83.44
364.562	88.44
364.788	69.44
365.015	81.44
365.241	71.44
365.468	88.44
365.694	82.44
365.92	88.44
366.147	85.44
366.373	78.44
366.599	92.44
366.826	80.44
367.052	70.44
367.278	91.44
367.505	87.44
367.731	85.44
367.957	79.44
368.184	82.44
368.41	90.44
368.636	93.44
368.862	74.44
369.089	77.44
369.315	94.44
369.541	84.44
369.767	102.44
369.993	78.44
370.219	73.44
370.445	86.44
370.672	67.44
370.898	94.44
371.124	80.44
371.35	73.44
371.576	66.44
371.802	85.44
372.028	84.44
372.254	67.44
372.48	75.44
372.706	74.44
372.932	81.44
373.158	79.44
373.384	88.44
373.61	93.44
373.835	84.44
374.061	88.44
374.287	84.44
374.513	69.44
374.739	74.44
374.965	84.44
375.191	65.44
375.416	82.44
375.642	83.44
375.868	75.44
376.094	102.44
376.319	82.44
376.545	76.44
376.771	82.44
376.997	86.44
377.222	83.44
377.448	85.44
377.674	85.44
377.899	75.44
378.125	56.44
378.35	93.44
378.576	79.44
378.802	92.44
379.027	86.44
379.253	78.44
379.478	72.44
379.704	82.44
379.929	81.44
380.155	74.44
380.38	83.44
380.606	81.44
380.831	87.44
381.057	80.44
381.282	85.44
381.507	100.44
381.733	86.44
381.958	89.44
382.184	83.44
382.409	82.44
382.634	96.44
382.86	102.44
383.085	82.44
383.31	94.44
383.535	82.44
383.761	75.44
383.986	96.44
384.211	76.44
384.436	76.44
384.662	91.44
384.887	81.44
385.112	97.44
385.337	82.44
385.562	78.44
385.787	73.44
386.013	91.44
386.238	94.44
386.463	71.44
386.688	94.44
386.913	77.44
387.138	94.44
387.363	81.44
387.588	90.44
387.813	84.44
388.038	79.44
388.263	82.44
388.488	74.44
388.713	67.44
388.938	77.44
389.163	83.44
389.387	77.44
389.612	91.44
389.837	86.44
390.062	88.44
390.287	92.44
390.512	88.44
390.736	74.44
390.961	89.44
391.186	92.44
391.411	82.44
391.636	74.44
391.86	96.44
392.085	73.44
392.31	72.44
392.534	81.44
392.759	94.44
392.984	88.44
393.208	75.44
393.433	88.44
393.658	90.44
393.882	77.44
394.107	84.44
394.331	84.44
394.556	78.44
394.78	102.44
395.005	91.44
395.229	84.44
395.454	93.44
395.678	95.44
395.903	85.44
396.127	85.44
396.352	80.44
396.576	87.44
396.801	85.44
397.025	79.44
397.249	79.44
397.474	72.44
397.698	89.44
397.922	100.44
398.147	86.44
398.371	76.44
398.595	87.44
398.82	75.44
399.044	90.44
399.268	74.44
399.492	92.44
399.717	94.44
399.941	81.44
400.165	78.44
400.389	76.44
400.613	88.44
400.837	100.44
401.062	87.44
401.286	83.44
401.51	90.44
401.734	83.44
401.958	82.44
402.182	83.44
402.406	96.44
402.63	86.44
402.854	88.44
403.078	90.44
403.302	80.44
403.526	82.44
403.75	94.44
403.974	85.44
404.198	77.44
404.422	94.44
404.645	78.44
404.869	86.44
405.093	80.44
405.317	71.44
405.541	85.44
405.765	90.44
405.988	81.44
406.212	94.44
406.436	87.44
406.66	69.44
406.883	95.44
407.107	89.44
407.331	84.44
407.555	96.44
407.778	87.44
408.002	76.44
408.226	98.44
408.449	94.44
408.673	93.44
408.896	93.44
409.12	83.44
409.344	91.44
409.567	80.44
409.791	89.44
410.014	96.44
410.238	86.44
410.461	86.44
410.685	71.44
410.908	89.44
411.132	83.44
411.355	87.44
411.578	98.44
411.802	86.44
412.025	90.44
412.249	80.44
412.472	94.44
412.695	84.44
412.919	84.44
413.142	75.44
413.365	99.44
413.589	90.44
413.812	90.44
414.035	80.44
414.258	78.44
414.482	77.44
414.705	74.44
414.928	94.44
415.151	94.44
415.374	92.44
415.597	84.44
415.821	95.44
416.044	97.44
416.267	99.44
416.49	85.44
416.713	86.44
416.936	95.44
417.159	77.44
417.382	82.44
417.605	92.44
417.828	92.44
418.051	101.44
418.274	103.44
418.497	93.44
418.72	90.44
418.943	88.44
419.166	94.44
419.389	79.44
419.611	75.44
419.834	84.44
420.057	99.44
420.28	86.44
420.503	80.44
420.726	95.44
420.948	106.44
421.171	89.44
421.394	102.44
421.617	95.44
421.839	92.44
422.062	79.44
422.285	90.44
422.507	76.44
422.73	80.44
422.953	82.44
423.175	84.44
423.398	98.44
423.621	92.44
423.843	99.44
424.066	98.44
424.288	103.44
424.511	96.44
424.733	95.44
424.956	88.44
425.178	112.44
425.401	100.44
425.623	75.44
425.846	98.44
426.068	88.44
426.291	82.44
426.513	85.44
426.735	92.44
426.958	77.44
427.18	99.44
427.402	84.44
427.625	88.44
427.847	87.44
428.069	90.44
428.292	85.44
428.514	92.44
428.736	101.44
428.958	100.44
429.181	94.44
429.403	89.44
429.625	86.44
429.847	94.44
430.069	95.44
430.292	82.44
430.514	90.44
430.736	99.44
430.958	84.44
431.18	78.44
431.402	83.44
431.624	73.44
431.846	84.44
432.068	84.44
432.29	78.44
432.512	94.44
432.734	88.44
432.956	96.44
433.178	87.44
433.4	90.44
433.622	83.44
433.844	87.44
434.066	89.44
434.287	84.44
434.509	76.44
434.731	78.44
434.953	73.44
435.175	90.44
435.397	86.44
435.618	83.44
435.84	89.44
436.062	83.44
436.284	85.44
436.505	82.44
436.727	93.44
436.949	95.44
437.17	78.44
437.392	77.44
437.614	95.44
437.835	87.44
438.057	83.44
438.278	82.44
438.5	98.44
438.721	79.44
438.943	70.44
439.165	85.44
439.386	97.44
439.608	79.44
439.829	86.44
440.05	89.44
440.272	107.44
440.493	89.44
440.715	96.44
440.936	87.44
441.158	94.44
441.379	96.44
441.6	96.44
441.822	108.44
442.043	97.44
442.264	101.44
442.486	92.44
442.707	95.44
442.928	89.44
443.149	108.44
443.371	114.44
443.592	94.44
443.813	91.44
444.034	99.44
444.255	96.44
444.476	90.44
444.698	84.44
444.919	112.44
445.14	176.44
445.361	126.44
445.582	91.44
445.803	91.44
446.024	85.44
446.245	106.44
446.466	83.44
446.687	97.44
446.908	85.44
447.129	110.44
447.35	94.44
447.571	82.44
447.792	95.44
448.013	93.44
448.234	91.44
448.455	93.44
448.675	82.44
448.896	80.44
449.117	97.44
449.338	86.44
449.559	93.44
449.779	70.44
450	85.44
450.221	82.44
450.442	97.44
450.662	107.44
450.883	99.44
451.104	88.44
451.324	85.44
451.545	83.44
451.766	91.44
451.986	101.44
452.207	83.44
452.428	83.44
452.648	104.44
452.869	106.44
453.089	90.44
453.31	86.44
453.53	90.44
453.751	103.44
453.971	77.44
454.192	84.44
454.412	91.44
454.633	75.44
454.853	102.44
455.073	80.44
455.294	82.44
455.514	84.44
455.734	87.44
455.955	81.44
456.175	95.44
456.395	85.44
456.616	97.44
456.836	82.44
457.056	82.44
457.276	91.44
457.497	85.44
457.717	96.44
457.937	97.44
458.157	84.44
458.377	91.44
458.598	85.44
458.818	81.44
459.038	69.44
459.258	69.44
459.478	77.44
459.698	84.44
459.918	89.44
460.138	74.44
460.358	78.44
460.578	84.44
460.798	102.44
461.018	90.44
461.238	95.44
461.458	95.44
461.678	99.44
461.898	89.44
462.118	106.44
462.338	92.44
462.558	93.44
462.777	86.44
462.997	92.44
463.217	90.44
463.437	94.44
463.657	90.44
463.876	72.44
464.096	89.44
464.316	82.44
464.536	84.44
464.755	95.44
464.975	83.44
465.195	71.44
465.414	74.44
465.634	94.44
465.854	89.44
466.073	92.44
466.293	84.44
466.512	91.44
466.732	80.44
466.951	82.44
467.171	91.44
467.391	83.44
467.61	103.44
467.829	107.44
468.049	91.44
468.268	104.44
468.488	91.44
468.707	93.44
468.927	110.44
469.146	88.44
469.365	102.44
469.585	100.44
469.804	90.44
470.023	96.44
470.243	115.44
470.462	100.44
470.681	99.44
470.901	91.44
471.12	88.44
471.339	83.44
471.558	89.44
471.777	106.44
471.997	103.44
472.216	94.44
472.435	82.44
472.654	82.44
472.873	96.44
473.092	80.44
473.311	95.44
473.53	92.44
473.749	95.44
473.968	95.44
474.187	95.44
474.406	86.44
474.625	89.44
474.844	89.44
475.063	106.44
475.282	88.44
475.501	92.44
475.72	85.44
475.939	89.44
476.158	89.44
476.377	98.44
476.596	93.44
476.814	84.44
477.033	90.44
477.252	90.44
477.471	91.44
477.69	95.44
477.908	84.44
478.127	118.44
478.346	94.44
478.564	113.44
478.783	95.44
479.002	97.44
479.22	96.44
479.439	99.44
479.658	86.44
479.876	88.44
480.095	89.44
480.313	97.44
480.532	91.44
480.751	73.44
480.969	86.44
481.188	95.44
481.406	97.44
481.624	78.44
481.843	81.44
482.061	98.44
482.28	95.44
482.498	85.44
482.717	92.44
482.935	92.44
483.153	101.44
483.372	101.44
483.59	100.44
483.808	103.44
484.027	104.44
484.245	92.44
484.463	105.44
484.681	108.44
484.9	98.44
485.118	91.44
485.336	90.44
485.554	104.44
485.772	90.44
485.99	83.44
486.209	83.44
486.427	100.44
486.645	75.44
486.863	113.44
487.081	102.44
487.299	94.44
487.517	95.44
487.735	100.44
487.953	108.44
488.171	110.44
488.389	105.44
488.607	105.44
488.825	89.44
489.043	82.44
489.261	104.44
489.479	81.44
489.696	87.44
489.914	112.44
490.132	103.44
490.35	95.44
490.568	103.44
490.786	91.44
491.003	114.44
491.221	101.44
491.439	98.44
491.657	101.44
491.874	117.44
492.092	110.44
492.31	140.44
492.527	131.44
492.745	126.44
492.963	127.44
493.18	95.44
493.398	96.44
493.615	114.44
493.833	107.44
494.05	100.44
494.268	112.44
494.485	103.44
494.703	120.44
494.92	107.44
495.138	104.44
495.355	102.44
495.573	102.44
495.79	116.44
496.008	102.44
496.225	99.44
496.442	117.44
496.66	107.44
496.877	100.44
497.094	107.44
497.312	96.44
497.529	92.44
497.746	105.44
497.963	93.44
498.181	101.44
498.398	62.44
498.615	107.44
498.832	82.44
499.049	107.44
499.267	94.44
499.484	88.44
499.701	116.44
499.918	94.44
500.135	96.44
500.352	88.44
500.569	92.44
500.786	88.44
501.003	100.44
501.22	86.44
501.437	95.44
501.654	103.44
501.871	97.44
502.088	92.44
502.305	106.44
502.522	91.44
502.739	108.44
502.956	88.44
503.172	91.44
503.389	82.44
503.606	98.44
503.823	89.44
504.04	90.44
504.256	100.44
504.473	94.44
504.69	72.44
504.907	91.44
505.123	108.44
505.34	95.44
505.557	96.44
505.773	87.44
505.99	80.44
506.207	83.44
506.423	97.44
506.64	69.44
506.856	83.44
507.073	91.44
507.289	92.44
507.506	99.44
507.722	87.44
507.939	99.44
508.155	87.44
508.372	83.44
508.588	89.44
508.805	87.44
509.021	81.44
509.238	82.44
509.454	74.44
509.67	77.44
509.887	83.44
510.103	77.44
510.319	86.44
510.536	85.44
510.752	88.44
510.968	88.44
511.184	72.44
511.401	82.44
511.617	89.44
511.833	85.44
512.049	88.44
512.265	98.44
512.481	80.44
512.698	81.44
512.914	87.44
513.13	93.44
513.346	69.44
513.562	78.44
513.778	82.44
513.994	84.44
514.21	79.44
514.426	82.44
514.642	80.44
514.858	87.44
515.074	101.44
515.29	83.44
515.506	79.44
515.721	79.44
515.937	85.44
516.153	65.44
516.369	80.44
516.585	81.44
516.801	85.44
517.016	84.44
517.232	82.44
517.448	94.44
517.664	88.44
517.879	84.44
518.095	86.44
