Data from Location4.07152019.Energy5.Lamp.07192019.3%Agarose_HRD10591_15-25-53-578.txt Node
Date: Fri Jul 19 15:25:53 EDT 2019
User: cochatt
Spectrometer: HR+D1059
Trigger mode: 1
Integration Time (sec): 1.000000E-1
Scans to average: 1
Electric dark correction enabled: true
Nonlinearity correction enabled: false
Boxcar width: 0
XAxis mode: Wavelengths
Number of Pixels in Spectrum: 2048
>>>>>Begin Spectral Data<<<<<
223.165	-14.88
223.4	-14.88
223.635	-14.88
223.869	-17.88
224.104	0.12
224.338	-7.88
224.573	-10.88
224.808	-25.88
225.042	-1.88
225.277	-3.88
225.511	-12.88
225.746	-2.88
225.98	3.12
226.215	-1.88
226.449	11.12
226.683	16.12
226.918	32.12
227.152	38.12
227.387	47.12
227.621	36.12
227.856	41.12
228.09	53.12
228.324	52.12
228.559	58.12
228.793	47.12
229.027	76.12
229.262	69.12
229.496	71.12
229.73	62.12
229.964	73.12
230.199	74.12
230.433	86.12
230.667	83.12
230.901	72.12
231.136	84.12
231.37	73.12
231.604	70.12
231.838	89.12
232.072	85.12
232.306	89.12
232.541	85.12
232.775	93.12
233.009	85.12
233.243	86.12
233.477	85.12
233.711	76.12
233.945	82.12
234.179	86.12
234.413	76.12
234.647	83.12
234.881	85.12
235.115	89.12
235.349	97.12
235.583	80.12
235.817	83.12
236.051	84.12
236.285	67.12
236.519	67.12
236.753	80.12
236.987	83.12
237.221	84.12
237.455	82.12
237.689	80.12
237.922	75.12
238.156	90.12
238.39	86.12
238.624	75.12
238.858	80.12
239.091	71.12
239.325	81.12
239.559	82.12
239.793	83.12
240.027	88.12
240.26	90.12
240.494	77.12
240.728	81.12
240.961	86.12
241.195	88.12
241.429	84.12
241.662	81.12
241.896	79.12
242.13	75.12
242.363	82.12
242.597	77.12
242.83	84.12
243.064	93.12
243.298	64.12
243.531	83.12
243.765	77.12
243.998	92.12
244.232	80.12
244.465	77.12
244.699	78.12
244.932	73.12
245.166	86.12
245.399	76.12
245.633	88.12
245.866	90.12
246.099	88.12
246.333	85.12
246.566	87.12
246.8	84.12
247.033	94.12
247.266	75.12
247.5	77.12
247.733	75.12
247.966	94.12
248.2	81.12
248.433	78.12
248.666	94.12
248.899	78.12
249.133	93.12
249.366	78.12
249.599	90.12
249.832	80.12
250.066	90.12
250.299	85.12
250.532	87.12
250.765	70.12
250.998	76.12
251.231	86.12
251.465	76.12
251.698	86.12
251.931	83.12
252.164	94.12
252.397	95.12
252.63	74.12
252.863	86.12
253.096	80.12
253.329	89.12
253.562	91.12
253.795	87.12
254.028	99.12
254.261	83.12
254.494	86.12
254.727	92.12
254.96	83.12
255.193	80.12
255.426	87.12
255.659	85.12
255.892	93.12
256.124	95.12
256.357	83.12
256.59	86.12
256.823	79.12
257.056	85.12
257.289	86.12
257.521	80.12
257.754	85.12
257.987	96.12
258.22	99.12
258.452	91.12
258.685	89.12
258.918	86.12
259.151	79.12
259.383	79.12
259.616	86.12
259.849	95.12
260.081	80.12
260.314	86.12
260.547	73.12
260.779	78.12
261.012	81.12
261.244	83.12
261.477	99.12
261.71	92.12
261.942	70.12
262.175	91.12
262.407	88.12
262.64	89.12
262.872	89.12
263.105	79.12
263.337	79.12
263.57	88.12
263.802	90.12
264.035	89.12
264.267	83.12
264.499	79.12
264.732	90.12
264.964	66.12
265.197	83.12
265.429	89.12
265.661	85.12
265.894	84.12
266.126	84.12
266.358	71.12
266.591	81.12
266.823	93.12
267.055	80.12
267.287	91.12
267.52	87.12
267.752	90.12
267.984	91.12
268.216	87.12
268.448	83.12
268.681	78.12
268.913	79.12
269.145	90.12
269.377	84.12
269.609	79.12
269.841	95.12
270.073	87.12
270.306	91.12
270.538	77.12
270.77	84.12
271.002	87.12
271.234	93.12
271.466	82.12
271.698	62.12
271.93	99.12
272.162	76.12
272.394	78.12
272.626	94.12
272.858	87.12
273.09	80.12
273.322	90.12
273.553	94.12
273.785	87.12
274.017	86.12
274.249	91.12
274.481	83.12
274.713	94.12
274.945	101.12
275.176	93.12
275.408	78.12
275.64	79.12
275.872	92.12
276.104	95.12
276.335	94.12
276.567	90.12
276.799	73.12
277.031	94.12
277.262	89.12
277.494	102.12
277.726	89.12
277.957	82.12
278.189	88.12
278.421	89.12
278.652	87.12
278.884	101.12
279.115	76.12
279.347	91.12
279.579	98.12
279.81	88.12
280.042	94.12
280.273	73.12
280.505	95.12
280.736	96.12
280.968	80.12
281.199	87.12
281.431	100.12
281.662	81.12
281.894	94.12
282.125	94.12
282.356	92.12
282.588	92.12
282.819	75.12
283.051	76.12
283.282	83.12
283.513	89.12
283.745	77.12
283.976	87.12
284.207	86.12
284.439	77.12
284.67	78.12
284.901	91.12
285.132	92.12
285.364	91.12
285.595	91.12
285.826	107.12
286.057	91.12
286.288	87.12
286.52	83.12
286.751	84.12
286.982	89.12
287.213	82.12
287.444	87.12
287.675	83.12
287.906	90.12
288.138	106.12
288.369	80.12
288.6	93.12
288.831	91.12
289.062	94.12
289.293	89.12
289.524	93.12
289.755	72.12
289.986	96.12
290.217	88.12
290.448	86.12
290.679	93.12
290.91	88.12
291.141	89.12
291.371	91.12
291.602	92.12
291.833	90.12
292.064	92.12
292.295	98.12
292.526	106.12
292.757	98.12
292.987	102.12
293.218	72.12
293.449	86.12
293.68	90.12
293.91	82.12
294.141	84.12
294.372	87.12
294.603	95.12
294.833	108.12
295.064	87.12
295.295	83.12
295.525	91.12
295.756	88.12
295.987	91.12
296.217	78.12
296.448	76.12
296.679	87.12
296.909	87.12
297.14	91.12
297.37	85.12
297.601	77.12
297.831	73.12
298.062	95.12
298.292	90.12
298.523	96.12
298.753	93.12
298.984	74.12
299.214	83.12
299.445	87.12
299.675	79.12
299.905	92.12
300.136	91.12
300.366	77.12
300.597	87.12
300.827	79.12
301.057	90.12
301.288	99.12
301.518	79.12
301.748	92.12
301.979	86.12
302.209	85.12
302.439	95.12
302.669	105.12
302.9	95.12
303.13	86.12
303.36	105.12
303.59	101.12
303.82	87.12
304.051	92.12
304.281	89.12
304.511	85.12
304.741	80.12
304.971	84.12
305.201	95.12
305.431	76.12
305.661	80.12
305.891	87.12
306.121	79.12
306.352	85.12
306.582	98.12
306.812	83.12
307.042	102.12
307.272	84.12
307.502	75.12
307.731	93.12
307.961	98.12
308.191	79.12
308.421	93.12
308.651	92.12
308.881	91.12
309.111	85.12
309.341	90.12
309.571	86.12
309.8	83.12
310.03	87.12
310.26	93.12
310.49	93.12
310.72	80.12
310.949	99.12
311.179	91.12
311.409	95.12
311.639	92.12
311.868	84.12
312.098	93.12
312.328	79.12
312.557	82.12
312.787	85.12
313.017	91.12
313.246	95.12
313.476	90.12
313.706	83.12
313.935	83.12
314.165	78.12
314.394	77.12
314.624	87.12
314.853	92.12
315.083	80.12
315.312	90.12
315.542	83.12
315.771	93.12
316.001	89.12
316.23	79.12
316.46	98.12
316.689	93.12
316.919	92.12
317.148	89.12
317.377	76.12
317.607	84.12
317.836	86.12
318.065	86.12
318.295	91.12
318.524	73.12
318.753	84.12
318.983	79.12
319.212	86.12
319.441	94.12
319.67	95.12
319.9	90.12
320.129	94.12
320.358	86.12
320.587	74.12
320.816	87.12
321.046	76.12
321.275	76.12
321.504	88.12
321.733	86.12
321.962	83.12
322.191	85.12
322.42	94.12
322.649	99.12
322.878	95.12
323.108	78.12
323.337	91.12
323.566	92.12
323.795	93.12
324.024	85.12
324.253	87.12
324.482	92.12
324.71	97.12
324.939	83.12
325.168	88.12
325.397	79.12
325.626	71.12
325.855	80.12
326.084	94.12
326.313	89.12
326.542	101.12
326.77	86.12
326.999	90.12
327.228	92.12
327.457	90.12
327.686	90.12
327.914	99.12
328.143	88.12
328.372	101.12
328.6	94.12
328.829	81.12
329.058	90.12
329.287	80.12
329.515	96.12
329.744	92.12
329.972	94.12
330.201	93.12
330.43	91.12
330.658	79.12
330.887	92.12
331.115	77.12
331.344	85.12
331.572	79.12
331.801	87.12
332.03	88.12
332.258	83.12
332.486	95.12
332.715	95.12
332.943	105.12
333.172	84.12
333.4	87.12
333.629	90.12
333.857	93.12
334.085	88.12
334.314	79.12
334.542	80.12
334.771	94.12
334.999	90.12
335.227	89.12
335.455	88.12
335.684	83.12
335.912	94.12
336.14	91.12
336.369	92.12
336.597	89.12
336.825	94.12
337.053	69.12
337.281	79.12
337.51	84.12
337.738	87.12
337.966	80.12
338.194	76.12
338.422	81.12
338.65	110.12
338.878	103.12
339.106	79.12
339.334	69.12
339.562	84.12
339.79	88.12
340.018	89.12
340.246	84.12
340.474	93.12
340.702	87.12
340.93	78.12
341.158	89.12
341.386	91.12
341.614	90.12
341.842	70.12
342.07	98.12
342.298	79.12
342.526	84.12
342.754	84.12
342.981	83.12
343.209	89.12
343.437	78.12
343.665	79.12
343.893	95.12
344.12	85.12
344.348	88.12
344.576	91.12
344.804	84.12
345.031	83.12
345.259	90.12
345.487	87.12
345.714	86.12
345.942	92.12
346.17	87.12
346.397	99.12
346.625	85.12
346.853	90.12
347.08	86.12
347.308	76.12
347.535	82.12
347.763	99.12
347.99	87.12
348.218	98.12
348.445	84.12
348.673	90.12
348.9	83.12
349.128	100.12
349.355	105.12
349.583	106.12
349.81	90.12
350.037	82.12
350.265	83.12
350.492	90.12
350.72	90.12
350.947	79.12
351.174	86.12
351.402	84.12
351.629	77.12
351.856	77.12
352.083	89.12
352.311	86.12
352.538	78.12
352.765	82.12
352.992	99.12
353.22	77.12
353.447	89.12
353.674	91.12
353.901	88.12
354.128	85.12
354.355	89.12
354.583	90.12
354.81	86.12
355.037	85.12
355.264	89.12
355.491	95.12
355.718	87.12
355.945	103.12
356.172	82.12
356.399	90.12
356.626	86.12
356.853	86.12
357.08	82.12
357.307	93.12
357.534	96.12
357.761	89.12
357.988	94.12
358.215	93.12
358.441	90.12
358.668	102.12
358.895	88.12
359.122	79.12
359.349	69.12
359.576	86.12
359.802	84.12
360.029	103.12
360.256	85.12
360.483	85.12
360.709	82.12
360.936	77.12
361.163	85.12
361.39	81.12
361.616	88.12
361.843	84.12
362.07	99.12
362.296	99.12
362.523	87.12
362.749	95.12
362.976	108.12
363.203	86.12
363.429	75.12
363.656	90.12
363.882	102.12
364.109	99.12
364.335	90.12
364.562	84.12
364.788	101.12
365.015	90.12
365.241	89.12
365.468	94.12
365.694	98.12
365.92	82.12
366.147	78.12
366.373	88.12
366.599	89.12
366.826	83.12
367.052	91.12
367.278	97.12
367.505	88.12
367.731	94.12
367.957	91.12
368.184	93.12
368.41	79.12
368.636	89.12
368.862	85.12
369.089	99.12
369.315	88.12
369.541	84.12
369.767	89.12
369.993	90.12
370.219	87.12
370.445	88.12
370.672	94.12
370.898	88.12
371.124	102.12
371.35	84.12
371.576	89.12
371.802	72.12
372.028	98.12
372.254	84.12
372.48	79.12
372.706	90.12
372.932	101.12
373.158	86.12
373.384	91.12
373.61	92.12
373.835	79.12
374.061	77.12
374.287	104.12
374.513	89.12
374.739	98.12
374.965	74.12
375.191	87.12
375.416	84.12
375.642	118.12
375.868	96.12
376.094	96.12
376.319	81.12
376.545	106.12
376.771	86.12
376.997	89.12
377.222	92.12
377.448	81.12
377.674	91.12
377.899	83.12
378.125	78.12
378.35	85.12
378.576	84.12
378.802	99.12
379.027	92.12
379.253	76.12
379.478	87.12
379.704	76.12
379.929	78.12
380.155	83.12
380.38	87.12
380.606	87.12
380.831	90.12
381.057	104.12
381.282	94.12
381.507	74.12
381.733	100.12
381.958	90.12
382.184	85.12
382.409	95.12
382.634	103.12
382.86	106.12
383.085	87.12
383.31	86.12
383.535	95.12
383.761	90.12
383.986	83.12
384.211	90.12
384.436	86.12
384.662	75.12
384.887	91.12
385.112	88.12
385.337	79.12
385.562	98.12
385.787	81.12
386.013	105.12
386.238	93.12
386.463	85.12
386.688	97.12
386.913	90.12
387.138	94.12
387.363	103.12
387.588	96.12
387.813	85.12
388.038	95.12
388.263	85.12
388.488	91.12
388.713	81.12
388.938	91.12
389.163	87.12
389.387	106.12
389.612	99.12
389.837	86.12
390.062	96.12
390.287	90.12
390.512	99.12
390.736	96.12
390.961	93.12
391.186	84.12
391.411	91.12
391.636	90.12
391.86	103.12
392.085	105.12
392.31	81.12
392.534	100.12
392.759	94.12
392.984	70.12
393.208	86.12
393.433	100.12
393.658	101.12
393.882	81.12
394.107	82.12
394.331	105.12
394.556	94.12
394.78	98.12
395.005	90.12
395.229	79.12
395.454	92.12
395.678	92.12
395.903	97.12
396.127	98.12
396.352	98.12
396.576	89.12
396.801	76.12
397.025	91.12
397.249	99.12
397.474	98.12
397.698	107.12
397.922	99.12
398.147	87.12
398.371	84.12
398.595	94.12
398.82	94.12
399.044	97.12
399.268	88.12
399.492	97.12
399.717	97.12
399.941	101.12
400.165	96.12
400.389	93.12
400.613	99.12
400.837	89.12
401.062	85.12
401.286	98.12
401.51	93.12
401.734	84.12
401.958	81.12
402.182	82.12
402.406	85.12
402.63	89.12
402.854	95.12
403.078	95.12
403.302	99.12
403.526	92.12
403.75	85.12
403.974	86.12
404.198	103.12
404.422	96.12
404.645	96.12
404.869	106.12
405.093	99.12
405.317	96.12
405.541	101.12
405.765	99.12
405.988	95.12
406.212	92.12
406.436	88.12
406.66	83.12
406.883	92.12
407.107	93.12
407.331	104.12
407.555	99.12
407.778	98.12
408.002	96.12
408.226	101.12
408.449	87.12
408.673	108.12
408.896	92.12
409.12	84.12
409.344	92.12
409.567	88.12
409.791	89.12
410.014	86.12
410.238	85.12
410.461	89.12
410.685	93.12
410.908	107.12
411.132	109.12
411.355	93.12
411.578	90.12
411.802	105.12
412.025	83.12
412.249	89.12
412.472	107.12
412.695	92.12
412.919	97.12
413.142	98.12
413.365	105.12
413.589	100.12
413.812	95.12
414.035	104.12
414.258	101.12
414.482	76.12
414.705	93.12
414.928	100.12
415.151	101.12
415.374	114.12
415.597	93.12
415.821	85.12
416.044	95.12
416.267	87.12
416.49	94.12
416.713	100.12
416.936	80.12
417.159	90.12
417.382	83.12
417.605	100.12
417.828	101.12
418.051	87.12
418.274	111.12
418.497	102.12
418.72	100.12
418.943	106.12
419.166	97.12
419.389	93.12
419.611	100.12
419.834	89.12
420.057	111.12
420.28	94.12
420.503	85.12
420.726	110.12
420.948	122.12
421.171	87.12
421.394	111.12
421.617	105.12
421.839	107.12
422.062	92.12
422.285	102.12
422.507	91.12
422.73	104.12
422.953	105.12
423.175	103.12
423.398	99.12
423.621	102.12
423.843	90.12
424.066	95.12
424.288	100.12
424.511	117.12
424.733	88.12
424.956	109.12
425.178	111.12
425.401	108.12
425.623	97.12
425.846	102.12
426.068	90.12
426.291	99.12
426.513	89.12
426.735	104.12
426.958	85.12
427.18	97.12
427.402	102.12
427.625	91.12
427.847	94.12
428.069	100.12
428.292	116.12
428.514	96.12
428.736	91.12
428.958	104.12
429.181	98.12
429.403	86.12
429.625	102.12
429.847	93.12
430.069	93.12
430.292	95.12
430.514	93.12
430.736	99.12
430.958	93.12
431.18	90.12
431.402	89.12
431.624	99.12
431.846	81.12
432.068	85.12
432.29	81.12
432.512	102.12
432.734	86.12
432.956	82.12
433.178	95.12
433.4	95.12
433.622	97.12
433.844	99.12
434.066	99.12
434.287	84.12
434.509	80.12
434.731	84.12
434.953	107.12
435.175	109.12
435.397	91.12
435.618	99.12
435.84	96.12
436.062	92.12
436.284	99.12
436.505	102.12
436.727	88.12
436.949	101.12
437.17	116.12
437.392	95.12
437.614	97.12
437.835	87.12
438.057	85.12
438.278	99.12
438.5	84.12
438.721	104.12
438.943	126.12
439.165	103.12
439.386	97.12
439.608	121.12
439.829	95.12
440.05	116.12
440.272	94.12
440.493	106.12
440.715	102.12
440.936	91.12
441.158	100.12
441.379	108.12
441.6	111.12
441.822	102.12
442.043	109.12
442.264	92.12
442.486	100.12
442.707	114.12
442.928	110.12
443.149	99.12
443.371	106.12
443.592	98.12
443.813	112.12
444.034	109.12
444.255	101.12
444.476	96.12
444.698	103.12
444.919	98.12
445.14	236.12
445.361	153.12
445.582	94.12
445.803	100.12
446.024	99.12
446.245	120.12
446.466	107.12
446.687	108.12
446.908	110.12
447.129	111.12
447.35	103.12
447.571	95.12
447.792	96.12
448.013	103.12
448.234	102.12
448.455	95.12
448.675	114.12
448.896	107.12
449.117	104.12
449.338	103.12
449.559	105.12
449.779	92.12
450	105.12
450.221	88.12
450.442	118.12
450.662	94.12
450.883	99.12
451.104	97.12
451.324	107.12
451.545	94.12
451.766	99.12
451.986	100.12
452.207	94.12
452.428	96.12
452.648	99.12
452.869	101.12
453.089	88.12
453.31	84.12
453.53	90.12
453.751	97.12
453.971	89.12
454.192	100.12
454.412	94.12
454.633	89.12
454.853	85.12
455.073	101.12
455.294	108.12
455.514	97.12
455.734	91.12
455.955	92.12
456.175	94.12
456.395	99.12
456.616	110.12
456.836	95.12
457.056	95.12
457.276	100.12
457.497	101.12
457.717	98.12
457.937	86.12
458.157	84.12
458.377	88.12
458.598	98.12
458.818	68.12
459.038	90.12
459.258	85.12
459.478	84.12
459.698	92.12
459.918	99.12
460.138	92.12
460.358	93.12
460.578	98.12
460.798	98.12
461.018	91.12
461.238	85.12
461.458	89.12
461.678	96.12
461.898	89.12
462.118	94.12
462.338	99.12
462.558	92.12
462.777	84.12
462.997	102.12
463.217	86.12
463.437	80.12
463.657	89.12
463.876	80.12
464.096	96.12
464.316	95.12
464.536	100.12
464.755	91.12
464.975	100.12
465.195	90.12
465.414	84.12
465.634	94.12
465.854	99.12
466.073	100.12
466.293	110.12
466.512	95.12
466.732	101.12
466.951	98.12
467.171	106.12
467.391	94.12
467.61	86.12
467.829	101.12
468.049	107.12
468.268	100.12
468.488	98.12
468.707	104.12
468.927	85.12
469.146	104.12
469.365	108.12
469.585	90.12
469.804	95.12
470.023	115.12
470.243	100.12
470.462	107.12
470.681	111.12
470.901	96.12
471.12	93.12
471.339	94.12
471.558	92.12
471.777	96.12
471.997	101.12
472.216	98.12
472.435	97.12
472.654	99.12
472.873	99.12
473.092	86.12
473.311	93.12
473.53	109.12
473.749	101.12
473.968	95.12
474.187	92.12
474.406	97.12
474.625	116.12
474.844	106.12
475.063	94.12
475.282	99.12
475.501	108.12
475.72	101.12
475.939	83.12
476.158	111.12
476.377	103.12
476.596	90.12
476.814	86.12
477.033	86.12
477.252	97.12
477.471	103.12
477.69	95.12
477.908	95.12
478.127	100.12
478.346	92.12
478.564	87.12
478.783	91.12
479.002	93.12
479.22	100.12
479.439	105.12
479.658	103.12
479.876	93.12
480.095	83.12
480.313	86.12
480.532	96.12
480.751	82.12
480.969	85.12
481.188	93.12
481.406	91.12
481.624	98.12
481.843	79.12
482.061	92.12
482.28	88.12
482.498	114.12
482.717	98.12
482.935	115.12
483.153	94.12
483.372	98.12
483.59	103.12
483.808	90.12
484.027	98.12
484.245	94.12
484.463	103.12
484.681	107.12
484.9	103.12
485.118	105.12
485.336	104.12
485.554	94.12
485.772	95.12
485.99	85.12
486.209	103.12
486.427	93.12
486.645	88.12
486.863	106.12
487.081	98.12
487.299	105.12
487.517	106.12
487.735	103.12
487.953	114.12
488.171	112.12
488.389	110.12
488.607	110.12
488.825	90.12
489.043	86.12
489.261	99.12
489.479	92.12
489.696	109.12
489.914	99.12
490.132	109.12
490.35	110.12
490.568	123.12
490.786	115.12
491.003	102.12
491.221	99.12
491.439	126.12
491.657	116.12
491.874	121.12
492.092	122.12
492.31	132.12
492.527	130.12
492.745	107.12
492.963	111.12
493.18	130.12
493.398	110.12
493.615	116.12
493.833	124.12
494.05	115.12
494.268	126.12
494.485	118.12
494.703	107.12
494.92	111.12
495.138	101.12
495.355	104.12
495.573	105.12
495.79	91.12
496.008	113.12
496.225	109.12
496.442	121.12
496.66	118.12
496.877	115.12
497.094	108.12
497.312	102.12
497.529	85.12
497.746	107.12
497.963	100.12
498.181	101.12
498.398	86.12
498.615	86.12
498.832	88.12
499.049	98.12
499.267	98.12
499.484	120.12
499.701	91.12
499.918	101.12
500.135	99.12
500.352	111.12
500.569	112.12
500.786	99.12
501.003	90.12
501.22	108.12
501.437	96.12
501.654	102.12
501.871	106.12
502.088	96.12
502.305	90.12
502.522	86.12
502.739	103.12
502.956	100.12
503.172	107.12
503.389	89.12
503.606	91.12
503.823	100.12
504.04	103.12
504.256	95.12
504.473	102.12
504.69	94.12
504.907	101.12
505.123	105.12
505.34	92.12
505.557	93.12
505.773	93.12
505.99	106.12
506.207	98.12
506.423	102.12
506.64	95.12
506.856	101.12
507.073	97.12
507.289	96.12
507.506	97.12
507.722	96.12
507.939	100.12
508.155	96.12
508.372	103.12
508.588	87.12
508.805	90.12
509.021	96.12
509.238	94.12
509.454	98.12
509.67	78.12
509.887	96.12
510.103	90.12
510.319	86.12
510.536	90.12
510.752	87.12
510.968	85.12
511.184	88.12
511.401	88.12
511.617	88.12
511.833	79.12
512.049	90.12
512.265	88.12
512.481	90.12
512.698	85.12
512.914	82.12
513.13	90.12
513.346	79.12
513.562	97.12
513.778	77.12
513.994	95.12
514.21	92.12
514.426	91.12
514.642	80.12
514.858	87.12
515.074	90.12
515.29	85.12
515.506	91.12
515.721	89.12
515.937	78.12
