Data from Location4.07152019.Energy5.Lamp.07192019.3%Agarose_HRD10591_15-25-13-577.txt Node
Date: Fri Jul 19 15:25:13 EDT 2019
User: cochatt
Spectrometer: HR+D1059
Trigger mode: 1
Integration Time (sec): 1.000000E-1
Scans to average: 1
Electric dark correction enabled: true
Nonlinearity correction enabled: false
Boxcar width: 0
XAxis mode: Wavelengths
Number of Pixels in Spectrum: 2048
>>>>>Begin Spectral Data<<<<<
223.165	-13.5
223.4	-13.5
223.635	-13.5
223.869	-26.5
224.104	-27.5
224.338	-20.5
224.573	-13.5
224.808	-17.5
225.042	-0.5
225.277	-4.5
225.511	-11.5
225.746	10.5
225.98	0.5
226.215	4.5
226.449	19.5
226.683	19.5
226.918	31.5
227.152	49.5
227.387	37.5
227.621	32.5
227.856	56.5
228.09	37.5
228.324	36.5
228.559	53.5
228.793	48.5
229.027	59.5
229.262	68.5
229.496	62.5
229.73	60.5
229.964	63.5
230.199	74.5
230.433	63.5
230.667	73.5
230.901	70.5
231.136	69.5
231.37	74.5
231.604	82.5
231.838	74.5
232.072	91.5
232.306	85.5
232.541	78.5
232.775	87.5
233.009	82.5
233.243	82.5
233.477	82.5
233.711	81.5
233.945	80.5
234.179	75.5
234.413	87.5
234.647	89.5
234.881	71.5
235.115	80.5
235.349	70.5
235.583	74.5
235.817	80.5
236.051	84.5
236.285	72.5
236.519	70.5
236.753	90.5
236.987	81.5
237.221	76.5
237.455	83.5
237.689	80.5
237.922	71.5
238.156	76.5
238.39	79.5
238.624	75.5
238.858	80.5
239.091	66.5
239.325	69.5
239.559	64.5
239.793	77.5
240.027	76.5
240.26	70.5
240.494	76.5
240.728	80.5
240.961	80.5
241.195	75.5
241.429	73.5
241.662	83.5
241.896	75.5
242.13	76.5
242.363	79.5
242.597	80.5
242.83	79.5
243.064	73.5
243.298	69.5
243.531	81.5
243.765	85.5
243.998	80.5
244.232	89.5
244.465	71.5
244.699	78.5
244.932	74.5
245.166	81.5
245.399	70.5
245.633	77.5
245.866	88.5
246.099	69.5
246.333	76.5
246.566	79.5
246.8	84.5
247.033	66.5
247.266	70.5
247.5	62.5
247.733	84.5
247.966	87.5
248.2	77.5
248.433	80.5
248.666	87.5
248.899	88.5
249.133	87.5
249.366	77.5
249.599	86.5
249.832	74.5
250.066	79.5
250.299	83.5
250.532	88.5
250.765	83.5
250.998	72.5
251.231	82.5
251.465	87.5
251.698	70.5
251.931	76.5
252.164	73.5
252.397	80.5
252.63	97.5
252.863	86.5
253.096	79.5
253.329	95.5
253.562	74.5
253.795	77.5
254.028	90.5
254.261	89.5
254.494	104.5
254.727	82.5
254.96	74.5
255.193	68.5
255.426	77.5
255.659	85.5
255.892	84.5
256.124	80.5
256.357	78.5
256.59	84.5
256.823	80.5
257.056	67.5
257.289	92.5
257.521	83.5
257.754	79.5
257.987	88.5
258.22	87.5
258.452	80.5
258.685	82.5
258.918	80.5
259.151	71.5
259.383	88.5
259.616	79.5
259.849	87.5
260.081	81.5
260.314	87.5
260.547	75.5
260.779	85.5
261.012	76.5
261.244	75.5
261.477	75.5
261.71	86.5
261.942	88.5
262.175	74.5
262.407	78.5
262.64	79.5
262.872	73.5
263.105	62.5
263.337	95.5
263.57	84.5
263.802	90.5
264.035	77.5
264.267	95.5
264.499	75.5
264.732	62.5
264.964	78.5
265.197	81.5
265.429	89.5
265.661	91.5
265.894	86.5
266.126	98.5
266.358	82.5
266.591	89.5
266.823	79.5
267.055	80.5
267.287	104.5
267.52	83.5
267.752	74.5
267.984	93.5
268.216	74.5
268.448	79.5
268.681	87.5
268.913	76.5
269.145	97.5
269.377	89.5
269.609	87.5
269.841	70.5
270.073	81.5
270.306	73.5
270.538	75.5
270.77	90.5
271.002	72.5
271.234	91.5
271.466	82.5
271.698	76.5
271.93	87.5
272.162	105.5
272.394	77.5
272.626	78.5
272.858	71.5
273.09	85.5
273.322	87.5
273.553	75.5
273.785	71.5
274.017	76.5
274.249	79.5
274.481	85.5
274.713	71.5
274.945	98.5
275.176	89.5
275.408	90.5
275.64	84.5
275.872	86.5
276.104	88.5
276.335	85.5
276.567	73.5
276.799	85.5
277.031	75.5
277.262	90.5
277.494	71.5
277.726	81.5
277.957	80.5
278.189	78.5
278.421	89.5
278.652	86.5
278.884	92.5
279.115	71.5
279.347	87.5
279.579	95.5
279.81	81.5
280.042	83.5
280.273	93.5
280.505	74.5
280.736	95.5
280.968	75.5
281.199	76.5
281.431	83.5
281.662	92.5
281.894	84.5
282.125	82.5
282.356	78.5
282.588	74.5
282.819	87.5
283.051	92.5
283.282	79.5
283.513	92.5
283.745	86.5
283.976	84.5
284.207	85.5
284.439	98.5
284.67	84.5
284.901	70.5
285.132	78.5
285.364	78.5
285.595	83.5
285.826	66.5
286.057	84.5
286.288	79.5
286.52	82.5
286.751	82.5
286.982	85.5
287.213	79.5
287.444	83.5
287.675	76.5
287.906	87.5
288.138	88.5
288.369	69.5
288.6	90.5
288.831	77.5
289.062	98.5
289.293	105.5
289.524	76.5
289.755	94.5
289.986	86.5
290.217	73.5
290.448	76.5
290.679	78.5
290.91	81.5
291.141	75.5
291.371	89.5
291.602	92.5
291.833	81.5
292.064	74.5
292.295	70.5
292.526	75.5
292.757	79.5
292.987	81.5
293.218	90.5
293.449	85.5
293.68	92.5
293.91	95.5
294.141	83.5
294.372	82.5
294.603	81.5
294.833	89.5
295.064	96.5
295.295	86.5
295.525	88.5
295.756	88.5
295.987	80.5
296.217	87.5
296.448	88.5
296.679	93.5
296.909	95.5
297.14	85.5
297.37	82.5
297.601	78.5
297.831	101.5
298.062	90.5
298.292	76.5
298.523	84.5
298.753	83.5
298.984	96.5
299.214	90.5
299.445	105.5
299.675	91.5
299.905	97.5
300.136	79.5
300.366	76.5
300.597	73.5
300.827	84.5
301.057	80.5
301.288	92.5
301.518	84.5
301.748	93.5
301.979	80.5
302.209	87.5
302.439	88.5
302.669	87.5
302.9	98.5
303.13	79.5
303.36	84.5
303.59	96.5
303.82	82.5
304.051	76.5
304.281	82.5
304.511	84.5
304.741	94.5
304.971	88.5
305.201	90.5
305.431	88.5
305.661	96.5
305.891	78.5
306.121	93.5
306.352	91.5
306.582	70.5
306.812	86.5
307.042	65.5
307.272	91.5
307.502	82.5
307.731	72.5
307.961	98.5
308.191	80.5
308.421	93.5
308.651	101.5
308.881	77.5
309.111	93.5
309.341	85.5
309.571	90.5
309.8	89.5
310.03	80.5
310.26	94.5
310.49	85.5
310.72	96.5
310.949	74.5
311.179	83.5
311.409	82.5
311.639	69.5
311.868	79.5
312.098	88.5
312.328	80.5
312.557	91.5
312.787	80.5
313.017	84.5
313.246	67.5
313.476	90.5
313.706	99.5
313.935	86.5
314.165	79.5
314.394	96.5
314.624	72.5
314.853	80.5
315.083	83.5
315.312	82.5
315.542	85.5
315.771	98.5
316.001	77.5
316.23	94.5
316.46	62.5
316.689	79.5
316.919	87.5
317.148	90.5
317.377	93.5
317.607	77.5
317.836	89.5
318.065	79.5
318.295	99.5
318.524	92.5
318.753	93.5
318.983	82.5
319.212	88.5
319.441	94.5
319.67	71.5
319.9	81.5
320.129	78.5
320.358	79.5
320.587	77.5
320.816	73.5
321.046	82.5
321.275	84.5
321.504	86.5
321.733	96.5
321.962	79.5
322.191	96.5
322.42	86.5
322.649	84.5
322.878	77.5
323.108	96.5
323.337	96.5
323.566	90.5
323.795	90.5
324.024	87.5
324.253	75.5
324.482	77.5
324.71	93.5
324.939	86.5
325.168	78.5
325.397	79.5
325.626	88.5
325.855	64.5
326.084	89.5
326.313	89.5
326.542	89.5
326.77	87.5
326.999	78.5
327.228	86.5
327.457	89.5
327.686	85.5
327.914	92.5
328.143	81.5
328.372	80.5
328.6	80.5
328.829	79.5
329.058	84.5
329.287	71.5
329.515	76.5
329.744	85.5
329.972	85.5
330.201	83.5
330.43	63.5
330.658	77.5
330.887	79.5
331.115	79.5
331.344	79.5
331.572	86.5
331.801	92.5
332.03	89.5
332.258	94.5
332.486	85.5
332.715	90.5
332.943	88.5
333.172	94.5
333.4	85.5
333.629	79.5
333.857	87.5
334.085	94.5
334.314	89.5
334.542	75.5
334.771	81.5
334.999	76.5
335.227	76.5
335.455	76.5
335.684	89.5
335.912	74.5
336.14	77.5
336.369	81.5
336.597	83.5
336.825	91.5
337.053	81.5
337.281	80.5
337.51	97.5
337.738	91.5
337.966	86.5
338.194	92.5
338.422	72.5
338.65	90.5
338.878	80.5
339.106	87.5
339.334	80.5
339.562	80.5
339.79	77.5
340.018	91.5
340.246	98.5
340.474	76.5
340.702	86.5
340.93	101.5
341.158	83.5
341.386	94.5
341.614	101.5
341.842	85.5
342.07	87.5
342.298	79.5
342.526	75.5
342.754	89.5
342.981	99.5
343.209	81.5
343.437	83.5
343.665	71.5
343.893	89.5
344.12	86.5
344.348	74.5
344.576	90.5
344.804	87.5
345.031	60.5
345.259	77.5
345.487	87.5
345.714	79.5
345.942	85.5
346.17	78.5
346.397	82.5
346.625	83.5
346.853	76.5
347.08	84.5
347.308	85.5
347.535	82.5
347.763	82.5
347.99	83.5
348.218	79.5
348.445	74.5
348.673	78.5
348.9	67.5
349.128	75.5
349.355	81.5
349.583	94.5
349.81	96.5
350.037	88.5
350.265	70.5
350.492	73.5
350.72	89.5
350.947	78.5
351.174	91.5
351.402	83.5
351.629	70.5
351.856	67.5
352.083	78.5
352.311	76.5
352.538	77.5
352.765	84.5
352.992	90.5
353.22	76.5
353.447	83.5
353.674	83.5
353.901	88.5
354.128	96.5
354.355	69.5
354.583	88.5
354.81	84.5
355.037	77.5
355.264	77.5
355.491	82.5
355.718	85.5
355.945	72.5
356.172	74.5
356.399	71.5
356.626	79.5
356.853	69.5
357.08	87.5
357.307	76.5
357.534	82.5
357.761	97.5
357.988	93.5
358.215	80.5
358.441	74.5
358.668	76.5
358.895	83.5
359.122	90.5
359.349	78.5
359.576	91.5
359.802	74.5
360.029	72.5
360.256	82.5
360.483	96.5
360.709	91.5
360.936	83.5
361.163	87.5
361.39	76.5
361.616	75.5
361.843	81.5
362.07	82.5
362.296	83.5
362.523	95.5
362.749	81.5
362.976	79.5
363.203	75.5
363.429	79.5
363.656	88.5
363.882	77.5
364.109	79.5
364.335	89.5
364.562	84.5
364.788	79.5
365.015	78.5
365.241	75.5
365.468	90.5
365.694	82.5
365.92	65.5
366.147	89.5
366.373	79.5
366.599	76.5
366.826	74.5
367.052	88.5
367.278	72.5
367.505	82.5
367.731	88.5
367.957	88.5
368.184	91.5
368.41	85.5
368.636	77.5
368.862	80.5
369.089	77.5
369.315	89.5
369.541	86.5
369.767	85.5
369.993	92.5
370.219	91.5
370.445	87.5
370.672	94.5
370.898	85.5
371.124	85.5
371.35	81.5
371.576	94.5
371.802	89.5
372.028	86.5
372.254	81.5
372.48	89.5
372.706	90.5
372.932	88.5
373.158	93.5
373.384	88.5
373.61	87.5
373.835	81.5
374.061	72.5
374.287	84.5
374.513	88.5
374.739	74.5
374.965	90.5
375.191	86.5
375.416	80.5
375.642	78.5
375.868	91.5
376.094	86.5
376.319	95.5
376.545	85.5
376.771	74.5
376.997	91.5
377.222	63.5
377.448	86.5
377.674	83.5
377.899	86.5
378.125	77.5
378.35	84.5
378.576	91.5
378.802	82.5
379.027	70.5
379.253	79.5
379.478	84.5
379.704	83.5
379.929	93.5
380.155	74.5
380.38	98.5
380.606	94.5
380.831	90.5
381.057	79.5
381.282	90.5
381.507	86.5
381.733	85.5
381.958	75.5
382.184	76.5
382.409	71.5
382.634	91.5
382.86	90.5
383.085	90.5
383.31	73.5
383.535	84.5
383.761	68.5
383.986	92.5
384.211	100.5
384.436	84.5
384.662	85.5
384.887	68.5
385.112	70.5
385.337	86.5
385.562	92.5
385.787	76.5
386.013	101.5
386.238	89.5
386.463	98.5
386.688	87.5
386.913	65.5
387.138	84.5
387.363	76.5
387.588	83.5
387.813	83.5
388.038	95.5
388.263	88.5
388.488	80.5
388.713	84.5
388.938	84.5
389.163	65.5
389.387	83.5
389.612	90.5
389.837	93.5
390.062	90.5
390.287	88.5
390.512	84.5
390.736	82.5
390.961	86.5
391.186	90.5
391.411	74.5
391.636	73.5
391.86	68.5
392.085	83.5
392.31	81.5
392.534	88.5
392.759	91.5
392.984	84.5
393.208	87.5
393.433	90.5
393.658	90.5
393.882	73.5
394.107	86.5
394.331	97.5
394.556	74.5
394.78	88.5
395.005	92.5
395.229	79.5
395.454	83.5
395.678	77.5
395.903	74.5
396.127	88.5
396.352	82.5
396.576	93.5
396.801	97.5
397.025	73.5
397.249	79.5
397.474	84.5
397.698	90.5
397.922	94.5
398.147	86.5
398.371	93.5
398.595	84.5
398.82	80.5
399.044	99.5
399.268	90.5
399.492	89.5
399.717	77.5
399.941	88.5
400.165	85.5
400.389	99.5
400.613	102.5
400.837	95.5
401.062	86.5
401.286	84.5
401.51	90.5
401.734	105.5
401.958	93.5
402.182	93.5
402.406	83.5
402.63	95.5
402.854	98.5
403.078	90.5
403.302	103.5
403.526	93.5
403.75	90.5
403.974	87.5
404.198	100.5
404.422	97.5
404.645	87.5
404.869	73.5
405.093	86.5
405.317	77.5
405.541	87.5
405.765	94.5
405.988	86.5
406.212	91.5
406.436	86.5
406.66	97.5
406.883	86.5
407.107	92.5
407.331	73.5
407.555	84.5
407.778	77.5
408.002	95.5
408.226	100.5
408.449	91.5
408.673	86.5
408.896	94.5
409.12	95.5
409.344	89.5
409.567	86.5
409.791	93.5
410.014	105.5
410.238	102.5
410.461	91.5
410.685	83.5
410.908	91.5
411.132	102.5
411.355	92.5
411.578	97.5
411.802	90.5
412.025	82.5
412.249	81.5
412.472	98.5
412.695	82.5
412.919	91.5
413.142	87.5
413.365	82.5
413.589	80.5
413.812	94.5
414.035	81.5
414.258	75.5
414.482	82.5
414.705	82.5
414.928	86.5
415.151	88.5
415.374	85.5
415.597	91.5
415.821	81.5
416.044	84.5
416.267	76.5
416.49	91.5
416.713	89.5
416.936	81.5
417.159	84.5
417.382	99.5
417.605	100.5
417.828	91.5
418.051	93.5
418.274	75.5
418.497	95.5
418.72	92.5
418.943	102.5
419.166	107.5
419.389	86.5
419.611	104.5
419.834	100.5
420.057	84.5
420.28	95.5
420.503	102.5
420.726	102.5
420.948	92.5
421.171	89.5
421.394	90.5
421.617	102.5
421.839	82.5
422.062	83.5
422.285	100.5
422.507	86.5
422.73	82.5
422.953	89.5
423.175	95.5
423.398	89.5
423.621	94.5
423.843	101.5
424.066	90.5
424.288	99.5
424.511	88.5
424.733	89.5
424.956	82.5
425.178	87.5
425.401	98.5
425.623	87.5
425.846	83.5
426.068	88.5
426.291	96.5
426.513	81.5
426.735	92.5
426.958	86.5
427.18	89.5
427.402	92.5
427.625	91.5
427.847	91.5
428.069	99.5
428.292	87.5
428.514	93.5
428.736	91.5
428.958	88.5
429.181	98.5
429.403	103.5
429.625	89.5
429.847	95.5
430.069	84.5
430.292	86.5
430.514	77.5
430.736	94.5
430.958	101.5
431.18	73.5
431.402	90.5
431.624	91.5
431.846	77.5
432.068	79.5
432.29	81.5
432.512	72.5
432.734	92.5
432.956	97.5
433.178	91.5
433.4	96.5
433.622	89.5
433.844	91.5
434.066	91.5
434.287	82.5
434.509	83.5
434.731	93.5
434.953	92.5
435.175	97.5
435.397	99.5
435.618	84.5
435.84	83.5
436.062	88.5
436.284	98.5
436.505	76.5
436.727	90.5
436.949	87.5
437.17	90.5
437.392	79.5
437.614	97.5
437.835	69.5
438.057	69.5
438.278	87.5
438.5	94.5
438.721	100.5
438.943	91.5
439.165	91.5
439.386	82.5
439.608	100.5
439.829	89.5
440.05	86.5
440.272	88.5
440.493	93.5
440.715	88.5
440.936	100.5
441.158	103.5
441.379	103.5
441.6	104.5
441.822	98.5
442.043	86.5
442.264	104.5
442.486	108.5
442.707	91.5
442.928	94.5
443.149	98.5
443.371	87.5
443.592	92.5
443.813	107.5
444.034	101.5
444.255	94.5
444.476	79.5
444.698	92.5
444.919	91.5
445.14	231.5
445.361	150.5
445.582	101.5
445.803	104.5
446.024	90.5
446.245	83.5
446.466	96.5
446.687	96.5
446.908	95.5
447.129	99.5
447.35	98.5
447.571	102.5
447.792	85.5
448.013	87.5
448.234	102.5
448.455	83.5
448.675	107.5
448.896	83.5
449.117	95.5
449.338	102.5
449.559	82.5
449.779	107.5
450	89.5
450.221	92.5
450.442	92.5
450.662	103.5
450.883	95.5
451.104	74.5
451.324	96.5
451.545	92.5
451.766	90.5
451.986	88.5
452.207	99.5
452.428	106.5
452.648	102.5
452.869	93.5
453.089	84.5
453.31	69.5
453.53	85.5
453.751	95.5
453.971	80.5
454.192	86.5
454.412	87.5
454.633	93.5
454.853	84.5
455.073	91.5
455.294	87.5
455.514	100.5
455.734	88.5
455.955	87.5
456.175	82.5
456.395	77.5
456.616	96.5
456.836	86.5
457.056	73.5
457.276	96.5
457.497	85.5
457.717	80.5
457.937	83.5
458.157	79.5
458.377	86.5
458.598	89.5
458.818	78.5
459.038	88.5
459.258	81.5
459.478	77.5
459.698	92.5
459.918	82.5
460.138	99.5
460.358	94.5
460.578	79.5
460.798	90.5
461.018	87.5
461.238	94.5
461.458	88.5
461.678	87.5
461.898	76.5
462.118	80.5
462.338	85.5
462.558	94.5
462.777	73.5
462.997	74.5
463.217	95.5
463.437	95.5
463.657	97.5
463.876	98.5
464.096	98.5
464.316	91.5
464.536	94.5
464.755	95.5
464.975	89.5
465.195	99.5
465.414	90.5
465.634	88.5
465.854	81.5
466.073	91.5
466.293	101.5
466.512	99.5
466.732	79.5
466.951	92.5
467.171	89.5
467.391	85.5
467.61	116.5
467.829	100.5
468.049	95.5
468.268	94.5
468.488	89.5
468.707	94.5
468.927	90.5
469.146	91.5
469.365	95.5
469.585	97.5
469.804	91.5
470.023	99.5
470.243	98.5
470.462	103.5
470.681	86.5
470.901	98.5
471.12	84.5
471.339	103.5
471.558	98.5
471.777	100.5
471.997	97.5
472.216	88.5
472.435	98.5
472.654	82.5
472.873	100.5
473.092	95.5
473.311	97.5
473.53	81.5
473.749	88.5
473.968	103.5
474.187	84.5
474.406	90.5
474.625	98.5
474.844	90.5
475.063	88.5
475.282	86.5
475.501	82.5
475.72	95.5
475.939	101.5
476.158	92.5
476.377	95.5
476.596	101.5
476.814	103.5
477.033	106.5
477.252	89.5
477.471	71.5
477.69	86.5
477.908	84.5
478.127	104.5
478.346	77.5
478.564	97.5
478.783	101.5
479.002	107.5
479.22	106.5
479.439	100.5
479.658	102.5
479.876	92.5
480.095	97.5
480.313	86.5
480.532	91.5
480.751	98.5
480.969	86.5
481.188	82.5
481.406	92.5
481.624	70.5
481.843	95.5
482.061	74.5
482.28	85.5
482.498	81.5
482.717	89.5
482.935	87.5
483.153	90.5
483.372	96.5
483.59	90.5
483.808	92.5
484.027	96.5
484.245	85.5
484.463	88.5
484.681	107.5
484.9	93.5
485.118	106.5
485.336	102.5
485.554	87.5
485.772	75.5
485.99	85.5
486.209	79.5
486.427	86.5
486.645	88.5
486.863	97.5
487.081	119.5
487.299	93.5
487.517	106.5
487.735	117.5
487.953	110.5
488.171	114.5
488.389	117.5
488.607	87.5
488.825	101.5
489.043	106.5
489.261	107.5
489.479	93.5
489.696	97.5
489.914	106.5
490.132	114.5
490.35	106.5
490.568	110.5
490.786	105.5
491.003	103.5
491.221	101.5
491.439	116.5
491.657	98.5
491.874	105.5
492.092	124.5
492.31	115.5
492.527	122.5
492.745	130.5
492.963	124.5
493.18	115.5
493.398	120.5
493.615	96.5
493.833	106.5
494.05	106.5
494.268	97.5
494.485	95.5
494.703	116.5
494.92	114.5
495.138	110.5
495.355	114.5
495.573	119.5
495.79	96.5
496.008	108.5
496.225	108.5
496.442	115.5
496.66	107.5
496.877	102.5
497.094	120.5
497.312	105.5
497.529	103.5
497.746	103.5
497.963	100.5
498.181	98.5
498.398	87.5
498.615	99.5
498.832	83.5
499.049	98.5
499.267	104.5
499.484	94.5
499.701	96.5
499.918	104.5
500.135	100.5
500.352	105.5
500.569	92.5
500.786	110.5
501.003	92.5
501.22	109.5
501.437	98.5
501.654	86.5
501.871	104.5
502.088	92.5
502.305	92.5
502.522	98.5
502.739	96.5
502.956	96.5
503.172	100.5
503.389	100.5
503.606	85.5
503.823	93.5
504.04	97.5
504.256	97.5
504.473	98.5
504.69	87.5
504.907	107.5
505.123	95.5
505.34	99.5
505.557	87.5
505.773	104.5
505.99	95.5
506.207	101.5
506.423	94.5
506.64	94.5
506.856	102.5
507.073	85.5
507.289	68.5
507.506	101.5
507.722	86.5
507.939	84.5
508.155	92.5
508.372	96.5
508.588	84.5
508.805	104.5
509.021	90.5
509.238	90.5
509.454	91.5
509.67	78.5
509.887	78.5
510.103	91.5
510.319	83.5
510.536	89.5
510.752	73.5
510.968	78.5
511.184	82.5
511.401	89.5
511.617	86.5
511.833	87.5
512.049	80.5
512.265	91.5
512.481	80.5
512.698	93.5
512.914	86.5
513.13	88.5
513.346	79.5
513.562	83.5
513.778	96.5
513.994	84.5
514.21	82.5
514.426	88.5
514.642	88.5
514.858	83.5
515.074	82.5
515.29	85.5
515.506	96.5
515.721	95.5
515.937	105.5
516.153	82.5
516.369	86.5
516.585	82.5
516.801	83.5
517.016	103.5
517.232	90.5
517.448	105.5
517.664	84.5
517.879	93.5
518.095	107.5
518.311	92.5
518.527	83.5
518.742	89.5
518.958	99.5
519.173	90.5
519.389	82.5
519.605	99.5
519.82	102.5
520.036	93.5
520.251	93.5
520.467	82.5
520.682	75.5
520.898	74.5
521.113	75.5
521.329	76.5
521.544	75.5
521.76	83.5
521.975	96.5
522.19	79.5
522.406	92.5
522.621	85.5
522.836	84.5
523.052	93.5
523.267	87.5
523.482	82.5
523.698	85.5
523.913	98.5
524.128	88.5
524.343	91.5
524.559	98.5
524.774	105.5
524.989	96.5
525.204	106.5
525.419	80.5
525.634	80.5
525.849	92.5
526.064	99.5
526.28	93.5
526.495	71.5
526.71	79.5
526.925	92.5
527.14	89.5
527.355	85.5
527.57	84.5
527.785	83.5
527.999	85.5
528.214	83.5
528.429	82.5
528.644	95.5
528.859	97.5
529.074	103.5
529.289	106.5
529.503	104.5
529.718	103.5
529.933	86.5
530.148	102.5
530.363	90.5
530.577	96.5
530.792	96.5
531.007	75.5
531.221	87.5
531.436	91.5
531.651	82.5
531.865	82.5
532.08	84.5
532.295	81.5
532.509	80.5
532.724	78.5
532.938	89.5
533.153	93.5
533.367	83.5
533.582	93.5
533.796	94.5
534.011	95.5
534.225	94.5
534.44	89.5
534.654	91.5
534.868	90.5
535.083	83.5
535.297	90.5
535.511	86.5
535.726	93.5
535.94	95.5
536.154	93.5
536.369	81.5
536.583	82.5
536.797	99.5
537.011	78.5
537.225	79.5
537.44	91.5
537.654	102.5
