Data from Location4.07152019.Energy5.Lamp.07192019.3%Agarose_HRD10591_15-25-29-578.txt Node
Date: Fri Jul 19 15:25:29 EDT 2019
User: cochatt
Spectrometer: HR+D1059
Trigger mode: 1
Integration Time (sec): 1.000000E-1
Scans to average: 1
Electric dark correction enabled: true
Nonlinearity correction enabled: false
Boxcar width: 0
XAxis mode: Wavelengths
Number of Pixels in Spectrum: 2048
>>>>>Begin Spectral Data<<<<<
223.165	-5.69
223.4	-5.69
223.635	-5.69
223.869	-19.69
224.104	-12.69
224.338	-3.69
224.573	-20.69
224.808	-15.69
225.042	-1.69
225.277	-27.69
225.511	0.31
225.746	-0.69
225.98	10.31
226.215	11.31
226.449	20.31
226.683	23.31
226.918	11.31
227.152	31.31
227.387	20.31
227.621	42.31
227.856	66.31
228.09	42.31
228.324	49.31
228.559	63.31
228.793	57.31
229.027	54.31
229.262	56.31
229.496	55.31
229.73	81.31
229.964	67.31
230.199	77.31
230.433	77.31
230.667	73.31
230.901	73.31
231.136	76.31
231.37	75.31
231.604	79.31
231.838	89.31
232.072	77.31
232.306	89.31
232.541	88.31
232.775	80.31
233.009	85.31
233.243	83.31
233.477	75.31
233.711	87.31
233.945	82.31
234.179	70.31
234.413	71.31
234.647	79.31
234.881	80.31
235.115	80.31
235.349	88.31
235.583	88.31
235.817	81.31
236.051	66.31
236.285	63.31
236.519	80.31
236.753	64.31
236.987	87.31
237.221	77.31
237.455	80.31
237.689	62.31
237.922	76.31
238.156	66.31
238.39	64.31
238.624	76.31
238.858	59.31
239.091	77.31
239.325	95.31
239.559	73.31
239.793	71.31
240.027	84.31
240.26	66.31
240.494	68.31
240.728	90.31
240.961	64.31
241.195	83.31
241.429	79.31
241.662	68.31
241.896	82.31
242.13	68.31
242.363	79.31
242.597	63.31
242.83	81.31
243.064	71.31
243.298	67.31
243.531	73.31
243.765	71.31
243.998	68.31
244.232	83.31
244.465	82.31
244.699	74.31
244.932	91.31
245.166	79.31
245.399	61.31
245.633	75.31
245.866	78.31
246.099	76.31
246.333	78.31
246.566	72.31
246.8	72.31
247.033	69.31
247.266	80.31
247.5	69.31
247.733	76.31
247.966	81.31
248.2	70.31
248.433	83.31
248.666	83.31
248.899	89.31
249.133	90.31
249.366	87.31
249.599	81.31
249.832	78.31
250.066	87.31
250.299	91.31
250.532	63.31
250.765	79.31
250.998	89.31
251.231	87.31
251.465	76.31
251.698	75.31
251.931	68.31
252.164	74.31
252.397	56.31
252.63	93.31
252.863	84.31
253.096	73.31
253.329	83.31
253.562	87.31
253.795	73.31
254.028	98.31
254.261	76.31
254.494	69.31
254.727	80.31
254.96	73.31
255.193	84.31
255.426	76.31
255.659	83.31
255.892	83.31
256.124	73.31
256.357	62.31
256.59	77.31
256.823	87.31
257.056	83.31
257.289	80.31
257.521	86.31
257.754	84.31
257.987	83.31
258.22	92.31
258.452	71.31
258.685	83.31
258.918	84.31
259.151	68.31
259.383	81.31
259.616	79.31
259.849	84.31
260.081	87.31
260.314	78.31
260.547	72.31
260.779	81.31
261.012	70.31
261.244	82.31
261.477	71.31
261.71	79.31
261.942	83.31
262.175	80.31
262.407	90.31
262.64	71.31
262.872	81.31
263.105	71.31
263.337	75.31
263.57	81.31
263.802	74.31
264.035	67.31
264.267	88.31
264.499	76.31
264.732	88.31
264.964	78.31
265.197	80.31
265.429	82.31
265.661	68.31
265.894	82.31
266.126	91.31
266.358	74.31
266.591	86.31
266.823	77.31
267.055	80.31
267.287	89.31
267.52	74.31
267.752	96.31
267.984	68.31
268.216	81.31
268.448	75.31
268.681	88.31
268.913	77.31
269.145	85.31
269.377	91.31
269.609	63.31
269.841	76.31
270.073	89.31
270.306	88.31
270.538	87.31
270.77	85.31
271.002	85.31
271.234	75.31
271.466	80.31
271.698	74.31
271.93	80.31
272.162	87.31
272.394	92.31
272.626	93.31
272.858	77.31
273.09	81.31
273.322	80.31
273.553	86.31
273.785	93.31
274.017	77.31
274.249	71.31
274.481	81.31
274.713	99.31
274.945	97.31
275.176	75.31
275.408	81.31
275.64	77.31
275.872	82.31
276.104	67.31
276.335	68.31
276.567	87.31
276.799	90.31
277.031	86.31
277.262	84.31
277.494	88.31
277.726	74.31
277.957	71.31
278.189	78.31
278.421	79.31
278.652	94.31
278.884	87.31
279.115	79.31
279.347	74.31
279.579	74.31
279.81	87.31
280.042	89.31
280.273	84.31
280.505	70.31
280.736	96.31
280.968	82.31
281.199	84.31
281.431	83.31
281.662	82.31
281.894	74.31
282.125	78.31
282.356	75.31
282.588	70.31
282.819	86.31
283.051	80.31
283.282	93.31
283.513	88.31
283.745	86.31
283.976	89.31
284.207	88.31
284.439	71.31
284.67	87.31
284.901	88.31
285.132	83.31
285.364	97.31
285.595	100.31
285.826	89.31
286.057	75.31
286.288	88.31
286.52	95.31
286.751	83.31
286.982	81.31
287.213	83.31
287.444	70.31
287.675	87.31
287.906	79.31
288.138	82.31
288.369	86.31
288.6	83.31
288.831	73.31
289.062	88.31
289.293	89.31
289.524	80.31
289.755	78.31
289.986	85.31
290.217	72.31
290.448	81.31
290.679	77.31
290.91	83.31
291.141	73.31
291.371	79.31
291.602	100.31
291.833	87.31
292.064	93.31
292.295	98.31
292.526	85.31
292.757	86.31
292.987	94.31
293.218	80.31
293.449	91.31
293.68	73.31
293.91	89.31
294.141	78.31
294.372	86.31
294.603	82.31
294.833	85.31
295.064	92.31
295.295	84.31
295.525	94.31
295.756	81.31
295.987	87.31
296.217	81.31
296.448	83.31
296.679	73.31
296.909	90.31
297.14	80.31
297.37	83.31
297.601	90.31
297.831	88.31
298.062	84.31
298.292	84.31
298.523	75.31
298.753	73.31
298.984	65.31
299.214	91.31
299.445	100.31
299.675	83.31
299.905	90.31
300.136	90.31
300.366	79.31
300.597	70.31
300.827	77.31
301.057	83.31
301.288	72.31
301.518	71.31
301.748	81.31
301.979	75.31
302.209	77.31
302.439	80.31
302.669	82.31
302.9	90.31
303.13	82.31
303.36	94.31
303.59	83.31
303.82	98.31
304.051	105.31
304.281	77.31
304.511	86.31
304.741	80.31
304.971	83.31
305.201	82.31
305.431	92.31
305.661	76.31
305.891	76.31
306.121	90.31
306.352	69.31
306.582	70.31
306.812	83.31
307.042	79.31
307.272	96.31
307.502	74.31
307.731	77.31
307.961	87.31
308.191	93.31
308.421	88.31
308.651	89.31
308.881	101.31
309.111	70.31
309.341	85.31
309.571	90.31
309.8	94.31
310.03	84.31
310.26	81.31
310.49	88.31
310.72	82.31
310.949	85.31
311.179	88.31
311.409	99.31
311.639	71.31
311.868	90.31
312.098	86.31
312.328	96.31
312.557	98.31
312.787	76.31
313.017	82.31
313.246	94.31
313.476	69.31
313.706	79.31
313.935	86.31
314.165	81.31
314.394	86.31
314.624	85.31
314.853	95.31
315.083	71.31
315.312	80.31
315.542	88.31
315.771	79.31
316.001	82.31
316.23	97.31
316.46	95.31
316.689	82.31
316.919	85.31
317.148	86.31
317.377	94.31
317.607	88.31
317.836	78.31
318.065	94.31
318.295	90.31
318.524	83.31
318.753	94.31
318.983	76.31
319.212	76.31
319.441	84.31
319.67	73.31
319.9	76.31
320.129	88.31
320.358	93.31
320.587	87.31
320.816	91.31
321.046	99.31
321.275	95.31
321.504	83.31
321.733	98.31
321.962	86.31
322.191	81.31
322.42	94.31
322.649	108.31
322.878	86.31
323.108	78.31
323.337	90.31
323.566	87.31
323.795	81.31
324.024	79.31
324.253	86.31
324.482	98.31
324.71	81.31
324.939	79.31
325.168	94.31
325.397	75.31
325.626	78.31
325.855	84.31
326.084	74.31
326.313	82.31
326.542	80.31
326.77	93.31
326.999	91.31
327.228	86.31
327.457	98.31
327.686	93.31
327.914	88.31
328.143	90.31
328.372	85.31
328.6	86.31
328.829	82.31
329.058	84.31
329.287	93.31
329.515	83.31
329.744	92.31
329.972	88.31
330.201	89.31
330.43	71.31
330.658	91.31
330.887	82.31
331.115	96.31
331.344	87.31
331.572	96.31
331.801	91.31
332.03	75.31
332.258	88.31
332.486	68.31
332.715	66.31
332.943	96.31
333.172	89.31
333.4	82.31
333.629	83.31
333.857	91.31
334.085	89.31
334.314	88.31
334.542	93.31
334.771	86.31
334.999	89.31
335.227	85.31
335.455	88.31
335.684	70.31
335.912	86.31
336.14	75.31
336.369	70.31
336.597	84.31
336.825	85.31
337.053	83.31
337.281	83.31
337.51	90.31
337.738	88.31
337.966	73.31
338.194	78.31
338.422	85.31
338.65	87.31
338.878	74.31
339.106	88.31
339.334	76.31
339.562	86.31
339.79	74.31
340.018	87.31
340.246	82.31
340.474	80.31
340.702	91.31
340.93	78.31
341.158	70.31
341.386	80.31
341.614	76.31
341.842	79.31
342.07	81.31
342.298	87.31
342.526	75.31
342.754	82.31
342.981	89.31
343.209	90.31
343.437	93.31
343.665	99.31
343.893	83.31
344.12	94.31
344.348	94.31
344.576	76.31
344.804	73.31
345.031	79.31
345.259	83.31
345.487	86.31
345.714	74.31
345.942	88.31
346.17	110.31
346.397	80.31
346.625	82.31
346.853	90.31
347.08	76.31
347.308	94.31
347.535	74.31
347.763	83.31
347.99	86.31
348.218	87.31
348.445	84.31
348.673	79.31
348.9	94.31
349.128	84.31
349.355	88.31
349.583	78.31
349.81	80.31
350.037	95.31
350.265	95.31
350.492	88.31
350.72	84.31
350.947	85.31
351.174	90.31
351.402	92.31
351.629	91.31
351.856	94.31
352.083	74.31
352.311	84.31
352.538	82.31
352.765	86.31
352.992	81.31
353.22	90.31
353.447	84.31
353.674	83.31
353.901	93.31
354.128	84.31
354.355	73.31
354.583	89.31
354.81	69.31
355.037	85.31
355.264	78.31
355.491	76.31
355.718	89.31
355.945	77.31
356.172	96.31
356.399	84.31
356.626	100.31
356.853	79.31
357.08	88.31
357.307	86.31
357.534	92.31
357.761	93.31
357.988	84.31
358.215	81.31
358.441	87.31
358.668	78.31
358.895	83.31
359.122	99.31
359.349	86.31
359.576	81.31
359.802	77.31
360.029	75.31
360.256	100.31
360.483	93.31
360.709	88.31
360.936	84.31
361.163	68.31
361.39	84.31
361.616	81.31
361.843	76.31
362.07	88.31
362.296	75.31
362.523	81.31
362.749	85.31
362.976	76.31
363.203	78.31
363.429	78.31
363.656	77.31
363.882	75.31
364.109	94.31
364.335	97.31
364.562	99.31
364.788	89.31
365.015	86.31
365.241	84.31
365.468	71.31
365.694	76.31
365.92	74.31
366.147	79.31
366.373	85.31
366.599	63.31
366.826	83.31
367.052	66.31
367.278	93.31
367.505	76.31
367.731	79.31
367.957	78.31
368.184	79.31
368.41	88.31
368.636	84.31
368.862	95.31
369.089	90.31
369.315	84.31
369.541	83.31
369.767	81.31
369.993	62.31
370.219	81.31
370.445	76.31
370.672	84.31
370.898	94.31
371.124	90.31
371.35	77.31
371.576	81.31
371.802	83.31
372.028	76.31
372.254	91.31
372.48	72.31
372.706	79.31
372.932	85.31
373.158	84.31
373.384	95.31
373.61	84.31
373.835	81.31
374.061	80.31
374.287	87.31
374.513	82.31
374.739	86.31
374.965	96.31
375.191	88.31
375.416	81.31
375.642	82.31
375.868	78.31
376.094	86.31
376.319	74.31
376.545	84.31
376.771	82.31
376.997	87.31
377.222	79.31
377.448	89.31
377.674	90.31
377.899	87.31
378.125	68.31
378.35	87.31
378.576	78.31
378.802	80.31
379.027	96.31
379.253	93.31
379.478	85.31
379.704	66.31
379.929	83.31
380.155	74.31
380.38	96.31
380.606	88.31
380.831	77.31
381.057	87.31
381.282	87.31
381.507	85.31
381.733	89.31
381.958	98.31
382.184	81.31
382.409	91.31
382.634	99.31
382.86	88.31
383.085	83.31
383.31	75.31
383.535	91.31
383.761	88.31
383.986	88.31
384.211	96.31
384.436	98.31
384.662	91.31
384.887	91.31
385.112	83.31
385.337	87.31
385.562	83.31
385.787	79.31
386.013	88.31
386.238	97.31
386.463	84.31
386.688	88.31
386.913	90.31
387.138	86.31
387.363	82.31
387.588	79.31
387.813	82.31
388.038	73.31
388.263	79.31
388.488	74.31
388.713	99.31
388.938	86.31
389.163	99.31
389.387	98.31
389.612	97.31
389.837	82.31
390.062	78.31
390.287	80.31
390.512	84.31
390.736	71.31
390.961	92.31
391.186	84.31
391.411	95.31
391.636	96.31
391.86	80.31
392.085	85.31
392.31	92.31
392.534	96.31
392.759	84.31
392.984	70.31
393.208	94.31
393.433	88.31
393.658	82.31
393.882	84.31
394.107	74.31
394.331	94.31
394.556	78.31
394.78	85.31
395.005	95.31
395.229	72.31
395.454	90.31
395.678	94.31
395.903	94.31
396.127	89.31
396.352	91.31
396.576	103.31
396.801	100.31
397.025	69.31
397.249	84.31
397.474	91.31
397.698	97.31
397.922	88.31
398.147	102.31
398.371	79.31
398.595	99.31
398.82	88.31
399.044	82.31
399.268	87.31
399.492	87.31
399.717	89.31
399.941	88.31
400.165	88.31
400.389	92.31
400.613	87.31
400.837	86.31
401.062	75.31
401.286	91.31
401.51	74.31
401.734	85.31
401.958	80.31
402.182	86.31
402.406	75.31
402.63	85.31
402.854	73.31
403.078	89.31
403.302	77.31
403.526	77.31
403.75	109.31
403.974	92.31
404.198	95.31
404.422	69.31
404.645	93.31
404.869	95.31
405.093	87.31
405.317	88.31
405.541	94.31
405.765	88.31
405.988	77.31
406.212	79.31
406.436	103.31
406.66	88.31
406.883	92.31
407.107	100.31
407.331	91.31
407.555	89.31
407.778	94.31
408.002	84.31
408.226	88.31
408.449	83.31
408.673	86.31
408.896	92.31
409.12	87.31
409.344	90.31
409.567	91.31
409.791	92.31
410.014	91.31
410.238	80.31
410.461	103.31
410.685	85.31
410.908	91.31
411.132	87.31
411.355	82.31
411.578	99.31
411.802	82.31
412.025	94.31
412.249	87.31
412.472	97.31
412.695	102.31
412.919	82.31
413.142	84.31
413.365	92.31
413.589	83.31
413.812	67.31
414.035	87.31
414.258	105.31
414.482	96.31
414.705	103.31
414.928	90.31
415.151	92.31
415.374	99.31
415.597	97.31
415.821	84.31
416.044	90.31
416.267	91.31
416.49	98.31
416.713	85.31
416.936	88.31
417.159	79.31
417.382	95.31
417.605	99.31
417.828	80.31
418.051	88.31
418.274	106.31
418.497	101.31
418.72	87.31
418.943	93.31
419.166	89.31
419.389	89.31
419.611	81.31
419.834	95.31
420.057	95.31
420.28	87.31
420.503	86.31
420.726	102.31
420.948	88.31
421.171	106.31
421.394	96.31
421.617	94.31
421.839	90.31
422.062	92.31
422.285	89.31
422.507	93.31
422.73	88.31
422.953	97.31
423.175	89.31
423.398	102.31
423.621	92.31
423.843	102.31
424.066	98.31
424.288	89.31
424.511	91.31
424.733	91.31
424.956	95.31
425.178	107.31
425.401	104.31
425.623	89.31
425.846	91.31
426.068	93.31
426.291	81.31
426.513	84.31
426.735	86.31
426.958	100.31
427.18	104.31
427.402	84.31
427.625	95.31
427.847	94.31
428.069	89.31
428.292	82.31
428.514	92.31
428.736	113.31
428.958	94.31
429.181	96.31
429.403	96.31
429.625	94.31
429.847	85.31
430.069	93.31
430.292	88.31
430.514	94.31
430.736	88.31
430.958	75.31
431.18	82.31
431.402	91.31
431.624	96.31
431.846	88.31
432.068	97.31
432.29	96.31
432.512	88.31
432.734	86.31
432.956	88.31
433.178	87.31
433.4	81.31
433.622	73.31
433.844	97.31
434.066	94.31
434.287	66.31
434.509	75.31
434.731	82.31
434.953	78.31
435.175	106.31
435.397	91.31
435.618	89.31
435.84	72.31
436.062	95.31
436.284	95.31
436.505	91.31
436.727	91.31
436.949	92.31
437.17	82.31
437.392	106.31
437.614	83.31
437.835	90.31
438.057	87.31
438.278	87.31
438.5	88.31
438.721	84.31
438.943	81.31
439.165	91.31
439.386	93.31
439.608	101.31
439.829	119.31
440.05	113.31
440.272	98.31
440.493	90.31
440.715	89.31
440.936	99.31
441.158	90.31
441.379	104.31
441.6	95.31
441.822	103.31
442.043	105.31
442.264	99.31
442.486	87.31
442.707	90.31
442.928	92.31
443.149	103.31
443.371	99.31
443.592	101.31
443.813	96.31
444.034	100.31
444.255	82.31
444.476	86.31
444.698	94.31
444.919	106.31
445.14	225.31
445.361	174.31
445.582	113.31
445.803	94.31
446.024	84.31
446.245	110.31
446.466	101.31
446.687	111.31
446.908	99.31
447.129	104.31
447.35	104.31
447.571	94.31
447.792	101.31
448.013	104.31
448.234	98.31
448.455	89.31
448.675	102.31
448.896	105.31
449.117	94.31
449.338	85.31
449.559	73.31
449.779	84.31
450	76.31
450.221	98.31
450.442	93.31
450.662	95.31
450.883	99.31
451.104	95.31
451.324	103.31
451.545	90.31
451.766	86.31
451.986	99.31
452.207	92.31
452.428	99.31
452.648	101.31
452.869	95.31
453.089	91.31
453.31	89.31
453.53	88.31
453.751	85.31
453.971	82.31
454.192	82.31
454.412	87.31
454.633	75.31
454.853	83.31
455.073	107.31
455.294	94.31
455.514	101.31
455.734	88.31
455.955	88.31
456.175	94.31
456.395	89.31
456.616	80.31
456.836	79.31
457.056	87.31
457.276	88.31
457.497	77.31
457.717	92.31
457.937	76.31
458.157	84.31
458.377	80.31
458.598	71.31
458.818	80.31
459.038	77.31
459.258	88.31
459.478	82.31
459.698	79.31
459.918	81.31
460.138	92.31
460.358	82.31
460.578	102.31
460.798	84.31
461.018	78.31
461.238	101.31
461.458	86.31
461.678	91.31
461.898	80.31
462.118	82.31
462.338	79.31
462.558	98.31
462.777	87.31
462.997	83.31
463.217	86.31
463.437	88.31
463.657	88.31
463.876	96.31
464.096	84.31
464.316	81.31
464.536	92.31
464.755	94.31
464.975	84.31
465.195	91.31
465.414	96.31
465.634	95.31
465.854	89.31
466.073	84.31
466.293	78.31
466.512	89.31
466.732	85.31
466.951	95.31
467.171	94.31
467.391	98.31
467.61	85.31
467.829	102.31
468.049	100.31
468.268	93.31
468.488	94.31
468.707	104.31
468.927	87.31
469.146	88.31
469.365	97.31
469.585	104.31
469.804	104.31
470.023	91.31
470.243	100.31
470.462	103.31
470.681	105.31
470.901	105.31
471.12	86.31
471.339	78.31
471.558	90.31
471.777	110.31
471.997	98.31
472.216	93.31
472.435	85.31
472.654	101.31
472.873	85.31
473.092	83.31
473.311	100.31
473.53	112.31
473.749	103.31
473.968	91.31
474.187	97.31
474.406	95.31
474.625	83.31
474.844	92.31
475.063	93.31
475.282	91.31
475.501	92.31
475.72	87.31
475.939	97.31
476.158	85.31
476.377	89.31
476.596	99.31
476.814	99.31
477.033	104.31
477.252	85.31
477.471	81.31
477.69	98.31
477.908	98.31
478.127	107.31
478.346	99.31
478.564	90.31
478.783	90.31
479.002	85.31
479.22	106.31
479.439	101.31
479.658	96.31
479.876	77.31
480.095	87.31
480.313	84.31
480.532	80.31
480.751	88.31
480.969	77.31
481.188	83.31
481.406	88.31
481.624	84.31
481.843	84.31
482.061	90.31
482.28	82.31
482.498	84.31
482.717	88.31
482.935	102.31
483.153	94.31
483.372	92.31
483.59	98.31
483.808	98.31
484.027	103.31
484.245	97.31
484.463	105.31
484.681	110.31
484.9	97.31
485.118	93.31
485.336	116.31
485.554	87.31
485.772	103.31
485.99	100.31
486.209	74.31
486.427	78.31
486.645	92.31
486.863	94.31
487.081	94.31
487.299	97.31
487.517	93.31
487.735	106.31
487.953	94.31
488.171	111.31
488.389	114.31
488.607	87.31
488.825	97.31
489.043	90.31
489.261	84.31
489.479	102.31
489.696	106.31
489.914	97.31
490.132	95.31
490.35	107.31
490.568	105.31
490.786	121.31
491.003	97.31
491.221	115.31
491.439	97.31
491.657	116.31
491.874	126.31
492.092	118.31
492.31	131.31
492.527	128.31
492.745	116.31
492.963	127.31
493.18	114.31
493.398	122.31
493.615	99.31
493.833	104.31
494.05	104.31
494.268	103.31
494.485	114.31
494.703	100.31
494.92	102.31
495.138	117.31
495.355	107.31
495.573	115.31
495.79	102.31
496.008	113.31
496.225	111.31
496.442	109.31
496.66	104.31
496.877	103.31
497.094	101.31
497.312	98.31
497.529	110.31
497.746	90.31
497.963	90.31
498.181	91.31
498.398	86.31
498.615	110.31
498.832	88.31
499.049	88.31
499.267	97.31
499.484	81.31
499.701	88.31
499.918	87.31
500.135	95.31
500.352	96.31
500.569	95.31
500.786	98.31
501.003	107.31
501.22	86.31
501.437	101.31
501.654	103.31
501.871	99.31
502.088	93.31
502.305	90.31
502.522	89.31
502.739	95.31
502.956	94.31
503.172	94.31
503.389	89.31
503.606	82.31
503.823	86.31
504.04	87.31
504.256	103.31
504.473	95.31
504.69	93.31
504.907	94.31
505.123	107.31
505.34	92.31
505.557	83.31
505.773	95.31
505.99	110.31
506.207	92.31
506.423	95.31
506.64	103.31
506.856	86.31
507.073	100.31
507.289	100.31
507.506	84.31
507.722	83.31
507.939	72.31
508.155	84.31
508.372	96.31
508.588	88.31
508.805	93.31
509.021	79.31
509.238	77.31
509.454	73.31
509.67	83.31
509.887	80.31
510.103	77.31
510.319	71.31
510.536	85.31
510.752	78.31
510.968	87.31
511.184	75.31
511.401	88.31
511.617	82.31
511.833	91.31
512.049	80.31
512.265	79.31
512.481	83.31
512.698	74.31
512.914	85.31
513.13	88.31
513.346	94.31
513.562	86.31
513.778	82.31
513.994	96.31
514.21	95.31
514.426	91.31
514.642	77.31
514.858	81.31
515.074	93.31
515.29	94.31
515.506	88.31
515.721	83.31
515.937	104.31
516.153	86.31
516.369	89.31
516.585	80.31
516.801	73.31
517.016	94.31
517.232	70.31
517.448	77.31
517.664	84.31
