Data from Location4.07152019.Energy5.Lamp.07192019.3%Agarose_HRD10591_15-24-23-577.txt Node
Date: Fri Jul 19 15:24:23 EDT 2019
User: cochatt
Spectrometer: HR+D1059
Trigger mode: 1
Integration Time (sec): 1.000000E-1
Scans to average: 1
Electric dark correction enabled: true
Nonlinearity correction enabled: false
Boxcar width: 0
XAxis mode: Wavelengths
Number of Pixels in Spectrum: 2048
>>>>>Begin Spectral Data<<<<<
223.165	-16.81
223.4	-16.81
223.635	-16.81
223.869	-21.81
224.104	-14.81
224.338	1.19
224.573	-11.81
224.808	-11.81
225.042	-11.81
225.277	-8.81
225.511	-11.81
225.746	0.19
225.98	5.19
226.215	10.19
226.449	13.19
226.683	22.19
226.918	25.19
227.152	32.19
227.387	51.19
227.621	31.19
227.856	29.19
228.09	53.19
228.324	45.19
228.559	64.19
228.793	61.19
229.027	55.19
229.262	60.19
229.496	61.19
229.73	65.19
229.964	76.19
230.199	74.19
230.433	75.19
230.667	75.19
230.901	78.19
231.136	74.19
231.37	93.19
231.604	85.19
231.838	67.19
232.072	72.19
232.306	79.19
232.541	89.19
232.775	98.19
233.009	88.19
233.243	84.19
233.477	93.19
233.711	84.19
233.945	84.19
234.179	73.19
234.413	68.19
234.647	81.19
234.881	69.19
235.115	72.19
235.349	82.19
235.583	77.19
235.817	81.19
236.051	72.19
236.285	70.19
236.519	57.19
236.753	76.19
236.987	83.19
237.221	91.19
237.455	81.19
237.689	78.19
237.922	76.19
238.156	62.19
238.39	84.19
238.624	69.19
238.858	74.19
239.091	89.19
239.325	87.19
239.559	59.19
239.793	68.19
240.027	67.19
240.26	85.19
240.494	82.19
240.728	73.19
240.961	78.19
241.195	81.19
241.429	99.19
241.662	90.19
241.896	78.19
242.13	77.19
242.363	71.19
242.597	71.19
242.83	89.19
243.064	73.19
243.298	79.19
243.531	85.19
243.765	58.19
243.998	65.19
244.232	90.19
244.465	85.19
244.699	87.19
244.932	95.19
245.166	83.19
245.399	64.19
245.633	85.19
245.866	85.19
246.099	75.19
246.333	83.19
246.566	79.19
246.8	75.19
247.033	68.19
247.266	71.19
247.5	94.19
247.733	86.19
247.966	90.19
248.2	82.19
248.433	83.19
248.666	91.19
248.899	69.19
249.133	69.19
249.366	77.19
249.599	83.19
249.832	70.19
250.066	79.19
250.299	73.19
250.532	84.19
250.765	76.19
250.998	80.19
251.231	80.19
251.465	82.19
251.698	73.19
251.931	76.19
252.164	93.19
252.397	93.19
252.63	93.19
252.863	80.19
253.096	64.19
253.329	85.19
253.562	74.19
253.795	76.19
254.028	84.19
254.261	86.19
254.494	82.19
254.727	94.19
254.96	87.19
255.193	77.19
255.426	82.19
255.659	80.19
255.892	72.19
256.124	94.19
256.357	80.19
256.59	88.19
256.823	82.19
257.056	79.19
257.289	81.19
257.521	70.19
257.754	76.19
257.987	78.19
258.22	87.19
258.452	73.19
258.685	62.19
258.918	81.19
259.151	75.19
259.383	77.19
259.616	74.19
259.849	70.19
260.081	82.19
260.314	76.19
260.547	76.19
260.779	70.19
261.012	69.19
261.244	73.19
261.477	79.19
261.71	85.19
261.942	85.19
262.175	100.19
262.407	80.19
262.64	82.19
262.872	86.19
263.105	71.19
263.337	66.19
263.57	81.19
263.802	73.19
264.035	70.19
264.267	82.19
264.499	75.19
264.732	72.19
264.964	70.19
265.197	75.19
265.429	98.19
265.661	84.19
265.894	75.19
266.126	87.19
266.358	76.19
266.591	79.19
266.823	85.19
267.055	85.19
267.287	82.19
267.52	82.19
267.752	77.19
267.984	60.19
268.216	80.19
268.448	85.19
268.681	82.19
268.913	83.19
269.145	82.19
269.377	77.19
269.609	81.19
269.841	84.19
270.073	81.19
270.306	85.19
270.538	100.19
270.77	72.19
271.002	91.19
271.234	83.19
271.466	95.19
271.698	82.19
271.93	72.19
272.162	97.19
272.394	76.19
272.626	75.19
272.858	89.19
273.09	85.19
273.322	85.19
273.553	86.19
273.785	77.19
274.017	84.19
274.249	71.19
274.481	72.19
274.713	85.19
274.945	90.19
275.176	84.19
275.408	89.19
275.64	103.19
275.872	56.19
276.104	88.19
276.335	101.19
276.567	94.19
276.799	89.19
277.031	83.19
277.262	75.19
277.494	97.19
277.726	81.19
277.957	91.19
278.189	79.19
278.421	68.19
278.652	81.19
278.884	83.19
279.115	98.19
279.347	88.19
279.579	87.19
279.81	79.19
280.042	87.19
280.273	91.19
280.505	90.19
280.736	77.19
280.968	95.19
281.199	90.19
281.431	94.19
281.662	81.19
281.894	93.19
282.125	74.19
282.356	87.19
282.588	79.19
282.819	62.19
283.051	75.19
283.282	93.19
283.513	79.19
283.745	94.19
283.976	89.19
284.207	88.19
284.439	78.19
284.67	87.19
284.901	87.19
285.132	65.19
285.364	78.19
285.595	73.19
285.826	78.19
286.057	97.19
286.288	86.19
286.52	93.19
286.751	71.19
286.982	84.19
287.213	79.19
287.444	83.19
287.675	80.19
287.906	81.19
288.138	71.19
288.369	73.19
288.6	88.19
288.831	87.19
289.062	82.19
289.293	90.19
289.524	81.19
289.755	87.19
289.986	82.19
290.217	85.19
290.448	81.19
290.679	84.19
290.91	80.19
291.141	92.19
291.371	82.19
291.602	81.19
291.833	84.19
292.064	73.19
292.295	77.19
292.526	82.19
292.757	82.19
292.987	82.19
293.218	85.19
293.449	88.19
293.68	76.19
293.91	96.19
294.141	78.19
294.372	90.19
294.603	87.19
294.833	86.19
295.064	91.19
295.295	96.19
295.525	101.19
295.756	107.19
295.987	83.19
296.217	73.19
296.448	82.19
296.679	87.19
296.909	56.19
297.14	83.19
297.37	87.19
297.601	89.19
297.831	86.19
298.062	80.19
298.292	67.19
298.523	80.19
298.753	76.19
298.984	94.19
299.214	73.19
299.445	84.19
299.675	84.19
299.905	82.19
300.136	82.19
300.366	71.19
300.597	87.19
300.827	81.19
301.057	78.19
301.288	78.19
301.518	89.19
301.748	86.19
301.979	88.19
302.209	83.19
302.439	67.19
302.669	87.19
302.9	79.19
303.13	85.19
303.36	90.19
303.59	71.19
303.82	72.19
304.051	75.19
304.281	77.19
304.511	92.19
304.741	73.19
304.971	93.19
305.201	90.19
305.431	87.19
305.661	82.19
305.891	87.19
306.121	101.19
306.352	85.19
306.582	82.19
306.812	79.19
307.042	94.19
307.272	85.19
307.502	77.19
307.731	85.19
307.961	74.19
308.191	73.19
308.421	86.19
308.651	73.19
308.881	72.19
309.111	70.19
309.341	94.19
309.571	71.19
309.8	84.19
310.03	59.19
310.26	69.19
310.49	74.19
310.72	91.19
310.949	89.19
311.179	78.19
311.409	95.19
311.639	89.19
311.868	85.19
312.098	82.19
312.328	83.19
312.557	92.19
312.787	87.19
313.017	99.19
313.246	90.19
313.476	81.19
313.706	72.19
313.935	82.19
314.165	75.19
314.394	87.19
314.624	87.19
314.853	86.19
315.083	82.19
315.312	96.19
315.542	96.19
315.771	78.19
316.001	83.19
316.23	92.19
316.46	91.19
316.689	82.19
316.919	75.19
317.148	75.19
317.377	96.19
317.607	90.19
317.836	86.19
318.065	90.19
318.295	88.19
318.524	92.19
318.753	98.19
318.983	83.19
319.212	84.19
319.441	77.19
319.67	89.19
319.9	100.19
320.129	76.19
320.358	79.19
320.587	90.19
320.816	88.19
321.046	88.19
321.275	79.19
321.504	71.19
321.733	90.19
321.962	89.19
322.191	85.19
322.42	81.19
322.649	79.19
322.878	78.19
323.108	95.19
323.337	87.19
323.566	81.19
323.795	73.19
324.024	96.19
324.253	82.19
324.482	84.19
324.71	69.19
324.939	76.19
325.168	76.19
325.397	83.19
325.626	86.19
325.855	85.19
326.084	70.19
326.313	79.19
326.542	95.19
326.77	86.19
326.999	93.19
327.228	75.19
327.457	74.19
327.686	83.19
327.914	92.19
328.143	82.19
328.372	88.19
328.6	78.19
328.829	70.19
329.058	85.19
329.287	85.19
329.515	100.19
329.744	77.19
329.972	80.19
330.201	74.19
330.43	95.19
330.658	70.19
330.887	85.19
331.115	90.19
331.344	69.19
331.572	80.19
331.801	84.19
332.03	95.19
332.258	83.19
332.486	81.19
332.715	82.19
332.943	70.19
333.172	88.19
333.4	72.19
333.629	83.19
333.857	79.19
334.085	82.19
334.314	80.19
334.542	88.19
334.771	80.19
334.999	96.19
335.227	93.19
335.455	82.19
335.684	72.19
335.912	79.19
336.14	83.19
336.369	76.19
336.597	95.19
336.825	87.19
337.053	103.19
337.281	93.19
337.51	97.19
337.738	87.19
337.966	98.19
338.194	75.19
338.422	88.19
338.65	80.19
338.878	80.19
339.106	74.19
339.334	88.19
339.562	75.19
339.79	65.19
340.018	82.19
340.246	97.19
340.474	86.19
340.702	68.19
340.93	89.19
341.158	68.19
341.386	83.19
341.614	75.19
341.842	81.19
342.07	79.19
342.298	90.19
342.526	75.19
342.754	79.19
342.981	75.19
343.209	81.19
343.437	74.19
343.665	75.19
343.893	85.19
344.12	87.19
344.348	90.19
344.576	93.19
344.804	82.19
345.031	86.19
345.259	86.19
345.487	75.19
345.714	85.19
345.942	82.19
346.17	78.19
346.397	81.19
346.625	92.19
346.853	78.19
347.08	75.19
347.308	83.19
347.535	70.19
347.763	89.19
347.99	85.19
348.218	94.19
348.445	78.19
348.673	82.19
348.9	94.19
349.128	79.19
349.355	87.19
349.583	79.19
349.81	83.19
350.037	78.19
350.265	89.19
350.492	80.19
350.72	87.19
350.947	88.19
351.174	90.19
351.402	87.19
351.629	81.19
351.856	80.19
352.083	84.19
352.311	87.19
352.538	86.19
352.765	85.19
352.992	80.19
353.22	84.19
353.447	90.19
353.674	82.19
353.901	90.19
354.128	87.19
354.355	77.19
354.583	66.19
354.81	81.19
355.037	83.19
355.264	82.19
355.491	69.19
355.718	91.19
355.945	84.19
356.172	85.19
356.399	79.19
356.626	80.19
356.853	83.19
357.08	98.19
357.307	81.19
357.534	80.19
357.761	84.19
357.988	77.19
358.215	91.19
358.441	82.19
358.668	75.19
358.895	93.19
359.122	72.19
359.349	77.19
359.576	85.19
359.802	82.19
360.029	87.19
360.256	83.19
360.483	77.19
360.709	70.19
360.936	73.19
361.163	86.19
361.39	80.19
361.616	75.19
361.843	73.19
362.07	77.19
362.296	82.19
362.523	75.19
362.749	81.19
362.976	90.19
363.203	91.19
363.429	96.19
363.656	70.19
363.882	84.19
364.109	89.19
364.335	79.19
364.562	80.19
364.788	73.19
365.015	85.19
365.241	69.19
365.468	83.19
365.694	89.19
365.92	86.19
366.147	85.19
366.373	72.19
366.599	74.19
366.826	75.19
367.052	79.19
367.278	87.19
367.505	95.19
367.731	89.19
367.957	77.19
368.184	81.19
368.41	74.19
368.636	72.19
368.862	87.19
369.089	75.19
369.315	88.19
369.541	65.19
369.767	95.19
369.993	91.19
370.219	83.19
370.445	78.19
370.672	74.19
370.898	83.19
371.124	82.19
371.35	76.19
371.576	78.19
371.802	81.19
372.028	80.19
372.254	93.19
372.48	91.19
372.706	74.19
372.932	83.19
373.158	89.19
373.384	96.19
373.61	78.19
373.835	88.19
374.061	81.19
374.287	77.19
374.513	91.19
374.739	90.19
374.965	81.19
375.191	89.19
375.416	86.19
375.642	86.19
375.868	87.19
376.094	82.19
376.319	92.19
376.545	90.19
376.771	86.19
376.997	77.19
377.222	84.19
377.448	102.19
377.674	75.19
377.899	80.19
378.125	82.19
378.35	84.19
378.576	81.19
378.802	86.19
379.027	81.19
379.253	74.19
379.478	75.19
379.704	88.19
379.929	77.19
380.155	66.19
380.38	83.19
380.606	77.19
380.831	82.19
381.057	91.19
381.282	88.19
381.507	74.19
381.733	87.19
381.958	87.19
382.184	80.19
382.409	78.19
382.634	74.19
382.86	83.19
383.085	77.19
383.31	86.19
383.535	84.19
383.761	80.19
383.986	84.19
384.211	81.19
384.436	88.19
384.662	84.19
384.887	79.19
385.112	77.19
385.337	74.19
385.562	85.19
385.787	86.19
386.013	95.19
386.238	87.19
386.463	71.19
386.688	82.19
386.913	87.19
387.138	90.19
387.363	85.19
387.588	91.19
387.813	87.19
388.038	91.19
388.263	82.19
388.488	83.19
388.713	82.19
388.938	88.19
389.163	96.19
389.387	86.19
389.612	74.19
389.837	92.19
390.062	80.19
390.287	89.19
390.512	89.19
390.736	71.19
390.961	86.19
391.186	64.19
391.411	81.19
391.636	78.19
391.86	75.19
392.085	88.19
392.31	78.19
392.534	74.19
392.759	89.19
392.984	83.19
393.208	82.19
393.433	94.19
393.658	85.19
393.882	88.19
394.107	85.19
394.331	93.19
394.556	87.19
394.78	94.19
395.005	74.19
395.229	72.19
395.454	77.19
395.678	76.19
395.903	79.19
396.127	73.19
396.352	89.19
396.576	82.19
396.801	80.19
397.025	81.19
397.249	85.19
397.474	81.19
397.698	93.19
397.922	91.19
398.147	99.19
398.371	91.19
398.595	78.19
398.82	87.19
399.044	79.19
399.268	96.19
399.492	90.19
399.717	87.19
399.941	81.19
400.165	92.19
400.389	84.19
400.613	94.19
400.837	98.19
401.062	82.19
401.286	89.19
401.51	72.19
401.734	88.19
401.958	84.19
402.182	80.19
402.406	87.19
402.63	94.19
402.854	75.19
403.078	87.19
403.302	84.19
403.526	82.19
403.75	100.19
403.974	83.19
404.198	88.19
404.422	79.19
404.645	86.19
404.869	98.19
405.093	78.19
405.317	78.19
405.541	86.19
405.765	87.19
405.988	93.19
406.212	90.19
406.436	93.19
406.66	97.19
406.883	79.19
407.107	91.19
407.331	87.19
407.555	90.19
407.778	87.19
408.002	87.19
408.226	96.19
408.449	91.19
408.673	92.19
408.896	91.19
409.12	91.19
409.344	87.19
409.567	75.19
409.791	85.19
410.014	101.19
410.238	102.19
410.461	86.19
410.685	73.19
410.908	70.19
411.132	97.19
411.355	85.19
411.578	79.19
411.802	95.19
412.025	76.19
412.249	100.19
412.472	93.19
412.695	104.19
412.919	93.19
413.142	86.19
413.365	79.19
413.589	94.19
413.812	86.19
414.035	84.19
414.258	94.19
414.482	73.19
414.705	90.19
414.928	86.19
415.151	89.19
415.374	82.19
415.597	88.19
415.821	75.19
416.044	84.19
416.267	90.19
416.49	97.19
416.713	107.19
416.936	82.19
417.159	93.19
417.382	100.19
417.605	88.19
417.828	101.19
418.051	80.19
418.274	90.19
418.497	82.19
418.72	95.19
418.943	85.19
419.166	88.19
419.389	81.19
419.611	82.19
419.834	86.19
420.057	91.19
420.28	88.19
420.503	94.19
420.726	90.19
420.948	87.19
421.171	94.19
421.394	97.19
421.617	96.19
421.839	98.19
422.062	79.19
422.285	86.19
422.507	84.19
422.73	81.19
422.953	85.19
423.175	95.19
423.398	94.19
423.621	107.19
423.843	95.19
424.066	95.19
424.288	104.19
424.511	97.19
424.733	92.19
424.956	106.19
425.178	96.19
425.401	95.19
425.623	87.19
425.846	97.19
426.068	89.19
426.291	92.19
426.513	96.19
426.735	90.19
426.958	87.19
427.18	89.19
427.402	93.19
427.625	93.19
427.847	88.19
428.069	88.19
428.292	81.19
428.514	89.19
428.736	91.19
428.958	112.19
429.181	89.19
429.403	78.19
429.625	86.19
429.847	83.19
430.069	95.19
430.292	97.19
430.514	79.19
430.736	83.19
430.958	85.19
431.18	74.19
431.402	91.19
431.624	82.19
431.846	72.19
432.068	79.19
432.29	81.19
432.512	90.19
432.734	89.19
432.956	91.19
433.178	101.19
433.4	100.19
433.622	87.19
433.844	71.19
434.066	82.19
434.287	98.19
434.509	101.19
434.731	73.19
434.953	89.19
435.175	104.19
435.397	100.19
435.618	101.19
435.84	85.19
436.062	90.19
436.284	81.19
436.505	96.19
436.727	99.19
436.949	85.19
437.17	83.19
437.392	80.19
437.614	80.19
437.835	93.19
438.057	72.19
438.278	96.19
438.5	104.19
438.721	97.19
438.943	88.19
439.165	97.19
439.386	82.19
439.608	95.19
439.829	93.19
440.05	98.19
440.272	100.19
440.493	95.19
440.715	102.19
440.936	99.19
441.158	94.19
441.379	99.19
441.6	103.19
441.822	106.19
442.043	101.19
442.264	93.19
442.486	85.19
442.707	84.19
442.928	103.19
443.149	107.19
443.371	94.19
443.592	99.19
443.813	77.19
444.034	87.19
444.255	80.19
444.476	95.19
444.698	108.19
444.919	100.19
445.14	163.19
445.361	120.19
445.582	95.19
445.803	91.19
446.024	96.19
446.245	93.19
446.466	104.19
446.687	93.19
446.908	109.19
447.129	101.19
447.35	95.19
447.571	106.19
447.792	109.19
448.013	110.19
448.234	111.19
448.455	86.19
448.675	92.19
448.896	105.19
449.117	116.19
449.338	93.19
449.559	101.19
449.779	82.19
450	80.19
450.221	95.19
450.442	91.19
450.662	88.19
450.883	94.19
451.104	86.19
451.324	73.19
451.545	94.19
451.766	98.19
451.986	96.19
452.207	96.19
452.428	75.19
452.648	85.19
452.869	78.19
453.089	83.19
453.31	97.19
453.53	95.19
453.751	83.19
453.971	91.19
454.192	88.19
454.412	92.19
454.633	98.19
454.853	84.19
455.073	106.19
455.294	96.19
455.514	91.19
455.734	92.19
455.955	99.19
456.175	100.19
456.395	82.19
456.616	79.19
456.836	101.19
457.056	91.19
457.276	91.19
457.497	89.19
457.717	88.19
457.937	80.19
458.157	91.19
458.377	83.19
458.598	94.19
458.818	79.19
459.038	71.19
459.258	85.19
459.478	96.19
459.698	77.19
459.918	93.19
460.138	84.19
460.358	103.19
460.578	87.19
460.798	86.19
461.018	96.19
461.238	87.19
461.458	91.19
461.678	86.19
461.898	109.19
462.118	89.19
462.338	93.19
462.558	85.19
462.777	90.19
462.997	96.19
463.217	80.19
463.437	82.19
463.657	72.19
463.876	96.19
464.096	75.19
464.316	87.19
464.536	88.19
464.755	81.19
464.975	86.19
465.195	78.19
465.414	86.19
465.634	90.19
465.854	86.19
466.073	99.19
466.293	103.19
466.512	89.19
466.732	86.19
466.951	95.19
467.171	91.19
467.391	76.19
467.61	91.19
467.829	87.19
468.049	90.19
468.268	88.19
468.488	97.19
468.707	94.19
468.927	89.19
469.146	88.19
469.365	107.19
469.585	104.19
469.804	109.19
470.023	88.19
470.243	98.19
470.462	102.19
470.681	90.19
470.901	96.19
471.12	97.19
471.339	94.19
471.558	95.19
471.777	109.19
471.997	96.19
472.216	87.19
472.435	91.19
472.654	83.19
472.873	76.19
473.092	86.19
473.311	100.19
473.53	86.19
473.749	91.19
473.968	99.19
474.187	91.19
474.406	83.19
474.625	89.19
474.844	90.19
475.063	85.19
475.282	100.19
475.501	86.19
475.72	90.19
475.939	93.19
476.158	77.19
476.377	105.19
476.596	90.19
476.814	99.19
477.033	91.19
477.252	99.19
477.471	91.19
477.69	96.19
477.908	87.19
478.127	95.19
478.346	107.19
478.564	94.19
478.783	93.19
479.002	81.19
479.22	97.19
479.439	97.19
479.658	94.19
479.876	84.19
480.095	89.19
480.313	76.19
480.532	82.19
480.751	94.19
480.969	94.19
481.188	77.19
481.406	91.19
481.624	89.19
481.843	90.19
482.061	75.19
482.28	90.19
482.498	93.19
482.717	88.19
482.935	85.19
483.153	100.19
483.372	98.19
483.59	102.19
483.808	87.19
484.027	102.19
484.245	83.19
484.463	100.19
484.681	116.19
484.9	96.19
485.118	95.19
485.336	98.19
485.554	87.19
485.772	89.19
485.99	84.19
486.209	96.19
486.427	87.19
486.645	87.19
486.863	91.19
487.081	100.19
487.299	100.19
487.517	95.19
487.735	106.19
487.953	99.19
488.171	107.19
488.389	114.19
488.607	106.19
488.825	101.19
489.043	82.19
489.261	99.19
489.479	109.19
489.696	97.19
489.914	104.19
490.132	101.19
490.35	94.19
490.568	86.19
490.786	118.19
491.003	105.19
491.221	105.19
491.439	115.19
491.657	102.19
491.874	107.19
492.092	124.19
492.31	128.19
492.527	122.19
492.745	96.19
492.963	112.19
493.18	119.19
493.398	113.19
493.615	114.19
493.833	113.19
494.05	113.19
494.268	101.19
494.485	113.19
494.703	113.19
494.92	111.19
495.138	114.19
495.355	101.19
495.573	111.19
495.79	104.19
496.008	98.19
496.225	104.19
496.442	105.19
496.66	115.19
496.877	106.19
497.094	109.19
497.312	117.19
497.529	106.19
497.746	97.19
497.963	102.19
498.181	101.19
498.398	89.19
498.615	85.19
498.832	76.19
499.049	73.19
499.267	83.19
499.484	86.19
499.701	98.19
499.918	95.19
500.135	100.19
500.352	100.19
500.569	96.19
500.786	114.19
501.003	93.19
501.22	91.19
501.437	106.19
501.654	92.19
501.871	94.19
502.088	102.19
502.305	82.19
502.522	95.19
502.739	97.19
502.956	89.19
503.172	109.19
503.389	95.19
503.606	86.19
503.823	97.19
504.04	95.19
504.256	89.19
504.473	90.19
504.69	109.19
504.907	91.19
505.123	95.19
505.34	94.19
505.557	89.19
505.773	104.19
505.99	91.19
506.207	105.19
506.423	85.19
506.64	94.19
506.856	100.19
507.073	89.19
507.289	82.19
507.506	90.19
507.722	89.19
507.939	98.19
508.155	97.19
508.372	87.19
508.588	106.19
508.805	92.19
509.021	78.19
509.238	92.19
509.454	89.19
509.67	83.19
509.887	82.19
510.103	90.19
510.319	97.19
510.536	83.19
510.752	86.19
510.968	91.19
511.184	84.19
511.401	85.19
511.617	97.19
511.833	80.19
512.049	88.19
512.265	75.19
512.481	85.19
512.698	82.19
512.914	67.19
513.13	78.19
513.346	74.19
513.562	93.19
513.778	74.19
513.994	80.19
514.21	75.19
514.426	78.19
514.642	85.19
514.858	80.19
515.074	94.19
515.29	92.19
515.506	98.19
515.721	85.19
515.937	102.19
516.153	86.19
516.369	91.19
516.585	83.19
516.801	80.19
517.016	76.19
517.232	85.19
517.448	74.19
517.664	82.19
