Data from Location4.07152019.Energy5.Lamp.07192019.3%Agarose_HRD10591_15-25-57-578.txt Node
Date: Fri Jul 19 15:25:57 EDT 2019
User: cochatt
Spectrometer: HR+D1059
Trigger mode: 1
Integration Time (sec): 1.000000E-1
Scans to average: 1
Electric dark correction enabled: true
Nonlinearity correction enabled: false
Boxcar width: 0
XAxis mode: Wavelengths
Number of Pixels in Spectrum: 2048
>>>>>Begin Spectral Data<<<<<
223.165	-0.69
223.4	-0.69
223.635	-0.69
223.869	-23.69
224.104	-6.69
224.338	-16.69
224.573	-15.69
224.808	-21.69
225.042	-6.69
225.277	1.31
225.511	1.31
225.746	-13.69
225.98	6.31
226.215	14.31
226.449	16.31
226.683	18.31
226.918	23.31
227.152	24.31
227.387	42.31
227.621	40.31
227.856	32.31
228.09	39.31
228.324	52.31
228.559	46.31
228.793	45.31
229.027	65.31
229.262	55.31
229.496	64.31
229.73	80.31
229.964	70.31
230.199	70.31
230.433	78.31
230.667	80.31
230.901	89.31
231.136	64.31
231.37	65.31
231.604	76.31
231.838	81.31
232.072	82.31
232.306	56.31
232.541	94.31
232.775	77.31
233.009	81.31
233.243	89.31
233.477	78.31
233.711	89.31
233.945	71.31
234.179	89.31
234.413	86.31
234.647	88.31
234.881	85.31
235.115	74.31
235.349	67.31
235.583	69.31
235.817	84.31
236.051	80.31
236.285	71.31
236.519	95.31
236.753	80.31
236.987	101.31
237.221	81.31
237.455	73.31
237.689	82.31
237.922	87.31
238.156	76.31
238.39	75.31
238.624	70.31
238.858	83.31
239.091	64.31
239.325	68.31
239.559	78.31
239.793	91.31
240.027	74.31
240.26	82.31
240.494	83.31
240.728	85.31
240.961	69.31
241.195	82.31
241.429	81.31
241.662	75.31
241.896	88.31
242.13	78.31
242.363	68.31
242.597	73.31
242.83	74.31
243.064	78.31
243.298	84.31
243.531	70.31
243.765	72.31
243.998	74.31
244.232	86.31
244.465	73.31
244.699	77.31
244.932	70.31
245.166	85.31
245.399	66.31
245.633	79.31
245.866	73.31
246.099	82.31
246.333	77.31
246.566	87.31
246.8	70.31
247.033	77.31
247.266	85.31
247.5	75.31
247.733	88.31
247.966	74.31
248.2	79.31
248.433	90.31
248.666	71.31
248.899	79.31
249.133	86.31
249.366	79.31
249.599	93.31
249.832	90.31
250.066	90.31
250.299	73.31
250.532	71.31
250.765	79.31
250.998	71.31
251.231	80.31
251.465	75.31
251.698	76.31
251.931	91.31
252.164	60.31
252.397	85.31
252.63	78.31
252.863	75.31
253.096	66.31
253.329	72.31
253.562	76.31
253.795	73.31
254.028	89.31
254.261	91.31
254.494	88.31
254.727	86.31
254.96	71.31
255.193	59.31
255.426	79.31
255.659	93.31
255.892	74.31
256.124	70.31
256.357	67.31
256.59	78.31
256.823	68.31
257.056	86.31
257.289	67.31
257.521	63.31
257.754	75.31
257.987	81.31
258.22	87.31
258.452	77.31
258.685	78.31
258.918	72.31
259.151	74.31
259.383	79.31
259.616	75.31
259.849	88.31
260.081	58.31
260.314	73.31
260.547	73.31
260.779	74.31
261.012	67.31
261.244	71.31
261.477	71.31
261.71	63.31
261.942	66.31
262.175	82.31
262.407	87.31
262.64	74.31
262.872	82.31
263.105	69.31
263.337	85.31
263.57	102.31
263.802	82.31
264.035	74.31
264.267	78.31
264.499	81.31
264.732	81.31
264.964	78.31
265.197	96.31
265.429	83.31
265.661	79.31
265.894	98.31
266.126	81.31
266.358	75.31
266.591	82.31
266.823	82.31
267.055	77.31
267.287	86.31
267.52	79.31
267.752	82.31
267.984	80.31
268.216	88.31
268.448	85.31
268.681	89.31
268.913	75.31
269.145	86.31
269.377	83.31
269.609	79.31
269.841	80.31
270.073	82.31
270.306	95.31
270.538	86.31
270.77	85.31
271.002	75.31
271.234	97.31
271.466	79.31
271.698	73.31
271.93	84.31
272.162	87.31
272.394	86.31
272.626	77.31
272.858	84.31
273.09	68.31
273.322	68.31
273.553	68.31
273.785	92.31
274.017	83.31
274.249	90.31
274.481	79.31
274.713	81.31
274.945	80.31
275.176	76.31
275.408	79.31
275.64	78.31
275.872	76.31
276.104	89.31
276.335	87.31
276.567	80.31
276.799	69.31
277.031	89.31
277.262	82.31
277.494	95.31
277.726	70.31
277.957	90.31
278.189	80.31
278.421	95.31
278.652	83.31
278.884	79.31
279.115	88.31
279.347	87.31
279.579	92.31
279.81	91.31
280.042	73.31
280.273	69.31
280.505	81.31
280.736	77.31
280.968	82.31
281.199	89.31
281.431	95.31
281.662	76.31
281.894	82.31
282.125	95.31
282.356	86.31
282.588	89.31
282.819	82.31
283.051	83.31
283.282	77.31
283.513	81.31
283.745	73.31
283.976	95.31
284.207	90.31
284.439	85.31
284.67	85.31
284.901	81.31
285.132	92.31
285.364	73.31
285.595	76.31
285.826	72.31
286.057	90.31
286.288	74.31
286.52	74.31
286.751	79.31
286.982	82.31
287.213	94.31
287.444	79.31
287.675	85.31
287.906	89.31
288.138	85.31
288.369	87.31
288.6	79.31
288.831	72.31
289.062	91.31
289.293	69.31
289.524	94.31
289.755	83.31
289.986	92.31
290.217	83.31
290.448	76.31
290.679	94.31
290.91	91.31
291.141	72.31
291.371	79.31
291.602	90.31
291.833	74.31
292.064	81.31
292.295	84.31
292.526	86.31
292.757	87.31
292.987	75.31
293.218	81.31
293.449	84.31
293.68	87.31
293.91	63.31
294.141	85.31
294.372	99.31
294.603	92.31
294.833	89.31
295.064	81.31
295.295	75.31
295.525	87.31
295.756	86.31
295.987	84.31
296.217	78.31
296.448	86.31
296.679	76.31
296.909	84.31
297.14	73.31
297.37	76.31
297.601	89.31
297.831	90.31
298.062	74.31
298.292	97.31
298.523	74.31
298.753	75.31
298.984	71.31
299.214	85.31
299.445	82.31
299.675	89.31
299.905	92.31
300.136	75.31
300.366	83.31
300.597	98.31
300.827	87.31
301.057	91.31
301.288	81.31
301.518	78.31
301.748	83.31
301.979	90.31
302.209	97.31
302.439	90.31
302.669	82.31
302.9	88.31
303.13	76.31
303.36	69.31
303.59	76.31
303.82	87.31
304.051	94.31
304.281	80.31
304.511	83.31
304.741	90.31
304.971	88.31
305.201	93.31
305.431	92.31
305.661	70.31
305.891	86.31
306.121	97.31
306.352	81.31
306.582	70.31
306.812	88.31
307.042	91.31
307.272	85.31
307.502	99.31
307.731	90.31
307.961	75.31
308.191	74.31
308.421	83.31
308.651	83.31
308.881	90.31
309.111	86.31
309.341	75.31
309.571	87.31
309.8	79.31
310.03	87.31
310.26	80.31
310.49	64.31
310.72	78.31
310.949	80.31
311.179	91.31
311.409	91.31
311.639	85.31
311.868	71.31
312.098	85.31
312.328	89.31
312.557	92.31
312.787	84.31
313.017	83.31
313.246	80.31
313.476	90.31
313.706	93.31
313.935	80.31
314.165	85.31
314.394	79.31
314.624	89.31
314.853	81.31
315.083	76.31
315.312	77.31
315.542	81.31
315.771	89.31
316.001	85.31
316.23	81.31
316.46	90.31
316.689	75.31
316.919	92.31
317.148	84.31
317.377	89.31
317.607	79.31
317.836	78.31
318.065	97.31
318.295	90.31
318.524	70.31
318.753	85.31
318.983	100.31
319.212	82.31
319.441	75.31
319.67	93.31
319.9	89.31
320.129	80.31
320.358	83.31
320.587	82.31
320.816	86.31
321.046	75.31
321.275	79.31
321.504	64.31
321.733	85.31
321.962	79.31
322.191	96.31
322.42	89.31
322.649	77.31
322.878	73.31
323.108	98.31
323.337	80.31
323.566	76.31
323.795	78.31
324.024	75.31
324.253	69.31
324.482	77.31
324.71	100.31
324.939	87.31
325.168	81.31
325.397	68.31
325.626	81.31
325.855	86.31
326.084	83.31
326.313	82.31
326.542	84.31
326.77	81.31
326.999	86.31
327.228	86.31
327.457	87.31
327.686	91.31
327.914	95.31
328.143	86.31
328.372	79.31
328.6	75.31
328.829	80.31
329.058	81.31
329.287	85.31
329.515	74.31
329.744	86.31
329.972	83.31
330.201	85.31
330.43	88.31
330.658	84.31
330.887	69.31
331.115	76.31
331.344	95.31
331.572	79.31
331.801	81.31
332.03	87.31
332.258	86.31
332.486	84.31
332.715	71.31
332.943	59.31
333.172	86.31
333.4	85.31
333.629	80.31
333.857	83.31
334.085	80.31
334.314	93.31
334.542	98.31
334.771	81.31
334.999	73.31
335.227	80.31
335.455	93.31
335.684	91.31
335.912	83.31
336.14	82.31
336.369	77.31
336.597	86.31
336.825	77.31
337.053	70.31
337.281	80.31
337.51	82.31
337.738	79.31
337.966	88.31
338.194	80.31
338.422	79.31
338.65	73.31
338.878	83.31
339.106	75.31
339.334	80.31
339.562	91.31
339.79	86.31
340.018	78.31
340.246	70.31
340.474	85.31
340.702	85.31
340.93	78.31
341.158	94.31
341.386	81.31
341.614	93.31
341.842	86.31
342.07	72.31
342.298	95.31
342.526	86.31
342.754	72.31
342.981	81.31
343.209	91.31
343.437	77.31
343.665	71.31
343.893	74.31
344.12	80.31
344.348	77.31
344.576	76.31
344.804	84.31
345.031	98.31
345.259	75.31
345.487	80.31
345.714	79.31
345.942	85.31
346.17	75.31
346.397	90.31
346.625	94.31
346.853	79.31
347.08	79.31
347.308	80.31
347.535	73.31
347.763	88.31
347.99	84.31
348.218	84.31
348.445	74.31
348.673	73.31
348.9	80.31
349.128	71.31
349.355	94.31
349.583	74.31
349.81	96.31
350.037	74.31
350.265	80.31
350.492	85.31
350.72	87.31
350.947	98.31
351.174	77.31
351.402	83.31
351.629	82.31
351.856	72.31
352.083	88.31
352.311	81.31
352.538	87.31
352.765	86.31
352.992	83.31
353.22	89.31
353.447	93.31
353.674	87.31
353.901	90.31
354.128	78.31
354.355	71.31
354.583	85.31
354.81	101.31
355.037	90.31
355.264	83.31
355.491	78.31
355.718	86.31
355.945	87.31
356.172	83.31
356.399	78.31
356.626	76.31
356.853	75.31
357.08	85.31
357.307	76.31
357.534	81.31
357.761	70.31
357.988	81.31
358.215	65.31
358.441	76.31
358.668	90.31
358.895	71.31
359.122	74.31
359.349	79.31
359.576	72.31
359.802	81.31
360.029	81.31
360.256	90.31
360.483	75.31
360.709	82.31
360.936	90.31
361.163	85.31
361.39	76.31
361.616	72.31
361.843	91.31
362.07	85.31
362.296	70.31
362.523	87.31
362.749	88.31
362.976	83.31
363.203	87.31
363.429	81.31
363.656	83.31
363.882	93.31
364.109	86.31
364.335	83.31
364.562	84.31
364.788	83.31
365.015	84.31
365.241	85.31
365.468	90.31
365.694	76.31
365.92	86.31
366.147	86.31
366.373	84.31
366.599	75.31
366.826	83.31
367.052	90.31
367.278	86.31
367.505	88.31
367.731	97.31
367.957	83.31
368.184	81.31
368.41	86.31
368.636	95.31
368.862	83.31
369.089	78.31
369.315	79.31
369.541	95.31
369.767	96.31
369.993	81.31
370.219	74.31
370.445	99.31
370.672	79.31
370.898	67.31
371.124	77.31
371.35	77.31
371.576	85.31
371.802	81.31
372.028	86.31
372.254	87.31
372.48	84.31
372.706	75.31
372.932	82.31
373.158	82.31
373.384	64.31
373.61	81.31
373.835	81.31
374.061	89.31
374.287	87.31
374.513	86.31
374.739	76.31
374.965	90.31
375.191	97.31
375.416	79.31
375.642	79.31
375.868	80.31
376.094	76.31
376.319	72.31
376.545	71.31
376.771	71.31
376.997	76.31
377.222	73.31
377.448	85.31
377.674	82.31
377.899	80.31
378.125	76.31
378.35	74.31
378.576	65.31
378.802	77.31
379.027	82.31
379.253	80.31
379.478	95.31
379.704	81.31
379.929	86.31
380.155	77.31
380.38	75.31
380.606	78.31
380.831	84.31
381.057	82.31
381.282	88.31
381.507	97.31
381.733	86.31
381.958	92.31
382.184	88.31
382.409	72.31
382.634	90.31
382.86	78.31
383.085	85.31
383.31	80.31
383.535	87.31
383.761	65.31
383.986	87.31
384.211	79.31
384.436	86.31
384.662	77.31
384.887	86.31
385.112	87.31
385.337	82.31
385.562	74.31
385.787	89.31
386.013	88.31
386.238	85.31
386.463	79.31
386.688	82.31
386.913	77.31
387.138	76.31
387.363	82.31
387.588	93.31
387.813	81.31
388.038	77.31
388.263	92.31
388.488	90.31
388.713	100.31
388.938	86.31
389.163	78.31
389.387	65.31
389.612	71.31
389.837	91.31
390.062	89.31
390.287	90.31
390.512	74.31
390.736	83.31
390.961	82.31
391.186	73.31
391.411	87.31
391.636	97.31
391.86	88.31
392.085	96.31
392.31	88.31
392.534	79.31
392.759	87.31
392.984	87.31
393.208	84.31
393.433	88.31
393.658	75.31
393.882	79.31
394.107	74.31
394.331	75.31
394.556	88.31
394.78	103.31
395.005	96.31
395.229	76.31
395.454	96.31
395.678	70.31
395.903	67.31
396.127	86.31
396.352	81.31
396.576	106.31
396.801	87.31
397.025	90.31
397.249	86.31
397.474	92.31
397.698	103.31
397.922	71.31
398.147	81.31
398.371	82.31
398.595	85.31
398.82	94.31
399.044	107.31
399.268	81.31
399.492	84.31
399.717	93.31
399.941	82.31
400.165	91.31
400.389	80.31
400.613	78.31
400.837	88.31
401.062	90.31
401.286	93.31
401.51	85.31
401.734	86.31
401.958	86.31
402.182	72.31
402.406	87.31
402.63	86.31
402.854	86.31
403.078	91.31
403.302	78.31
403.526	84.31
403.75	88.31
403.974	86.31
404.198	89.31
404.422	87.31
404.645	84.31
404.869	99.31
405.093	77.31
405.317	98.31
405.541	87.31
405.765	90.31
405.988	81.31
406.212	93.31
406.436	81.31
406.66	88.31
406.883	87.31
407.107	100.31
407.331	91.31
407.555	83.31
407.778	86.31
408.002	86.31
408.226	93.31
408.449	78.31
408.673	92.31
408.896	88.31
409.12	96.31
409.344	81.31
409.567	88.31
409.791	93.31
410.014	101.31
410.238	90.31
410.461	97.31
410.685	77.31
410.908	78.31
411.132	92.31
411.355	79.31
411.578	87.31
411.802	82.31
412.025	74.31
412.249	96.31
412.472	86.31
412.695	93.31
412.919	99.31
413.142	87.31
413.365	90.31
413.589	94.31
413.812	90.31
414.035	89.31
414.258	96.31
414.482	89.31
414.705	83.31
414.928	84.31
415.151	86.31
415.374	86.31
415.597	80.31
415.821	85.31
416.044	91.31
416.267	89.31
416.49	98.31
416.713	87.31
416.936	94.31
417.159	93.31
417.382	83.31
417.605	89.31
417.828	95.31
418.051	88.31
418.274	94.31
418.497	90.31
418.72	96.31
418.943	88.31
419.166	86.31
419.389	89.31
419.611	88.31
419.834	88.31
420.057	100.31
420.28	98.31
420.503	94.31
420.726	101.31
420.948	95.31
421.171	101.31
421.394	95.31
421.617	91.31
421.839	93.31
422.062	93.31
422.285	79.31
422.507	77.31
422.73	83.31
422.953	88.31
423.175	90.31
423.398	95.31
423.621	93.31
423.843	100.31
424.066	86.31
424.288	93.31
424.511	98.31
424.733	89.31
424.956	89.31
425.178	81.31
425.401	105.31
425.623	98.31
425.846	101.31
426.068	84.31
426.291	98.31
426.513	88.31
426.735	96.31
426.958	89.31
427.18	100.31
427.402	107.31
427.625	92.31
427.847	87.31
428.069	75.31
428.292	85.31
428.514	99.31
428.736	89.31
428.958	93.31
429.181	77.31
429.403	88.31
429.625	95.31
429.847	95.31
430.069	82.31
430.292	88.31
430.514	81.31
430.736	94.31
430.958	82.31
431.18	82.31
431.402	88.31
431.624	81.31
431.846	80.31
432.068	89.31
432.29	77.31
432.512	79.31
432.734	94.31
432.956	93.31
433.178	91.31
433.4	89.31
433.622	105.31
433.844	75.31
434.066	96.31
434.287	78.31
434.509	78.31
434.731	78.31
434.953	84.31
435.175	93.31
435.397	94.31
435.618	103.31
435.84	94.31
436.062	103.31
436.284	86.31
436.505	104.31
436.727	104.31
436.949	82.31
437.17	90.31
437.392	80.31
437.614	81.31
437.835	79.31
438.057	85.31
438.278	82.31
438.5	90.31
438.721	100.31
438.943	87.31
439.165	92.31
439.386	80.31
439.608	106.31
439.829	106.31
440.05	96.31
440.272	98.31
440.493	89.31
440.715	93.31
440.936	97.31
441.158	90.31
441.379	96.31
441.6	86.31
441.822	97.31
442.043	89.31
442.264	97.31
442.486	95.31
442.707	92.31
442.928	90.31
443.149	98.31
443.371	97.31
443.592	86.31
443.813	91.31
444.034	106.31
444.255	95.31
444.476	86.31
444.698	85.31
444.919	80.31
445.14	222.31
445.361	165.31
445.582	106.31
445.803	98.31
446.024	93.31
446.245	98.31
446.466	84.31
446.687	92.31
446.908	103.31
447.129	96.31
447.35	104.31
447.571	91.31
447.792	97.31
448.013	103.31
448.234	104.31
448.455	94.31
448.675	107.31
448.896	102.31
449.117	111.31
449.338	104.31
449.559	93.31
449.779	91.31
450	86.31
450.221	94.31
450.442	85.31
450.662	87.31
450.883	97.31
451.104	105.31
451.324	87.31
451.545	79.31
451.766	81.31
451.986	87.31
452.207	86.31
452.428	97.31
452.648	111.31
452.869	78.31
453.089	74.31
453.31	94.31
453.53	83.31
453.751	92.31
453.971	79.31
454.192	88.31
454.412	86.31
454.633	90.31
454.853	90.31
455.073	90.31
455.294	86.31
455.514	96.31
455.734	93.31
455.955	82.31
456.175	74.31
456.395	80.31
456.616	101.31
456.836	98.31
457.056	106.31
457.276	85.31
457.497	89.31
457.717	86.31
457.937	83.31
458.157	92.31
458.377	89.31
458.598	88.31
458.818	104.31
459.038	91.31
459.258	94.31
459.478	90.31
459.698	85.31
459.918	92.31
460.138	87.31
460.358	88.31
460.578	78.31
460.798	75.31
461.018	94.31
461.238	88.31
461.458	91.31
461.678	96.31
461.898	94.31
462.118	93.31
462.338	86.31
462.558	80.31
462.777	87.31
462.997	94.31
463.217	96.31
463.437	90.31
463.657	79.31
463.876	96.31
464.096	95.31
464.316	84.31
464.536	94.31
464.755	90.31
464.975	106.31
465.195	113.31
465.414	85.31
465.634	93.31
465.854	86.31
466.073	83.31
466.293	95.31
466.512	97.31
466.732	93.31
466.951	91.31
467.171	92.31
467.391	86.31
467.61	96.31
467.829	101.31
468.049	94.31
468.268	90.31
468.488	107.31
468.707	103.31
468.927	94.31
469.146	97.31
469.365	95.31
469.585	99.31
469.804	90.31
470.023	97.31
470.243	97.31
470.462	93.31
470.681	107.31
470.901	94.31
471.12	114.31
471.339	103.31
471.558	100.31
471.777	91.31
471.997	90.31
472.216	95.31
472.435	97.31
472.654	87.31
472.873	80.31
473.092	85.31
473.311	89.31
473.53	96.31
473.749	86.31
473.968	119.31
474.187	91.31
474.406	90.31
474.625	102.31
474.844	97.31
475.063	81.31
475.282	99.31
475.501	100.31
475.72	97.31
475.939	104.31
476.158	104.31
476.377	90.31
476.596	85.31
476.814	78.31
477.033	101.31
477.252	97.31
477.471	103.31
477.69	87.31
477.908	95.31
478.127	105.31
478.346	99.31
478.564	95.31
478.783	97.31
479.002	93.31
479.22	84.31
479.439	101.31
479.658	102.31
479.876	89.31
480.095	84.31
480.313	93.31
480.532	88.31
480.751	101.31
480.969	80.31
481.188	81.31
481.406	86.31
481.624	97.31
481.843	89.31
482.061	98.31
482.28	104.31
482.498	86.31
482.717	91.31
482.935	93.31
483.153	87.31
483.372	90.31
483.59	94.31
483.808	108.31
484.027	87.31
484.245	100.31
484.463	100.31
484.681	115.31
484.9	93.31
485.118	75.31
485.336	73.31
485.554	92.31
485.772	91.31
485.99	97.31
486.209	80.31
486.427	104.31
486.645	91.31
486.863	98.31
487.081	107.31
487.299	98.31
487.517	103.31
487.735	104.31
487.953	107.31
488.171	118.31
488.389	106.31
488.607	100.31
488.825	106.31
489.043	98.31
489.261	81.31
489.479	100.31
489.696	114.31
489.914	88.31
490.132	96.31
490.35	100.31
490.568	101.31
490.786	98.31
491.003	104.31
491.221	109.31
491.439	103.31
491.657	113.31
491.874	119.31
492.092	115.31
492.31	128.31
492.527	126.31
492.745	122.31
492.963	127.31
493.18	112.31
493.398	116.31
493.615	106.31
493.833	106.31
494.05	99.31
494.268	104.31
494.485	100.31
494.703	118.31
494.92	121.31
495.138	100.31
495.355	107.31
495.573	121.31
495.79	103.31
496.008	100.31
496.225	104.31
496.442	94.31
496.66	116.31
496.877	111.31
497.094	106.31
497.312	106.31
497.529	109.31
497.746	93.31
497.963	98.31
498.181	87.31
498.398	94.31
498.615	98.31
498.832	99.31
499.049	91.31
499.267	89.31
499.484	91.31
499.701	93.31
499.918	98.31
500.135	105.31
500.352	109.31
500.569	102.31
500.786	90.31
501.003	101.31
501.22	87.31
501.437	96.31
501.654	99.31
501.871	98.31
502.088	100.31
502.305	114.31
502.522	93.31
502.739	100.31
502.956	89.31
503.172	85.31
503.389	103.31
503.606	94.31
503.823	85.31
504.04	91.31
504.256	99.31
504.473	85.31
504.69	81.31
504.907	109.31
505.123	89.31
505.34	100.31
505.557	95.31
505.773	89.31
505.99	98.31
506.207	80.31
506.423	100.31
506.64	93.31
506.856	96.31
507.073	87.31
507.289	89.31
507.506	85.31
507.722	94.31
507.939	95.31
508.155	86.31
508.372	86.31
508.588	92.31
508.805	93.31
509.021	82.31
509.238	96.31
509.454	86.31
509.67	100.31
509.887	100.31
510.103	73.31
510.319	89.31
510.536	84.31
510.752	89.31
510.968	67.31
511.184	64.31
511.401	86.31
511.617	94.31
511.833	85.31
512.049	85.31
512.265	94.31
512.481	71.31
512.698	93.31
512.914	76.31
513.13	93.31
513.346	83.31
513.562	82.31
513.778	90.31
513.994	82.31
514.21	83.31
514.426	86.31
514.642	97.31
514.858	94.31
515.074	86.31
515.29	74.31
515.506	93.31
515.721	85.31
515.937	65.31
516.153	97.31
516.369	89.31
516.585	92.31
516.801	87.31
517.016	90.31
517.232	78.31
517.448	72.31
517.664	79.31
517.879	92.31
