Data from Location4.07152019.Energy5.Lamp.07192019.3%Agarose_HRD10591_15-25-07-577.txt Node
Date: Fri Jul 19 15:25:07 EDT 2019
User: cochatt
Spectrometer: HR+D1059
Trigger mode: 1
Integration Time (sec): 1.000000E-1
Scans to average: 1
Electric dark correction enabled: true
Nonlinearity correction enabled: false
Boxcar width: 0
XAxis mode: Wavelengths
Number of Pixels in Spectrum: 2048
>>>>>Begin Spectral Data<<<<<
223.165	-5.56
223.4	-5.56
223.635	-5.56
223.869	-28.56
224.104	-3.56
224.338	-23.56
224.573	-13.56
224.808	-3.56
225.042	6.44
225.277	3.44
225.511	-12.56
225.746	-5.56
225.98	-7.56
226.215	6.44
226.449	14.44
226.683	23.44
226.918	19.44
227.152	30.44
227.387	21.44
227.621	32.44
227.856	44.44
228.09	38.44
228.324	38.44
228.559	40.44
228.793	50.44
229.027	68.44
229.262	71.44
229.496	62.44
229.73	68.44
229.964	63.44
230.199	65.44
230.433	79.44
230.667	84.44
230.901	77.44
231.136	80.44
231.37	68.44
231.604	79.44
231.838	93.44
232.072	82.44
232.306	73.44
232.541	80.44
232.775	70.44
233.009	79.44
233.243	75.44
233.477	83.44
233.711	85.44
233.945	87.44
234.179	85.44
234.413	88.44
234.647	84.44
234.881	73.44
235.115	85.44
235.349	71.44
235.583	69.44
235.817	77.44
236.051	82.44
236.285	73.44
236.519	80.44
236.753	74.44
236.987	77.44
237.221	60.44
237.455	64.44
237.689	61.44
237.922	80.44
238.156	89.44
238.39	66.44
238.624	60.44
238.858	82.44
239.091	64.44
239.325	57.44
239.559	72.44
239.793	82.44
240.027	77.44
240.26	80.44
240.494	68.44
240.728	66.44
240.961	78.44
241.195	82.44
241.429	78.44
241.662	86.44
241.896	66.44
242.13	68.44
242.363	70.44
242.597	72.44
242.83	80.44
243.064	68.44
243.298	84.44
243.531	81.44
243.765	82.44
243.998	84.44
244.232	75.44
244.465	76.44
244.699	84.44
244.932	76.44
245.166	61.44
245.399	75.44
245.633	79.44
245.866	84.44
246.099	68.44
246.333	65.44
246.566	70.44
246.8	79.44
247.033	78.44
247.266	76.44
247.5	66.44
247.733	89.44
247.966	92.44
248.2	80.44
248.433	73.44
248.666	97.44
248.899	74.44
249.133	72.44
249.366	77.44
249.599	69.44
249.832	73.44
250.066	81.44
250.299	70.44
250.532	82.44
250.765	73.44
250.998	80.44
251.231	76.44
251.465	84.44
251.698	66.44
251.931	75.44
252.164	68.44
252.397	76.44
252.63	93.44
252.863	72.44
253.096	69.44
253.329	64.44
253.562	71.44
253.795	66.44
254.028	67.44
254.261	70.44
254.494	75.44
254.727	73.44
254.96	57.44
255.193	81.44
255.426	78.44
255.659	69.44
255.892	81.44
256.124	77.44
256.357	81.44
256.59	73.44
256.823	80.44
257.056	94.44
257.289	69.44
257.521	91.44
257.754	89.44
257.987	74.44
258.22	86.44
258.452	69.44
258.685	95.44
258.918	74.44
259.151	62.44
259.383	71.44
259.616	83.44
259.849	73.44
260.081	78.44
260.314	80.44
260.547	68.44
260.779	74.44
261.012	79.44
261.244	80.44
261.477	75.44
261.71	87.44
261.942	81.44
262.175	70.44
262.407	76.44
262.64	73.44
262.872	94.44
263.105	81.44
263.337	77.44
263.57	67.44
263.802	79.44
264.035	80.44
264.267	92.44
264.499	77.44
264.732	76.44
264.964	83.44
265.197	73.44
265.429	79.44
265.661	79.44
265.894	69.44
266.126	85.44
266.358	93.44
266.591	80.44
266.823	80.44
267.055	86.44
267.287	84.44
267.52	83.44
267.752	82.44
267.984	82.44
268.216	85.44
268.448	83.44
268.681	70.44
268.913	84.44
269.145	84.44
269.377	75.44
269.609	82.44
269.841	81.44
270.073	77.44
270.306	74.44
270.538	93.44
270.77	83.44
271.002	70.44
271.234	81.44
271.466	89.44
271.698	77.44
271.93	68.44
272.162	80.44
272.394	99.44
272.626	81.44
272.858	85.44
273.09	90.44
273.322	80.44
273.553	61.44
273.785	78.44
274.017	73.44
274.249	74.44
274.481	77.44
274.713	78.44
274.945	71.44
275.176	71.44
275.408	81.44
275.64	76.44
275.872	90.44
276.104	86.44
276.335	92.44
276.567	71.44
276.799	69.44
277.031	69.44
277.262	95.44
277.494	90.44
277.726	90.44
277.957	85.44
278.189	81.44
278.421	89.44
278.652	82.44
278.884	78.44
279.115	72.44
279.347	78.44
279.579	78.44
279.81	83.44
280.042	89.44
280.273	74.44
280.505	73.44
280.736	84.44
280.968	79.44
281.199	78.44
281.431	90.44
281.662	78.44
281.894	82.44
282.125	82.44
282.356	84.44
282.588	78.44
282.819	83.44
283.051	94.44
283.282	79.44
283.513	80.44
283.745	73.44
283.976	65.44
284.207	89.44
284.439	71.44
284.67	77.44
284.901	80.44
285.132	93.44
285.364	78.44
285.595	76.44
285.826	66.44
286.057	87.44
286.288	80.44
286.52	92.44
286.751	81.44
286.982	80.44
287.213	82.44
287.444	89.44
287.675	83.44
287.906	89.44
288.138	83.44
288.369	60.44
288.6	77.44
288.831	79.44
289.062	72.44
289.293	86.44
289.524	66.44
289.755	65.44
289.986	81.44
290.217	81.44
290.448	78.44
290.679	70.44
290.91	88.44
291.141	87.44
291.371	83.44
291.602	88.44
291.833	73.44
292.064	73.44
292.295	76.44
292.526	81.44
292.757	76.44
292.987	87.44
293.218	83.44
293.449	81.44
293.68	85.44
293.91	76.44
294.141	80.44
294.372	89.44
294.603	81.44
294.833	82.44
295.064	87.44
295.295	91.44
295.525	78.44
295.756	93.44
295.987	92.44
296.217	82.44
296.448	85.44
296.679	85.44
296.909	85.44
297.14	77.44
297.37	74.44
297.601	88.44
297.831	77.44
298.062	89.44
298.292	89.44
298.523	101.44
298.753	90.44
298.984	75.44
299.214	72.44
299.445	72.44
299.675	77.44
299.905	85.44
300.136	80.44
300.366	62.44
300.597	82.44
300.827	81.44
301.057	79.44
301.288	83.44
301.518	68.44
301.748	73.44
301.979	75.44
302.209	64.44
302.439	80.44
302.669	84.44
302.9	84.44
303.13	71.44
303.36	76.44
303.59	69.44
303.82	76.44
304.051	82.44
304.281	82.44
304.511	78.44
304.741	74.44
304.971	77.44
305.201	90.44
305.431	109.44
305.661	94.44
305.891	89.44
306.121	84.44
306.352	66.44
306.582	88.44
306.812	75.44
307.042	80.44
307.272	78.44
307.502	85.44
307.731	79.44
307.961	72.44
308.191	87.44
308.421	81.44
308.651	72.44
308.881	77.44
309.111	74.44
309.341	72.44
309.571	77.44
309.8	89.44
310.03	72.44
310.26	79.44
310.49	90.44
310.72	98.44
310.949	84.44
311.179	78.44
311.409	76.44
311.639	79.44
311.868	69.44
312.098	95.44
312.328	88.44
312.557	85.44
312.787	72.44
313.017	77.44
313.246	76.44
313.476	84.44
313.706	66.44
313.935	85.44
314.165	72.44
314.394	87.44
314.624	80.44
314.853	78.44
315.083	72.44
315.312	85.44
315.542	91.44
315.771	88.44
316.001	85.44
316.23	82.44
316.46	71.44
316.689	80.44
316.919	73.44
317.148	81.44
317.377	80.44
317.607	83.44
317.836	84.44
318.065	83.44
318.295	86.44
318.524	80.44
318.753	75.44
318.983	77.44
319.212	80.44
319.441	76.44
319.67	85.44
319.9	87.44
320.129	82.44
320.358	81.44
320.587	86.44
320.816	79.44
321.046	88.44
321.275	97.44
321.504	82.44
321.733	86.44
321.962	87.44
322.191	72.44
322.42	82.44
322.649	81.44
322.878	78.44
323.108	86.44
323.337	82.44
323.566	74.44
323.795	87.44
324.024	79.44
324.253	89.44
324.482	82.44
324.71	96.44
324.939	84.44
325.168	78.44
325.397	69.44
325.626	71.44
325.855	75.44
326.084	79.44
326.313	101.44
326.542	82.44
326.77	76.44
326.999	79.44
327.228	84.44
327.457	70.44
327.686	83.44
327.914	73.44
328.143	81.44
328.372	89.44
328.6	78.44
328.829	72.44
329.058	74.44
329.287	90.44
329.515	83.44
329.744	90.44
329.972	88.44
330.201	93.44
330.43	81.44
330.658	75.44
330.887	69.44
331.115	70.44
331.344	73.44
331.572	79.44
331.801	88.44
332.03	73.44
332.258	94.44
332.486	95.44
332.715	87.44
332.943	81.44
333.172	84.44
333.4	74.44
333.629	85.44
333.857	82.44
334.085	93.44
334.314	95.44
334.542	93.44
334.771	68.44
334.999	83.44
335.227	88.44
335.455	81.44
335.684	79.44
335.912	73.44
336.14	66.44
336.369	76.44
336.597	76.44
336.825	78.44
337.053	88.44
337.281	74.44
337.51	73.44
337.738	90.44
337.966	89.44
338.194	88.44
338.422	87.44
338.65	93.44
338.878	82.44
339.106	89.44
339.334	100.44
339.562	76.44
339.79	83.44
340.018	72.44
340.246	92.44
340.474	85.44
340.702	84.44
340.93	72.44
341.158	83.44
341.386	74.44
341.614	89.44
341.842	74.44
342.07	86.44
342.298	76.44
342.526	84.44
342.754	91.44
342.981	86.44
343.209	82.44
343.437	89.44
343.665	85.44
343.893	90.44
344.12	90.44
344.348	90.44
344.576	82.44
344.804	86.44
345.031	95.44
345.259	88.44
345.487	79.44
345.714	77.44
345.942	88.44
346.17	62.44
346.397	73.44
346.625	89.44
346.853	85.44
347.08	96.44
347.308	72.44
347.535	81.44
347.763	73.44
347.99	84.44
348.218	87.44
348.445	77.44
348.673	84.44
348.9	75.44
349.128	81.44
349.355	72.44
349.583	80.44
349.81	70.44
350.037	86.44
350.265	81.44
350.492	67.44
350.72	92.44
350.947	79.44
351.174	71.44
351.402	86.44
351.629	76.44
351.856	76.44
352.083	78.44
352.311	68.44
352.538	82.44
352.765	80.44
352.992	76.44
353.22	88.44
353.447	80.44
353.674	81.44
353.901	68.44
354.128	79.44
354.355	74.44
354.583	80.44
354.81	82.44
355.037	93.44
355.264	78.44
355.491	84.44
355.718	71.44
355.945	77.44
356.172	73.44
356.399	67.44
356.626	79.44
356.853	81.44
357.08	64.44
357.307	79.44
357.534	64.44
357.761	81.44
357.988	94.44
358.215	80.44
358.441	70.44
358.668	68.44
358.895	78.44
359.122	73.44
359.349	67.44
359.576	90.44
359.802	89.44
360.029	101.44
360.256	82.44
360.483	90.44
360.709	80.44
360.936	74.44
361.163	68.44
361.39	71.44
361.616	77.44
361.843	86.44
362.07	88.44
362.296	85.44
362.523	86.44
362.749	87.44
362.976	88.44
363.203	86.44
363.429	66.44
363.656	87.44
363.882	94.44
364.109	87.44
364.335	90.44
364.562	77.44
364.788	73.44
365.015	76.44
365.241	89.44
365.468	82.44
365.694	74.44
365.92	83.44
366.147	82.44
366.373	85.44
366.599	75.44
366.826	81.44
367.052	71.44
367.278	87.44
367.505	89.44
367.731	78.44
367.957	75.44
368.184	75.44
368.41	80.44
368.636	89.44
368.862	96.44
369.089	71.44
369.315	74.44
369.541	85.44
369.767	73.44
369.993	77.44
370.219	84.44
370.445	90.44
370.672	82.44
370.898	91.44
371.124	72.44
371.35	80.44
371.576	89.44
371.802	97.44
372.028	86.44
372.254	76.44
372.48	80.44
372.706	82.44
372.932	88.44
373.158	82.44
373.384	86.44
373.61	88.44
373.835	69.44
374.061	87.44
374.287	70.44
374.513	82.44
374.739	94.44
374.965	88.44
375.191	84.44
375.416	80.44
375.642	81.44
375.868	91.44
376.094	82.44
376.319	74.44
376.545	78.44
376.771	77.44
376.997	92.44
377.222	79.44
377.448	68.44
377.674	73.44
377.899	76.44
378.125	82.44
378.35	79.44
378.576	99.44
378.802	84.44
379.027	81.44
379.253	79.44
379.478	81.44
379.704	94.44
379.929	81.44
380.155	74.44
380.38	85.44
380.606	82.44
380.831	75.44
381.057	90.44
381.282	87.44
381.507	83.44
381.733	94.44
381.958	86.44
382.184	87.44
382.409	92.44
382.634	102.44
382.86	69.44
383.085	84.44
383.31	84.44
383.535	84.44
383.761	91.44
383.986	87.44
384.211	72.44
384.436	74.44
384.662	76.44
384.887	87.44
385.112	93.44
385.337	94.44
385.562	88.44
385.787	93.44
386.013	85.44
386.238	78.44
386.463	86.44
386.688	77.44
386.913	71.44
387.138	88.44
387.363	81.44
387.588	89.44
387.813	76.44
388.038	75.44
388.263	104.44
388.488	88.44
388.713	84.44
388.938	88.44
389.163	79.44
389.387	78.44
389.612	84.44
389.837	64.44
390.062	81.44
390.287	88.44
390.512	86.44
390.736	82.44
390.961	97.44
391.186	89.44
391.411	74.44
391.636	87.44
391.86	81.44
392.085	93.44
392.31	85.44
392.534	88.44
392.759	81.44
392.984	87.44
393.208	79.44
393.433	87.44
393.658	70.44
393.882	80.44
394.107	89.44
394.331	84.44
394.556	79.44
394.78	92.44
395.005	90.44
395.229	92.44
395.454	91.44
395.678	82.44
395.903	89.44
396.127	93.44
396.352	89.44
396.576	78.44
396.801	80.44
397.025	72.44
397.249	80.44
397.474	79.44
397.698	88.44
397.922	77.44
398.147	85.44
398.371	81.44
398.595	96.44
398.82	77.44
399.044	84.44
399.268	90.44
399.492	81.44
399.717	86.44
399.941	97.44
400.165	96.44
400.389	95.44
400.613	82.44
400.837	89.44
401.062	92.44
401.286	94.44
401.51	95.44
401.734	83.44
401.958	83.44
402.182	80.44
402.406	87.44
402.63	87.44
402.854	73.44
403.078	83.44
403.302	84.44
403.526	91.44
403.75	87.44
403.974	88.44
404.198	80.44
404.422	83.44
404.645	81.44
404.869	87.44
405.093	95.44
405.317	92.44
405.541	86.44
405.765	87.44
405.988	84.44
406.212	84.44
406.436	86.44
406.66	94.44
406.883	82.44
407.107	83.44
407.331	72.44
407.555	72.44
407.778	88.44
408.002	94.44
408.226	91.44
408.449	83.44
408.673	85.44
408.896	102.44
409.12	84.44
409.344	87.44
409.567	86.44
409.791	88.44
410.014	95.44
410.238	89.44
410.461	84.44
410.685	82.44
410.908	86.44
411.132	95.44
411.355	91.44
411.578	97.44
411.802	82.44
412.025	101.44
412.249	94.44
412.472	92.44
412.695	81.44
412.919	95.44
413.142	86.44
413.365	74.44
413.589	93.44
413.812	77.44
414.035	109.44
414.258	77.44
414.482	80.44
414.705	64.44
414.928	84.44
415.151	101.44
415.374	93.44
415.597	93.44
415.821	74.44
416.044	101.44
416.267	101.44
416.49	93.44
416.713	80.44
416.936	87.44
417.159	74.44
417.382	82.44
417.605	85.44
417.828	83.44
418.051	84.44
418.274	89.44
418.497	74.44
418.72	92.44
418.943	93.44
419.166	80.44
419.389	97.44
419.611	108.44
419.834	87.44
420.057	101.44
420.28	104.44
420.503	82.44
420.726	87.44
420.948	88.44
421.171	102.44
421.394	93.44
421.617	80.44
421.839	100.44
422.062	88.44
422.285	88.44
422.507	91.44
422.73	87.44
422.953	99.44
423.175	78.44
423.398	91.44
423.621	101.44
423.843	89.44
424.066	85.44
424.288	87.44
424.511	105.44
424.733	94.44
424.956	76.44
425.178	82.44
425.401	97.44
425.623	77.44
425.846	92.44
426.068	85.44
426.291	98.44
426.513	91.44
426.735	85.44
426.958	81.44
427.18	88.44
427.402	91.44
427.625	87.44
427.847	90.44
428.069	102.44
428.292	78.44
428.514	89.44
428.736	85.44
428.958	86.44
429.181	83.44
429.403	84.44
429.625	96.44
429.847	102.44
430.069	85.44
430.292	81.44
430.514	80.44
430.736	85.44
430.958	90.44
431.18	85.44
431.402	86.44
431.624	86.44
431.846	77.44
432.068	87.44
432.29	85.44
432.512	78.44
432.734	89.44
432.956	77.44
433.178	109.44
433.4	89.44
433.622	91.44
433.844	90.44
434.066	113.44
434.287	74.44
434.509	98.44
434.731	93.44
434.953	97.44
435.175	85.44
435.397	89.44
435.618	80.44
435.84	87.44
436.062	81.44
436.284	88.44
436.505	95.44
436.727	104.44
436.949	89.44
437.17	88.44
437.392	88.44
437.614	79.44
437.835	80.44
438.057	84.44
438.278	81.44
438.5	83.44
438.721	107.44
438.943	94.44
439.165	92.44
439.386	90.44
439.608	102.44
439.829	105.44
440.05	92.44
440.272	108.44
440.493	98.44
440.715	87.44
440.936	101.44
441.158	91.44
441.379	98.44
441.6	104.44
441.822	100.44
442.043	117.44
442.264	100.44
442.486	95.44
442.707	98.44
442.928	89.44
443.149	89.44
443.371	91.44
443.592	96.44
443.813	104.44
444.034	92.44
444.255	86.44
444.476	107.44
444.698	100.44
444.919	91.44
445.14	228.44
445.361	152.44
445.582	93.44
445.803	96.44
446.024	111.44
446.245	92.44
446.466	105.44
446.687	101.44
446.908	106.44
447.129	88.44
447.35	109.44
447.571	106.44
447.792	104.44
448.013	77.44
448.234	90.44
448.455	87.44
448.675	93.44
448.896	98.44
449.117	90.44
449.338	108.44
449.559	89.44
449.779	91.44
450	103.44
450.221	93.44
450.442	106.44
450.662	81.44
450.883	93.44
451.104	109.44
451.324	81.44
451.545	84.44
451.766	94.44
451.986	81.44
452.207	98.44
452.428	98.44
452.648	92.44
452.869	100.44
453.089	97.44
453.31	89.44
453.53	87.44
453.751	88.44
453.971	96.44
454.192	86.44
454.412	88.44
454.633	86.44
454.853	80.44
455.073	92.44
455.294	97.44
455.514	93.44
455.734	108.44
455.955	92.44
456.175	90.44
456.395	94.44
456.616	87.44
456.836	90.44
457.056	87.44
457.276	74.44
457.497	93.44
457.717	87.44
457.937	81.44
458.157	86.44
458.377	72.44
458.598	90.44
458.818	78.44
459.038	98.44
459.258	75.44
459.478	84.44
459.698	83.44
459.918	80.44
460.138	84.44
460.358	94.44
460.578	94.44
460.798	77.44
461.018	81.44
461.238	87.44
461.458	103.44
461.678	83.44
461.898	90.44
462.118	90.44
462.338	87.44
462.558	85.44
462.777	91.44
462.997	88.44
463.217	99.44
463.437	84.44
463.657	83.44
463.876	85.44
464.096	80.44
464.316	90.44
464.536	87.44
464.755	85.44
464.975	87.44
465.195	86.44
465.414	101.44
465.634	99.44
465.854	91.44
466.073	98.44
466.293	97.44
466.512	88.44
466.732	101.44
466.951	80.44
467.171	92.44
467.391	99.44
467.61	85.44
467.829	109.44
468.049	97.44
468.268	104.44
468.488	79.44
468.707	100.44
468.927	97.44
469.146	96.44
469.365	93.44
469.585	104.44
469.804	96.44
470.023	96.44
470.243	96.44
470.462	98.44
470.681	107.44
470.901	91.44
471.12	99.44
471.339	79.44
471.558	101.44
471.777	97.44
471.997	98.44
472.216	85.44
472.435	93.44
472.654	101.44
472.873	75.44
473.092	87.44
473.311	100.44
473.53	79.44
473.749	92.44
473.968	95.44
474.187	98.44
474.406	83.44
474.625	86.44
474.844	95.44
475.063	83.44
475.282	101.44
475.501	72.44
475.72	94.44
475.939	94.44
476.158	85.44
476.377	100.44
476.596	84.44
476.814	104.44
477.033	87.44
477.252	78.44
477.471	93.44
477.69	85.44
477.908	99.44
478.127	94.44
478.346	88.44
478.564	89.44
478.783	92.44
479.002	97.44
479.22	93.44
479.439	94.44
479.658	88.44
479.876	80.44
480.095	86.44
480.313	73.44
480.532	97.44
480.751	94.44
480.969	93.44
481.188	81.44
481.406	85.44
481.624	81.44
481.843	82.44
482.061	92.44
482.28	89.44
482.498	95.44
482.717	96.44
482.935	82.44
483.153	92.44
483.372	100.44
483.59	100.44
483.808	112.44
484.027	86.44
484.245	95.44
484.463	88.44
484.681	98.44
484.9	91.44
485.118	94.44
485.336	101.44
485.554	95.44
485.772	94.44
485.99	84.44
486.209	81.44
486.427	91.44
486.645	99.44
486.863	92.44
487.081	88.44
487.299	104.44
487.517	103.44
487.735	102.44
487.953	114.44
488.171	95.44
488.389	104.44
488.607	92.44
488.825	97.44
489.043	103.44
489.261	93.44
489.479	95.44
489.696	100.44
489.914	87.44
490.132	100.44
490.35	101.44
490.568	102.44
490.786	95.44
491.003	113.44
491.221	107.44
491.439	127.44
491.657	120.44
491.874	116.44
492.092	127.44
492.31	116.44
492.527	128.44
492.745	119.44
492.963	100.44
493.18	103.44
493.398	118.44
493.615	106.44
493.833	93.44
494.05	109.44
494.268	110.44
494.485	110.44
494.703	106.44
494.92	110.44
495.138	99.44
495.355	104.44
495.573	110.44
495.79	90.44
496.008	119.44
496.225	103.44
496.442	100.44
496.66	96.44
496.877	111.44
497.094	101.44
497.312	108.44
497.529	106.44
497.746	101.44
497.963	105.44
498.181	94.44
498.398	96.44
498.615	79.44
498.832	93.44
499.049	80.44
499.267	92.44
499.484	83.44
499.701	104.44
499.918	97.44
500.135	92.44
500.352	93.44
500.569	100.44
500.786	91.44
501.003	78.44
501.22	98.44
501.437	116.44
501.654	99.44
501.871	88.44
502.088	90.44
502.305	73.44
502.522	88.44
502.739	98.44
502.956	101.44
503.172	91.44
503.389	88.44
503.606	74.44
503.823	93.44
504.04	97.44
504.256	98.44
504.473	98.44
504.69	92.44
504.907	84.44
505.123	91.44
505.34	95.44
505.557	97.44
505.773	94.44
505.99	81.44
506.207	85.44
506.423	91.44
506.64	89.44
506.856	77.44
507.073	100.44
507.289	77.44
507.506	88.44
507.722	82.44
507.939	94.44
508.155	100.44
508.372	68.44
508.588	84.44
508.805	98.44
509.021	87.44
509.238	89.44
509.454	83.44
509.67	80.44
509.887	85.44
510.103	72.44
510.319	89.44
510.536	82.44
510.752	67.44
510.968	69.44
511.184	76.44
511.401	71.44
511.617	77.44
511.833	87.44
512.049	77.44
512.265	69.44
512.481	93.44
512.698	84.44
512.914	90.44
513.13	76.44
513.346	80.44
513.562	78.44
513.778	81.44
513.994	71.44
514.21	81.44
514.426	79.44
514.642	88.44
514.858	74.44
515.074	78.44
515.29	89.44
515.506	90.44
515.721	65.44
515.937	78.44
516.153	69.44
516.369	72.44
516.585	85.44
516.801	77.44
517.016	85.44
517.232	79.44
517.448	69.44
517.664	68.44
517.879	73.44
