Data from Location4.07152019.Energy5.Lamp.07192019.3%Agarose_HRD10591_15-24-08-577.txt Node
Date: Fri Jul 19 15:24:08 EDT 2019
User: cochatt
Spectrometer: HR+D1059
Trigger mode: 1
Integration Time (sec): 1.000000E-1
Scans to average: 1
Electric dark correction enabled: true
Nonlinearity correction enabled: false
Boxcar width: 0
XAxis mode: Wavelengths
Number of Pixels in Spectrum: 2048
>>>>>Begin Spectral Data<<<<<
223.165	-12.56
223.4	-12.56
223.635	-12.56
223.869	3.44
224.104	-31.56
224.338	-10.56
224.573	-12.56
224.808	-11.56
225.042	-2.56
225.277	-0.56
225.511	-14.56
225.746	-5.56
225.98	-10.56
226.215	23.44
226.449	16.44
226.683	17.44
226.918	30.44
227.152	21.44
227.387	43.44
227.621	38.44
227.856	51.44
228.09	55.44
228.324	46.44
228.559	54.44
228.793	63.44
229.027	64.44
229.262	70.44
229.496	71.44
229.73	72.44
229.964	67.44
230.199	76.44
230.433	70.44
230.667	85.44
230.901	93.44
231.136	85.44
231.37	87.44
231.604	90.44
231.838	95.44
232.072	91.44
232.306	88.44
232.541	82.44
232.775	75.44
233.009	91.44
233.243	74.44
233.477	88.44
233.711	87.44
233.945	92.44
234.179	84.44
234.413	77.44
234.647	85.44
234.881	89.44
235.115	81.44
235.349	80.44
235.583	91.44
235.817	87.44
236.051	76.44
236.285	94.44
236.519	68.44
236.753	68.44
236.987	81.44
237.221	87.44
237.455	80.44
237.689	72.44
237.922	89.44
238.156	82.44
238.39	71.44
238.624	95.44
238.858	82.44
239.091	85.44
239.325	66.44
239.559	75.44
239.793	68.44
240.027	70.44
240.26	84.44
240.494	75.44
240.728	76.44
240.961	80.44
241.195	86.44
241.429	98.44
241.662	66.44
241.896	82.44
242.13	83.44
242.363	77.44
242.597	84.44
242.83	74.44
243.064	75.44
243.298	81.44
243.531	76.44
243.765	76.44
243.998	90.44
244.232	66.44
244.465	83.44
244.699	78.44
244.932	93.44
245.166	85.44
245.399	74.44
245.633	80.44
245.866	86.44
246.099	79.44
246.333	82.44
246.566	67.44
246.8	72.44
247.033	78.44
247.266	77.44
247.5	64.44
247.733	70.44
247.966	91.44
248.2	102.44
248.433	68.44
248.666	76.44
248.899	76.44
249.133	83.44
249.366	85.44
249.599	85.44
249.832	79.44
250.066	79.44
250.299	78.44
250.532	74.44
250.765	81.44
250.998	68.44
251.231	86.44
251.465	75.44
251.698	78.44
251.931	91.44
252.164	91.44
252.397	85.44
252.63	83.44
252.863	74.44
253.096	82.44
253.329	82.44
253.562	86.44
253.795	77.44
254.028	94.44
254.261	91.44
254.494	86.44
254.727	89.44
254.96	77.44
255.193	85.44
255.426	76.44
255.659	94.44
255.892	76.44
256.124	75.44
256.357	84.44
256.59	75.44
256.823	73.44
257.056	82.44
257.289	74.44
257.521	81.44
257.754	88.44
257.987	86.44
258.22	92.44
258.452	86.44
258.685	82.44
258.918	79.44
259.151	78.44
259.383	100.44
259.616	89.44
259.849	73.44
260.081	92.44
260.314	71.44
260.547	69.44
260.779	70.44
261.012	81.44
261.244	92.44
261.477	98.44
261.71	91.44
261.942	84.44
262.175	92.44
262.407	69.44
262.64	69.44
262.872	77.44
263.105	82.44
263.337	81.44
263.57	80.44
263.802	87.44
264.035	91.44
264.267	74.44
264.499	89.44
264.732	89.44
264.964	85.44
265.197	88.44
265.429	80.44
265.661	83.44
265.894	89.44
266.126	92.44
266.358	94.44
266.591	78.44
266.823	83.44
267.055	82.44
267.287	86.44
267.52	82.44
267.752	82.44
267.984	87.44
268.216	94.44
268.448	94.44
268.681	88.44
268.913	84.44
269.145	84.44
269.377	83.44
269.609	80.44
269.841	76.44
270.073	72.44
270.306	84.44
270.538	81.44
270.77	91.44
271.002	95.44
271.234	77.44
271.466	86.44
271.698	72.44
271.93	82.44
272.162	98.44
272.394	98.44
272.626	83.44
272.858	72.44
273.09	88.44
273.322	77.44
273.553	91.44
273.785	90.44
274.017	77.44
274.249	89.44
274.481	87.44
274.713	89.44
274.945	81.44
275.176	68.44
275.408	89.44
275.64	85.44
275.872	89.44
276.104	78.44
276.335	83.44
276.567	87.44
276.799	85.44
277.031	89.44
277.262	80.44
277.494	82.44
277.726	88.44
277.957	99.44
278.189	100.44
278.421	100.44
278.652	84.44
278.884	84.44
279.115	85.44
279.347	92.44
279.579	92.44
279.81	89.44
280.042	76.44
280.273	89.44
280.505	90.44
280.736	102.44
280.968	91.44
281.199	91.44
281.431	87.44
281.662	82.44
281.894	92.44
282.125	71.44
282.356	95.44
282.588	99.44
282.819	100.44
283.051	87.44
283.282	106.44
283.513	83.44
283.745	85.44
283.976	93.44
284.207	89.44
284.439	88.44
284.67	93.44
284.901	74.44
285.132	78.44
285.364	89.44
285.595	86.44
285.826	84.44
286.057	100.44
286.288	75.44
286.52	85.44
286.751	80.44
286.982	74.44
287.213	82.44
287.444	80.44
287.675	83.44
287.906	92.44
288.138	100.44
288.369	86.44
288.6	77.44
288.831	81.44
289.062	85.44
289.293	95.44
289.524	86.44
289.755	98.44
289.986	87.44
290.217	73.44
290.448	77.44
290.679	78.44
290.91	90.44
291.141	78.44
291.371	81.44
291.602	80.44
291.833	87.44
292.064	92.44
292.295	90.44
292.526	77.44
292.757	77.44
292.987	84.44
293.218	76.44
293.449	93.44
293.68	94.44
293.91	79.44
294.141	85.44
294.372	86.44
294.603	96.44
294.833	84.44
295.064	106.44
295.295	92.44
295.525	88.44
295.756	91.44
295.987	95.44
296.217	75.44
296.448	85.44
296.679	78.44
296.909	82.44
297.14	98.44
297.37	85.44
297.601	84.44
297.831	82.44
298.062	77.44
298.292	83.44
298.523	86.44
298.753	90.44
298.984	92.44
299.214	80.44
299.445	74.44
299.675	84.44
299.905	95.44
300.136	90.44
300.366	69.44
300.597	85.44
300.827	81.44
301.057	82.44
301.288	101.44
301.518	93.44
301.748	86.44
301.979	75.44
302.209	89.44
302.439	82.44
302.669	82.44
302.9	71.44
303.13	77.44
303.36	84.44
303.59	82.44
303.82	96.44
304.051	79.44
304.281	82.44
304.511	85.44
304.741	95.44
304.971	81.44
305.201	93.44
305.431	92.44
305.661	103.44
305.891	73.44
306.121	90.44
306.352	88.44
306.582	94.44
306.812	96.44
307.042	82.44
307.272	85.44
307.502	74.44
307.731	95.44
307.961	84.44
308.191	96.44
308.421	88.44
308.651	78.44
308.881	81.44
309.111	78.44
309.341	80.44
309.571	83.44
309.8	89.44
310.03	83.44
310.26	100.44
310.49	91.44
310.72	87.44
310.949	101.44
311.179	86.44
311.409	84.44
311.639	93.44
311.868	85.44
312.098	87.44
312.328	98.44
312.557	75.44
312.787	88.44
313.017	102.44
313.246	80.44
313.476	81.44
313.706	78.44
313.935	84.44
314.165	91.44
314.394	72.44
314.624	96.44
314.853	84.44
315.083	84.44
315.312	97.44
315.542	81.44
315.771	84.44
316.001	91.44
316.23	94.44
316.46	80.44
316.689	73.44
316.919	74.44
317.148	89.44
317.377	85.44
317.607	84.44
317.836	75.44
318.065	85.44
318.295	82.44
318.524	84.44
318.753	88.44
318.983	79.44
319.212	80.44
319.441	86.44
319.67	82.44
319.9	78.44
320.129	87.44
320.358	89.44
320.587	82.44
320.816	92.44
321.046	90.44
321.275	89.44
321.504	98.44
321.733	77.44
321.962	76.44
322.191	79.44
322.42	80.44
322.649	88.44
322.878	92.44
323.108	89.44
323.337	94.44
323.566	84.44
323.795	89.44
324.024	85.44
324.253	86.44
324.482	78.44
324.71	88.44
324.939	83.44
325.168	92.44
325.397	84.44
325.626	102.44
325.855	91.44
326.084	77.44
326.313	93.44
326.542	82.44
326.77	92.44
326.999	91.44
327.228	104.44
327.457	82.44
327.686	92.44
327.914	91.44
328.143	82.44
328.372	90.44
328.6	87.44
328.829	78.44
329.058	92.44
329.287	89.44
329.515	84.44
329.744	88.44
329.972	92.44
330.201	94.44
330.43	88.44
330.658	97.44
330.887	80.44
331.115	94.44
331.344	88.44
331.572	81.44
331.801	82.44
332.03	88.44
332.258	82.44
332.486	85.44
332.715	94.44
332.943	87.44
333.172	100.44
333.4	86.44
333.629	90.44
333.857	86.44
334.085	88.44
334.314	89.44
334.542	89.44
334.771	96.44
334.999	95.44
335.227	89.44
335.455	69.44
335.684	95.44
335.912	93.44
336.14	94.44
336.369	88.44
336.597	83.44
336.825	88.44
337.053	89.44
337.281	86.44
337.51	92.44
337.738	83.44
337.966	82.44
338.194	68.44
338.422	85.44
338.65	86.44
338.878	84.44
339.106	86.44
339.334	89.44
339.562	84.44
339.79	79.44
340.018	79.44
340.246	93.44
340.474	78.44
340.702	80.44
340.93	82.44
341.158	88.44
341.386	103.44
341.614	77.44
341.842	82.44
342.07	107.44
342.298	99.44
342.526	101.44
342.754	88.44
342.981	82.44
343.209	98.44
343.437	83.44
343.665	78.44
343.893	91.44
344.12	90.44
344.348	80.44
344.576	83.44
344.804	82.44
345.031	89.44
345.259	92.44
345.487	89.44
345.714	72.44
345.942	77.44
346.17	95.44
346.397	89.44
346.625	81.44
346.853	75.44
347.08	71.44
347.308	88.44
347.535	99.44
347.763	86.44
347.99	79.44
348.218	104.44
348.445	82.44
348.673	94.44
348.9	90.44
349.128	101.44
349.355	83.44
349.583	93.44
349.81	84.44
350.037	74.44
350.265	90.44
350.492	89.44
350.72	79.44
350.947	79.44
351.174	87.44
351.402	83.44
351.629	82.44
351.856	75.44
352.083	83.44
352.311	87.44
352.538	86.44
352.765	86.44
352.992	77.44
353.22	101.44
353.447	83.44
353.674	82.44
353.901	92.44
354.128	84.44
354.355	98.44
354.583	78.44
354.81	77.44
355.037	96.44
355.264	74.44
355.491	75.44
355.718	84.44
355.945	72.44
356.172	76.44
356.399	79.44
356.626	89.44
356.853	82.44
357.08	86.44
357.307	94.44
357.534	84.44
357.761	101.44
357.988	79.44
358.215	88.44
358.441	103.44
358.668	90.44
358.895	64.44
359.122	82.44
359.349	92.44
359.576	77.44
359.802	82.44
360.029	75.44
360.256	83.44
360.483	78.44
360.709	94.44
360.936	81.44
361.163	80.44
361.39	72.44
361.616	72.44
361.843	95.44
362.07	97.44
362.296	86.44
362.523	88.44
362.749	89.44
362.976	76.44
363.203	94.44
363.429	88.44
363.656	91.44
363.882	85.44
364.109	94.44
364.335	96.44
364.562	93.44
364.788	70.44
365.015	56.44
365.241	79.44
365.468	70.44
365.694	73.44
365.92	71.44
366.147	74.44
366.373	83.44
366.599	89.44
366.826	87.44
367.052	84.44
367.278	76.44
367.505	82.44
367.731	85.44
367.957	91.44
368.184	82.44
368.41	84.44
368.636	82.44
368.862	89.44
369.089	82.44
369.315	89.44
369.541	85.44
369.767	78.44
369.993	98.44
370.219	87.44
370.445	88.44
370.672	93.44
370.898	95.44
371.124	84.44
371.35	87.44
371.576	90.44
371.802	95.44
372.028	86.44
372.254	79.44
372.48	84.44
372.706	93.44
372.932	90.44
373.158	89.44
373.384	86.44
373.61	78.44
373.835	83.44
374.061	78.44
374.287	74.44
374.513	79.44
374.739	84.44
374.965	76.44
375.191	89.44
375.416	79.44
375.642	88.44
375.868	98.44
376.094	84.44
376.319	96.44
376.545	91.44
376.771	81.44
376.997	83.44
377.222	86.44
377.448	97.44
377.674	90.44
377.899	74.44
378.125	94.44
378.35	93.44
378.576	87.44
378.802	101.44
379.027	87.44
379.253	95.44
379.478	78.44
379.704	87.44
379.929	84.44
380.155	93.44
380.38	78.44
380.606	69.44
380.831	69.44
381.057	85.44
381.282	82.44
381.507	76.44
381.733	85.44
381.958	81.44
382.184	81.44
382.409	80.44
382.634	93.44
382.86	90.44
383.085	89.44
383.31	89.44
383.535	102.44
383.761	92.44
383.986	82.44
384.211	91.44
384.436	78.44
384.662	84.44
384.887	78.44
385.112	90.44
385.337	84.44
385.562	92.44
385.787	89.44
386.013	96.44
386.238	89.44
386.463	89.44
386.688	88.44
386.913	93.44
387.138	87.44
387.363	91.44
387.588	76.44
387.813	86.44
388.038	98.44
388.263	81.44
388.488	82.44
388.713	99.44
388.938	91.44
389.163	77.44
389.387	85.44
389.612	88.44
389.837	105.44
390.062	93.44
390.287	87.44
390.512	98.44
390.736	91.44
390.961	82.44
391.186	93.44
391.411	91.44
391.636	96.44
391.86	80.44
392.085	86.44
392.31	83.44
392.534	90.44
392.759	82.44
392.984	88.44
393.208	89.44
393.433	85.44
393.658	89.44
393.882	80.44
394.107	82.44
394.331	92.44
394.556	91.44
394.78	89.44
395.005	70.44
395.229	91.44
395.454	82.44
395.678	84.44
395.903	99.44
396.127	85.44
396.352	82.44
396.576	85.44
396.801	88.44
397.025	89.44
397.249	110.44
397.474	96.44
397.698	89.44
397.922	79.44
398.147	94.44
398.371	89.44
398.595	83.44
398.82	88.44
399.044	106.44
399.268	91.44
399.492	100.44
399.717	112.44
399.941	84.44
400.165	90.44
400.389	89.44
400.613	91.44
400.837	94.44
401.062	93.44
401.286	92.44
401.51	96.44
401.734	85.44
401.958	92.44
402.182	89.44
402.406	92.44
402.63	80.44
402.854	93.44
403.078	81.44
403.302	82.44
403.526	100.44
403.75	110.44
403.974	80.44
404.198	85.44
404.422	94.44
404.645	105.44
404.869	101.44
405.093	97.44
405.317	92.44
405.541	83.44
405.765	80.44
405.988	84.44
406.212	96.44
406.436	93.44
406.66	98.44
406.883	102.44
407.107	96.44
407.331	90.44
407.555	74.44
407.778	83.44
408.002	80.44
408.226	100.44
408.449	101.44
408.673	89.44
408.896	90.44
409.12	88.44
409.344	97.44
409.567	102.44
409.791	85.44
410.014	88.44
410.238	98.44
410.461	92.44
410.685	85.44
410.908	98.44
411.132	107.44
411.355	86.44
411.578	86.44
411.802	106.44
412.025	87.44
412.249	77.44
412.472	90.44
412.695	97.44
412.919	91.44
413.142	86.44
413.365	107.44
413.589	89.44
413.812	97.44
414.035	87.44
414.258	93.44
414.482	80.44
414.705	97.44
414.928	91.44
415.151	80.44
415.374	92.44
415.597	89.44
415.821	92.44
416.044	86.44
416.267	82.44
416.49	86.44
416.713	86.44
416.936	97.44
417.159	103.44
417.382	86.44
417.605	75.44
417.828	96.44
418.051	75.44
418.274	96.44
418.497	99.44
418.72	101.44
418.943	100.44
419.166	107.44
419.389	98.44
419.611	100.44
419.834	99.44
420.057	97.44
420.28	98.44
420.503	93.44
420.726	92.44
420.948	91.44
421.171	103.44
421.394	96.44
421.617	104.44
421.839	114.44
422.062	101.44
422.285	99.44
422.507	99.44
422.73	100.44
422.953	98.44
423.175	103.44
423.398	101.44
423.621	85.44
423.843	93.44
424.066	103.44
424.288	99.44
424.511	90.44
424.733	91.44
424.956	93.44
425.178	86.44
425.401	86.44
425.623	107.44
425.846	98.44
426.068	106.44
426.291	96.44
426.513	102.44
426.735	102.44
426.958	96.44
427.18	93.44
427.402	84.44
427.625	88.44
427.847	99.44
428.069	98.44
428.292	95.44
428.514	107.44
428.736	110.44
428.958	123.44
429.181	91.44
429.403	86.44
429.625	94.44
429.847	91.44
430.069	89.44
430.292	86.44
430.514	94.44
430.736	90.44
430.958	91.44
431.18	104.44
431.402	106.44
431.624	99.44
431.846	89.44
432.068	100.44
432.29	88.44
432.512	94.44
432.734	102.44
432.956	92.44
433.178	91.44
433.4	87.44
433.622	83.44
433.844	104.44
434.066	100.44
434.287	93.44
434.509	92.44
434.731	83.44
434.953	89.44
435.175	84.44
435.397	115.44
435.618	109.44
435.84	106.44
436.062	82.44
436.284	91.44
436.505	95.44
436.727	99.44
436.949	90.44
437.17	101.44
437.392	94.44
437.614	89.44
437.835	100.44
438.057	86.44
438.278	92.44
438.5	89.44
438.721	84.44
438.943	101.44
439.165	89.44
439.386	100.44
439.608	112.44
439.829	106.44
440.05	108.44
440.272	91.44
440.493	98.44
440.715	95.44
440.936	92.44
441.158	98.44
441.379	101.44
441.6	97.44
441.822	102.44
442.043	98.44
442.264	92.44
442.486	95.44
442.707	89.44
442.928	106.44
443.149	98.44
443.371	93.44
443.592	97.44
443.813	94.44
444.034	106.44
444.255	75.44
444.476	96.44
444.698	85.44
444.919	101.44
445.14	188.44
445.361	150.44
445.582	121.44
445.803	85.44
446.024	103.44
446.245	96.44
446.466	90.44
446.687	99.44
446.908	99.44
447.129	98.44
447.35	99.44
447.571	103.44
447.792	105.44
448.013	107.44
448.234	104.44
448.455	89.44
448.675	90.44
448.896	115.44
449.117	100.44
449.338	83.44
449.559	91.44
449.779	81.44
450	77.44
450.221	96.44
450.442	116.44
450.662	105.44
450.883	100.44
451.104	97.44
451.324	112.44
451.545	99.44
451.766	84.44
451.986	84.44
452.207	82.44
452.428	78.44
452.648	92.44
452.869	93.44
453.089	92.44
453.31	109.44
453.53	96.44
453.751	77.44
453.971	95.44
454.192	85.44
454.412	92.44
454.633	90.44
454.853	89.44
455.073	102.44
455.294	90.44
455.514	93.44
455.734	86.44
455.955	102.44
456.175	101.44
456.395	91.44
456.616	87.44
456.836	81.44
457.056	101.44
457.276	100.44
457.497	80.44
457.717	82.44
457.937	87.44
458.157	92.44
458.377	87.44
458.598	86.44
458.818	99.44
459.038	79.44
459.258	74.44
459.478	91.44
459.698	82.44
459.918	80.44
460.138	81.44
460.358	97.44
460.578	94.44
460.798	92.44
461.018	89.44
461.238	93.44
461.458	92.44
461.678	90.44
461.898	99.44
462.118	106.44
462.338	99.44
462.558	84.44
462.777	75.44
462.997	86.44
463.217	94.44
463.437	96.44
463.657	73.44
463.876	85.44
464.096	76.44
464.316	80.44
464.536	90.44
464.755	82.44
464.975	81.44
465.195	87.44
465.414	91.44
465.634	90.44
465.854	96.44
466.073	96.44
466.293	76.44
466.512	80.44
466.732	92.44
466.951	89.44
467.171	99.44
467.391	87.44
467.61	102.44
467.829	99.44
468.049	105.44
468.268	87.44
468.488	88.44
468.707	99.44
468.927	95.44
469.146	103.44
469.365	100.44
469.585	101.44
469.804	99.44
470.023	88.44
470.243	94.44
470.462	99.44
470.681	87.44
470.901	102.44
471.12	93.44
471.339	92.44
471.558	98.44
471.777	96.44
471.997	95.44
472.216	102.44
472.435	109.44
472.654	85.44
472.873	88.44
473.092	80.44
473.311	93.44
473.53	96.44
473.749	99.44
473.968	91.44
474.187	100.44
474.406	94.44
474.625	92.44
474.844	98.44
475.063	99.44
475.282	97.44
475.501	93.44
475.72	110.44
475.939	118.44
476.158	90.44
476.377	82.44
476.596	105.44
476.814	86.44
477.033	90.44
477.252	75.44
477.471	88.44
477.69	85.44
477.908	91.44
478.127	107.44
478.346	98.44
478.564	94.44
478.783	98.44
479.002	84.44
479.22	87.44
479.439	90.44
479.658	86.44
479.876	92.44
480.095	89.44
480.313	99.44
480.532	77.44
480.751	99.44
480.969	102.44
481.188	81.44
481.406	96.44
481.624	77.44
481.843	76.44
482.061	93.44
482.28	106.44
482.498	105.44
482.717	75.44
482.935	102.44
483.153	108.44
483.372	107.44
483.59	105.44
483.808	94.44
484.027	90.44
484.245	108.44
484.463	106.44
484.681	117.44
484.9	93.44
485.118	99.44
485.336	104.44
485.554	100.44
485.772	84.44
485.99	98.44
486.209	104.44
486.427	89.44
486.645	103.44
486.863	92.44
487.081	90.44
487.299	99.44
487.517	103.44
487.735	99.44
487.953	117.44
488.171	112.44
488.389	95.44
488.607	112.44
488.825	76.44
489.043	91.44
489.261	93.44
489.479	101.44
489.696	100.44
489.914	102.44
490.132	100.44
490.35	97.44
490.568	118.44
490.786	116.44
491.003	122.44
491.221	113.44
491.439	100.44
491.657	113.44
491.874	130.44
492.092	116.44
492.31	134.44
492.527	122.44
492.745	127.44
492.963	114.44
493.18	126.44
493.398	117.44
493.615	96.44
493.833	116.44
494.05	112.44
494.268	106.44
494.485	116.44
494.703	104.44
494.92	99.44
495.138	108.44
495.355	107.44
495.573	107.44
495.79	108.44
496.008	96.44
496.225	104.44
496.442	106.44
496.66	101.44
496.877	102.44
497.094	104.44
497.312	115.44
497.529	132.44
497.746	116.44
497.963	93.44
498.181	100.44
498.398	97.44
498.615	99.44
498.832	84.44
499.049	105.44
499.267	97.44
499.484	106.44
499.701	113.44
499.918	100.44
500.135	104.44
500.352	106.44
500.569	113.44
500.786	100.44
501.003	102.44
501.22	96.44
501.437	90.44
501.654	97.44
501.871	108.44
502.088	100.44
502.305	102.44
502.522	85.44
502.739	92.44
502.956	90.44
503.172	100.44
503.389	87.44
503.606	96.44
503.823	98.44
504.04	99.44
504.256	93.44
504.473	92.44
504.69	106.44
504.907	101.44
505.123	92.44
505.34	100.44
505.557	97.44
505.773	97.44
505.99	81.44
506.207	101.44
506.423	102.44
506.64	100.44
506.856	94.44
507.073	87.44
507.289	77.44
507.506	89.44
507.722	104.44
507.939	80.44
508.155	102.44
508.372	93.44
508.588	93.44
508.805	87.44
509.021	83.44
509.238	91.44
509.454	103.44
509.67	78.44
509.887	91.44
510.103	85.44
510.319	103.44
510.536	84.44
510.752	76.44
510.968	94.44
511.184	83.44
511.401	70.44
511.617	86.44
511.833	97.44
512.049	74.44
512.265	85.44
512.481	88.44
512.698	90.44
512.914	88.44
513.13	93.44
513.346	76.44
513.562	96.44
513.778	66.44
513.994	78.44
514.21	73.44
514.426	89.44
514.642	93.44
514.858	83.44
515.074	77.44
515.29	78.44
515.506	96.44
515.721	86.44
515.937	83.44
516.153	75.44
516.369	82.44
516.585	80.44
