Data from Location4.07152019.Energy5.Lamp.07192019.3%Agarose_HRD10591_15-24-13-577.txt Node
Date: Fri Jul 19 15:24:13 EDT 2019
User: cochatt
Spectrometer: HR+D1059
Trigger mode: 1
Integration Time (sec): 1.000000E-1
Scans to average: 1
Electric dark correction enabled: true
Nonlinearity correction enabled: false
Boxcar width: 0
XAxis mode: Wavelengths
Number of Pixels in Spectrum: 2048
>>>>>Begin Spectral Data<<<<<
223.165	-6.31
223.4	-6.31
223.635	-6.31
223.869	-11.31
224.104	-16.31
224.338	-17.31
224.573	-23.31
224.808	-16.31
225.042	-4.31
225.277	5.69
225.511	-24.31
225.746	5.69
225.98	-7.31
226.215	7.69
226.449	28.69
226.683	17.69
226.918	21.69
227.152	39.69
227.387	39.69
227.621	23.69
227.856	40.69
228.09	35.69
228.324	56.69
228.559	61.69
228.793	64.69
229.027	56.69
229.262	63.69
229.496	71.69
229.73	68.69
229.964	91.69
230.199	73.69
230.433	60.69
230.667	81.69
230.901	77.69
231.136	80.69
231.37	84.69
231.604	83.69
231.838	79.69
232.072	88.69
232.306	81.69
232.541	96.69
232.775	84.69
233.009	83.69
233.243	87.69
233.477	90.69
233.711	87.69
233.945	90.69
234.179	79.69
234.413	81.69
234.647	97.69
234.881	67.69
235.115	70.69
235.349	80.69
235.583	81.69
235.817	84.69
236.051	89.69
236.285	74.69
236.519	77.69
236.753	77.69
236.987	93.69
237.221	76.69
237.455	75.69
237.689	79.69
237.922	79.69
238.156	84.69
238.39	68.69
238.624	55.69
238.858	83.69
239.091	73.69
239.325	74.69
239.559	67.69
239.793	78.69
240.027	87.69
240.26	68.69
240.494	77.69
240.728	74.69
240.961	79.69
241.195	65.69
241.429	87.69
241.662	77.69
241.896	89.69
242.13	81.69
242.363	82.69
242.597	83.69
242.83	78.69
243.064	73.69
243.298	68.69
243.531	77.69
243.765	69.69
243.998	72.69
244.232	65.69
244.465	88.69
244.699	85.69
244.932	87.69
245.166	76.69
245.399	85.69
245.633	85.69
245.866	71.69
246.099	79.69
246.333	60.69
246.566	92.69
246.8	68.69
247.033	71.69
247.266	89.69
247.5	75.69
247.733	77.69
247.966	81.69
248.2	80.69
248.433	77.69
248.666	90.69
248.899	83.69
249.133	71.69
249.366	87.69
249.599	83.69
249.832	74.69
250.066	105.69
250.299	83.69
250.532	92.69
250.765	78.69
250.998	83.69
251.231	67.69
251.465	58.69
251.698	89.69
251.931	78.69
252.164	84.69
252.397	70.69
252.63	73.69
252.863	58.69
253.096	84.69
253.329	83.69
253.562	77.69
253.795	74.69
254.028	93.69
254.261	81.69
254.494	69.69
254.727	65.69
254.96	77.69
255.193	73.69
255.426	83.69
255.659	79.69
255.892	78.69
256.124	77.69
256.357	73.69
256.59	82.69
256.823	88.69
257.056	84.69
257.289	73.69
257.521	91.69
257.754	83.69
257.987	83.69
258.22	82.69
258.452	73.69
258.685	77.69
258.918	92.69
259.151	92.69
259.383	99.69
259.616	84.69
259.849	61.69
260.081	72.69
260.314	78.69
260.547	77.69
260.779	88.69
261.012	80.69
261.244	72.69
261.477	98.69
261.71	82.69
261.942	66.69
262.175	93.69
262.407	72.69
262.64	78.69
262.872	82.69
263.105	81.69
263.337	89.69
263.57	83.69
263.802	84.69
264.035	82.69
264.267	87.69
264.499	78.69
264.732	80.69
264.964	88.69
265.197	91.69
265.429	99.69
265.661	88.69
265.894	83.69
266.126	85.69
266.358	83.69
266.591	71.69
266.823	74.69
267.055	72.69
267.287	76.69
267.52	75.69
267.752	83.69
267.984	77.69
268.216	83.69
268.448	70.69
268.681	82.69
268.913	87.69
269.145	75.69
269.377	90.69
269.609	86.69
269.841	80.69
270.073	72.69
270.306	102.69
270.538	88.69
270.77	79.69
271.002	74.69
271.234	81.69
271.466	72.69
271.698	87.69
271.93	88.69
272.162	99.69
272.394	86.69
272.626	74.69
272.858	97.69
273.09	100.69
273.322	84.69
273.553	92.69
273.785	70.69
274.017	87.69
274.249	90.69
274.481	74.69
274.713	59.69
274.945	84.69
275.176	84.69
275.408	77.69
275.64	86.69
275.872	77.69
276.104	82.69
276.335	77.69
276.567	83.69
276.799	87.69
277.031	90.69
277.262	75.69
277.494	92.69
277.726	83.69
277.957	91.69
278.189	99.69
278.421	79.69
278.652	84.69
278.884	91.69
279.115	82.69
279.347	80.69
279.579	84.69
279.81	81.69
280.042	70.69
280.273	77.69
280.505	90.69
280.736	83.69
280.968	75.69
281.199	91.69
281.431	84.69
281.662	87.69
281.894	93.69
282.125	77.69
282.356	80.69
282.588	76.69
282.819	89.69
283.051	78.69
283.282	86.69
283.513	91.69
283.745	98.69
283.976	73.69
284.207	83.69
284.439	81.69
284.67	80.69
284.901	77.69
285.132	86.69
285.364	95.69
285.595	87.69
285.826	86.69
286.057	80.69
286.288	88.69
286.52	80.69
286.751	62.69
286.982	82.69
287.213	84.69
287.444	87.69
287.675	87.69
287.906	78.69
288.138	89.69
288.369	79.69
288.6	89.69
288.831	96.69
289.062	97.69
289.293	77.69
289.524	93.69
289.755	91.69
289.986	89.69
290.217	80.69
290.448	80.69
290.679	74.69
290.91	90.69
291.141	85.69
291.371	85.69
291.602	93.69
291.833	72.69
292.064	84.69
292.295	75.69
292.526	88.69
292.757	86.69
292.987	84.69
293.218	84.69
293.449	76.69
293.68	77.69
293.91	75.69
294.141	82.69
294.372	88.69
294.603	76.69
294.833	85.69
295.064	89.69
295.295	98.69
295.525	78.69
295.756	84.69
295.987	81.69
296.217	90.69
296.448	79.69
296.679	91.69
296.909	90.69
297.14	79.69
297.37	86.69
297.601	97.69
297.831	90.69
298.062	91.69
298.292	79.69
298.523	92.69
298.753	84.69
298.984	81.69
299.214	91.69
299.445	81.69
299.675	83.69
299.905	87.69
300.136	69.69
300.366	87.69
300.597	81.69
300.827	82.69
301.057	81.69
301.288	68.69
301.518	86.69
301.748	96.69
301.979	90.69
302.209	67.69
302.439	87.69
302.669	89.69
302.9	81.69
303.13	72.69
303.36	89.69
303.59	91.69
303.82	89.69
304.051	100.69
304.281	93.69
304.511	102.69
304.741	88.69
304.971	84.69
305.201	97.69
305.431	93.69
305.661	90.69
305.891	95.69
306.121	98.69
306.352	77.69
306.582	95.69
306.812	82.69
307.042	90.69
307.272	95.69
307.502	96.69
307.731	83.69
307.961	85.69
308.191	85.69
308.421	78.69
308.651	84.69
308.881	88.69
309.111	85.69
309.341	77.69
309.571	78.69
309.8	90.69
310.03	73.69
310.26	100.69
310.49	77.69
310.72	88.69
310.949	74.69
311.179	82.69
311.409	88.69
311.639	87.69
311.868	91.69
312.098	97.69
312.328	78.69
312.557	94.69
312.787	87.69
313.017	100.69
313.246	82.69
313.476	91.69
313.706	81.69
313.935	89.69
314.165	84.69
314.394	85.69
314.624	91.69
314.853	88.69
315.083	101.69
315.312	78.69
315.542	98.69
315.771	81.69
316.001	85.69
316.23	82.69
316.46	74.69
316.689	90.69
316.919	82.69
317.148	93.69
317.377	83.69
317.607	86.69
317.836	78.69
318.065	89.69
318.295	94.69
318.524	80.69
318.753	84.69
318.983	75.69
319.212	89.69
319.441	90.69
319.67	81.69
319.9	78.69
320.129	100.69
320.358	84.69
320.587	101.69
320.816	80.69
321.046	76.69
321.275	82.69
321.504	79.69
321.733	93.69
321.962	73.69
322.191	91.69
322.42	88.69
322.649	92.69
322.878	84.69
323.108	87.69
323.337	84.69
323.566	75.69
323.795	79.69
324.024	97.69
324.253	87.69
324.482	86.69
324.71	85.69
324.939	95.69
325.168	90.69
325.397	87.69
325.626	79.69
325.855	85.69
326.084	97.69
326.313	84.69
326.542	81.69
326.77	77.69
326.999	94.69
327.228	97.69
327.457	93.69
327.686	77.69
327.914	81.69
328.143	96.69
328.372	79.69
328.6	102.69
328.829	84.69
329.058	87.69
329.287	88.69
329.515	83.69
329.744	87.69
329.972	82.69
330.201	83.69
330.43	81.69
330.658	76.69
330.887	80.69
331.115	86.69
331.344	78.69
331.572	83.69
331.801	92.69
332.03	86.69
332.258	88.69
332.486	99.69
332.715	84.69
332.943	81.69
333.172	88.69
333.4	102.69
333.629	98.69
333.857	96.69
334.085	95.69
334.314	83.69
334.542	81.69
334.771	89.69
334.999	76.69
335.227	80.69
335.455	72.69
335.684	89.69
335.912	90.69
336.14	91.69
336.369	75.69
336.597	74.69
336.825	92.69
337.053	97.69
337.281	85.69
337.51	91.69
337.738	99.69
337.966	84.69
338.194	88.69
338.422	89.69
338.65	96.69
338.878	71.69
339.106	67.69
339.334	81.69
339.562	88.69
339.79	75.69
340.018	77.69
340.246	82.69
340.474	85.69
340.702	81.69
340.93	76.69
341.158	74.69
341.386	77.69
341.614	83.69
341.842	78.69
342.07	96.69
342.298	104.69
342.526	89.69
342.754	99.69
342.981	82.69
343.209	74.69
343.437	94.69
343.665	82.69
343.893	89.69
344.12	91.69
344.348	88.69
344.576	81.69
344.804	86.69
345.031	76.69
345.259	73.69
345.487	86.69
345.714	79.69
345.942	82.69
346.17	92.69
346.397	90.69
346.625	76.69
346.853	84.69
347.08	77.69
347.308	82.69
347.535	94.69
347.763	82.69
347.99	96.69
348.218	83.69
348.445	73.69
348.673	72.69
348.9	86.69
349.128	79.69
349.355	97.69
349.583	96.69
349.81	77.69
350.037	91.69
350.265	88.69
350.492	80.69
350.72	83.69
350.947	88.69
351.174	82.69
351.402	92.69
351.629	86.69
351.856	80.69
352.083	90.69
352.311	93.69
352.538	75.69
352.765	83.69
352.992	82.69
353.22	91.69
353.447	74.69
353.674	82.69
353.901	96.69
354.128	88.69
354.355	73.69
354.583	84.69
354.81	90.69
355.037	88.69
355.264	83.69
355.491	85.69
355.718	77.69
355.945	71.69
356.172	82.69
356.399	85.69
356.626	87.69
356.853	76.69
357.08	83.69
357.307	80.69
357.534	77.69
357.761	89.69
357.988	82.69
358.215	92.69
358.441	70.69
358.668	78.69
358.895	79.69
359.122	81.69
359.349	78.69
359.576	90.69
359.802	82.69
360.029	75.69
360.256	82.69
360.483	82.69
360.709	84.69
360.936	99.69
361.163	94.69
361.39	92.69
361.616	84.69
361.843	84.69
362.07	88.69
362.296	84.69
362.523	81.69
362.749	90.69
362.976	87.69
363.203	96.69
363.429	77.69
363.656	83.69
363.882	72.69
364.109	79.69
364.335	79.69
364.562	79.69
364.788	91.69
365.015	95.69
365.241	86.69
365.468	95.69
365.694	74.69
365.92	81.69
366.147	81.69
366.373	84.69
366.599	88.69
366.826	87.69
367.052	83.69
367.278	88.69
367.505	78.69
367.731	96.69
367.957	77.69
368.184	75.69
368.41	79.69
368.636	80.69
368.862	78.69
369.089	85.69
369.315	92.69
369.541	86.69
369.767	74.69
369.993	81.69
370.219	90.69
370.445	76.69
370.672	74.69
370.898	86.69
371.124	85.69
371.35	82.69
371.576	80.69
371.802	75.69
372.028	81.69
372.254	81.69
372.48	85.69
372.706	95.69
372.932	90.69
373.158	70.69
373.384	87.69
373.61	81.69
373.835	86.69
374.061	86.69
374.287	76.69
374.513	67.69
374.739	89.69
374.965	85.69
375.191	80.69
375.416	81.69
375.642	97.69
375.868	79.69
376.094	92.69
376.319	80.69
376.545	92.69
376.771	83.69
376.997	89.69
377.222	81.69
377.448	82.69
377.674	91.69
377.899	85.69
378.125	95.69
378.35	79.69
378.576	91.69
378.802	79.69
379.027	91.69
379.253	84.69
379.478	80.69
379.704	84.69
379.929	81.69
380.155	91.69
380.38	78.69
380.606	75.69
380.831	87.69
381.057	93.69
381.282	77.69
381.507	101.69
381.733	88.69
381.958	90.69
382.184	85.69
382.409	96.69
382.634	94.69
382.86	77.69
383.085	97.69
383.31	97.69
383.535	88.69
383.761	80.69
383.986	79.69
384.211	86.69
384.436	93.69
384.662	104.69
384.887	91.69
385.112	94.69
385.337	82.69
385.562	86.69
385.787	93.69
386.013	90.69
386.238	95.69
386.463	85.69
386.688	74.69
386.913	89.69
387.138	99.69
387.363	88.69
387.588	92.69
387.813	75.69
388.038	91.69
388.263	85.69
388.488	83.69
388.713	78.69
388.938	84.69
389.163	86.69
389.387	92.69
389.612	88.69
389.837	101.69
390.062	90.69
390.287	88.69
390.512	106.69
390.736	87.69
390.961	92.69
391.186	90.69
391.411	89.69
391.636	95.69
391.86	80.69
392.085	99.69
392.31	88.69
392.534	81.69
392.759	77.69
392.984	95.69
393.208	88.69
393.433	94.69
393.658	85.69
393.882	90.69
394.107	93.69
394.331	90.69
394.556	99.69
394.78	94.69
395.005	77.69
395.229	87.69
395.454	86.69
395.678	107.69
395.903	96.69
396.127	88.69
396.352	78.69
396.576	86.69
396.801	86.69
397.025	82.69
397.249	84.69
397.474	92.69
397.698	81.69
397.922	76.69
398.147	75.69
398.371	89.69
398.595	87.69
398.82	98.69
399.044	89.69
399.268	84.69
399.492	100.69
399.717	88.69
399.941	91.69
400.165	87.69
400.389	90.69
400.613	98.69
400.837	79.69
401.062	97.69
401.286	91.69
401.51	90.69
401.734	74.69
401.958	88.69
402.182	90.69
402.406	92.69
402.63	80.69
402.854	92.69
403.078	88.69
403.302	92.69
403.526	93.69
403.75	91.69
403.974	91.69
404.198	85.69
404.422	80.69
404.645	90.69
404.869	105.69
405.093	99.69
405.317	83.69
405.541	107.69
405.765	84.69
405.988	83.69
406.212	92.69
406.436	90.69
406.66	99.69
406.883	85.69
407.107	100.69
407.331	91.69
407.555	90.69
407.778	79.69
408.002	80.69
408.226	86.69
408.449	92.69
408.673	88.69
408.896	85.69
409.12	88.69
409.344	93.69
409.567	86.69
409.791	92.69
410.014	90.69
410.238	96.69
410.461	94.69
410.685	96.69
410.908	91.69
411.132	101.69
411.355	94.69
411.578	96.69
411.802	99.69
412.025	88.69
412.249	97.69
412.472	88.69
412.695	74.69
412.919	108.69
413.142	90.69
413.365	107.69
413.589	93.69
413.812	92.69
414.035	101.69
414.258	96.69
414.482	84.69
414.705	89.69
414.928	81.69
415.151	90.69
415.374	95.69
415.597	100.69
415.821	101.69
416.044	103.69
416.267	97.69
416.49	97.69
416.713	102.69
416.936	100.69
417.159	87.69
417.382	101.69
417.605	78.69
417.828	82.69
418.051	97.69
418.274	92.69
418.497	92.69
418.72	105.69
418.943	100.69
419.166	86.69
419.389	103.69
419.611	88.69
419.834	98.69
420.057	100.69
420.28	87.69
420.503	95.69
420.726	93.69
420.948	95.69
421.171	104.69
421.394	101.69
421.617	92.69
421.839	115.69
422.062	71.69
422.285	104.69
422.507	93.69
422.73	100.69
422.953	96.69
423.175	90.69
423.398	92.69
423.621	88.69
423.843	92.69
424.066	107.69
424.288	105.69
424.511	102.69
424.733	85.69
424.956	93.69
425.178	88.69
425.401	111.69
425.623	105.69
425.846	82.69
426.068	91.69
426.291	90.69
426.513	96.69
426.735	95.69
426.958	106.69
427.18	96.69
427.402	96.69
427.625	95.69
427.847	86.69
428.069	94.69
428.292	111.69
428.514	103.69
428.736	81.69
428.958	85.69
429.181	102.69
429.403	92.69
429.625	100.69
429.847	86.69
430.069	91.69
430.292	100.69
430.514	104.69
430.736	102.69
430.958	99.69
431.18	96.69
431.402	100.69
431.624	99.69
431.846	96.69
432.068	87.69
432.29	85.69
432.512	90.69
432.734	107.69
432.956	87.69
433.178	89.69
433.4	104.69
433.622	118.69
433.844	99.69
434.066	109.69
434.287	80.69
434.509	82.69
434.731	92.69
434.953	88.69
435.175	88.69
435.397	92.69
435.618	86.69
435.84	97.69
436.062	78.69
436.284	90.69
436.505	92.69
436.727	89.69
436.949	86.69
437.17	92.69
437.392	89.69
437.614	75.69
437.835	96.69
438.057	97.69
438.278	84.69
438.5	104.69
438.721	102.69
438.943	103.69
439.165	96.69
439.386	93.69
439.608	104.69
439.829	107.69
440.05	93.69
440.272	108.69
440.493	100.69
440.715	92.69
440.936	105.69
441.158	97.69
441.379	91.69
441.6	93.69
441.822	82.69
442.043	106.69
442.264	94.69
442.486	90.69
442.707	103.69
442.928	100.69
443.149	98.69
443.371	105.69
443.592	104.69
443.813	93.69
444.034	98.69
444.255	98.69
444.476	86.69
444.698	99.69
444.919	93.69
445.14	188.69
445.361	131.69
445.582	101.69
445.803	101.69
446.024	98.69
446.245	105.69
446.466	107.69
446.687	104.69
446.908	93.69
447.129	112.69
447.35	104.69
447.571	99.69
447.792	101.69
448.013	114.69
448.234	103.69
448.455	88.69
448.675	106.69
448.896	101.69
449.117	79.69
449.338	97.69
449.559	115.69
449.779	98.69
450	94.69
450.221	82.69
450.442	97.69
450.662	83.69
450.883	96.69
451.104	102.69
451.324	92.69
451.545	94.69
451.766	95.69
451.986	96.69
452.207	102.69
452.428	85.69
452.648	104.69
452.869	88.69
453.089	92.69
453.31	96.69
453.53	80.69
453.751	93.69
453.971	92.69
454.192	82.69
454.412	85.69
454.633	91.69
454.853	96.69
455.073	89.69
455.294	87.69
455.514	80.69
455.734	94.69
455.955	93.69
456.175	103.69
456.395	88.69
456.616	99.69
456.836	81.69
457.056	88.69
457.276	88.69
457.497	89.69
457.717	77.69
457.937	84.69
458.157	75.69
458.377	94.69
458.598	79.69
458.818	87.69
459.038	80.69
459.258	84.69
459.478	78.69
459.698	96.69
459.918	93.69
460.138	82.69
460.358	81.69
460.578	100.69
460.798	80.69
461.018	91.69
461.238	93.69
461.458	102.69
461.678	95.69
461.898	92.69
462.118	90.69
462.338	85.69
462.558	98.69
462.777	72.69
462.997	81.69
463.217	88.69
463.437	94.69
463.657	93.69
463.876	88.69
464.096	97.69
464.316	89.69
464.536	77.69
464.755	100.69
464.975	84.69
465.195	88.69
465.414	83.69
465.634	87.69
465.854	99.69
466.073	91.69
466.293	113.69
466.512	93.69
466.732	102.69
466.951	102.69
467.171	88.69
467.391	97.69
467.61	93.69
467.829	100.69
468.049	107.69
468.268	104.69
468.488	92.69
468.707	92.69
468.927	99.69
469.146	91.69
469.365	106.69
469.585	100.69
469.804	107.69
470.023	99.69
470.243	93.69
470.462	100.69
470.681	108.69
470.901	100.69
471.12	108.69
471.339	85.69
471.558	85.69
471.777	100.69
471.997	99.69
472.216	93.69
472.435	97.69
472.654	100.69
472.873	92.69
473.092	84.69
473.311	97.69
473.53	97.69
473.749	90.69
473.968	90.69
474.187	87.69
474.406	109.69
474.625	98.69
474.844	91.69
475.063	106.69
475.282	107.69
475.501	97.69
475.72	102.69
475.939	97.69
476.158	89.69
476.377	90.69
476.596	96.69
476.814	86.69
477.033	88.69
477.252	93.69
477.471	101.69
477.69	109.69
477.908	105.69
478.127	107.69
478.346	100.69
478.564	98.69
478.783	77.69
479.002	101.69
479.22	113.69
479.439	104.69
479.658	109.69
479.876	96.69
480.095	91.69
480.313	95.69
480.532	91.69
480.751	90.69
480.969	92.69
481.188	96.69
481.406	99.69
481.624	85.69
481.843	95.69
482.061	102.69
482.28	89.69
482.498	93.69
482.717	90.69
482.935	85.69
483.153	99.69
483.372	102.69
483.59	101.69
483.808	99.69
484.027	82.69
484.245	98.69
484.463	111.69
484.681	107.69
484.9	111.69
485.118	93.69
485.336	91.69
485.554	92.69
485.772	81.69
485.99	84.69
486.209	102.69
486.427	89.69
486.645	93.69
486.863	101.69
487.081	94.69
487.299	85.69
487.517	98.69
487.735	114.69
487.953	112.69
488.171	117.69
488.389	126.69
488.607	95.69
488.825	89.69
489.043	92.69
489.261	92.69
489.479	106.69
489.696	89.69
489.914	101.69
490.132	100.69
490.35	117.69
490.568	98.69
490.786	100.69
491.003	115.69
491.221	102.69
491.439	114.69
491.657	125.69
491.874	118.69
492.092	127.69
492.31	118.69
492.527	127.69
492.745	119.69
492.963	120.69
493.18	125.69
493.398	122.69
493.615	119.69
493.833	116.69
494.05	104.69
494.268	115.69
494.485	104.69
494.703	123.69
494.92	130.69
495.138	122.69
495.355	106.69
495.573	104.69
495.79	100.69
496.008	111.69
496.225	123.69
496.442	107.69
496.66	113.69
496.877	108.69
497.094	92.69
497.312	117.69
497.529	116.69
497.746	103.69
497.963	99.69
498.181	97.69
498.398	84.69
498.615	101.69
498.832	108.69
499.049	106.69
499.267	83.69
499.484	88.69
499.701	92.69
499.918	99.69
500.135	111.69
500.352	119.69
500.569	110.69
500.786	95.69
501.003	106.69
501.22	92.69
501.437	97.69
501.654	88.69
501.871	109.69
502.088	98.69
502.305	97.69
502.522	109.69
502.739	100.69
502.956	104.69
503.172	94.69
503.389	109.69
503.606	100.69
503.823	94.69
504.04	85.69
504.256	89.69
504.473	94.69
504.69	93.69
504.907	97.69
505.123	91.69
505.34	90.69
505.557	83.69
505.773	104.69
505.99	91.69
506.207	89.69
506.423	98.69
506.64	105.69
506.856	102.69
507.073	103.69
507.289	94.69
507.506	106.69
507.722	98.69
507.939	91.69
508.155	97.69
508.372	91.69
508.588	85.69
508.805	92.69
509.021	83.69
509.238	95.69
509.454	75.69
509.67	85.69
509.887	96.69
510.103	95.69
510.319	102.69
510.536	89.69
510.752	94.69
510.968	85.69
511.184	84.69
511.401	79.69
511.617	76.69
511.833	98.69
512.049	85.69
512.265	92.69
512.481	100.69
512.698	84.69
512.914	78.69
513.13	88.69
513.346	89.69
513.562	97.69
513.778	82.69
513.994	89.69
514.21	91.69
514.426	72.69
514.642	94.69
514.858	97.69
515.074	86.69
515.29	98.69
515.506	70.69
515.721	83.69
515.937	92.69
516.153	80.69
516.369	86.69
516.585	89.69
516.801	81.69
