Data from Location4.07152019.Energy5.Lamp.07192019.3%Agarose_HRD10591_15-24-35-577.txt Node
Date: Fri Jul 19 15:24:35 EDT 2019
User: cochatt
Spectrometer: HR+D1059
Trigger mode: 1
Integration Time (sec): 1.000000E-1
Scans to average: 1
Electric dark correction enabled: true
Nonlinearity correction enabled: false
Boxcar width: 0
XAxis mode: Wavelengths
Number of Pixels in Spectrum: 2048
>>>>>Begin Spectral Data<<<<<
223.165	-18.38
223.4	-18.38
223.635	-18.38
223.869	-22.38
224.104	-8.38
224.338	-22.38
224.573	-25.38
224.808	-3.38
225.042	-7.38
225.277	-14.38
225.511	-15.38
225.746	2.62
225.98	21.62
226.215	9.62
226.449	25.62
226.683	24.62
226.918	23.62
227.152	29.62
227.387	20.62
227.621	33.62
227.856	24.62
228.09	49.62
228.324	47.62
228.559	45.62
228.793	58.62
229.027	57.62
229.262	71.62
229.496	63.62
229.73	60.62
229.964	69.62
230.199	64.62
230.433	72.62
230.667	74.62
230.901	75.62
231.136	65.62
231.37	82.62
231.604	78.62
231.838	84.62
232.072	84.62
232.306	70.62
232.541	80.62
232.775	83.62
233.009	91.62
233.243	81.62
233.477	89.62
233.711	85.62
233.945	86.62
234.179	57.62
234.413	71.62
234.647	82.62
234.881	91.62
235.115	69.62
235.349	67.62
235.583	72.62
235.817	77.62
236.051	86.62
236.285	74.62
236.519	71.62
236.753	73.62
236.987	72.62
237.221	86.62
237.455	72.62
237.689	67.62
237.922	69.62
238.156	69.62
238.39	74.62
238.624	70.62
238.858	81.62
239.091	71.62
239.325	66.62
239.559	63.62
239.793	78.62
240.027	80.62
240.26	75.62
240.494	69.62
240.728	75.62
240.961	78.62
241.195	71.62
241.429	75.62
241.662	71.62
241.896	73.62
242.13	70.62
242.363	66.62
242.597	79.62
242.83	76.62
243.064	70.62
243.298	83.62
243.531	69.62
243.765	87.62
243.998	79.62
244.232	80.62
244.465	78.62
244.699	71.62
244.932	83.62
245.166	66.62
245.399	76.62
245.633	85.62
245.866	57.62
246.099	75.62
246.333	83.62
246.566	58.62
246.8	78.62
247.033	65.62
247.266	71.62
247.5	76.62
247.733	66.62
247.966	76.62
248.2	81.62
248.433	67.62
248.666	81.62
248.899	75.62
249.133	73.62
249.366	78.62
249.599	68.62
249.832	75.62
250.066	79.62
250.299	74.62
250.532	86.62
250.765	77.62
250.998	75.62
251.231	56.62
251.465	87.62
251.698	78.62
251.931	86.62
252.164	81.62
252.397	80.62
252.63	73.62
252.863	79.62
253.096	82.62
253.329	70.62
253.562	85.62
253.795	83.62
254.028	77.62
254.261	78.62
254.494	78.62
254.727	77.62
254.96	75.62
255.193	68.62
255.426	80.62
255.659	69.62
255.892	72.62
256.124	83.62
256.357	90.62
256.59	69.62
256.823	77.62
257.056	79.62
257.289	82.62
257.521	93.62
257.754	65.62
257.987	80.62
258.22	87.62
258.452	81.62
258.685	87.62
258.918	71.62
259.151	78.62
259.383	73.62
259.616	81.62
259.849	77.62
260.081	69.62
260.314	70.62
260.547	80.62
260.779	73.62
261.012	82.62
261.244	77.62
261.477	75.62
261.71	76.62
261.942	75.62
262.175	75.62
262.407	89.62
262.64	73.62
262.872	65.62
263.105	77.62
263.337	76.62
263.57	69.62
263.802	70.62
264.035	70.62
264.267	70.62
264.499	75.62
264.732	91.62
264.964	77.62
265.197	85.62
265.429	78.62
265.661	79.62
265.894	78.62
266.126	85.62
266.358	63.62
266.591	70.62
266.823	81.62
267.055	80.62
267.287	78.62
267.52	97.62
267.752	83.62
267.984	85.62
268.216	79.62
268.448	80.62
268.681	81.62
268.913	76.62
269.145	72.62
269.377	92.62
269.609	87.62
269.841	74.62
270.073	72.62
270.306	72.62
270.538	65.62
270.77	79.62
271.002	101.62
271.234	83.62
271.466	100.62
271.698	70.62
271.93	77.62
272.162	79.62
272.394	60.62
272.626	85.62
272.858	76.62
273.09	82.62
273.322	100.62
273.553	90.62
273.785	79.62
274.017	65.62
274.249	93.62
274.481	89.62
274.713	100.62
274.945	88.62
275.176	75.62
275.408	79.62
275.64	82.62
275.872	85.62
276.104	94.62
276.335	88.62
276.567	74.62
276.799	94.62
277.031	79.62
277.262	56.62
277.494	77.62
277.726	88.62
277.957	76.62
278.189	83.62
278.421	80.62
278.652	77.62
278.884	74.62
279.115	74.62
279.347	89.62
279.579	85.62
279.81	68.62
280.042	81.62
280.273	89.62
280.505	74.62
280.736	81.62
280.968	82.62
281.199	80.62
281.431	82.62
281.662	94.62
281.894	71.62
282.125	75.62
282.356	81.62
282.588	84.62
282.819	85.62
283.051	73.62
283.282	73.62
283.513	89.62
283.745	72.62
283.976	88.62
284.207	77.62
284.439	80.62
284.67	85.62
284.901	88.62
285.132	75.62
285.364	89.62
285.595	88.62
285.826	84.62
286.057	65.62
286.288	93.62
286.52	80.62
286.751	99.62
286.982	80.62
287.213	71.62
287.444	93.62
287.675	86.62
287.906	72.62
288.138	81.62
288.369	92.62
288.6	71.62
288.831	85.62
289.062	83.62
289.293	84.62
289.524	75.62
289.755	77.62
289.986	83.62
290.217	79.62
290.448	72.62
290.679	81.62
290.91	95.62
291.141	82.62
291.371	80.62
291.602	88.62
291.833	86.62
292.064	73.62
292.295	76.62
292.526	88.62
292.757	75.62
292.987	74.62
293.218	82.62
293.449	95.62
293.68	75.62
293.91	87.62
294.141	78.62
294.372	63.62
294.603	78.62
294.833	85.62
295.064	74.62
295.295	85.62
295.525	89.62
295.756	82.62
295.987	84.62
296.217	80.62
296.448	54.62
296.679	89.62
296.909	75.62
297.14	79.62
297.37	86.62
297.601	85.62
297.831	95.62
298.062	86.62
298.292	53.62
298.523	88.62
298.753	95.62
298.984	73.62
299.214	85.62
299.445	67.62
299.675	79.62
299.905	95.62
300.136	80.62
300.366	86.62
300.597	80.62
300.827	83.62
301.057	83.62
301.288	72.62
301.518	87.62
301.748	73.62
301.979	80.62
302.209	68.62
302.439	76.62
302.669	86.62
302.9	86.62
303.13	79.62
303.36	77.62
303.59	86.62
303.82	73.62
304.051	85.62
304.281	83.62
304.511	83.62
304.741	74.62
304.971	76.62
305.201	77.62
305.431	106.62
305.661	93.62
305.891	86.62
306.121	81.62
306.352	80.62
306.582	84.62
306.812	74.62
307.042	85.62
307.272	85.62
307.502	73.62
307.731	91.62
307.961	80.62
308.191	82.62
308.421	78.62
308.651	83.62
308.881	81.62
309.111	83.62
309.341	96.62
309.571	81.62
309.8	84.62
310.03	87.62
310.26	83.62
310.49	80.62
310.72	89.62
310.949	88.62
311.179	78.62
311.409	85.62
311.639	95.62
311.868	94.62
312.098	77.62
312.328	61.62
312.557	74.62
312.787	83.62
313.017	89.62
313.246	85.62
313.476	78.62
313.706	83.62
313.935	79.62
314.165	70.62
314.394	84.62
314.624	80.62
314.853	77.62
315.083	74.62
315.312	76.62
315.542	91.62
315.771	94.62
316.001	93.62
316.23	77.62
316.46	85.62
316.689	93.62
316.919	77.62
317.148	86.62
317.377	84.62
317.607	91.62
317.836	93.62
318.065	82.62
318.295	86.62
318.524	88.62
318.753	79.62
318.983	90.62
319.212	89.62
319.441	79.62
319.67	87.62
319.9	86.62
320.129	98.62
320.358	77.62
320.587	85.62
320.816	93.62
321.046	83.62
321.275	82.62
321.504	83.62
321.733	78.62
321.962	78.62
322.191	79.62
322.42	83.62
322.649	80.62
322.878	100.62
323.108	70.62
323.337	75.62
323.566	89.62
323.795	81.62
324.024	95.62
324.253	83.62
324.482	96.62
324.71	77.62
324.939	91.62
325.168	89.62
325.397	79.62
325.626	86.62
325.855	83.62
326.084	86.62
326.313	95.62
326.542	75.62
326.77	79.62
326.999	83.62
327.228	91.62
327.457	85.62
327.686	99.62
327.914	87.62
328.143	94.62
328.372	93.62
328.6	87.62
328.829	75.62
329.058	76.62
329.287	90.62
329.515	85.62
329.744	88.62
329.972	76.62
330.201	86.62
330.43	87.62
330.658	84.62
330.887	95.62
331.115	85.62
331.344	85.62
331.572	85.62
331.801	82.62
332.03	84.62
332.258	90.62
332.486	85.62
332.715	84.62
332.943	84.62
333.172	88.62
333.4	81.62
333.629	92.62
333.857	89.62
334.085	84.62
334.314	89.62
334.542	90.62
334.771	81.62
334.999	75.62
335.227	81.62
335.455	88.62
335.684	82.62
335.912	82.62
336.14	67.62
336.369	90.62
336.597	75.62
336.825	85.62
337.053	79.62
337.281	74.62
337.51	85.62
337.738	85.62
337.966	83.62
338.194	90.62
338.422	80.62
338.65	85.62
338.878	75.62
339.106	70.62
339.334	84.62
339.562	90.62
339.79	78.62
340.018	87.62
340.246	82.62
340.474	90.62
340.702	98.62
340.93	88.62
341.158	79.62
341.386	65.62
341.614	82.62
341.842	75.62
342.07	86.62
342.298	86.62
342.526	79.62
342.754	89.62
342.981	98.62
343.209	97.62
343.437	98.62
343.665	83.62
343.893	89.62
344.12	88.62
344.348	76.62
344.576	89.62
344.804	75.62
345.031	87.62
345.259	84.62
345.487	70.62
345.714	87.62
345.942	85.62
346.17	88.62
346.397	80.62
346.625	80.62
346.853	82.62
347.08	73.62
347.308	88.62
347.535	85.62
347.763	77.62
347.99	82.62
348.218	88.62
348.445	73.62
348.673	77.62
348.9	94.62
349.128	81.62
349.355	81.62
349.583	85.62
349.81	85.62
350.037	80.62
350.265	87.62
350.492	83.62
350.72	71.62
350.947	84.62
351.174	71.62
351.402	71.62
351.629	86.62
351.856	90.62
352.083	74.62
352.311	98.62
352.538	71.62
352.765	85.62
352.992	82.62
353.22	81.62
353.447	92.62
353.674	85.62
353.901	86.62
354.128	79.62
354.355	74.62
354.583	97.62
354.81	79.62
355.037	83.62
355.264	84.62
355.491	86.62
355.718	67.62
355.945	79.62
356.172	69.62
356.399	82.62
356.626	81.62
356.853	90.62
357.08	80.62
357.307	85.62
357.534	83.62
357.761	77.62
357.988	91.62
358.215	74.62
358.441	74.62
358.668	91.62
358.895	78.62
359.122	74.62
359.349	79.62
359.576	85.62
359.802	84.62
360.029	82.62
360.256	87.62
360.483	80.62
360.709	84.62
360.936	81.62
361.163	85.62
361.39	89.62
361.616	64.62
361.843	78.62
362.07	84.62
362.296	80.62
362.523	89.62
362.749	84.62
362.976	86.62
363.203	88.62
363.429	84.62
363.656	81.62
363.882	89.62
364.109	86.62
364.335	85.62
364.562	89.62
364.788	79.62
365.015	84.62
365.241	83.62
365.468	98.62
365.694	88.62
365.92	75.62
366.147	72.62
366.373	82.62
366.599	82.62
366.826	89.62
367.052	89.62
367.278	85.62
367.505	94.62
367.731	85.62
367.957	85.62
368.184	73.62
368.41	82.62
368.636	78.62
368.862	90.62
369.089	77.62
369.315	82.62
369.541	80.62
369.767	74.62
369.993	88.62
370.219	81.62
370.445	86.62
370.672	79.62
370.898	89.62
371.124	90.62
371.35	87.62
371.576	97.62
371.802	73.62
372.028	84.62
372.254	84.62
372.48	93.62
372.706	70.62
372.932	87.62
373.158	77.62
373.384	79.62
373.61	72.62
373.835	80.62
374.061	87.62
374.287	81.62
374.513	70.62
374.739	87.62
374.965	70.62
375.191	66.62
375.416	86.62
375.642	81.62
375.868	82.62
376.094	81.62
376.319	78.62
376.545	83.62
376.771	90.62
376.997	79.62
377.222	78.62
377.448	90.62
377.674	98.62
377.899	79.62
378.125	88.62
378.35	85.62
378.576	88.62
378.802	80.62
379.027	74.62
379.253	82.62
379.478	76.62
379.704	79.62
379.929	82.62
380.155	93.62
380.38	79.62
380.606	93.62
380.831	71.62
381.057	80.62
381.282	82.62
381.507	79.62
381.733	72.62
381.958	106.62
382.184	71.62
382.409	79.62
382.634	91.62
382.86	93.62
383.085	101.62
383.31	84.62
383.535	88.62
383.761	81.62
383.986	91.62
384.211	59.62
384.436	96.62
384.662	75.62
384.887	85.62
385.112	85.62
385.337	88.62
385.562	83.62
385.787	72.62
386.013	78.62
386.238	90.62
386.463	82.62
386.688	74.62
386.913	72.62
387.138	84.62
387.363	91.62
387.588	85.62
387.813	84.62
388.038	72.62
388.263	83.62
388.488	81.62
388.713	81.62
388.938	78.62
389.163	89.62
389.387	70.62
389.612	75.62
389.837	79.62
390.062	72.62
390.287	80.62
390.512	75.62
390.736	88.62
390.961	83.62
391.186	80.62
391.411	85.62
391.636	81.62
391.86	81.62
392.085	91.62
392.31	99.62
392.534	78.62
392.759	76.62
392.984	74.62
393.208	82.62
393.433	73.62
393.658	79.62
393.882	95.62
394.107	83.62
394.331	88.62
394.556	76.62
394.78	57.62
395.005	70.62
395.229	81.62
395.454	85.62
395.678	87.62
395.903	83.62
396.127	73.62
396.352	74.62
396.576	87.62
396.801	81.62
397.025	80.62
397.249	90.62
397.474	83.62
397.698	92.62
397.922	83.62
398.147	100.62
398.371	81.62
398.595	86.62
398.82	82.62
399.044	81.62
399.268	81.62
399.492	89.62
399.717	78.62
399.941	70.62
400.165	76.62
400.389	78.62
400.613	84.62
400.837	82.62
401.062	89.62
401.286	85.62
401.51	87.62
401.734	84.62
401.958	94.62
402.182	87.62
402.406	82.62
402.63	90.62
402.854	90.62
403.078	92.62
403.302	98.62
403.526	91.62
403.75	95.62
403.974	96.62
404.198	93.62
404.422	90.62
404.645	85.62
404.869	79.62
405.093	98.62
405.317	90.62
405.541	77.62
405.765	89.62
405.988	79.62
406.212	89.62
406.436	98.62
406.66	82.62
406.883	101.62
407.107	84.62
407.331	72.62
407.555	85.62
407.778	88.62
408.002	83.62
408.226	99.62
408.449	95.62
408.673	74.62
408.896	80.62
409.12	89.62
409.344	88.62
409.567	82.62
409.791	84.62
410.014	93.62
410.238	92.62
410.461	80.62
410.685	82.62
410.908	95.62
411.132	85.62
411.355	83.62
411.578	85.62
411.802	94.62
412.025	95.62
412.249	95.62
412.472	100.62
412.695	85.62
412.919	86.62
413.142	91.62
413.365	100.62
413.589	93.62
413.812	78.62
414.035	97.62
414.258	91.62
414.482	81.62
414.705	104.62
414.928	85.62
415.151	87.62
415.374	78.62
415.597	94.62
415.821	80.62
416.044	84.62
416.267	90.62
416.49	79.62
416.713	85.62
416.936	86.62
417.159	96.62
417.382	99.62
417.605	75.62
417.828	91.62
418.051	79.62
418.274	80.62
418.497	104.62
418.72	82.62
418.943	98.62
419.166	94.62
419.389	83.62
419.611	88.62
419.834	89.62
420.057	92.62
420.28	86.62
420.503	83.62
420.726	91.62
420.948	98.62
421.171	87.62
421.394	83.62
421.617	79.62
421.839	94.62
422.062	73.62
422.285	83.62
422.507	87.62
422.73	95.62
422.953	93.62
423.175	78.62
423.398	77.62
423.621	96.62
423.843	103.62
424.066	99.62
424.288	106.62
424.511	93.62
424.733	94.62
424.956	86.62
425.178	97.62
425.401	88.62
425.623	93.62
425.846	93.62
426.068	87.62
426.291	81.62
426.513	85.62
426.735	89.62
426.958	80.62
427.18	89.62
427.402	91.62
427.625	102.62
427.847	82.62
428.069	87.62
428.292	103.62
428.514	95.62
428.736	102.62
428.958	91.62
429.181	85.62
429.403	93.62
429.625	96.62
429.847	100.62
430.069	90.62
430.292	104.62
430.514	98.62
430.736	98.62
430.958	103.62
431.18	69.62
431.402	87.62
431.624	99.62
431.846	86.62
432.068	79.62
432.29	90.62
432.512	75.62
432.734	88.62
432.956	88.62
433.178	103.62
433.4	86.62
433.622	92.62
433.844	83.62
434.066	82.62
434.287	102.62
434.509	84.62
434.731	79.62
434.953	69.62
435.175	89.62
435.397	88.62
435.618	92.62
435.84	78.62
436.062	93.62
436.284	90.62
436.505	94.62
436.727	86.62
436.949	94.62
437.17	89.62
437.392	95.62
437.614	80.62
437.835	81.62
438.057	80.62
438.278	87.62
438.5	90.62
438.721	103.62
438.943	90.62
439.165	99.62
439.386	97.62
439.608	90.62
439.829	110.62
440.05	115.62
440.272	98.62
440.493	98.62
440.715	82.62
440.936	93.62
441.158	95.62
441.379	91.62
441.6	98.62
441.822	101.62
442.043	97.62
442.264	102.62
442.486	96.62
442.707	103.62
442.928	107.62
443.149	95.62
443.371	90.62
443.592	87.62
443.813	95.62
444.034	99.62
444.255	104.62
444.476	95.62
444.698	97.62
444.919	92.62
445.14	218.62
445.361	139.62
445.582	101.62
445.803	102.62
446.024	102.62
446.245	91.62
446.466	101.62
446.687	102.62
446.908	102.62
447.129	98.62
447.35	107.62
447.571	97.62
447.792	108.62
448.013	99.62
448.234	100.62
448.455	85.62
448.675	98.62
448.896	92.62
449.117	88.62
449.338	104.62
449.559	94.62
449.779	112.62
450	102.62
450.221	81.62
450.442	92.62
450.662	92.62
450.883	102.62
451.104	100.62
451.324	84.62
451.545	99.62
451.766	87.62
451.986	88.62
452.207	98.62
452.428	85.62
452.648	91.62
452.869	91.62
453.089	88.62
453.31	77.62
453.53	81.62
453.751	92.62
453.971	91.62
454.192	84.62
454.412	85.62
454.633	67.62
454.853	82.62
455.073	82.62
455.294	71.62
455.514	95.62
455.734	86.62
455.955	79.62
456.175	95.62
456.395	98.62
456.616	78.62
456.836	80.62
457.056	88.62
457.276	85.62
457.497	86.62
457.717	81.62
457.937	87.62
458.157	69.62
458.377	77.62
458.598	86.62
458.818	83.62
459.038	83.62
459.258	80.62
459.478	82.62
459.698	66.62
459.918	76.62
460.138	89.62
460.358	94.62
460.578	89.62
460.798	85.62
461.018	90.62
461.238	96.62
461.458	79.62
461.678	86.62
461.898	87.62
462.118	97.62
462.338	82.62
462.558	90.62
462.777	87.62
462.997	75.62
463.217	96.62
463.437	67.62
463.657	85.62
463.876	87.62
464.096	102.62
464.316	95.62
464.536	83.62
464.755	92.62
464.975	79.62
465.195	80.62
465.414	86.62
465.634	84.62
465.854	81.62
466.073	100.62
466.293	89.62
466.512	89.62
466.732	95.62
466.951	95.62
467.171	88.62
467.391	89.62
467.61	93.62
467.829	94.62
468.049	91.62
468.268	86.62
468.488	85.62
468.707	99.62
468.927	95.62
469.146	89.62
469.365	102.62
469.585	97.62
469.804	89.62
470.023	84.62
470.243	78.62
470.462	106.62
470.681	86.62
470.901	90.62
471.12	81.62
471.339	88.62
471.558	93.62
471.777	92.62
471.997	91.62
472.216	102.62
472.435	82.62
472.654	89.62
472.873	82.62
473.092	82.62
473.311	91.62
473.53	88.62
473.749	107.62
473.968	93.62
474.187	78.62
474.406	91.62
474.625	104.62
474.844	87.62
475.063	111.62
475.282	92.62
475.501	95.62
475.72	94.62
475.939	88.62
476.158	89.62
476.377	96.62
476.596	88.62
476.814	98.62
477.033	88.62
477.252	77.62
477.471	84.62
477.69	89.62
477.908	94.62
478.127	98.62
478.346	106.62
478.564	89.62
478.783	97.62
479.002	93.62
479.22	104.62
479.439	98.62
479.658	90.62
479.876	83.62
480.095	85.62
480.313	94.62
480.532	95.62
480.751	94.62
480.969	82.62
481.188	80.62
481.406	79.62
481.624	77.62
481.843	79.62
482.061	82.62
482.28	77.62
482.498	86.62
482.717	81.62
482.935	89.62
483.153	90.62
483.372	89.62
483.59	113.62
483.808	97.62
484.027	89.62
484.245	96.62
484.463	102.62
484.681	99.62
484.9	94.62
485.118	87.62
485.336	79.62
485.554	101.62
485.772	82.62
485.99	79.62
486.209	79.62
486.427	84.62
486.645	109.62
486.863	102.62
487.081	94.62
487.299	94.62
487.517	86.62
487.735	93.62
487.953	129.62
488.171	114.62
488.389	94.62
488.607	96.62
488.825	96.62
489.043	94.62
489.261	102.62
489.479	92.62
489.696	89.62
489.914	95.62
490.132	107.62
490.35	106.62
490.568	94.62
490.786	115.62
491.003	106.62
491.221	103.62
491.439	102.62
491.657	109.62
491.874	99.62
492.092	122.62
492.31	117.62
492.527	131.62
492.745	113.62
492.963	120.62
493.18	108.62
493.398	118.62
493.615	103.62
493.833	99.62
494.05	106.62
494.268	117.62
494.485	104.62
494.703	113.62
494.92	100.62
495.138	104.62
495.355	96.62
495.573	95.62
495.79	95.62
496.008	98.62
496.225	103.62
496.442	114.62
496.66	119.62
496.877	113.62
497.094	102.62
497.312	101.62
497.529	97.62
497.746	96.62
497.963	86.62
498.181	95.62
498.398	92.62
498.615	96.62
498.832	98.62
499.049	99.62
499.267	104.62
499.484	105.62
499.701	84.62
499.918	91.62
500.135	102.62
500.352	107.62
500.569	90.62
500.786	97.62
501.003	101.62
501.22	97.62
501.437	90.62
501.654	83.62
501.871	97.62
502.088	100.62
502.305	91.62
502.522	82.62
502.739	88.62
502.956	99.62
503.172	103.62
503.389	90.62
503.606	93.62
503.823	104.62
504.04	99.62
504.256	93.62
504.473	90.62
504.69	89.62
504.907	100.62
505.123	109.62
505.34	102.62
505.557	87.62
505.773	89.62
505.99	88.62
506.207	88.62
506.423	102.62
506.64	90.62
506.856	91.62
507.073	98.62
507.289	89.62
507.506	82.62
507.722	83.62
507.939	94.62
508.155	109.62
508.372	100.62
508.588	72.62
508.805	96.62
509.021	77.62
509.238	84.62
509.454	98.62
509.67	99.62
509.887	76.62
510.103	82.62
510.319	73.62
510.536	74.62
510.752	78.62
510.968	77.62
511.184	87.62
511.401	86.62
511.617	86.62
511.833	82.62
512.049	91.62
512.265	87.62
512.481	81.62
512.698	73.62
512.914	79.62
513.13	90.62
513.346	77.62
513.562	83.62
513.778	90.62
513.994	86.62
514.21	100.62
514.426	78.62
514.642	83.62
514.858	78.62
515.074	86.62
515.29	76.62
515.506	85.62
515.721	71.62
515.937	84.62
516.153	79.62
516.369	75.62
516.585	80.62
516.801	74.62
517.016	85.62
517.232	65.62
517.448	80.62
517.664	80.62
517.879	70.62
