Data from Location4.07152019.Energy5.Lamp.07192019.3%Agarose_HRD10591_15-24-51-577.txt Node
Date: Fri Jul 19 15:24:51 EDT 2019
User: cochatt
Spectrometer: HR+D1059
Trigger mode: 1
Integration Time (sec): 1.000000E-1
Scans to average: 1
Electric dark correction enabled: true
Nonlinearity correction enabled: false
Boxcar width: 0
XAxis mode: Wavelengths
Number of Pixels in Spectrum: 2048
>>>>>Begin Spectral Data<<<<<
223.165	-9.56
223.4	-9.56
223.635	-9.56
223.869	-23.56
224.104	-23.56
224.338	-6.56
224.573	-21.56
224.808	-15.56
225.042	-13.56
225.277	-6.56
225.511	1.44
225.746	-14.56
225.98	11.44
226.215	14.44
226.449	31.44
226.683	18.44
226.918	33.44
227.152	24.44
227.387	44.44
227.621	45.44
227.856	51.44
228.09	30.44
228.324	49.44
228.559	51.44
228.793	57.44
229.027	67.44
229.262	64.44
229.496	77.44
229.73	68.44
229.964	52.44
230.199	60.44
230.433	71.44
230.667	74.44
230.901	78.44
231.136	74.44
231.37	77.44
231.604	78.44
231.838	79.44
232.072	80.44
232.306	94.44
232.541	86.44
232.775	78.44
233.009	73.44
233.243	74.44
233.477	85.44
233.711	70.44
233.945	76.44
234.179	84.44
234.413	82.44
234.647	97.44
234.881	73.44
235.115	74.44
235.349	74.44
235.583	86.44
235.817	70.44
236.051	79.44
236.285	79.44
236.519	86.44
236.753	93.44
236.987	86.44
237.221	79.44
237.455	84.44
237.689	72.44
237.922	67.44
238.156	74.44
238.39	79.44
238.624	65.44
238.858	75.44
239.091	83.44
239.325	75.44
239.559	71.44
239.793	81.44
240.027	73.44
240.26	74.44
240.494	74.44
240.728	97.44
240.961	80.44
241.195	71.44
241.429	62.44
241.662	68.44
241.896	86.44
242.13	68.44
242.363	92.44
242.597	78.44
242.83	69.44
243.064	75.44
243.298	93.44
243.531	79.44
243.765	82.44
243.998	81.44
244.232	80.44
244.465	65.44
244.699	76.44
244.932	99.44
245.166	80.44
245.399	68.44
245.633	91.44
245.866	73.44
246.099	71.44
246.333	83.44
246.566	80.44
246.8	69.44
247.033	77.44
247.266	75.44
247.5	84.44
247.733	89.44
247.966	61.44
248.2	64.44
248.433	71.44
248.666	81.44
248.899	81.44
249.133	87.44
249.366	78.44
249.599	74.44
249.832	84.44
250.066	87.44
250.299	88.44
250.532	77.44
250.765	85.44
250.998	78.44
251.231	76.44
251.465	82.44
251.698	80.44
251.931	82.44
252.164	87.44
252.397	88.44
252.63	78.44
252.863	82.44
253.096	74.44
253.329	72.44
253.562	73.44
253.795	98.44
254.028	84.44
254.261	76.44
254.494	82.44
254.727	98.44
254.96	74.44
255.193	80.44
255.426	79.44
255.659	77.44
255.892	82.44
256.124	72.44
256.357	84.44
256.59	73.44
256.823	75.44
257.056	80.44
257.289	75.44
257.521	76.44
257.754	73.44
257.987	75.44
258.22	99.44
258.452	77.44
258.685	70.44
258.918	85.44
259.151	67.44
259.383	82.44
259.616	85.44
259.849	58.44
260.081	92.44
260.314	77.44
260.547	72.44
260.779	91.44
261.012	78.44
261.244	79.44
261.477	75.44
261.71	66.44
261.942	74.44
262.175	100.44
262.407	89.44
262.64	85.44
262.872	79.44
263.105	74.44
263.337	81.44
263.57	80.44
263.802	78.44
264.035	80.44
264.267	77.44
264.499	81.44
264.732	79.44
264.964	70.44
265.197	80.44
265.429	80.44
265.661	75.44
265.894	76.44
266.126	93.44
266.358	80.44
266.591	86.44
266.823	72.44
267.055	79.44
267.287	76.44
267.52	74.44
267.752	76.44
267.984	79.44
268.216	74.44
268.448	86.44
268.681	84.44
268.913	78.44
269.145	92.44
269.377	68.44
269.609	65.44
269.841	80.44
270.073	73.44
270.306	76.44
270.538	87.44
270.77	71.44
271.002	87.44
271.234	74.44
271.466	60.44
271.698	80.44
271.93	82.44
272.162	73.44
272.394	76.44
272.626	73.44
272.858	82.44
273.09	91.44
273.322	82.44
273.553	84.44
273.785	87.44
274.017	81.44
274.249	86.44
274.481	67.44
274.713	84.44
274.945	74.44
275.176	81.44
275.408	79.44
275.64	79.44
275.872	85.44
276.104	91.44
276.335	82.44
276.567	81.44
276.799	77.44
277.031	83.44
277.262	80.44
277.494	77.44
277.726	74.44
277.957	71.44
278.189	80.44
278.421	76.44
278.652	89.44
278.884	74.44
279.115	93.44
279.347	72.44
279.579	81.44
279.81	86.44
280.042	81.44
280.273	94.44
280.505	97.44
280.736	78.44
280.968	68.44
281.199	86.44
281.431	74.44
281.662	74.44
281.894	79.44
282.125	91.44
282.356	79.44
282.588	80.44
282.819	83.44
283.051	78.44
283.282	84.44
283.513	91.44
283.745	84.44
283.976	76.44
284.207	85.44
284.439	86.44
284.67	88.44
284.901	88.44
285.132	68.44
285.364	78.44
285.595	76.44
285.826	73.44
286.057	86.44
286.288	73.44
286.52	90.44
286.751	79.44
286.982	80.44
287.213	84.44
287.444	81.44
287.675	80.44
287.906	68.44
288.138	83.44
288.369	71.44
288.6	68.44
288.831	86.44
289.062	87.44
289.293	74.44
289.524	87.44
289.755	76.44
289.986	71.44
290.217	81.44
290.448	78.44
290.679	68.44
290.91	98.44
291.141	82.44
291.371	97.44
291.602	95.44
291.833	92.44
292.064	87.44
292.295	86.44
292.526	87.44
292.757	64.44
292.987	69.44
293.218	78.44
293.449	88.44
293.68	81.44
293.91	90.44
294.141	76.44
294.372	87.44
294.603	84.44
294.833	71.44
295.064	85.44
295.295	88.44
295.525	88.44
295.756	86.44
295.987	73.44
296.217	76.44
296.448	91.44
296.679	67.44
296.909	84.44
297.14	78.44
297.37	91.44
297.601	65.44
297.831	76.44
298.062	68.44
298.292	88.44
298.523	87.44
298.753	85.44
298.984	90.44
299.214	81.44
299.445	83.44
299.675	77.44
299.905	95.44
300.136	74.44
300.366	89.44
300.597	81.44
300.827	76.44
301.057	79.44
301.288	83.44
301.518	74.44
301.748	80.44
301.979	87.44
302.209	85.44
302.439	83.44
302.669	87.44
302.9	85.44
303.13	79.44
303.36	86.44
303.59	92.44
303.82	69.44
304.051	82.44
304.281	81.44
304.511	91.44
304.741	87.44
304.971	85.44
305.201	75.44
305.431	86.44
305.661	79.44
305.891	72.44
306.121	94.44
306.352	81.44
306.582	84.44
306.812	92.44
307.042	81.44
307.272	88.44
307.502	88.44
307.731	76.44
307.961	81.44
308.191	62.44
308.421	75.44
308.651	82.44
308.881	88.44
309.111	68.44
309.341	84.44
309.571	73.44
309.8	73.44
310.03	92.44
310.26	94.44
310.49	69.44
310.72	85.44
310.949	84.44
311.179	87.44
311.409	72.44
311.639	79.44
311.868	85.44
312.098	93.44
312.328	92.44
312.557	77.44
312.787	91.44
313.017	84.44
313.246	79.44
313.476	85.44
313.706	89.44
313.935	83.44
314.165	96.44
314.394	76.44
314.624	90.44
314.853	74.44
315.083	74.44
315.312	82.44
315.542	86.44
315.771	79.44
316.001	75.44
316.23	75.44
316.46	100.44
316.689	74.44
316.919	85.44
317.148	88.44
317.377	94.44
317.607	86.44
317.836	80.44
318.065	69.44
318.295	94.44
318.524	92.44
318.753	74.44
318.983	78.44
319.212	89.44
319.441	86.44
319.67	81.44
319.9	81.44
320.129	76.44
320.358	94.44
320.587	91.44
320.816	85.44
321.046	83.44
321.275	93.44
321.504	84.44
321.733	85.44
321.962	79.44
322.191	81.44
322.42	82.44
322.649	79.44
322.878	79.44
323.108	87.44
323.337	93.44
323.566	81.44
323.795	76.44
324.024	78.44
324.253	90.44
324.482	96.44
324.71	88.44
324.939	98.44
325.168	89.44
325.397	97.44
325.626	100.44
325.855	87.44
326.084	93.44
326.313	81.44
326.542	90.44
326.77	83.44
326.999	84.44
327.228	80.44
327.457	85.44
327.686	102.44
327.914	90.44
328.143	72.44
328.372	73.44
328.6	92.44
328.829	89.44
329.058	83.44
329.287	80.44
329.515	78.44
329.744	79.44
329.972	92.44
330.201	69.44
330.43	87.44
330.658	78.44
330.887	92.44
331.115	88.44
331.344	81.44
331.572	79.44
331.801	72.44
332.03	80.44
332.258	89.44
332.486	76.44
332.715	77.44
332.943	72.44
333.172	72.44
333.4	79.44
333.629	89.44
333.857	79.44
334.085	89.44
334.314	85.44
334.542	97.44
334.771	69.44
334.999	96.44
335.227	94.44
335.455	87.44
335.684	84.44
335.912	83.44
336.14	84.44
336.369	87.44
336.597	86.44
336.825	89.44
337.053	86.44
337.281	67.44
337.51	83.44
337.738	87.44
337.966	82.44
338.194	82.44
338.422	80.44
338.65	79.44
338.878	84.44
339.106	74.44
339.334	70.44
339.562	77.44
339.79	88.44
340.018	85.44
340.246	78.44
340.474	80.44
340.702	83.44
340.93	86.44
341.158	77.44
341.386	78.44
341.614	93.44
341.842	93.44
342.07	80.44
342.298	76.44
342.526	71.44
342.754	85.44
342.981	95.44
343.209	70.44
343.437	68.44
343.665	86.44
343.893	82.44
344.12	90.44
344.348	82.44
344.576	81.44
344.804	81.44
345.031	72.44
345.259	73.44
345.487	91.44
345.714	89.44
345.942	93.44
346.17	75.44
346.397	86.44
346.625	98.44
346.853	77.44
347.08	73.44
347.308	81.44
347.535	95.44
347.763	79.44
347.99	81.44
348.218	89.44
348.445	84.44
348.673	76.44
348.9	86.44
349.128	83.44
349.355	93.44
349.583	96.44
349.81	74.44
350.037	80.44
350.265	81.44
350.492	80.44
350.72	85.44
350.947	83.44
351.174	94.44
351.402	77.44
351.629	93.44
351.856	94.44
352.083	95.44
352.311	77.44
352.538	74.44
352.765	77.44
352.992	77.44
353.22	94.44
353.447	82.44
353.674	89.44
353.901	82.44
354.128	76.44
354.355	90.44
354.583	83.44
354.81	80.44
355.037	80.44
355.264	85.44
355.491	76.44
355.718	80.44
355.945	86.44
356.172	87.44
356.399	85.44
356.626	82.44
356.853	73.44
357.08	81.44
357.307	82.44
357.534	85.44
357.761	84.44
357.988	80.44
358.215	84.44
358.441	80.44
358.668	96.44
358.895	67.44
359.122	84.44
359.349	88.44
359.576	88.44
359.802	73.44
360.029	79.44
360.256	89.44
360.483	76.44
360.709	80.44
360.936	89.44
361.163	82.44
361.39	96.44
361.616	77.44
361.843	84.44
362.07	82.44
362.296	79.44
362.523	81.44
362.749	91.44
362.976	81.44
363.203	97.44
363.429	81.44
363.656	79.44
363.882	87.44
364.109	70.44
364.335	72.44
364.562	75.44
364.788	70.44
365.015	78.44
365.241	79.44
365.468	78.44
365.694	81.44
365.92	74.44
366.147	71.44
366.373	74.44
366.599	69.44
366.826	74.44
367.052	79.44
367.278	73.44
367.505	70.44
367.731	90.44
367.957	81.44
368.184	72.44
368.41	82.44
368.636	81.44
368.862	84.44
369.089	83.44
369.315	82.44
369.541	77.44
369.767	78.44
369.993	73.44
370.219	80.44
370.445	84.44
370.672	91.44
370.898	83.44
371.124	86.44
371.35	79.44
371.576	76.44
371.802	83.44
372.028	81.44
372.254	84.44
372.48	84.44
372.706	87.44
372.932	73.44
373.158	73.44
373.384	82.44
373.61	82.44
373.835	75.44
374.061	84.44
374.287	79.44
374.513	78.44
374.739	87.44
374.965	88.44
375.191	89.44
375.416	76.44
375.642	74.44
375.868	91.44
376.094	78.44
376.319	84.44
376.545	73.44
376.771	80.44
376.997	92.44
377.222	72.44
377.448	94.44
377.674	72.44
377.899	85.44
378.125	87.44
378.35	97.44
378.576	85.44
378.802	92.44
379.027	84.44
379.253	92.44
379.478	90.44
379.704	69.44
379.929	73.44
380.155	79.44
380.38	92.44
380.606	94.44
380.831	94.44
381.057	93.44
381.282	87.44
381.507	76.44
381.733	91.44
381.958	66.44
382.184	77.44
382.409	77.44
382.634	79.44
382.86	71.44
383.085	71.44
383.31	85.44
383.535	93.44
383.761	81.44
383.986	79.44
384.211	71.44
384.436	74.44
384.662	73.44
384.887	97.44
385.112	77.44
385.337	113.44
385.562	81.44
385.787	82.44
386.013	88.44
386.238	77.44
386.463	97.44
386.688	65.44
386.913	92.44
387.138	68.44
387.363	93.44
387.588	75.44
387.813	80.44
388.038	82.44
388.263	92.44
388.488	81.44
388.713	76.44
388.938	71.44
389.163	80.44
389.387	92.44
389.612	86.44
389.837	84.44
390.062	86.44
390.287	98.44
390.512	98.44
390.736	90.44
390.961	84.44
391.186	91.44
391.411	76.44
391.636	85.44
391.86	74.44
392.085	73.44
392.31	87.44
392.534	83.44
392.759	77.44
392.984	90.44
393.208	96.44
393.433	84.44
393.658	85.44
393.882	84.44
394.107	72.44
394.331	87.44
394.556	68.44
394.78	76.44
395.005	93.44
395.229	87.44
395.454	83.44
395.678	87.44
395.903	79.44
396.127	89.44
396.352	97.44
396.576	71.44
396.801	81.44
397.025	83.44
397.249	84.44
397.474	92.44
397.698	89.44
397.922	71.44
398.147	86.44
398.371	75.44
398.595	84.44
398.82	86.44
399.044	83.44
399.268	81.44
399.492	86.44
399.717	77.44
399.941	85.44
400.165	91.44
400.389	78.44
400.613	104.44
400.837	86.44
401.062	88.44
401.286	88.44
401.51	84.44
401.734	100.44
401.958	85.44
402.182	94.44
402.406	86.44
402.63	96.44
402.854	84.44
403.078	91.44
403.302	99.44
403.526	76.44
403.75	93.44
403.974	81.44
404.198	85.44
404.422	86.44
404.645	93.44
404.869	88.44
405.093	88.44
405.317	94.44
405.541	94.44
405.765	95.44
405.988	70.44
406.212	87.44
406.436	103.44
406.66	95.44
406.883	97.44
407.107	79.44
407.331	72.44
407.555	66.44
407.778	82.44
408.002	88.44
408.226	87.44
408.449	84.44
408.673	101.44
408.896	84.44
409.12	97.44
409.344	92.44
409.567	90.44
409.791	71.44
410.014	90.44
410.238	88.44
410.461	91.44
410.685	81.44
410.908	96.44
411.132	99.44
411.355	92.44
411.578	85.44
411.802	100.44
412.025	85.44
412.249	89.44
412.472	80.44
412.695	79.44
412.919	93.44
413.142	99.44
413.365	85.44
413.589	81.44
413.812	92.44
414.035	93.44
414.258	85.44
414.482	84.44
414.705	87.44
414.928	102.44
415.151	101.44
415.374	98.44
415.597	90.44
415.821	88.44
416.044	89.44
416.267	103.44
416.49	88.44
416.713	94.44
416.936	95.44
417.159	93.44
417.382	84.44
417.605	96.44
417.828	93.44
418.051	97.44
418.274	84.44
418.497	93.44
418.72	95.44
418.943	97.44
419.166	84.44
419.389	86.44
419.611	89.44
419.834	80.44
420.057	95.44
420.28	91.44
420.503	86.44
420.726	92.44
420.948	75.44
421.171	88.44
421.394	84.44
421.617	93.44
421.839	90.44
422.062	96.44
422.285	100.44
422.507	93.44
422.73	100.44
422.953	97.44
423.175	87.44
423.398	96.44
423.621	87.44
423.843	101.44
424.066	97.44
424.288	99.44
424.511	90.44
424.733	99.44
424.956	72.44
425.178	78.44
425.401	75.44
425.623	84.44
425.846	90.44
426.068	105.44
426.291	77.44
426.513	94.44
426.735	99.44
426.958	88.44
427.18	80.44
427.402	84.44
427.625	90.44
427.847	81.44
428.069	84.44
428.292	97.44
428.514	97.44
428.736	94.44
428.958	77.44
429.181	96.44
429.403	87.44
429.625	91.44
429.847	85.44
430.069	90.44
430.292	99.44
430.514	94.44
430.736	96.44
430.958	85.44
431.18	104.44
431.402	84.44
431.624	97.44
431.846	78.44
432.068	93.44
432.29	81.44
432.512	100.44
432.734	87.44
432.956	93.44
433.178	83.44
433.4	74.44
433.622	93.44
433.844	78.44
434.066	86.44
434.287	89.44
434.509	86.44
434.731	80.44
434.953	73.44
435.175	94.44
435.397	98.44
435.618	79.44
435.84	93.44
436.062	94.44
436.284	97.44
436.505	83.44
436.727	101.44
436.949	93.44
437.17	97.44
437.392	90.44
437.614	101.44
437.835	84.44
438.057	88.44
438.278	85.44
438.5	101.44
438.721	94.44
438.943	102.44
439.165	99.44
439.386	99.44
439.608	101.44
439.829	113.44
440.05	108.44
440.272	86.44
440.493	94.44
440.715	91.44
440.936	101.44
441.158	104.44
441.379	92.44
441.6	86.44
441.822	100.44
442.043	92.44
442.264	79.44
442.486	90.44
442.707	82.44
442.928	87.44
443.149	101.44
443.371	114.44
443.592	87.44
443.813	89.44
444.034	81.44
444.255	107.44
444.476	81.44
444.698	93.44
444.919	103.44
445.14	206.44
445.361	139.44
445.582	95.44
445.803	91.44
446.024	95.44
446.245	100.44
446.466	97.44
446.687	99.44
446.908	101.44
447.129	87.44
447.35	89.44
447.571	103.44
447.792	81.44
448.013	86.44
448.234	92.44
448.455	74.44
448.675	104.44
448.896	108.44
449.117	95.44
449.338	75.44
449.559	89.44
449.779	89.44
450	97.44
450.221	95.44
450.442	91.44
450.662	89.44
450.883	85.44
451.104	105.44
451.324	86.44
451.545	78.44
451.766	80.44
451.986	96.44
452.207	81.44
452.428	80.44
452.648	105.44
452.869	93.44
453.089	97.44
453.31	80.44
453.53	77.44
453.751	88.44
453.971	86.44
454.192	84.44
454.412	94.44
454.633	77.44
454.853	81.44
455.073	87.44
455.294	88.44
455.514	85.44
455.734	82.44
455.955	90.44
456.175	87.44
456.395	86.44
456.616	77.44
456.836	79.44
457.056	86.44
457.276	74.44
457.497	82.44
457.717	85.44
457.937	86.44
458.157	87.44
458.377	74.44
458.598	89.44
458.818	88.44
459.038	92.44
459.258	65.44
459.478	82.44
459.698	75.44
459.918	86.44
460.138	89.44
460.358	71.44
460.578	93.44
460.798	70.44
461.018	90.44
461.238	94.44
461.458	90.44
461.678	83.44
461.898	109.44
462.118	88.44
462.338	82.44
462.558	89.44
462.777	95.44
462.997	98.44
463.217	85.44
463.437	80.44
463.657	84.44
463.876	86.44
464.096	88.44
464.316	92.44
464.536	97.44
464.755	91.44
464.975	86.44
465.195	96.44
465.414	83.44
465.634	88.44
465.854	87.44
466.073	85.44
466.293	80.44
466.512	97.44
466.732	85.44
466.951	95.44
467.171	102.44
467.391	71.44
467.61	86.44
467.829	98.44
468.049	105.44
468.268	93.44
468.488	100.44
468.707	90.44
468.927	96.44
469.146	88.44
469.365	103.44
469.585	93.44
469.804	101.44
470.023	89.44
470.243	98.44
470.462	88.44
470.681	91.44
470.901	92.44
471.12	92.44
471.339	112.44
471.558	84.44
471.777	97.44
471.997	90.44
472.216	104.44
472.435	78.44
472.654	92.44
472.873	88.44
473.092	81.44
473.311	76.44
473.53	94.44
473.749	102.44
473.968	93.44
474.187	90.44
474.406	74.44
474.625	82.44
474.844	88.44
475.063	86.44
475.282	90.44
475.501	102.44
475.72	97.44
475.939	85.44
476.158	93.44
476.377	90.44
476.596	87.44
476.814	70.44
477.033	91.44
477.252	93.44
477.471	77.44
477.69	93.44
477.908	87.44
478.127	92.44
478.346	97.44
478.564	99.44
478.783	82.44
479.002	101.44
479.22	100.44
479.439	85.44
479.658	78.44
479.876	88.44
480.095	76.44
480.313	87.44
480.532	80.44
480.751	89.44
480.969	71.44
481.188	74.44
481.406	77.44
481.624	80.44
481.843	91.44
482.061	87.44
482.28	99.44
482.498	102.44
482.717	82.44
482.935	83.44
483.153	89.44
483.372	85.44
483.59	96.44
483.808	94.44
484.027	102.44
484.245	81.44
484.463	91.44
484.681	94.44
484.9	103.44
485.118	102.44
485.336	100.44
485.554	86.44
485.772	89.44
485.99	81.44
486.209	92.44
486.427	96.44
486.645	92.44
486.863	104.44
487.081	85.44
487.299	81.44
487.517	95.44
487.735	88.44
487.953	97.44
488.171	108.44
488.389	99.44
488.607	100.44
488.825	86.44
489.043	99.44
489.261	88.44
489.479	97.44
489.696	96.44
489.914	97.44
490.132	96.44
490.35	103.44
490.568	113.44
490.786	112.44
491.003	102.44
491.221	106.44
491.439	89.44
491.657	117.44
491.874	118.44
492.092	115.44
492.31	134.44
492.527	116.44
492.745	116.44
492.963	125.44
493.18	110.44
493.398	108.44
493.615	102.44
493.833	101.44
494.05	101.44
494.268	96.44
494.485	93.44
494.703	111.44
494.92	101.44
495.138	107.44
495.355	118.44
495.573	114.44
495.79	101.44
496.008	96.44
496.225	95.44
496.442	109.44
496.66	98.44
496.877	100.44
497.094	112.44
497.312	116.44
497.529	89.44
497.746	100.44
497.963	82.44
498.181	90.44
498.398	82.44
498.615	93.44
498.832	105.44
499.049	84.44
499.267	99.44
499.484	100.44
499.701	93.44
499.918	78.44
500.135	94.44
500.352	93.44
500.569	104.44
500.786	93.44
501.003	91.44
501.22	88.44
501.437	98.44
501.654	98.44
501.871	86.44
502.088	99.44
502.305	88.44
502.522	81.44
502.739	96.44
502.956	106.44
503.172	92.44
503.389	87.44
503.606	86.44
503.823	89.44
504.04	90.44
504.256	101.44
504.473	74.44
504.69	79.44
504.907	88.44
505.123	86.44
505.34	101.44
505.557	100.44
505.773	98.44
505.99	93.44
506.207	94.44
506.423	94.44
506.64	97.44
506.856	93.44
507.073	90.44
507.289	97.44
507.506	94.44
507.722	99.44
507.939	85.44
508.155	79.44
508.372	76.44
508.588	89.44
508.805	97.44
509.021	83.44
509.238	86.44
509.454	79.44
509.67	74.44
509.887	89.44
510.103	84.44
510.319	78.44
510.536	92.44
510.752	94.44
510.968	79.44
511.184	92.44
511.401	70.44
511.617	84.44
511.833	83.44
512.049	77.44
512.265	84.44
512.481	90.44
512.698	73.44
512.914	91.44
513.13	84.44
513.346	83.44
513.562	73.44
513.778	79.44
513.994	73.44
514.21	70.44
514.426	79.44
514.642	84.44
514.858	81.44
515.074	88.44
515.29	70.44
515.506	76.44
515.721	83.44
515.937	72.44
516.153	82.44
516.369	84.44
516.585	88.44
516.801	72.44
517.016	85.44
517.232	82.44
517.448	84.44
517.664	80.44
517.879	83.44
518.095	81.44
