Data from Location4.07152019.Energy5.Lamp.07192019.3%Agarose_HRD10591_15-25-08-577.txt Node
Date: Fri Jul 19 15:25:08 EDT 2019
User: cochatt
Spectrometer: HR+D1059
Trigger mode: 1
Integration Time (sec): 1.000000E-1
Scans to average: 1
Electric dark correction enabled: true
Nonlinearity correction enabled: false
Boxcar width: 0
XAxis mode: Wavelengths
Number of Pixels in Spectrum: 2048
>>>>>Begin Spectral Data<<<<<
223.165	-22.12
223.4	-22.12
223.635	-22.12
223.869	-22.12
224.104	-26.12
224.338	-10.12
224.573	-13.12
224.808	-9.12
225.042	-6.12
225.277	-12.12
225.511	3.88
225.746	1.88
225.98	3.88
226.215	14.88
226.449	10.88
226.683	19.88
226.918	36.88
227.152	28.88
227.387	32.88
227.621	41.88
227.856	42.88
228.09	31.88
228.324	50.88
228.559	67.88
228.793	67.88
229.027	58.88
229.262	64.88
229.496	61.88
229.73	72.88
229.964	70.88
230.199	84.88
230.433	76.88
230.667	60.88
230.901	80.88
231.136	77.88
231.37	64.88
231.604	74.88
231.838	75.88
232.072	67.88
232.306	85.88
232.541	84.88
232.775	80.88
233.009	81.88
233.243	87.88
233.477	75.88
233.711	95.88
233.945	75.88
234.179	90.88
234.413	94.88
234.647	75.88
234.881	82.88
235.115	86.88
235.349	74.88
235.583	84.88
235.817	98.88
236.051	83.88
236.285	82.88
236.519	87.88
236.753	89.88
236.987	90.88
237.221	82.88
237.455	63.88
237.689	81.88
237.922	89.88
238.156	75.88
238.39	77.88
238.624	73.88
238.858	80.88
239.091	78.88
239.325	83.88
239.559	81.88
239.793	79.88
240.027	77.88
240.26	81.88
240.494	72.88
240.728	84.88
240.961	95.88
241.195	88.88
241.429	63.88
241.662	62.88
241.896	62.88
242.13	81.88
242.363	84.88
242.597	84.88
242.83	91.88
243.064	81.88
243.298	66.88
243.531	71.88
243.765	71.88
243.998	86.88
244.232	90.88
244.465	76.88
244.699	81.88
244.932	77.88
245.166	90.88
245.399	82.88
245.633	74.88
245.866	86.88
246.099	79.88
246.333	77.88
246.566	75.88
246.8	75.88
247.033	75.88
247.266	77.88
247.5	76.88
247.733	78.88
247.966	85.88
248.2	72.88
248.433	63.88
248.666	73.88
248.899	74.88
249.133	67.88
249.366	80.88
249.599	75.88
249.832	79.88
250.066	95.88
250.299	84.88
250.532	83.88
250.765	82.88
250.998	70.88
251.231	81.88
251.465	83.88
251.698	93.88
251.931	75.88
252.164	70.88
252.397	75.88
252.63	84.88
252.863	73.88
253.096	75.88
253.329	96.88
253.562	70.88
253.795	78.88
254.028	79.88
254.261	87.88
254.494	76.88
254.727	78.88
254.96	71.88
255.193	76.88
255.426	93.88
255.659	83.88
255.892	79.88
256.124	72.88
256.357	86.88
256.59	70.88
256.823	83.88
257.056	73.88
257.289	77.88
257.521	72.88
257.754	87.88
257.987	88.88
258.22	86.88
258.452	73.88
258.685	79.88
258.918	68.88
259.151	84.88
259.383	92.88
259.616	79.88
259.849	77.88
260.081	71.88
260.314	83.88
260.547	77.88
260.779	88.88
261.012	76.88
261.244	86.88
261.477	83.88
261.71	87.88
261.942	83.88
262.175	72.88
262.407	86.88
262.64	93.88
262.872	75.88
263.105	77.88
263.337	81.88
263.57	85.88
263.802	78.88
264.035	94.88
264.267	76.88
264.499	86.88
264.732	87.88
264.964	83.88
265.197	86.88
265.429	73.88
265.661	82.88
265.894	84.88
266.126	78.88
266.358	68.88
266.591	80.88
266.823	84.88
267.055	71.88
267.287	81.88
267.52	69.88
267.752	72.88
267.984	88.88
268.216	84.88
268.448	75.88
268.681	82.88
268.913	95.88
269.145	76.88
269.377	87.88
269.609	71.88
269.841	80.88
270.073	91.88
270.306	90.88
270.538	79.88
270.77	81.88
271.002	92.88
271.234	80.88
271.466	80.88
271.698	84.88
271.93	77.88
272.162	79.88
272.394	97.88
272.626	90.88
272.858	82.88
273.09	87.88
273.322	79.88
273.553	74.88
273.785	90.88
274.017	75.88
274.249	77.88
274.481	73.88
274.713	82.88
274.945	83.88
275.176	81.88
275.408	96.88
275.64	93.88
275.872	77.88
276.104	88.88
276.335	90.88
276.567	82.88
276.799	67.88
277.031	88.88
277.262	96.88
277.494	85.88
277.726	94.88
277.957	76.88
278.189	73.88
278.421	88.88
278.652	88.88
278.884	80.88
279.115	84.88
279.347	80.88
279.579	91.88
279.81	86.88
280.042	83.88
280.273	90.88
280.505	77.88
280.736	83.88
280.968	75.88
281.199	97.88
281.431	90.88
281.662	83.88
281.894	73.88
282.125	88.88
282.356	100.88
282.588	81.88
282.819	77.88
283.051	74.88
283.282	90.88
283.513	83.88
283.745	83.88
283.976	66.88
284.207	77.88
284.439	85.88
284.67	82.88
284.901	85.88
285.132	100.88
285.364	89.88
285.595	81.88
285.826	88.88
286.057	86.88
286.288	86.88
286.52	107.88
286.751	83.88
286.982	84.88
287.213	89.88
287.444	91.88
287.675	89.88
287.906	87.88
288.138	78.88
288.369	79.88
288.6	82.88
288.831	95.88
289.062	94.88
289.293	95.88
289.524	82.88
289.755	76.88
289.986	97.88
290.217	87.88
290.448	76.88
290.679	84.88
290.91	82.88
291.141	100.88
291.371	88.88
291.602	87.88
291.833	89.88
292.064	93.88
292.295	81.88
292.526	82.88
292.757	72.88
292.987	81.88
293.218	88.88
293.449	87.88
293.68	71.88
293.91	84.88
294.141	75.88
294.372	71.88
294.603	74.88
294.833	67.88
295.064	74.88
295.295	76.88
295.525	85.88
295.756	86.88
295.987	82.88
296.217	74.88
296.448	81.88
296.679	84.88
296.909	81.88
297.14	76.88
297.37	80.88
297.601	91.88
297.831	83.88
298.062	80.88
298.292	83.88
298.523	91.88
298.753	88.88
298.984	74.88
299.214	100.88
299.445	89.88
299.675	87.88
299.905	87.88
300.136	67.88
300.366	71.88
300.597	87.88
300.827	81.88
301.057	95.88
301.288	87.88
301.518	73.88
301.748	89.88
301.979	106.88
302.209	93.88
302.439	97.88
302.669	92.88
302.9	81.88
303.13	73.88
303.36	80.88
303.59	80.88
303.82	88.88
304.051	68.88
304.281	71.88
304.511	95.88
304.741	83.88
304.971	85.88
305.201	87.88
305.431	85.88
305.661	72.88
305.891	85.88
306.121	84.88
306.352	79.88
306.582	105.88
306.812	84.88
307.042	95.88
307.272	73.88
307.502	88.88
307.731	101.88
307.961	83.88
308.191	76.88
308.421	91.88
308.651	88.88
308.881	85.88
309.111	84.88
309.341	82.88
309.571	82.88
309.8	85.88
310.03	92.88
310.26	83.88
310.49	85.88
310.72	71.88
310.949	86.88
311.179	82.88
311.409	92.88
311.639	84.88
311.868	69.88
312.098	82.88
312.328	77.88
312.557	87.88
312.787	80.88
313.017	88.88
313.246	75.88
313.476	80.88
313.706	75.88
313.935	81.88
314.165	80.88
314.394	87.88
314.624	87.88
314.853	82.88
315.083	89.88
315.312	81.88
315.542	75.88
315.771	85.88
316.001	79.88
316.23	82.88
316.46	81.88
316.689	91.88
316.919	93.88
317.148	77.88
317.377	76.88
317.607	90.88
317.836	80.88
318.065	81.88
318.295	85.88
318.524	88.88
318.753	86.88
318.983	88.88
319.212	88.88
319.441	92.88
319.67	91.88
319.9	81.88
320.129	82.88
320.358	73.88
320.587	86.88
320.816	80.88
321.046	87.88
321.275	87.88
321.504	92.88
321.733	93.88
321.962	98.88
322.191	86.88
322.42	86.88
322.649	73.88
322.878	83.88
323.108	94.88
323.337	85.88
323.566	98.88
323.795	82.88
324.024	88.88
324.253	83.88
324.482	88.88
324.71	91.88
324.939	86.88
325.168	89.88
325.397	73.88
325.626	85.88
325.855	74.88
326.084	78.88
326.313	97.88
326.542	95.88
326.77	86.88
326.999	83.88
327.228	93.88
327.457	84.88
327.686	88.88
327.914	94.88
328.143	93.88
328.372	74.88
328.6	86.88
328.829	89.88
329.058	82.88
329.287	94.88
329.515	82.88
329.744	100.88
329.972	72.88
330.201	76.88
330.43	83.88
330.658	87.88
330.887	74.88
331.115	81.88
331.344	70.88
331.572	81.88
331.801	75.88
332.03	87.88
332.258	74.88
332.486	84.88
332.715	91.88
332.943	89.88
333.172	74.88
333.4	79.88
333.629	75.88
333.857	82.88
334.085	88.88
334.314	81.88
334.542	73.88
334.771	95.88
334.999	82.88
335.227	84.88
335.455	78.88
335.684	87.88
335.912	85.88
336.14	91.88
336.369	91.88
336.597	97.88
336.825	99.88
337.053	92.88
337.281	79.88
337.51	91.88
337.738	68.88
337.966	84.88
338.194	87.88
338.422	95.88
338.65	86.88
338.878	73.88
339.106	83.88
339.334	73.88
339.562	83.88
339.79	84.88
340.018	95.88
340.246	80.88
340.474	86.88
340.702	80.88
340.93	85.88
341.158	82.88
341.386	76.88
341.614	87.88
341.842	80.88
342.07	77.88
342.298	84.88
342.526	76.88
342.754	95.88
342.981	83.88
343.209	85.88
343.437	81.88
343.665	74.88
343.893	96.88
344.12	75.88
344.348	89.88
344.576	83.88
344.804	80.88
345.031	92.88
345.259	87.88
345.487	74.88
345.714	87.88
345.942	82.88
346.17	77.88
346.397	73.88
346.625	90.88
346.853	82.88
347.08	79.88
347.308	83.88
347.535	75.88
347.763	95.88
347.99	90.88
348.218	87.88
348.445	81.88
348.673	103.88
348.9	88.88
349.128	76.88
349.355	93.88
349.583	88.88
349.81	83.88
350.037	77.88
350.265	96.88
350.492	97.88
350.72	75.88
350.947	83.88
351.174	87.88
351.402	78.88
351.629	85.88
351.856	80.88
352.083	89.88
352.311	82.88
352.538	90.88
352.765	81.88
352.992	77.88
353.22	70.88
353.447	93.88
353.674	83.88
353.901	79.88
354.128	84.88
354.355	86.88
354.583	84.88
354.81	90.88
355.037	97.88
355.264	89.88
355.491	95.88
355.718	80.88
355.945	88.88
356.172	93.88
356.399	92.88
356.626	84.88
356.853	81.88
357.08	84.88
357.307	84.88
357.534	85.88
357.761	75.88
357.988	85.88
358.215	84.88
358.441	87.88
358.668	76.88
358.895	81.88
359.122	77.88
359.349	69.88
359.576	86.88
359.802	81.88
360.029	84.88
360.256	83.88
360.483	75.88
360.709	89.88
360.936	79.88
361.163	82.88
361.39	84.88
361.616	91.88
361.843	84.88
362.07	83.88
362.296	81.88
362.523	87.88
362.749	84.88
362.976	90.88
363.203	93.88
363.429	76.88
363.656	97.88
363.882	91.88
364.109	90.88
364.335	103.88
364.562	82.88
364.788	84.88
365.015	83.88
365.241	81.88
365.468	88.88
365.694	80.88
365.92	77.88
366.147	85.88
366.373	81.88
366.599	79.88
366.826	79.88
367.052	79.88
367.278	91.88
367.505	83.88
367.731	103.88
367.957	86.88
368.184	79.88
368.41	91.88
368.636	92.88
368.862	84.88
369.089	79.88
369.315	71.88
369.541	87.88
369.767	89.88
369.993	74.88
370.219	85.88
370.445	97.88
370.672	85.88
370.898	73.88
371.124	87.88
371.35	98.88
371.576	86.88
371.802	76.88
372.028	87.88
372.254	88.88
372.48	100.88
372.706	87.88
372.932	87.88
373.158	90.88
373.384	86.88
373.61	76.88
373.835	71.88
374.061	86.88
374.287	80.88
374.513	91.88
374.739	82.88
374.965	83.88
375.191	84.88
375.416	72.88
375.642	79.88
375.868	99.88
376.094	73.88
376.319	91.88
376.545	73.88
376.771	86.88
376.997	99.88
377.222	82.88
377.448	87.88
377.674	86.88
377.899	80.88
378.125	76.88
378.35	81.88
378.576	83.88
378.802	96.88
379.027	94.88
379.253	72.88
379.478	88.88
379.704	91.88
379.929	83.88
380.155	80.88
380.38	70.88
380.606	78.88
380.831	81.88
381.057	86.88
381.282	96.88
381.507	100.88
381.733	94.88
381.958	80.88
382.184	90.88
382.409	79.88
382.634	86.88
382.86	93.88
383.085	83.88
383.31	85.88
383.535	81.88
383.761	92.88
383.986	75.88
384.211	84.88
384.436	103.88
384.662	90.88
384.887	81.88
385.112	87.88
385.337	77.88
385.562	81.88
385.787	79.88
386.013	109.88
386.238	91.88
386.463	93.88
386.688	95.88
386.913	85.88
387.138	95.88
387.363	96.88
387.588	92.88
387.813	85.88
388.038	97.88
388.263	83.88
388.488	83.88
388.713	84.88
388.938	91.88
389.163	90.88
389.387	83.88
389.612	83.88
389.837	86.88
390.062	85.88
390.287	71.88
390.512	71.88
390.736	94.88
390.961	98.88
391.186	86.88
391.411	88.88
391.636	76.88
391.86	81.88
392.085	84.88
392.31	88.88
392.534	99.88
392.759	92.88
392.984	80.88
393.208	89.88
393.433	87.88
393.658	87.88
393.882	88.88
394.107	86.88
394.331	94.88
394.556	84.88
394.78	100.88
395.005	79.88
395.229	91.88
395.454	91.88
395.678	78.88
395.903	95.88
396.127	77.88
396.352	86.88
396.576	87.88
396.801	86.88
397.025	103.88
397.249	86.88
397.474	94.88
397.698	84.88
397.922	92.88
398.147	87.88
398.371	82.88
398.595	94.88
398.82	87.88
399.044	83.88
399.268	77.88
399.492	94.88
399.717	95.88
399.941	95.88
400.165	83.88
400.389	73.88
400.613	97.88
400.837	90.88
401.062	83.88
401.286	96.88
401.51	93.88
401.734	81.88
401.958	88.88
402.182	85.88
402.406	77.88
402.63	93.88
402.854	94.88
403.078	90.88
403.302	83.88
403.526	92.88
403.75	94.88
403.974	92.88
404.198	88.88
404.422	88.88
404.645	103.88
404.869	89.88
405.093	67.88
405.317	87.88
405.541	82.88
405.765	95.88
405.988	90.88
406.212	90.88
406.436	84.88
406.66	88.88
406.883	102.88
407.107	96.88
407.331	92.88
407.555	86.88
407.778	98.88
408.002	91.88
408.226	90.88
408.449	83.88
408.673	92.88
408.896	108.88
409.12	88.88
409.344	89.88
409.567	74.88
409.791	95.88
410.014	74.88
410.238	101.88
410.461	89.88
410.685	104.88
410.908	92.88
411.132	92.88
411.355	93.88
411.578	82.88
411.802	76.88
412.025	97.88
412.249	84.88
412.472	88.88
412.695	90.88
412.919	105.88
413.142	99.88
413.365	84.88
413.589	84.88
413.812	79.88
414.035	95.88
414.258	91.88
414.482	96.88
414.705	100.88
414.928	84.88
415.151	98.88
415.374	79.88
415.597	85.88
415.821	102.88
416.044	97.88
416.267	90.88
416.49	91.88
416.713	83.88
416.936	97.88
417.159	98.88
417.382	95.88
417.605	88.88
417.828	90.88
418.051	86.88
418.274	91.88
418.497	83.88
418.72	96.88
418.943	112.88
419.166	95.88
419.389	95.88
419.611	85.88
419.834	103.88
420.057	98.88
420.28	96.88
420.503	90.88
420.726	97.88
420.948	91.88
421.171	90.88
421.394	91.88
421.617	91.88
421.839	109.88
422.062	84.88
422.285	91.88
422.507	106.88
422.73	80.88
422.953	86.88
423.175	91.88
423.398	91.88
423.621	102.88
423.843	103.88
424.066	87.88
424.288	108.88
424.511	109.88
424.733	109.88
424.956	90.88
425.178	107.88
425.401	104.88
425.623	94.88
425.846	108.88
426.068	95.88
426.291	81.88
426.513	91.88
426.735	93.88
426.958	88.88
427.18	104.88
427.402	86.88
427.625	89.88
427.847	97.88
428.069	90.88
428.292	94.88
428.514	98.88
428.736	83.88
428.958	85.88
429.181	97.88
429.403	94.88
429.625	101.88
429.847	107.88
430.069	101.88
430.292	88.88
430.514	86.88
430.736	116.88
430.958	100.88
431.18	76.88
431.402	66.88
431.624	85.88
431.846	77.88
432.068	84.88
432.29	75.88
432.512	95.88
432.734	92.88
432.956	97.88
433.178	100.88
433.4	107.88
433.622	91.88
433.844	88.88
434.066	95.88
434.287	92.88
434.509	78.88
434.731	92.88
434.953	101.88
435.175	103.88
435.397	84.88
435.618	91.88
435.84	73.88
436.062	97.88
436.284	99.88
436.505	95.88
436.727	97.88
436.949	91.88
437.17	92.88
437.392	92.88
437.614	90.88
437.835	80.88
438.057	81.88
438.278	85.88
438.5	85.88
438.721	107.88
438.943	112.88
439.165	101.88
439.386	93.88
439.608	111.88
439.829	105.88
440.05	94.88
440.272	99.88
440.493	91.88
440.715	107.88
440.936	94.88
441.158	92.88
441.379	105.88
441.6	93.88
441.822	113.88
442.043	90.88
442.264	103.88
442.486	106.88
442.707	101.88
442.928	92.88
443.149	100.88
443.371	90.88
443.592	99.88
443.813	100.88
444.034	95.88
444.255	120.88
444.476	101.88
444.698	100.88
444.919	85.88
445.14	237.88
445.361	146.88
445.582	83.88
445.803	102.88
446.024	97.88
446.245	110.88
446.466	83.88
446.687	87.88
446.908	98.88
447.129	95.88
447.35	100.88
447.571	108.88
447.792	106.88
448.013	95.88
448.234	95.88
448.455	82.88
448.675	104.88
448.896	104.88
449.117	82.88
449.338	95.88
449.559	119.88
449.779	81.88
450	105.88
450.221	115.88
450.442	91.88
450.662	84.88
450.883	103.88
451.104	104.88
451.324	93.88
451.545	92.88
451.766	101.88
451.986	87.88
452.207	109.88
452.428	98.88
452.648	90.88
452.869	101.88
453.089	98.88
453.31	97.88
453.53	72.88
453.751	92.88
453.971	102.88
454.192	88.88
454.412	95.88
454.633	96.88
454.853	79.88
455.073	76.88
455.294	90.88
455.514	88.88
455.734	91.88
455.955	85.88
456.175	99.88
456.395	89.88
456.616	95.88
456.836	91.88
457.056	86.88
457.276	86.88
457.497	87.88
457.717	92.88
457.937	90.88
458.157	84.88
458.377	105.88
458.598	90.88
458.818	72.88
459.038	82.88
459.258	81.88
459.478	96.88
459.698	92.88
459.918	101.88
460.138	91.88
460.358	90.88
460.578	93.88
460.798	87.88
461.018	87.88
461.238	88.88
461.458	89.88
461.678	101.88
461.898	76.88
462.118	106.88
462.338	99.88
462.558	82.88
462.777	100.88
462.997	81.88
463.217	83.88
463.437	92.88
463.657	81.88
463.876	91.88
464.096	90.88
464.316	89.88
464.536	94.88
464.755	86.88
464.975	94.88
465.195	99.88
465.414	86.88
465.634	100.88
465.854	98.88
466.073	103.88
466.293	88.88
466.512	86.88
466.732	96.88
466.951	93.88
467.171	98.88
467.391	97.88
467.61	89.88
467.829	100.88
468.049	91.88
468.268	97.88
468.488	96.88
468.707	93.88
468.927	101.88
469.146	108.88
469.365	98.88
469.585	90.88
469.804	112.88
470.023	95.88
470.243	102.88
470.462	98.88
470.681	83.88
470.901	92.88
471.12	100.88
471.339	99.88
471.558	100.88
471.777	92.88
471.997	102.88
472.216	100.88
472.435	84.88
472.654	88.88
472.873	84.88
473.092	91.88
473.311	81.88
473.53	93.88
473.749	85.88
473.968	94.88
474.187	97.88
474.406	85.88
474.625	95.88
474.844	96.88
475.063	102.88
475.282	106.88
475.501	90.88
475.72	96.88
475.939	85.88
476.158	96.88
476.377	92.88
476.596	99.88
476.814	95.88
477.033	89.88
477.252	92.88
477.471	89.88
477.69	97.88
477.908	97.88
478.127	96.88
478.346	80.88
478.564	89.88
478.783	99.88
479.002	99.88
479.22	98.88
479.439	102.88
479.658	82.88
479.876	90.88
480.095	90.88
480.313	91.88
480.532	92.88
480.751	96.88
480.969	85.88
481.188	76.88
481.406	81.88
481.624	92.88
481.843	76.88
482.061	88.88
482.28	92.88
482.498	80.88
482.717	92.88
482.935	76.88
483.153	101.88
483.372	101.88
483.59	117.88
483.808	90.88
484.027	97.88
484.245	85.88
484.463	105.88
484.681	114.88
484.9	102.88
485.118	99.88
485.336	108.88
485.554	104.88
485.772	99.88
485.99	85.88
486.209	80.88
486.427	96.88
486.645	96.88
486.863	95.88
487.081	96.88
487.299	93.88
487.517	101.88
487.735	115.88
487.953	107.88
488.171	102.88
488.389	107.88
488.607	104.88
488.825	96.88
489.043	97.88
489.261	116.88
489.479	97.88
489.696	96.88
489.914	80.88
490.132	98.88
490.35	104.88
490.568	98.88
490.786	112.88
491.003	107.88
491.221	107.88
491.439	107.88
491.657	114.88
491.874	121.88
492.092	111.88
492.31	136.88
492.527	118.88
492.745	112.88
492.963	109.88
493.18	105.88
493.398	116.88
493.615	103.88
493.833	112.88
494.05	107.88
494.268	117.88
494.485	111.88
494.703	96.88
494.92	108.88
495.138	112.88
495.355	101.88
495.573	107.88
495.79	97.88
496.008	114.88
496.225	111.88
496.442	111.88
496.66	111.88
496.877	115.88
497.094	108.88
497.312	116.88
497.529	111.88
497.746	107.88
497.963	119.88
498.181	95.88
498.398	85.88
498.615	92.88
498.832	93.88
499.049	89.88
499.267	92.88
499.484	89.88
499.701	80.88
499.918	104.88
500.135	97.88
500.352	101.88
500.569	102.88
500.786	93.88
501.003	84.88
501.22	108.88
501.437	100.88
501.654	95.88
501.871	87.88
502.088	103.88
502.305	105.88
502.522	102.88
502.739	91.88
502.956	101.88
503.172	94.88
503.389	83.88
503.606	89.88
503.823	101.88
504.04	95.88
504.256	96.88
504.473	84.88
504.69	95.88
504.907	75.88
505.123	88.88
505.34	101.88
505.557	91.88
505.773	94.88
505.99	103.88
506.207	99.88
506.423	95.88
506.64	98.88
506.856	87.88
507.073	99.88
507.289	88.88
507.506	100.88
507.722	93.88
507.939	91.88
508.155	86.88
508.372	96.88
508.588	80.88
508.805	99.88
509.021	95.88
509.238	89.88
509.454	82.88
509.67	113.88
509.887	79.88
510.103	85.88
510.319	79.88
510.536	72.88
510.752	83.88
510.968	72.88
511.184	97.88
511.401	94.88
511.617	89.88
511.833	85.88
512.049	80.88
512.265	82.88
512.481	90.88
512.698	86.88
512.914	85.88
513.13	84.88
513.346	95.88
513.562	95.88
513.778	85.88
513.994	104.88
514.21	88.88
514.426	83.88
514.642	85.88
514.858	83.88
515.074	92.88
515.29	78.88
515.506	89.88
515.721	93.88
515.937	87.88
516.153	83.88
516.369	80.88
516.585	92.88
516.801	72.88
517.016	87.88
517.232	78.88
