Data from Location4.07152019.Energy5.Lamp.07192019.3%Agarose_HRD10591_15-24-55-577.txt Node
Date: Fri Jul 19 15:24:55 EDT 2019
User: cochatt
Spectrometer: HR+D1059
Trigger mode: 1
Integration Time (sec): 1.000000E-1
Scans to average: 1
Electric dark correction enabled: true
Nonlinearity correction enabled: false
Boxcar width: 0
XAxis mode: Wavelengths
Number of Pixels in Spectrum: 2048
>>>>>Begin Spectral Data<<<<<
223.165	-16.81
223.4	-16.81
223.635	-16.81
223.869	-20.81
224.104	-25.81
224.338	-25.81
224.573	-6.81
224.808	-20.81
225.042	-0.81
225.277	-16.81
225.511	8.19
225.746	23.19
225.98	9.19
226.215	22.19
226.449	8.19
226.683	14.19
226.918	25.19
227.152	24.19
227.387	16.19
227.621	37.19
227.856	26.19
228.09	28.19
228.324	52.19
228.559	61.19
228.793	52.19
229.027	54.19
229.262	69.19
229.496	67.19
229.73	77.19
229.964	71.19
230.199	48.19
230.433	77.19
230.667	59.19
230.901	72.19
231.136	59.19
231.37	84.19
231.604	75.19
231.838	68.19
232.072	82.19
232.306	72.19
232.541	83.19
232.775	79.19
233.009	87.19
233.243	73.19
233.477	78.19
233.711	79.19
233.945	91.19
234.179	69.19
234.413	80.19
234.647	74.19
234.881	68.19
235.115	73.19
235.349	75.19
235.583	81.19
235.817	64.19
236.051	60.19
236.285	74.19
236.519	75.19
236.753	67.19
236.987	69.19
237.221	54.19
237.455	67.19
237.689	72.19
237.922	84.19
238.156	68.19
238.39	74.19
238.624	57.19
238.858	72.19
239.091	74.19
239.325	67.19
239.559	56.19
239.793	68.19
240.027	75.19
240.26	73.19
240.494	75.19
240.728	62.19
240.961	77.19
241.195	81.19
241.429	96.19
241.662	64.19
241.896	67.19
242.13	81.19
242.363	76.19
242.597	83.19
242.83	75.19
243.064	75.19
243.298	85.19
243.531	72.19
243.765	82.19
243.998	88.19
244.232	72.19
244.465	71.19
244.699	67.19
244.932	74.19
245.166	68.19
245.399	74.19
245.633	68.19
245.866	82.19
246.099	73.19
246.333	53.19
246.566	79.19
246.8	79.19
247.033	77.19
247.266	79.19
247.5	79.19
247.733	68.19
247.966	80.19
248.2	80.19
248.433	83.19
248.666	68.19
248.899	81.19
249.133	68.19
249.366	67.19
249.599	83.19
249.832	75.19
250.066	72.19
250.299	63.19
250.532	80.19
250.765	79.19
250.998	67.19
251.231	68.19
251.465	87.19
251.698	84.19
251.931	76.19
252.164	77.19
252.397	83.19
252.63	70.19
252.863	73.19
253.096	79.19
253.329	73.19
253.562	73.19
253.795	62.19
254.028	82.19
254.261	74.19
254.494	81.19
254.727	87.19
254.96	82.19
255.193	74.19
255.426	71.19
255.659	87.19
255.892	81.19
256.124	71.19
256.357	75.19
256.59	83.19
256.823	73.19
257.056	86.19
257.289	66.19
257.521	73.19
257.754	72.19
257.987	93.19
258.22	77.19
258.452	69.19
258.685	73.19
258.918	79.19
259.151	67.19
259.383	79.19
259.616	79.19
259.849	72.19
260.081	84.19
260.314	77.19
260.547	87.19
260.779	86.19
261.012	87.19
261.244	62.19
261.477	80.19
261.71	80.19
261.942	75.19
262.175	72.19
262.407	85.19
262.64	94.19
262.872	77.19
263.105	76.19
263.337	77.19
263.57	79.19
263.802	74.19
264.035	77.19
264.267	87.19
264.499	76.19
264.732	80.19
264.964	71.19
265.197	84.19
265.429	86.19
265.661	66.19
265.894	90.19
266.126	74.19
266.358	94.19
266.591	74.19
266.823	79.19
267.055	68.19
267.287	85.19
267.52	88.19
267.752	76.19
267.984	83.19
268.216	77.19
268.448	93.19
268.681	87.19
268.913	72.19
269.145	69.19
269.377	73.19
269.609	84.19
269.841	80.19
270.073	67.19
270.306	69.19
270.538	63.19
270.77	69.19
271.002	83.19
271.234	81.19
271.466	72.19
271.698	73.19
271.93	82.19
272.162	75.19
272.394	76.19
272.626	75.19
272.858	83.19
273.09	80.19
273.322	68.19
273.553	66.19
273.785	83.19
274.017	75.19
274.249	86.19
274.481	81.19
274.713	72.19
274.945	78.19
275.176	78.19
275.408	85.19
275.64	76.19
275.872	80.19
276.104	83.19
276.335	80.19
276.567	85.19
276.799	88.19
277.031	76.19
277.262	77.19
277.494	86.19
277.726	70.19
277.957	80.19
278.189	82.19
278.421	87.19
278.652	77.19
278.884	70.19
279.115	94.19
279.347	86.19
279.579	87.19
279.81	73.19
280.042	91.19
280.273	82.19
280.505	79.19
280.736	80.19
280.968	74.19
281.199	82.19
281.431	81.19
281.662	74.19
281.894	84.19
282.125	83.19
282.356	103.19
282.588	86.19
282.819	85.19
283.051	74.19
283.282	71.19
283.513	72.19
283.745	74.19
283.976	77.19
284.207	75.19
284.439	75.19
284.67	88.19
284.901	69.19
285.132	84.19
285.364	85.19
285.595	69.19
285.826	83.19
286.057	86.19
286.288	82.19
286.52	79.19
286.751	88.19
286.982	88.19
287.213	73.19
287.444	76.19
287.675	68.19
287.906	73.19
288.138	79.19
288.369	85.19
288.6	80.19
288.831	96.19
289.062	81.19
289.293	80.19
289.524	99.19
289.755	77.19
289.986	80.19
290.217	82.19
290.448	81.19
290.679	76.19
290.91	89.19
291.141	96.19
291.371	84.19
291.602	83.19
291.833	83.19
292.064	80.19
292.295	74.19
292.526	89.19
292.757	76.19
292.987	93.19
293.218	74.19
293.449	79.19
293.68	81.19
293.91	76.19
294.141	86.19
294.372	68.19
294.603	83.19
294.833	92.19
295.064	84.19
295.295	77.19
295.525	89.19
295.756	74.19
295.987	78.19
296.217	71.19
296.448	83.19
296.679	87.19
296.909	87.19
297.14	79.19
297.37	72.19
297.601	77.19
297.831	75.19
298.062	79.19
298.292	94.19
298.523	77.19
298.753	68.19
298.984	78.19
299.214	82.19
299.445	91.19
299.675	88.19
299.905	78.19
300.136	82.19
300.366	88.19
300.597	84.19
300.827	83.19
301.057	78.19
301.288	78.19
301.518	76.19
301.748	90.19
301.979	93.19
302.209	91.19
302.439	72.19
302.669	80.19
302.9	92.19
303.13	83.19
303.36	71.19
303.59	69.19
303.82	76.19
304.051	90.19
304.281	89.19
304.511	88.19
304.741	81.19
304.971	74.19
305.201	86.19
305.431	84.19
305.661	91.19
305.891	92.19
306.121	82.19
306.352	92.19
306.582	76.19
306.812	80.19
307.042	95.19
307.272	85.19
307.502	61.19
307.731	94.19
307.961	106.19
308.191	85.19
308.421	77.19
308.651	66.19
308.881	81.19
309.111	67.19
309.341	93.19
309.571	90.19
309.8	83.19
310.03	77.19
310.26	87.19
310.49	81.19
310.72	77.19
310.949	77.19
311.179	69.19
311.409	77.19
311.639	67.19
311.868	86.19
312.098	82.19
312.328	83.19
312.557	73.19
312.787	85.19
313.017	80.19
313.246	81.19
313.476	85.19
313.706	78.19
313.935	84.19
314.165	75.19
314.394	83.19
314.624	68.19
314.853	79.19
315.083	87.19
315.312	89.19
315.542	83.19
315.771	104.19
316.001	78.19
316.23	79.19
316.46	90.19
316.689	77.19
316.919	78.19
317.148	89.19
317.377	79.19
317.607	91.19
317.836	85.19
318.065	80.19
318.295	72.19
318.524	89.19
318.753	87.19
318.983	75.19
319.212	68.19
319.441	78.19
319.67	69.19
319.9	85.19
320.129	83.19
320.358	96.19
320.587	92.19
320.816	72.19
321.046	89.19
321.275	83.19
321.504	67.19
321.733	87.19
321.962	85.19
322.191	76.19
322.42	91.19
322.649	103.19
322.878	81.19
323.108	82.19
323.337	85.19
323.566	84.19
323.795	61.19
324.024	93.19
324.253	82.19
324.482	83.19
324.71	81.19
324.939	69.19
325.168	74.19
325.397	93.19
325.626	92.19
325.855	78.19
326.084	80.19
326.313	85.19
326.542	96.19
326.77	86.19
326.999	85.19
327.228	66.19
327.457	77.19
327.686	75.19
327.914	86.19
328.143	83.19
328.372	81.19
328.6	77.19
328.829	64.19
329.058	73.19
329.287	91.19
329.515	84.19
329.744	89.19
329.972	80.19
330.201	80.19
330.43	93.19
330.658	80.19
330.887	89.19
331.115	92.19
331.344	73.19
331.572	89.19
331.801	79.19
332.03	85.19
332.258	89.19
332.486	69.19
332.715	61.19
332.943	76.19
333.172	70.19
333.4	72.19
333.629	73.19
333.857	78.19
334.085	72.19
334.314	100.19
334.542	89.19
334.771	74.19
334.999	77.19
335.227	77.19
335.455	70.19
335.684	86.19
335.912	84.19
336.14	86.19
336.369	85.19
336.597	83.19
336.825	81.19
337.053	75.19
337.281	73.19
337.51	83.19
337.738	78.19
337.966	91.19
338.194	87.19
338.422	89.19
338.65	83.19
338.878	89.19
339.106	67.19
339.334	87.19
339.562	77.19
339.79	82.19
340.018	77.19
340.246	72.19
340.474	79.19
340.702	77.19
340.93	78.19
341.158	87.19
341.386	93.19
341.614	95.19
341.842	66.19
342.07	80.19
342.298	87.19
342.526	86.19
342.754	83.19
342.981	80.19
343.209	101.19
343.437	98.19
343.665	79.19
343.893	86.19
344.12	86.19
344.348	73.19
344.576	88.19
344.804	82.19
345.031	79.19
345.259	86.19
345.487	86.19
345.714	90.19
345.942	89.19
346.17	88.19
346.397	73.19
346.625	75.19
346.853	70.19
347.08	77.19
347.308	88.19
347.535	76.19
347.763	80.19
347.99	77.19
348.218	80.19
348.445	92.19
348.673	89.19
348.9	71.19
349.128	81.19
349.355	78.19
349.583	77.19
349.81	79.19
350.037	95.19
350.265	70.19
350.492	85.19
350.72	81.19
350.947	72.19
351.174	72.19
351.402	78.19
351.629	81.19
351.856	71.19
352.083	61.19
352.311	75.19
352.538	82.19
352.765	78.19
352.992	79.19
353.22	77.19
353.447	68.19
353.674	86.19
353.901	85.19
354.128	83.19
354.355	84.19
354.583	81.19
354.81	81.19
355.037	80.19
355.264	90.19
355.491	80.19
355.718	92.19
355.945	77.19
356.172	88.19
356.399	87.19
356.626	85.19
356.853	87.19
357.08	97.19
357.307	75.19
357.534	76.19
357.761	78.19
357.988	76.19
358.215	71.19
358.441	88.19
358.668	90.19
358.895	70.19
359.122	87.19
359.349	78.19
359.576	75.19
359.802	83.19
360.029	66.19
360.256	89.19
360.483	74.19
360.709	80.19
360.936	77.19
361.163	81.19
361.39	76.19
361.616	79.19
361.843	83.19
362.07	79.19
362.296	78.19
362.523	92.19
362.749	72.19
362.976	77.19
363.203	79.19
363.429	75.19
363.656	88.19
363.882	79.19
364.109	71.19
364.335	87.19
364.562	70.19
364.788	76.19
365.015	79.19
365.241	71.19
365.468	65.19
365.694	77.19
365.92	77.19
366.147	80.19
366.373	76.19
366.599	73.19
366.826	72.19
367.052	89.19
367.278	87.19
367.505	83.19
367.731	91.19
367.957	75.19
368.184	89.19
368.41	74.19
368.636	73.19
368.862	96.19
369.089	95.19
369.315	92.19
369.541	88.19
369.767	85.19
369.993	92.19
370.219	76.19
370.445	67.19
370.672	71.19
370.898	79.19
371.124	79.19
371.35	89.19
371.576	89.19
371.802	72.19
372.028	82.19
372.254	64.19
372.48	84.19
372.706	89.19
372.932	100.19
373.158	72.19
373.384	76.19
373.61	89.19
373.835	82.19
374.061	74.19
374.287	79.19
374.513	80.19
374.739	91.19
374.965	81.19
375.191	69.19
375.416	81.19
375.642	76.19
375.868	76.19
376.094	80.19
376.319	76.19
376.545	78.19
376.771	77.19
376.997	85.19
377.222	76.19
377.448	71.19
377.674	86.19
377.899	87.19
378.125	77.19
378.35	86.19
378.576	78.19
378.802	83.19
379.027	84.19
379.253	86.19
379.478	69.19
379.704	92.19
379.929	70.19
380.155	73.19
380.38	76.19
380.606	91.19
380.831	96.19
381.057	97.19
381.282	85.19
381.507	73.19
381.733	83.19
381.958	109.19
382.184	72.19
382.409	80.19
382.634	70.19
382.86	79.19
383.085	81.19
383.31	79.19
383.535	71.19
383.761	77.19
383.986	88.19
384.211	81.19
384.436	87.19
384.662	83.19
384.887	73.19
385.112	81.19
385.337	81.19
385.562	95.19
385.787	76.19
386.013	71.19
386.238	92.19
386.463	88.19
386.688	78.19
386.913	95.19
387.138	91.19
387.363	93.19
387.588	88.19
387.813	92.19
388.038	83.19
388.263	72.19
388.488	72.19
388.713	88.19
388.938	84.19
389.163	85.19
389.387	78.19
389.612	81.19
389.837	80.19
390.062	89.19
390.287	93.19
390.512	88.19
390.736	82.19
390.961	91.19
391.186	93.19
391.411	90.19
391.636	80.19
391.86	79.19
392.085	84.19
392.31	89.19
392.534	66.19
392.759	90.19
392.984	82.19
393.208	76.19
393.433	85.19
393.658	90.19
393.882	78.19
394.107	86.19
394.331	99.19
394.556	86.19
394.78	90.19
395.005	82.19
395.229	82.19
395.454	85.19
395.678	80.19
395.903	87.19
396.127	77.19
396.352	81.19
396.576	89.19
396.801	97.19
397.025	74.19
397.249	84.19
397.474	102.19
397.698	83.19
397.922	84.19
398.147	78.19
398.371	93.19
398.595	97.19
398.82	86.19
399.044	93.19
399.268	91.19
399.492	92.19
399.717	94.19
399.941	89.19
400.165	94.19
400.389	76.19
400.613	90.19
400.837	74.19
401.062	82.19
401.286	78.19
401.51	82.19
401.734	82.19
401.958	91.19
402.182	97.19
402.406	92.19
402.63	88.19
402.854	83.19
403.078	90.19
403.302	101.19
403.526	90.19
403.75	79.19
403.974	94.19
404.198	92.19
404.422	93.19
404.645	91.19
404.869	99.19
405.093	92.19
405.317	90.19
405.541	73.19
405.765	79.19
405.988	78.19
406.212	86.19
406.436	81.19
406.66	75.19
406.883	87.19
407.107	90.19
407.331	92.19
407.555	90.19
407.778	85.19
408.002	82.19
408.226	80.19
408.449	89.19
408.673	77.19
408.896	95.19
409.12	84.19
409.344	71.19
409.567	80.19
409.791	98.19
410.014	83.19
410.238	94.19
410.461	83.19
410.685	91.19
410.908	82.19
411.132	95.19
411.355	88.19
411.578	85.19
411.802	88.19
412.025	95.19
412.249	95.19
412.472	95.19
412.695	92.19
412.919	90.19
413.142	97.19
413.365	76.19
413.589	89.19
413.812	76.19
414.035	85.19
414.258	80.19
414.482	88.19
414.705	92.19
414.928	98.19
415.151	93.19
415.374	96.19
415.597	80.19
415.821	92.19
416.044	94.19
416.267	93.19
416.49	81.19
416.713	86.19
416.936	83.19
417.159	88.19
417.382	79.19
417.605	92.19
417.828	91.19
418.051	87.19
418.274	98.19
418.497	81.19
418.72	85.19
418.943	110.19
419.166	77.19
419.389	100.19
419.611	94.19
419.834	91.19
420.057	97.19
420.28	80.19
420.503	87.19
420.726	85.19
420.948	78.19
421.171	91.19
421.394	89.19
421.617	95.19
421.839	93.19
422.062	95.19
422.285	83.19
422.507	72.19
422.73	96.19
422.953	80.19
423.175	77.19
423.398	86.19
423.621	89.19
423.843	97.19
424.066	93.19
424.288	90.19
424.511	98.19
424.733	91.19
424.956	91.19
425.178	87.19
425.401	90.19
425.623	90.19
425.846	96.19
426.068	85.19
426.291	84.19
426.513	71.19
426.735	89.19
426.958	104.19
427.18	102.19
427.402	109.19
427.625	95.19
427.847	97.19
428.069	84.19
428.292	89.19
428.514	90.19
428.736	99.19
428.958	90.19
429.181	96.19
429.403	100.19
429.625	71.19
429.847	84.19
430.069	83.19
430.292	88.19
430.514	77.19
430.736	91.19
430.958	87.19
431.18	93.19
431.402	95.19
431.624	89.19
431.846	82.19
432.068	83.19
432.29	80.19
432.512	78.19
432.734	84.19
432.956	82.19
433.178	97.19
433.4	86.19
433.622	92.19
433.844	97.19
434.066	100.19
434.287	84.19
434.509	96.19
434.731	74.19
434.953	85.19
435.175	87.19
435.397	86.19
435.618	79.19
435.84	78.19
436.062	79.19
436.284	90.19
436.505	94.19
436.727	96.19
436.949	97.19
437.17	92.19
437.392	88.19
437.614	85.19
437.835	82.19
438.057	89.19
438.278	86.19
438.5	86.19
438.721	97.19
438.943	95.19
439.165	92.19
439.386	101.19
439.608	94.19
439.829	80.19
440.05	88.19
440.272	91.19
440.493	103.19
440.715	105.19
440.936	94.19
441.158	95.19
441.379	113.19
441.6	102.19
441.822	105.19
442.043	95.19
442.264	96.19
442.486	91.19
442.707	89.19
442.928	100.19
443.149	83.19
443.371	79.19
443.592	82.19
443.813	82.19
444.034	92.19
444.255	85.19
444.476	89.19
444.698	86.19
444.919	102.19
445.14	202.19
445.361	147.19
445.582	108.19
445.803	96.19
446.024	90.19
446.245	87.19
446.466	87.19
446.687	84.19
446.908	97.19
447.129	98.19
447.35	99.19
447.571	84.19
447.792	101.19
448.013	94.19
448.234	87.19
448.455	92.19
448.675	91.19
448.896	87.19
449.117	92.19
449.338	93.19
449.559	92.19
449.779	86.19
450	94.19
450.221	80.19
450.442	90.19
450.662	71.19
450.883	90.19
451.104	87.19
451.324	98.19
451.545	92.19
451.766	89.19
451.986	96.19
452.207	96.19
452.428	99.19
452.648	87.19
452.869	97.19
453.089	95.19
453.31	74.19
453.53	79.19
453.751	95.19
453.971	86.19
454.192	93.19
454.412	92.19
454.633	88.19
454.853	84.19
455.073	93.19
455.294	99.19
455.514	75.19
455.734	92.19
455.955	96.19
456.175	95.19
456.395	72.19
456.616	79.19
456.836	99.19
457.056	87.19
457.276	99.19
457.497	86.19
457.717	77.19
457.937	90.19
458.157	81.19
458.377	84.19
458.598	72.19
458.818	88.19
459.038	92.19
459.258	79.19
459.478	83.19
459.698	82.19
459.918	79.19
460.138	83.19
460.358	69.19
460.578	78.19
460.798	96.19
461.018	92.19
461.238	107.19
461.458	84.19
461.678	82.19
461.898	95.19
462.118	97.19
462.338	79.19
462.558	87.19
462.777	95.19
462.997	91.19
463.217	59.19
463.437	92.19
463.657	90.19
463.876	103.19
464.096	92.19
464.316	85.19
464.536	92.19
464.755	70.19
464.975	79.19
465.195	97.19
465.414	97.19
465.634	92.19
465.854	81.19
466.073	83.19
466.293	89.19
466.512	91.19
466.732	89.19
466.951	87.19
467.171	88.19
467.391	97.19
467.61	92.19
467.829	93.19
468.049	105.19
468.268	86.19
468.488	90.19
468.707	90.19
468.927	96.19
469.146	91.19
469.365	95.19
469.585	74.19
469.804	86.19
470.023	96.19
470.243	99.19
470.462	111.19
470.681	100.19
470.901	112.19
471.12	107.19
471.339	99.19
471.558	92.19
471.777	104.19
471.997	94.19
472.216	98.19
472.435	90.19
472.654	76.19
472.873	86.19
473.092	104.19
473.311	94.19
473.53	82.19
473.749	89.19
473.968	103.19
474.187	89.19
474.406	88.19
474.625	107.19
474.844	96.19
475.063	84.19
475.282	103.19
475.501	87.19
475.72	95.19
475.939	91.19
476.158	93.19
476.377	96.19
476.596	90.19
476.814	81.19
477.033	83.19
477.252	105.19
477.471	98.19
477.69	89.19
477.908	98.19
478.127	104.19
478.346	86.19
478.564	92.19
478.783	98.19
479.002	104.19
479.22	101.19
479.439	77.19
479.658	79.19
479.876	88.19
480.095	94.19
480.313	76.19
480.532	84.19
480.751	82.19
480.969	75.19
481.188	89.19
481.406	102.19
481.624	77.19
481.843	87.19
482.061	95.19
482.28	90.19
482.498	100.19
482.717	71.19
482.935	73.19
483.153	98.19
483.372	104.19
483.59	92.19
483.808	100.19
484.027	100.19
484.245	83.19
484.463	77.19
484.681	103.19
484.9	93.19
485.118	95.19
485.336	86.19
485.554	88.19
485.772	85.19
485.99	84.19
486.209	84.19
486.427	86.19
486.645	90.19
486.863	111.19
487.081	91.19
487.299	87.19
487.517	95.19
487.735	101.19
487.953	101.19
488.171	113.19
488.389	112.19
488.607	82.19
488.825	103.19
489.043	85.19
489.261	100.19
489.479	89.19
489.696	93.19
489.914	92.19
490.132	88.19
490.35	99.19
490.568	105.19
490.786	104.19
491.003	107.19
491.221	92.19
491.439	107.19
491.657	89.19
491.874	106.19
492.092	123.19
492.31	116.19
492.527	116.19
492.745	111.19
492.963	124.19
493.18	122.19
493.398	99.19
493.615	110.19
493.833	109.19
494.05	116.19
494.268	100.19
494.485	91.19
494.703	77.19
494.92	104.19
495.138	115.19
495.355	104.19
495.573	109.19
495.79	93.19
496.008	100.19
496.225	113.19
496.442	112.19
496.66	112.19
496.877	106.19
497.094	108.19
497.312	110.19
497.529	109.19
497.746	77.19
497.963	94.19
498.181	85.19
498.398	81.19
498.615	82.19
498.832	88.19
499.049	100.19
499.267	96.19
499.484	89.19
499.701	93.19
499.918	96.19
500.135	78.19
500.352	99.19
500.569	84.19
500.786	108.19
501.003	93.19
501.22	97.19
501.437	94.19
501.654	86.19
501.871	95.19
502.088	100.19
502.305	95.19
502.522	80.19
502.739	89.19
502.956	92.19
503.172	92.19
503.389	95.19
503.606	94.19
503.823	80.19
504.04	98.19
504.256	83.19
504.473	99.19
504.69	90.19
504.907	94.19
505.123	87.19
505.34	83.19
505.557	84.19
505.773	100.19
505.99	91.19
506.207	103.19
506.423	84.19
506.64	112.19
506.856	81.19
507.073	96.19
507.289	78.19
507.506	85.19
507.722	79.19
507.939	90.19
508.155	95.19
508.372	86.19
508.588	90.19
508.805	86.19
509.021	91.19
509.238	79.19
509.454	76.19
509.67	77.19
509.887	89.19
510.103	95.19
510.319	83.19
510.536	79.19
510.752	71.19
510.968	83.19
511.184	81.19
511.401	85.19
511.617	85.19
511.833	89.19
512.049	89.19
512.265	85.19
512.481	96.19
512.698	78.19
512.914	92.19
513.13	82.19
513.346	67.19
513.562	81.19
513.778	81.19
513.994	89.19
514.21	73.19
514.426	82.19
514.642	81.19
514.858	85.19
515.074	76.19
515.29	78.19
515.506	88.19
515.721	79.19
515.937	96.19
516.153	79.19
516.369	86.19
516.585	75.19
516.801	93.19
517.016	76.19
517.232	88.19
517.448	78.19
517.664	91.19
517.879	77.19
518.095	91.19
518.311	77.19
