Data from Location4.07152019.Energy5.Lamp.07192019.3%Agarose_HRD10591_15-24-21-577.txt Node
Date: Fri Jul 19 15:24:21 EDT 2019
User: cochatt
Spectrometer: HR+D1059
Trigger mode: 1
Integration Time (sec): 1.000000E-1
Scans to average: 1
Electric dark correction enabled: true
Nonlinearity correction enabled: false
Boxcar width: 0
XAxis mode: Wavelengths
Number of Pixels in Spectrum: 2048
>>>>>Begin Spectral Data<<<<<
223.165	-3.06
223.4	-3.06
223.635	-3.06
223.869	-19.06
224.104	-19.06
224.338	-12.06
224.573	1.94
224.808	-18.06
225.042	-10.06
225.277	-1.06
225.511	-6.06
225.746	0.94
225.98	5.94
226.215	-10.06
226.449	9.94
226.683	22.94
226.918	28.94
227.152	27.94
227.387	29.94
227.621	36.94
227.856	29.94
228.09	46.94
228.324	47.94
228.559	48.94
228.793	44.94
229.027	50.94
229.262	49.94
229.496	60.94
229.73	64.94
229.964	72.94
230.199	66.94
230.433	65.94
230.667	61.94
230.901	62.94
231.136	65.94
231.37	72.94
231.604	77.94
231.838	70.94
232.072	70.94
232.306	79.94
232.541	78.94
232.775	71.94
233.009	69.94
233.243	82.94
233.477	81.94
233.711	58.94
233.945	71.94
234.179	74.94
234.413	85.94
234.647	84.94
234.881	77.94
235.115	68.94
235.349	66.94
235.583	62.94
235.817	67.94
236.051	58.94
236.285	64.94
236.519	75.94
236.753	79.94
236.987	71.94
237.221	63.94
237.455	64.94
237.689	74.94
237.922	82.94
238.156	68.94
238.39	66.94
238.624	67.94
238.858	74.94
239.091	76.94
239.325	81.94
239.559	78.94
239.793	61.94
240.027	71.94
240.26	60.94
240.494	74.94
240.728	67.94
240.961	73.94
241.195	71.94
241.429	60.94
241.662	71.94
241.896	75.94
242.13	64.94
242.363	59.94
242.597	74.94
242.83	74.94
243.064	74.94
243.298	79.94
243.531	74.94
243.765	70.94
243.998	76.94
244.232	65.94
244.465	67.94
244.699	66.94
244.932	86.94
245.166	77.94
245.399	73.94
245.633	92.94
245.866	74.94
246.099	82.94
246.333	77.94
246.566	56.94
246.8	56.94
247.033	75.94
247.266	58.94
247.5	66.94
247.733	77.94
247.966	85.94
248.2	72.94
248.433	65.94
248.666	69.94
248.899	78.94
249.133	74.94
249.366	69.94
249.599	68.94
249.832	70.94
250.066	82.94
250.299	64.94
250.532	50.94
250.765	81.94
250.998	68.94
251.231	82.94
251.465	76.94
251.698	72.94
251.931	67.94
252.164	65.94
252.397	79.94
252.63	79.94
252.863	84.94
253.096	67.94
253.329	93.94
253.562	75.94
253.795	63.94
254.028	83.94
254.261	73.94
254.494	78.94
254.727	68.94
254.96	64.94
255.193	66.94
255.426	82.94
255.659	79.94
255.892	74.94
256.124	71.94
256.357	68.94
256.59	80.94
256.823	80.94
257.056	94.94
257.289	66.94
257.521	68.94
257.754	86.94
257.987	86.94
258.22	69.94
258.452	83.94
258.685	81.94
258.918	65.94
259.151	82.94
259.383	77.94
259.616	73.94
259.849	66.94
260.081	68.94
260.314	83.94
260.547	76.94
260.779	73.94
261.012	74.94
261.244	71.94
261.477	75.94
261.71	72.94
261.942	85.94
262.175	79.94
262.407	76.94
262.64	62.94
262.872	66.94
263.105	66.94
263.337	73.94
263.57	88.94
263.802	70.94
264.035	88.94
264.267	90.94
264.499	80.94
264.732	77.94
264.964	86.94
265.197	85.94
265.429	81.94
265.661	84.94
265.894	77.94
266.126	90.94
266.358	80.94
266.591	77.94
266.823	93.94
267.055	70.94
267.287	73.94
267.52	85.94
267.752	61.94
267.984	81.94
268.216	81.94
268.448	100.94
268.681	68.94
268.913	78.94
269.145	74.94
269.377	80.94
269.609	70.94
269.841	85.94
270.073	77.94
270.306	94.94
270.538	75.94
270.77	71.94
271.002	87.94
271.234	74.94
271.466	78.94
271.698	66.94
271.93	68.94
272.162	69.94
272.394	80.94
272.626	71.94
272.858	82.94
273.09	86.94
273.322	85.94
273.553	75.94
273.785	83.94
274.017	92.94
274.249	89.94
274.481	78.94
274.713	83.94
274.945	79.94
275.176	65.94
275.408	64.94
275.64	77.94
275.872	69.94
276.104	71.94
276.335	77.94
276.567	85.94
276.799	74.94
277.031	86.94
277.262	70.94
277.494	83.94
277.726	77.94
277.957	81.94
278.189	79.94
278.421	68.94
278.652	82.94
278.884	82.94
279.115	73.94
279.347	75.94
279.579	91.94
279.81	82.94
280.042	71.94
280.273	69.94
280.505	83.94
280.736	78.94
280.968	71.94
281.199	72.94
281.431	66.94
281.662	68.94
281.894	87.94
282.125	73.94
282.356	81.94
282.588	69.94
282.819	78.94
283.051	79.94
283.282	69.94
283.513	81.94
283.745	75.94
283.976	63.94
284.207	87.94
284.439	93.94
284.67	75.94
284.901	72.94
285.132	81.94
285.364	78.94
285.595	84.94
285.826	75.94
286.057	78.94
286.288	72.94
286.52	85.94
286.751	91.94
286.982	82.94
287.213	77.94
287.444	89.94
287.675	78.94
287.906	81.94
288.138	84.94
288.369	78.94
288.6	80.94
288.831	71.94
289.062	78.94
289.293	75.94
289.524	74.94
289.755	75.94
289.986	73.94
290.217	74.94
290.448	72.94
290.679	77.94
290.91	84.94
291.141	78.94
291.371	82.94
291.602	75.94
291.833	77.94
292.064	69.94
292.295	77.94
292.526	63.94
292.757	72.94
292.987	70.94
293.218	72.94
293.449	86.94
293.68	74.94
293.91	87.94
294.141	75.94
294.372	75.94
294.603	81.94
294.833	81.94
295.064	81.94
295.295	80.94
295.525	79.94
295.756	75.94
295.987	77.94
296.217	69.94
296.448	93.94
296.679	89.94
296.909	77.94
297.14	88.94
297.37	90.94
297.601	74.94
297.831	75.94
298.062	74.94
298.292	76.94
298.523	75.94
298.753	69.94
298.984	70.94
299.214	89.94
299.445	76.94
299.675	65.94
299.905	69.94
300.136	63.94
300.366	87.94
300.597	87.94
300.827	65.94
301.057	59.94
301.288	74.94
301.518	73.94
301.748	79.94
301.979	84.94
302.209	85.94
302.439	86.94
302.669	82.94
302.9	75.94
303.13	97.94
303.36	82.94
303.59	78.94
303.82	74.94
304.051	79.94
304.281	77.94
304.511	78.94
304.741	65.94
304.971	69.94
305.201	93.94
305.431	84.94
305.661	77.94
305.891	70.94
306.121	83.94
306.352	86.94
306.582	83.94
306.812	81.94
307.042	75.94
307.272	94.94
307.502	75.94
307.731	80.94
307.961	80.94
308.191	80.94
308.421	87.94
308.651	75.94
308.881	75.94
309.111	83.94
309.341	78.94
309.571	79.94
309.8	72.94
310.03	79.94
310.26	66.94
310.49	80.94
310.72	84.94
310.949	89.94
311.179	89.94
311.409	67.94
311.639	87.94
311.868	85.94
312.098	87.94
312.328	80.94
312.557	85.94
312.787	62.94
313.017	81.94
313.246	79.94
313.476	74.94
313.706	75.94
313.935	73.94
314.165	75.94
314.394	82.94
314.624	91.94
314.853	77.94
315.083	72.94
315.312	67.94
315.542	76.94
315.771	92.94
316.001	79.94
316.23	75.94
316.46	82.94
316.689	78.94
316.919	76.94
317.148	68.94
317.377	80.94
317.607	71.94
317.836	71.94
318.065	92.94
318.295	75.94
318.524	84.94
318.753	86.94
318.983	83.94
319.212	82.94
319.441	81.94
319.67	78.94
319.9	78.94
320.129	71.94
320.358	77.94
320.587	77.94
320.816	69.94
321.046	77.94
321.275	71.94
321.504	82.94
321.733	64.94
321.962	61.94
322.191	84.94
322.42	85.94
322.649	79.94
322.878	77.94
323.108	78.94
323.337	82.94
323.566	75.94
323.795	77.94
324.024	85.94
324.253	66.94
324.482	71.94
324.71	71.94
324.939	72.94
325.168	84.94
325.397	80.94
325.626	80.94
325.855	90.94
326.084	84.94
326.313	85.94
326.542	81.94
326.77	81.94
326.999	83.94
327.228	72.94
327.457	65.94
327.686	78.94
327.914	81.94
328.143	90.94
328.372	75.94
328.6	79.94
328.829	83.94
329.058	69.94
329.287	71.94
329.515	75.94
329.744	89.94
329.972	86.94
330.201	71.94
330.43	72.94
330.658	77.94
330.887	61.94
331.115	91.94
331.344	78.94
331.572	90.94
331.801	81.94
332.03	73.94
332.258	79.94
332.486	91.94
332.715	66.94
332.943	68.94
333.172	86.94
333.4	82.94
333.629	78.94
333.857	79.94
334.085	83.94
334.314	97.94
334.542	79.94
334.771	71.94
334.999	66.94
335.227	81.94
335.455	80.94
335.684	81.94
335.912	70.94
336.14	87.94
336.369	80.94
336.597	68.94
336.825	91.94
337.053	88.94
337.281	75.94
337.51	78.94
337.738	78.94
337.966	74.94
338.194	74.94
338.422	66.94
338.65	80.94
338.878	70.94
339.106	80.94
339.334	94.94
339.562	79.94
339.79	76.94
340.018	75.94
340.246	66.94
340.474	81.94
340.702	85.94
340.93	80.94
341.158	85.94
341.386	77.94
341.614	72.94
341.842	65.94
342.07	79.94
342.298	86.94
342.526	66.94
342.754	79.94
342.981	89.94
343.209	81.94
343.437	87.94
343.665	72.94
343.893	88.94
344.12	75.94
344.348	85.94
344.576	93.94
344.804	71.94
345.031	75.94
345.259	83.94
345.487	73.94
345.714	64.94
345.942	80.94
346.17	70.94
346.397	85.94
346.625	94.94
346.853	85.94
347.08	75.94
347.308	78.94
347.535	73.94
347.763	81.94
347.99	78.94
348.218	85.94
348.445	68.94
348.673	72.94
348.9	80.94
349.128	88.94
349.355	77.94
349.583	84.94
349.81	84.94
350.037	58.94
350.265	71.94
350.492	77.94
350.72	70.94
350.947	77.94
351.174	75.94
351.402	72.94
351.629	82.94
351.856	76.94
352.083	84.94
352.311	86.94
352.538	71.94
352.765	82.94
352.992	81.94
353.22	86.94
353.447	84.94
353.674	75.94
353.901	71.94
354.128	74.94
354.355	79.94
354.583	81.94
354.81	87.94
355.037	88.94
355.264	62.94
355.491	76.94
355.718	87.94
355.945	86.94
356.172	61.94
356.399	81.94
356.626	68.94
356.853	77.94
357.08	82.94
357.307	75.94
357.534	81.94
357.761	71.94
357.988	84.94
358.215	68.94
358.441	81.94
358.668	87.94
358.895	80.94
359.122	81.94
359.349	70.94
359.576	76.94
359.802	79.94
360.029	84.94
360.256	77.94
360.483	79.94
360.709	76.94
360.936	76.94
361.163	66.94
361.39	79.94
361.616	88.94
361.843	78.94
362.07	67.94
362.296	77.94
362.523	86.94
362.749	61.94
362.976	89.94
363.203	87.94
363.429	74.94
363.656	79.94
363.882	72.94
364.109	88.94
364.335	81.94
364.562	90.94
364.788	84.94
365.015	74.94
365.241	78.94
365.468	70.94
365.694	83.94
365.92	86.94
366.147	80.94
366.373	86.94
366.599	62.94
366.826	65.94
367.052	78.94
367.278	81.94
367.505	76.94
367.731	70.94
367.957	74.94
368.184	79.94
368.41	75.94
368.636	77.94
368.862	77.94
369.089	86.94
369.315	77.94
369.541	73.94
369.767	83.94
369.993	83.94
370.219	83.94
370.445	82.94
370.672	68.94
370.898	75.94
371.124	70.94
371.35	75.94
371.576	82.94
371.802	44.94
372.028	80.94
372.254	80.94
372.48	83.94
372.706	64.94
372.932	97.94
373.158	90.94
373.384	91.94
373.61	86.94
373.835	72.94
374.061	69.94
374.287	88.94
374.513	77.94
374.739	81.94
374.965	60.94
375.191	91.94
375.416	80.94
375.642	81.94
375.868	81.94
376.094	82.94
376.319	85.94
376.545	77.94
376.771	90.94
376.997	77.94
377.222	64.94
377.448	86.94
377.674	88.94
377.899	84.94
378.125	74.94
378.35	75.94
378.576	83.94
378.802	91.94
379.027	86.94
379.253	79.94
379.478	94.94
379.704	90.94
379.929	79.94
380.155	75.94
380.38	85.94
380.606	75.94
380.831	85.94
381.057	91.94
381.282	76.94
381.507	75.94
381.733	81.94
381.958	71.94
382.184	83.94
382.409	89.94
382.634	84.94
382.86	83.94
383.085	83.94
383.31	78.94
383.535	92.94
383.761	89.94
383.986	62.94
384.211	81.94
384.436	75.94
384.662	78.94
384.887	86.94
385.112	75.94
385.337	80.94
385.562	75.94
385.787	79.94
386.013	81.94
386.238	90.94
386.463	83.94
386.688	85.94
386.913	87.94
387.138	70.94
387.363	68.94
387.588	71.94
387.813	76.94
388.038	62.94
388.263	74.94
388.488	86.94
388.713	89.94
388.938	85.94
389.163	79.94
389.387	78.94
389.612	86.94
389.837	76.94
390.062	65.94
390.287	78.94
390.512	88.94
390.736	85.94
390.961	87.94
391.186	73.94
391.411	83.94
391.636	78.94
391.86	86.94
392.085	78.94
392.31	76.94
392.534	84.94
392.759	86.94
392.984	80.94
393.208	89.94
393.433	76.94
393.658	66.94
393.882	77.94
394.107	92.94
394.331	88.94
394.556	83.94
394.78	75.94
395.005	82.94
395.229	84.94
395.454	81.94
395.678	87.94
395.903	72.94
396.127	89.94
396.352	78.94
396.576	71.94
396.801	81.94
397.025	61.94
397.249	83.94
397.474	83.94
397.698	85.94
397.922	90.94
398.147	69.94
398.371	79.94
398.595	77.94
398.82	83.94
399.044	83.94
399.268	88.94
399.492	91.94
399.717	82.94
399.941	75.94
400.165	92.94
400.389	84.94
400.613	85.94
400.837	76.94
401.062	93.94
401.286	86.94
401.51	71.94
401.734	81.94
401.958	88.94
402.182	90.94
402.406	83.94
402.63	85.94
402.854	81.94
403.078	64.94
403.302	89.94
403.526	80.94
403.75	93.94
403.974	95.94
404.198	75.94
404.422	79.94
404.645	89.94
404.869	84.94
405.093	94.94
405.317	92.94
405.541	74.94
405.765	86.94
405.988	86.94
406.212	88.94
406.436	90.94
406.66	81.94
406.883	80.94
407.107	73.94
407.331	81.94
407.555	87.94
407.778	92.94
408.002	87.94
408.226	74.94
408.449	91.94
408.673	78.94
408.896	80.94
409.12	86.94
409.344	82.94
409.567	93.94
409.791	93.94
410.014	76.94
410.238	80.94
410.461	56.94
410.685	85.94
410.908	85.94
411.132	94.94
411.355	83.94
411.578	77.94
411.802	87.94
412.025	76.94
412.249	95.94
412.472	83.94
412.695	90.94
412.919	90.94
413.142	86.94
413.365	83.94
413.589	100.94
413.812	86.94
414.035	89.94
414.258	83.94
414.482	70.94
414.705	97.94
414.928	79.94
415.151	93.94
415.374	80.94
415.597	86.94
415.821	84.94
416.044	80.94
416.267	94.94
416.49	89.94
416.713	84.94
416.936	93.94
417.159	92.94
417.382	85.94
417.605	73.94
417.828	72.94
418.051	100.94
418.274	81.94
418.497	77.94
418.72	90.94
418.943	89.94
419.166	81.94
419.389	87.94
419.611	85.94
419.834	93.94
420.057	84.94
420.28	79.94
420.503	92.94
420.726	80.94
420.948	99.94
421.171	81.94
421.394	87.94
421.617	82.94
421.839	84.94
422.062	90.94
422.285	87.94
422.507	85.94
422.73	93.94
422.953	85.94
423.175	89.94
423.398	94.94
423.621	91.94
423.843	85.94
424.066	83.94
424.288	100.94
424.511	97.94
424.733	90.94
424.956	89.94
425.178	87.94
425.401	93.94
425.623	86.94
425.846	99.94
426.068	91.94
426.291	80.94
426.513	86.94
426.735	86.94
426.958	93.94
427.18	80.94
427.402	84.94
427.625	86.94
427.847	83.94
428.069	87.94
428.292	93.94
428.514	84.94
428.736	102.94
428.958	93.94
429.181	91.94
429.403	99.94
429.625	89.94
429.847	90.94
430.069	99.94
430.292	89.94
430.514	97.94
430.736	80.94
430.958	83.94
431.18	85.94
431.402	99.94
431.624	88.94
431.846	77.94
432.068	70.94
432.29	76.94
432.512	79.94
432.734	107.94
432.956	90.94
433.178	91.94
433.4	88.94
433.622	76.94
433.844	102.94
434.066	80.94
434.287	81.94
434.509	80.94
434.731	78.94
434.953	69.94
435.175	90.94
435.397	90.94
435.618	92.94
435.84	92.94
436.062	82.94
436.284	89.94
436.505	89.94
436.727	86.94
436.949	82.94
437.17	92.94
437.392	95.94
437.614	81.94
437.835	80.94
438.057	78.94
438.278	77.94
438.5	96.94
438.721	98.94
438.943	87.94
439.165	95.94
439.386	95.94
439.608	107.94
439.829	88.94
440.05	75.94
440.272	85.94
440.493	94.94
440.715	102.94
440.936	102.94
441.158	82.94
441.379	76.94
441.6	90.94
441.822	85.94
442.043	86.94
442.264	89.94
442.486	82.94
442.707	84.94
442.928	97.94
443.149	80.94
443.371	101.94
443.592	89.94
443.813	97.94
444.034	97.94
444.255	93.94
444.476	83.94
444.698	93.94
444.919	85.94
445.14	175.94
445.361	132.94
445.582	96.94
445.803	76.94
446.024	98.94
446.245	86.94
446.466	114.94
446.687	92.94
446.908	93.94
447.129	85.94
447.35	103.94
447.571	93.94
447.792	85.94
448.013	82.94
448.234	89.94
448.455	97.94
448.675	91.94
448.896	92.94
449.117	91.94
449.338	79.94
449.559	77.94
449.779	90.94
450	85.94
450.221	89.94
450.442	97.94
450.662	92.94
450.883	75.94
451.104	96.94
451.324	93.94
451.545	87.94
451.766	97.94
451.986	92.94
452.207	96.94
452.428	82.94
452.648	66.94
452.869	71.94
453.089	95.94
453.31	86.94
453.53	93.94
453.751	82.94
453.971	75.94
454.192	79.94
454.412	77.94
454.633	77.94
454.853	92.94
455.073	83.94
455.294	83.94
455.514	83.94
455.734	89.94
455.955	82.94
456.175	82.94
456.395	90.94
456.616	83.94
456.836	82.94
457.056	79.94
457.276	75.94
457.497	79.94
457.717	73.94
457.937	77.94
458.157	83.94
458.377	95.94
458.598	85.94
458.818	79.94
459.038	76.94
459.258	71.94
459.478	70.94
459.698	67.94
459.918	84.94
460.138	85.94
460.358	73.94
460.578	82.94
460.798	81.94
461.018	83.94
461.238	84.94
461.458	90.94
461.678	88.94
461.898	85.94
462.118	74.94
462.338	77.94
462.558	86.94
462.777	91.94
462.997	83.94
463.217	89.94
463.437	85.94
463.657	87.94
463.876	84.94
464.096	86.94
464.316	77.94
464.536	84.94
464.755	79.94
464.975	88.94
465.195	88.94
465.414	82.94
465.634	92.94
465.854	74.94
466.073	86.94
466.293	96.94
466.512	89.94
466.732	75.94
466.951	93.94
467.171	92.94
467.391	98.94
467.61	94.94
467.829	90.94
468.049	87.94
468.268	74.94
468.488	79.94
468.707	94.94
468.927	92.94
469.146	96.94
469.365	98.94
469.585	91.94
469.804	87.94
470.023	102.94
470.243	100.94
470.462	90.94
470.681	89.94
470.901	89.94
471.12	94.94
471.339	93.94
471.558	80.94
471.777	81.94
471.997	90.94
472.216	85.94
472.435	77.94
472.654	87.94
472.873	85.94
473.092	81.94
473.311	92.94
473.53	98.94
473.749	97.94
473.968	89.94
474.187	89.94
474.406	101.94
474.625	93.94
474.844	91.94
475.063	88.94
475.282	74.94
475.501	76.94
475.72	99.94
475.939	90.94
476.158	94.94
476.377	99.94
476.596	96.94
476.814	85.94
477.033	78.94
477.252	93.94
477.471	87.94
477.69	102.94
477.908	81.94
478.127	95.94
478.346	81.94
478.564	85.94
478.783	79.94
479.002	108.94
479.22	79.94
479.439	91.94
479.658	96.94
479.876	89.94
480.095	87.94
480.313	106.94
480.532	98.94
480.751	95.94
480.969	83.94
481.188	82.94
481.406	82.94
481.624	87.94
481.843	74.94
482.061	85.94
482.28	93.94
482.498	76.94
482.717	85.94
482.935	76.94
483.153	95.94
483.372	89.94
483.59	98.94
483.808	85.94
484.027	85.94
484.245	84.94
484.463	101.94
484.681	88.94
484.9	93.94
485.118	97.94
485.336	86.94
485.554	79.94
485.772	78.94
485.99	83.94
486.209	75.94
486.427	101.94
486.645	90.94
486.863	89.94
487.081	90.94
487.299	88.94
487.517	86.94
487.735	99.94
487.953	89.94
488.171	97.94
488.389	102.94
488.607	109.94
488.825	88.94
489.043	97.94
489.261	85.94
489.479	95.94
489.696	77.94
489.914	72.94
490.132	93.94
490.35	101.94
490.568	95.94
490.786	100.94
491.003	86.94
491.221	116.94
491.439	117.94
491.657	96.94
491.874	105.94
492.092	107.94
492.31	116.94
492.527	109.94
492.745	108.94
492.963	105.94
493.18	107.94
493.398	88.94
493.615	95.94
493.833	111.94
494.05	105.94
494.268	107.94
494.485	100.94
494.703	97.94
494.92	111.94
495.138	109.94
495.355	117.94
495.573	94.94
495.79	111.94
496.008	105.94
496.225	91.94
496.442	104.94
496.66	100.94
496.877	89.94
497.094	94.94
497.312	107.94
497.529	102.94
497.746	98.94
497.963	86.94
498.181	90.94
498.398	92.94
498.615	76.94
498.832	84.94
499.049	83.94
499.267	91.94
499.484	84.94
499.701	91.94
499.918	102.94
500.135	100.94
500.352	78.94
500.569	90.94
500.786	83.94
501.003	87.94
501.22	106.94
501.437	99.94
501.654	91.94
501.871	96.94
502.088	94.94
502.305	83.94
502.522	83.94
502.739	97.94
502.956	97.94
503.172	89.94
503.389	79.94
503.606	73.94
503.823	97.94
504.04	108.94
504.256	89.94
504.473	91.94
504.69	90.94
504.907	97.94
505.123	80.94
505.34	89.94
505.557	83.94
505.773	83.94
505.99	103.94
506.207	96.94
506.423	105.94
506.64	95.94
506.856	95.94
507.073	80.94
507.289	73.94
507.506	85.94
507.722	79.94
507.939	77.94
508.155	89.94
508.372	78.94
508.588	79.94
508.805	93.94
509.021	87.94
509.238	70.94
509.454	84.94
509.67	75.94
509.887	75.94
510.103	94.94
510.319	84.94
510.536	79.94
510.752	81.94
510.968	67.94
511.184	74.94
511.401	84.94
511.617	79.94
511.833	73.94
512.049	58.94
512.265	71.94
512.481	90.94
512.698	74.94
512.914	81.94
513.13	88.94
513.346	87.94
513.562	94.94
513.778	72.94
513.994	70.94
514.21	71.94
514.426	82.94
514.642	89.94
514.858	92.94
515.074	88.94
515.29	74.94
515.506	83.94
515.721	79.94
515.937	61.94
516.153	81.94
516.369	86.94
516.585	72.94
516.801	71.94
517.016	71.94
517.232	74.94
517.448	76.94
517.664	85.94
517.879	70.94
518.095	96.94
518.311	76.94
518.527	77.94
518.742	83.94
