Data from Location4.07152019.Energy5.Lamp.07192019.3%Agarose_HRD10591_15-26-17-578.txt Node
Date: Fri Jul 19 15:26:17 EDT 2019
User: cochatt
Spectrometer: HR+D1059
Trigger mode: 1
Integration Time (sec): 1.000000E-1
Scans to average: 1
Electric dark correction enabled: true
Nonlinearity correction enabled: false
Boxcar width: 0
XAxis mode: Wavelengths
Number of Pixels in Spectrum: 2048
>>>>>Begin Spectral Data<<<<<
223.165	-10.19
223.4	-10.19
223.635	-10.19
223.869	-19.19
224.104	-18.19
224.338	-17.19
224.573	-19.19
224.808	-8.19
225.042	-6.19
225.277	-9.19
225.511	19.81
225.746	13.81
225.98	-8.19
226.215	-3.19
226.449	14.81
226.683	17.81
226.918	21.81
227.152	30.81
227.387	22.81
227.621	28.81
227.856	34.81
228.09	50.81
228.324	44.81
228.559	48.81
228.793	61.81
229.027	58.81
229.262	58.81
229.496	59.81
229.73	64.81
229.964	72.81
230.199	63.81
230.433	73.81
230.667	66.81
230.901	77.81
231.136	76.81
231.37	82.81
231.604	75.81
231.838	66.81
232.072	60.81
232.306	65.81
232.541	79.81
232.775	69.81
233.009	76.81
233.243	86.81
233.477	69.81
233.711	81.81
233.945	76.81
234.179	74.81
234.413	80.81
234.647	92.81
234.881	61.81
235.115	68.81
235.349	66.81
235.583	75.81
235.817	85.81
236.051	89.81
236.285	83.81
236.519	61.81
236.753	67.81
236.987	77.81
237.221	76.81
237.455	70.81
237.689	60.81
237.922	82.81
238.156	60.81
238.39	65.81
238.624	57.81
238.858	77.81
239.091	66.81
239.325	74.81
239.559	64.81
239.793	74.81
240.027	74.81
240.26	62.81
240.494	78.81
240.728	75.81
240.961	67.81
241.195	78.81
241.429	80.81
241.662	70.81
241.896	74.81
242.13	59.81
242.363	67.81
242.597	80.81
242.83	71.81
243.064	79.81
243.298	80.81
243.531	79.81
243.765	91.81
243.998	77.81
244.232	72.81
244.465	73.81
244.699	59.81
244.932	76.81
245.166	83.81
245.399	71.81
245.633	74.81
245.866	75.81
246.099	74.81
246.333	72.81
246.566	77.81
246.8	74.81
247.033	69.81
247.266	83.81
247.5	72.81
247.733	65.81
247.966	68.81
248.2	78.81
248.433	53.81
248.666	58.81
248.899	68.81
249.133	69.81
249.366	70.81
249.599	67.81
249.832	61.81
250.066	74.81
250.299	66.81
250.532	67.81
250.765	81.81
250.998	73.81
251.231	74.81
251.465	84.81
251.698	76.81
251.931	76.81
252.164	70.81
252.397	58.81
252.63	80.81
252.863	79.81
253.096	75.81
253.329	74.81
253.562	64.81
253.795	73.81
254.028	75.81
254.261	65.81
254.494	79.81
254.727	77.81
254.96	78.81
255.193	60.81
255.426	69.81
255.659	76.81
255.892	72.81
256.124	61.81
256.357	76.81
256.59	80.81
256.823	84.81
257.056	81.81
257.289	79.81
257.521	76.81
257.754	86.81
257.987	67.81
258.22	73.81
258.452	85.81
258.685	74.81
258.918	64.81
259.151	84.81
259.383	76.81
259.616	73.81
259.849	70.81
260.081	85.81
260.314	83.81
260.547	66.81
260.779	73.81
261.012	77.81
261.244	76.81
261.477	82.81
261.71	80.81
261.942	80.81
262.175	69.81
262.407	77.81
262.64	76.81
262.872	68.81
263.105	58.81
263.337	80.81
263.57	81.81
263.802	83.81
264.035	87.81
264.267	61.81
264.499	69.81
264.732	54.81
264.964	74.81
265.197	88.81
265.429	71.81
265.661	78.81
265.894	80.81
266.126	86.81
266.358	85.81
266.591	80.81
266.823	79.81
267.055	76.81
267.287	66.81
267.52	74.81
267.752	65.81
267.984	68.81
268.216	69.81
268.448	71.81
268.681	82.81
268.913	84.81
269.145	74.81
269.377	71.81
269.609	74.81
269.841	81.81
270.073	78.81
270.306	88.81
270.538	88.81
270.77	74.81
271.002	80.81
271.234	70.81
271.466	83.81
271.698	67.81
271.93	52.81
272.162	74.81
272.394	80.81
272.626	81.81
272.858	79.81
273.09	79.81
273.322	64.81
273.553	73.81
273.785	78.81
274.017	74.81
274.249	77.81
274.481	73.81
274.713	82.81
274.945	78.81
275.176	81.81
275.408	84.81
275.64	77.81
275.872	85.81
276.104	76.81
276.335	74.81
276.567	69.81
276.799	74.81
277.031	80.81
277.262	84.81
277.494	74.81
277.726	88.81
277.957	67.81
278.189	70.81
278.421	78.81
278.652	71.81
278.884	83.81
279.115	90.81
279.347	71.81
279.579	68.81
279.81	75.81
280.042	69.81
280.273	86.81
280.505	83.81
280.736	77.81
280.968	85.81
281.199	73.81
281.431	78.81
281.662	76.81
281.894	82.81
282.125	78.81
282.356	89.81
282.588	66.81
282.819	84.81
283.051	81.81
283.282	82.81
283.513	87.81
283.745	81.81
283.976	78.81
284.207	77.81
284.439	59.81
284.67	78.81
284.901	78.81
285.132	90.81
285.364	80.81
285.595	68.81
285.826	68.81
286.057	68.81
286.288	82.81
286.52	78.81
286.751	76.81
286.982	87.81
287.213	76.81
287.444	83.81
287.675	65.81
287.906	84.81
288.138	72.81
288.369	80.81
288.6	75.81
288.831	75.81
289.062	79.81
289.293	74.81
289.524	62.81
289.755	82.81
289.986	73.81
290.217	85.81
290.448	70.81
290.679	74.81
290.91	68.81
291.141	81.81
291.371	87.81
291.602	81.81
291.833	76.81
292.064	76.81
292.295	88.81
292.526	71.81
292.757	80.81
292.987	63.81
293.218	63.81
293.449	75.81
293.68	73.81
293.91	81.81
294.141	85.81
294.372	70.81
294.603	73.81
294.833	70.81
295.064	89.81
295.295	97.81
295.525	67.81
295.756	74.81
295.987	75.81
296.217	77.81
296.448	78.81
296.679	68.81
296.909	68.81
297.14	73.81
297.37	61.81
297.601	82.81
297.831	78.81
298.062	85.81
298.292	75.81
298.523	59.81
298.753	70.81
298.984	84.81
299.214	67.81
299.445	86.81
299.675	85.81
299.905	66.81
300.136	80.81
300.366	89.81
300.597	72.81
300.827	77.81
301.057	75.81
301.288	73.81
301.518	77.81
301.748	88.81
301.979	88.81
302.209	83.81
302.439	83.81
302.669	77.81
302.9	76.81
303.13	78.81
303.36	82.81
303.59	84.81
303.82	88.81
304.051	82.81
304.281	81.81
304.511	83.81
304.741	87.81
304.971	75.81
305.201	76.81
305.431	93.81
305.661	73.81
305.891	76.81
306.121	71.81
306.352	73.81
306.582	73.81
306.812	73.81
307.042	84.81
307.272	75.81
307.502	74.81
307.731	72.81
307.961	75.81
308.191	89.81
308.421	79.81
308.651	82.81
308.881	84.81
309.111	60.81
309.341	71.81
309.571	84.81
309.8	83.81
310.03	84.81
310.26	58.81
310.49	68.81
310.72	79.81
310.949	83.81
311.179	70.81
311.409	76.81
311.639	83.81
311.868	87.81
312.098	76.81
312.328	78.81
312.557	96.81
312.787	72.81
313.017	87.81
313.246	78.81
313.476	73.81
313.706	87.81
313.935	72.81
314.165	86.81
314.394	78.81
314.624	77.81
314.853	70.81
315.083	77.81
315.312	77.81
315.542	81.81
315.771	77.81
316.001	78.81
316.23	72.81
316.46	81.81
316.689	80.81
316.919	92.81
317.148	90.81
317.377	75.81
317.607	81.81
317.836	73.81
318.065	80.81
318.295	70.81
318.524	67.81
318.753	69.81
318.983	81.81
319.212	82.81
319.441	89.81
319.67	95.81
319.9	82.81
320.129	80.81
320.358	78.81
320.587	88.81
320.816	72.81
321.046	66.81
321.275	80.81
321.504	87.81
321.733	76.81
321.962	73.81
322.191	71.81
322.42	77.81
322.649	99.81
322.878	73.81
323.108	74.81
323.337	86.81
323.566	80.81
323.795	73.81
324.024	80.81
324.253	76.81
324.482	79.81
324.71	85.81
324.939	80.81
325.168	80.81
325.397	70.81
325.626	81.81
325.855	79.81
326.084	78.81
326.313	75.81
326.542	76.81
326.77	78.81
326.999	70.81
327.228	81.81
327.457	70.81
327.686	91.81
327.914	80.81
328.143	94.81
328.372	77.81
328.6	69.81
328.829	80.81
329.058	78.81
329.287	68.81
329.515	74.81
329.744	85.81
329.972	93.81
330.201	65.81
330.43	73.81
330.658	73.81
330.887	77.81
331.115	73.81
331.344	78.81
331.572	82.81
331.801	89.81
332.03	82.81
332.258	76.81
332.486	79.81
332.715	68.81
332.943	74.81
333.172	73.81
333.4	89.81
333.629	77.81
333.857	90.81
334.085	88.81
334.314	77.81
334.542	74.81
334.771	89.81
334.999	87.81
335.227	86.81
335.455	72.81
335.684	71.81
335.912	81.81
336.14	83.81
336.369	66.81
336.597	61.81
336.825	79.81
337.053	80.81
337.281	78.81
337.51	62.81
337.738	84.81
337.966	77.81
338.194	68.81
338.422	85.81
338.65	77.81
338.878	61.81
339.106	83.81
339.334	78.81
339.562	77.81
339.79	82.81
340.018	73.81
340.246	76.81
340.474	88.81
340.702	73.81
340.93	78.81
341.158	89.81
341.386	81.81
341.614	80.81
341.842	83.81
342.07	64.81
342.298	84.81
342.526	74.81
342.754	84.81
342.981	89.81
343.209	78.81
343.437	80.81
343.665	88.81
343.893	85.81
344.12	84.81
344.348	68.81
344.576	81.81
344.804	79.81
345.031	81.81
345.259	77.81
345.487	68.81
345.714	69.81
345.942	70.81
346.17	77.81
346.397	72.81
346.625	69.81
346.853	82.81
347.08	75.81
347.308	82.81
347.535	74.81
347.763	70.81
347.99	88.81
348.218	78.81
348.445	83.81
348.673	82.81
348.9	72.81
349.128	89.81
349.355	71.81
349.583	77.81
349.81	77.81
350.037	84.81
350.265	90.81
350.492	87.81
350.72	78.81
350.947	74.81
351.174	82.81
351.402	82.81
351.629	66.81
351.856	71.81
352.083	77.81
352.311	85.81
352.538	73.81
352.765	75.81
352.992	69.81
353.22	81.81
353.447	81.81
353.674	75.81
353.901	86.81
354.128	73.81
354.355	69.81
354.583	63.81
354.81	84.81
355.037	68.81
355.264	85.81
355.491	79.81
355.718	78.81
355.945	68.81
356.172	83.81
356.399	74.81
356.626	75.81
356.853	76.81
357.08	85.81
357.307	83.81
357.534	69.81
357.761	64.81
357.988	79.81
358.215	83.81
358.441	70.81
358.668	69.81
358.895	81.81
359.122	88.81
359.349	68.81
359.576	77.81
359.802	85.81
360.029	77.81
360.256	72.81
360.483	89.81
360.709	79.81
360.936	84.81
361.163	83.81
361.39	84.81
361.616	59.81
361.843	76.81
362.07	80.81
362.296	77.81
362.523	79.81
362.749	67.81
362.976	80.81
363.203	92.81
363.429	70.81
363.656	72.81
363.882	86.81
364.109	79.81
364.335	74.81
364.562	78.81
364.788	75.81
365.015	72.81
365.241	81.81
365.468	69.81
365.694	76.81
365.92	75.81
366.147	71.81
366.373	78.81
366.599	76.81
366.826	87.81
367.052	74.81
367.278	76.81
367.505	84.81
367.731	77.81
367.957	83.81
368.184	69.81
368.41	87.81
368.636	83.81
368.862	71.81
369.089	78.81
369.315	66.81
369.541	79.81
369.767	72.81
369.993	85.81
370.219	73.81
370.445	59.81
370.672	80.81
370.898	75.81
371.124	64.81
371.35	68.81
371.576	75.81
371.802	66.81
372.028	84.81
372.254	77.81
372.48	85.81
372.706	85.81
372.932	76.81
373.158	82.81
373.384	80.81
373.61	76.81
373.835	77.81
374.061	65.81
374.287	81.81
374.513	80.81
374.739	72.81
374.965	84.81
375.191	81.81
375.416	72.81
375.642	90.81
375.868	78.81
376.094	77.81
376.319	84.81
376.545	84.81
376.771	88.81
376.997	87.81
377.222	65.81
377.448	81.81
377.674	74.81
377.899	77.81
378.125	75.81
378.35	74.81
378.576	76.81
378.802	83.81
379.027	90.81
379.253	87.81
379.478	70.81
379.704	88.81
379.929	79.81
380.155	85.81
380.38	75.81
380.606	75.81
380.831	80.81
381.057	78.81
381.282	88.81
381.507	80.81
381.733	73.81
381.958	69.81
382.184	92.81
382.409	75.81
382.634	79.81
382.86	85.81
383.085	74.81
383.31	77.81
383.535	83.81
383.761	85.81
383.986	69.81
384.211	69.81
384.436	76.81
384.662	73.81
384.887	78.81
385.112	67.81
385.337	83.81
385.562	77.81
385.787	80.81
386.013	88.81
386.238	79.81
386.463	67.81
386.688	87.81
386.913	70.81
387.138	82.81
387.363	83.81
387.588	74.81
387.813	78.81
388.038	74.81
388.263	85.81
388.488	73.81
388.713	82.81
388.938	83.81
389.163	71.81
389.387	82.81
389.612	83.81
389.837	81.81
390.062	99.81
390.287	81.81
390.512	85.81
390.736	77.81
390.961	90.81
391.186	72.81
391.411	80.81
391.636	86.81
391.86	81.81
392.085	82.81
392.31	93.81
392.534	78.81
392.759	70.81
392.984	84.81
393.208	85.81
393.433	79.81
393.658	71.81
393.882	82.81
394.107	70.81
394.331	82.81
394.556	74.81
394.78	73.81
395.005	90.81
395.229	73.81
395.454	72.81
395.678	84.81
395.903	83.81
396.127	82.81
396.352	80.81
396.576	70.81
396.801	75.81
397.025	79.81
397.249	81.81
397.474	80.81
397.698	93.81
397.922	87.81
398.147	88.81
398.371	82.81
398.595	80.81
398.82	83.81
399.044	86.81
399.268	69.81
399.492	85.81
399.717	76.81
399.941	72.81
400.165	92.81
400.389	83.81
400.613	67.81
400.837	79.81
401.062	67.81
401.286	86.81
401.51	94.81
401.734	80.81
401.958	91.81
402.182	73.81
402.406	75.81
402.63	72.81
402.854	79.81
403.078	68.81
403.302	78.81
403.526	80.81
403.75	68.81
403.974	83.81
404.198	80.81
404.422	77.81
404.645	71.81
404.869	80.81
405.093	80.81
405.317	75.81
405.541	83.81
405.765	70.81
405.988	91.81
406.212	80.81
406.436	83.81
406.66	82.81
406.883	60.81
407.107	78.81
407.331	64.81
407.555	84.81
407.778	77.81
408.002	83.81
408.226	83.81
408.449	81.81
408.673	88.81
408.896	75.81
409.12	78.81
409.344	90.81
409.567	88.81
409.791	95.81
410.014	77.81
410.238	76.81
410.461	91.81
410.685	74.81
410.908	84.81
411.132	81.81
411.355	83.81
411.578	88.81
411.802	76.81
412.025	82.81
412.249	67.81
412.472	74.81
412.695	71.81
412.919	88.81
413.142	67.81
413.365	78.81
413.589	68.81
413.812	86.81
414.035	85.81
414.258	88.81
414.482	75.81
414.705	85.81
414.928	88.81
415.151	82.81
415.374	93.81
415.597	81.81
415.821	75.81
416.044	78.81
416.267	83.81
416.49	97.81
416.713	95.81
416.936	99.81
417.159	84.81
417.382	78.81
417.605	93.81
417.828	80.81
418.051	92.81
418.274	85.81
418.497	91.81
418.72	89.81
418.943	84.81
419.166	100.81
419.389	95.81
419.611	81.81
419.834	93.81
420.057	84.81
420.28	85.81
420.503	96.81
420.726	88.81
420.948	76.81
421.171	84.81
421.394	92.81
421.617	89.81
421.839	95.81
422.062	95.81
422.285	71.81
422.507	87.81
422.73	84.81
422.953	77.81
423.175	82.81
423.398	86.81
423.621	86.81
423.843	85.81
424.066	99.81
424.288	94.81
424.511	92.81
424.733	78.81
424.956	89.81
425.178	82.81
425.401	106.81
425.623	80.81
425.846	101.81
426.068	81.81
426.291	91.81
426.513	78.81
426.735	89.81
426.958	86.81
427.18	95.81
427.402	88.81
427.625	83.81
427.847	77.81
428.069	84.81
428.292	82.81
428.514	83.81
428.736	87.81
428.958	77.81
429.181	93.81
429.403	96.81
429.625	103.81
429.847	78.81
430.069	94.81
430.292	80.81
430.514	90.81
430.736	79.81
430.958	86.81
431.18	80.81
431.402	82.81
431.624	82.81
431.846	74.81
432.068	85.81
432.29	78.81
432.512	79.81
432.734	89.81
432.956	88.81
433.178	108.81
433.4	84.81
433.622	78.81
433.844	81.81
434.066	83.81
434.287	89.81
434.509	81.81
434.731	71.81
434.953	85.81
435.175	87.81
435.397	85.81
435.618	79.81
435.84	85.81
436.062	85.81
436.284	76.81
436.505	68.81
436.727	96.81
436.949	102.81
437.17	81.81
437.392	82.81
437.614	65.81
437.835	69.81
438.057	73.81
438.278	81.81
438.5	85.81
438.721	89.81
438.943	81.81
439.165	91.81
439.386	101.81
439.608	102.81
439.829	93.81
440.05	75.81
440.272	79.81
440.493	97.81
440.715	88.81
440.936	105.81
441.158	86.81
441.379	87.81
441.6	103.81
441.822	93.81
442.043	87.81
442.264	90.81
442.486	91.81
442.707	101.81
442.928	88.81
443.149	80.81
443.371	81.81
443.592	101.81
443.813	97.81
444.034	79.81
444.255	95.81
444.476	111.81
444.698	86.81
444.919	97.81
445.14	203.81
445.361	126.81
445.582	96.81
445.803	104.81
446.024	89.81
446.245	92.81
446.466	104.81
446.687	94.81
446.908	107.81
447.129	108.81
447.35	91.81
447.571	82.81
447.792	88.81
448.013	105.81
448.234	100.81
448.455	80.81
448.675	93.81
448.896	87.81
449.117	95.81
449.338	102.81
449.559	97.81
449.779	81.81
450	81.81
450.221	92.81
450.442	93.81
450.662	92.81
450.883	97.81
451.104	87.81
451.324	97.81
451.545	102.81
451.766	91.81
451.986	75.81
452.207	94.81
452.428	82.81
452.648	83.81
452.869	85.81
453.089	83.81
453.31	86.81
453.53	90.81
453.751	83.81
453.971	86.81
454.192	73.81
454.412	78.81
454.633	85.81
454.853	83.81
455.073	83.81
455.294	88.81
455.514	86.81
455.734	77.81
455.955	86.81
456.175	91.81
456.395	86.81
456.616	84.81
456.836	90.81
457.056	107.81
457.276	73.81
457.497	81.81
457.717	86.81
457.937	89.81
458.157	83.81
458.377	89.81
458.598	77.81
458.818	77.81
459.038	78.81
459.258	80.81
459.478	93.81
459.698	74.81
459.918	87.81
460.138	86.81
460.358	72.81
460.578	93.81
460.798	87.81
461.018	83.81
461.238	66.81
461.458	88.81
461.678	58.81
461.898	74.81
462.118	81.81
462.338	80.81
462.558	83.81
462.777	77.81
462.997	80.81
463.217	76.81
463.437	80.81
463.657	85.81
463.876	76.81
464.096	89.81
464.316	77.81
464.536	91.81
464.755	75.81
464.975	85.81
465.195	84.81
465.414	98.81
465.634	98.81
465.854	81.81
466.073	85.81
466.293	93.81
466.512	90.81
466.732	84.81
466.951	86.81
467.171	85.81
467.391	89.81
467.61	96.81
467.829	87.81
468.049	96.81
468.268	102.81
468.488	80.81
468.707	95.81
468.927	95.81
469.146	84.81
469.365	84.81
469.585	83.81
469.804	91.81
470.023	89.81
470.243	95.81
470.462	92.81
470.681	97.81
470.901	87.81
471.12	91.81
471.339	84.81
471.558	93.81
471.777	84.81
471.997	96.81
472.216	88.81
472.435	82.81
472.654	81.81
472.873	77.81
473.092	88.81
473.311	86.81
473.53	72.81
473.749	101.81
473.968	96.81
474.187	80.81
474.406	87.81
474.625	79.81
474.844	85.81
475.063	95.81
475.282	93.81
475.501	80.81
475.72	80.81
475.939	95.81
476.158	98.81
476.377	108.81
476.596	76.81
476.814	79.81
477.033	74.81
477.252	80.81
477.471	101.81
477.69	92.81
477.908	80.81
478.127	84.81
478.346	86.81
478.564	100.81
478.783	96.81
479.002	93.81
479.22	91.81
479.439	93.81
479.658	92.81
479.876	74.81
480.095	76.81
480.313	88.81
480.532	90.81
480.751	83.81
480.969	78.81
481.188	76.81
481.406	78.81
481.624	85.81
481.843	77.81
482.061	67.81
482.28	96.81
482.498	76.81
482.717	79.81
482.935	97.81
483.153	89.81
483.372	81.81
483.59	106.81
483.808	95.81
484.027	106.81
484.245	100.81
484.463	112.81
484.681	107.81
484.9	97.81
485.118	98.81
485.336	80.81
485.554	66.81
485.772	70.81
485.99	88.81
486.209	84.81
486.427	61.81
486.645	81.81
486.863	76.81
487.081	83.81
487.299	86.81
487.517	87.81
487.735	89.81
487.953	110.81
488.171	104.81
488.389	98.81
488.607	94.81
488.825	102.81
489.043	85.81
489.261	86.81
489.479	82.81
489.696	90.81
489.914	92.81
490.132	91.81
490.35	89.81
490.568	96.81
490.786	98.81
491.003	114.81
491.221	114.81
491.439	111.81
491.657	113.81
491.874	100.81
492.092	124.81
492.31	115.81
492.527	108.81
492.745	118.81
492.963	97.81
493.18	107.81
493.398	104.81
493.615	93.81
493.833	104.81
494.05	102.81
494.268	105.81
494.485	86.81
494.703	109.81
494.92	95.81
495.138	106.81
495.355	98.81
495.573	86.81
495.79	91.81
496.008	117.81
496.225	97.81
496.442	120.81
496.66	105.81
496.877	100.81
497.094	102.81
497.312	112.81
497.529	102.81
497.746	99.81
497.963	84.81
498.181	87.81
498.398	95.81
498.615	72.81
498.832	85.81
499.049	93.81
499.267	100.81
499.484	100.81
499.701	70.81
499.918	88.81
500.135	79.81
500.352	102.81
500.569	85.81
500.786	96.81
501.003	74.81
501.22	87.81
501.437	107.81
501.654	93.81
501.871	92.81
502.088	92.81
502.305	93.81
502.522	99.81
502.739	93.81
502.956	80.81
503.172	86.81
503.389	84.81
503.606	99.81
503.823	89.81
504.04	79.81
504.256	100.81
504.473	89.81
504.69	86.81
504.907	96.81
505.123	80.81
505.34	85.81
505.557	96.81
505.773	88.81
505.99	86.81
506.207	90.81
506.423	97.81
506.64	77.81
506.856	68.81
507.073	85.81
507.289	88.81
507.506	94.81
507.722	87.81
507.939	78.81
508.155	106.81
508.372	82.81
508.588	83.81
508.805	86.81
509.021	91.81
509.238	82.81
509.454	78.81
509.67	87.81
509.887	85.81
510.103	80.81
510.319	70.81
510.536	74.81
510.752	85.81
510.968	80.81
511.184	70.81
511.401	67.81
511.617	76.81
511.833	89.81
512.049	72.81
512.265	86.81
512.481	82.81
512.698	68.81
512.914	72.81
513.13	82.81
513.346	68.81
513.562	68.81
513.778	69.81
513.994	81.81
514.21	80.81
514.426	64.81
514.642	84.81
514.858	81.81
515.074	81.81
515.29	86.81
515.506	57.81
515.721	68.81
515.937	72.81
516.153	80.81
516.369	82.81
516.585	74.81
516.801	85.81
517.016	78.81
517.232	76.81
517.448	75.81
517.664	65.81
517.879	76.81
518.095	84.81
518.311	78.81
518.527	88.81
