Data from Location4.07152019.Energy5.Lamp.07192019.3%Agarose_HRD10591_15-25-02-577.txt Node
Date: Fri Jul 19 15:25:02 EDT 2019
User: cochatt
Spectrometer: HR+D1059
Trigger mode: 1
Integration Time (sec): 1.000000E-1
Scans to average: 1
Electric dark correction enabled: true
Nonlinearity correction enabled: false
Boxcar width: 0
XAxis mode: Wavelengths
Number of Pixels in Spectrum: 2048
>>>>>Begin Spectral Data<<<<<
223.165	0.62
223.4	0.62
223.635	0.62
223.869	-10.38
224.104	-15.38
224.338	-17.38
224.573	-38.38
224.808	-1.38
225.042	-10.38
225.277	1.62
225.511	-8.38
225.746	16.62
225.98	12.62
226.215	-12.38
226.449	15.62
226.683	14.62
226.918	25.62
227.152	26.62
227.387	24.62
227.621	33.62
227.856	48.62
228.09	44.62
228.324	46.62
228.559	37.62
228.793	46.62
229.027	60.62
229.262	54.62
229.496	57.62
229.73	77.62
229.964	74.62
230.199	79.62
230.433	70.62
230.667	69.62
230.901	67.62
231.136	79.62
231.37	82.62
231.604	77.62
231.838	77.62
232.072	80.62
232.306	84.62
232.541	86.62
232.775	70.62
233.009	81.62
233.243	108.62
233.477	72.62
233.711	77.62
233.945	89.62
234.179	80.62
234.413	86.62
234.647	68.62
234.881	73.62
235.115	76.62
235.349	74.62
235.583	72.62
235.817	65.62
236.051	78.62
236.285	66.62
236.519	71.62
236.753	74.62
236.987	70.62
237.221	69.62
237.455	83.62
237.689	81.62
237.922	83.62
238.156	64.62
238.39	78.62
238.624	65.62
238.858	90.62
239.091	68.62
239.325	79.62
239.559	67.62
239.793	70.62
240.027	84.62
240.26	70.62
240.494	69.62
240.728	79.62
240.961	52.62
241.195	82.62
241.429	85.62
241.662	66.62
241.896	74.62
242.13	73.62
242.363	77.62
242.597	76.62
242.83	70.62
243.064	63.62
243.298	66.62
243.531	83.62
243.765	80.62
243.998	74.62
244.232	65.62
244.465	72.62
244.699	60.62
244.932	82.62
245.166	68.62
245.399	74.62
245.633	84.62
245.866	74.62
246.099	71.62
246.333	80.62
246.566	72.62
246.8	71.62
247.033	80.62
247.266	72.62
247.5	71.62
247.733	75.62
247.966	74.62
248.2	81.62
248.433	76.62
248.666	82.62
248.899	69.62
249.133	71.62
249.366	76.62
249.599	64.62
249.832	77.62
250.066	81.62
250.299	67.62
250.532	88.62
250.765	78.62
250.998	85.62
251.231	87.62
251.465	85.62
251.698	87.62
251.931	68.62
252.164	74.62
252.397	82.62
252.63	79.62
252.863	61.62
253.096	68.62
253.329	80.62
253.562	71.62
253.795	77.62
254.028	73.62
254.261	81.62
254.494	75.62
254.727	88.62
254.96	81.62
255.193	76.62
255.426	94.62
255.659	67.62
255.892	72.62
256.124	75.62
256.357	91.62
256.59	78.62
256.823	87.62
257.056	79.62
257.289	73.62
257.521	79.62
257.754	75.62
257.987	73.62
258.22	86.62
258.452	66.62
258.685	79.62
258.918	86.62
259.151	80.62
259.383	82.62
259.616	75.62
259.849	88.62
260.081	89.62
260.314	68.62
260.547	93.62
260.779	83.62
261.012	76.62
261.244	72.62
261.477	78.62
261.71	82.62
261.942	72.62
262.175	80.62
262.407	78.62
262.64	82.62
262.872	85.62
263.105	78.62
263.337	82.62
263.57	69.62
263.802	86.62
264.035	91.62
264.267	74.62
264.499	66.62
264.732	81.62
264.964	76.62
265.197	80.62
265.429	78.62
265.661	85.62
265.894	74.62
266.126	92.62
266.358	85.62
266.591	72.62
266.823	84.62
267.055	74.62
267.287	73.62
267.52	85.62
267.752	85.62
267.984	77.62
268.216	70.62
268.448	87.62
268.681	76.62
268.913	92.62
269.145	89.62
269.377	80.62
269.609	86.62
269.841	84.62
270.073	85.62
270.306	81.62
270.538	67.62
270.77	83.62
271.002	76.62
271.234	84.62
271.466	83.62
271.698	85.62
271.93	92.62
272.162	96.62
272.394	75.62
272.626	81.62
272.858	74.62
273.09	78.62
273.322	80.62
273.553	78.62
273.785	82.62
274.017	79.62
274.249	74.62
274.481	76.62
274.713	61.62
274.945	66.62
275.176	64.62
275.408	74.62
275.64	91.62
275.872	78.62
276.104	84.62
276.335	87.62
276.567	80.62
276.799	69.62
277.031	78.62
277.262	80.62
277.494	81.62
277.726	77.62
277.957	67.62
278.189	80.62
278.421	85.62
278.652	92.62
278.884	74.62
279.115	71.62
279.347	72.62
279.579	86.62
279.81	88.62
280.042	84.62
280.273	77.62
280.505	74.62
280.736	98.62
280.968	88.62
281.199	73.62
281.431	69.62
281.662	88.62
281.894	84.62
282.125	72.62
282.356	74.62
282.588	91.62
282.819	78.62
283.051	75.62
283.282	66.62
283.513	76.62
283.745	90.62
283.976	88.62
284.207	80.62
284.439	68.62
284.67	89.62
284.901	90.62
285.132	81.62
285.364	88.62
285.595	91.62
285.826	79.62
286.057	73.62
286.288	76.62
286.52	80.62
286.751	77.62
286.982	79.62
287.213	74.62
287.444	96.62
287.675	84.62
287.906	91.62
288.138	91.62
288.369	75.62
288.6	80.62
288.831	75.62
289.062	79.62
289.293	86.62
289.524	84.62
289.755	77.62
289.986	72.62
290.217	80.62
290.448	80.62
290.679	74.62
290.91	87.62
291.141	84.62
291.371	98.62
291.602	84.62
291.833	80.62
292.064	94.62
292.295	92.62
292.526	79.62
292.757	74.62
292.987	77.62
293.218	87.62
293.449	76.62
293.68	87.62
293.91	83.62
294.141	76.62
294.372	80.62
294.603	86.62
294.833	94.62
295.064	87.62
295.295	87.62
295.525	78.62
295.756	77.62
295.987	66.62
296.217	70.62
296.448	63.62
296.679	84.62
296.909	80.62
297.14	77.62
297.37	78.62
297.601	92.62
297.831	86.62
298.062	69.62
298.292	73.62
298.523	86.62
298.753	88.62
298.984	71.62
299.214	82.62
299.445	92.62
299.675	78.62
299.905	89.62
300.136	81.62
300.366	87.62
300.597	75.62
300.827	82.62
301.057	77.62
301.288	87.62
301.518	79.62
301.748	77.62
301.979	84.62
302.209	75.62
302.439	89.62
302.669	70.62
302.9	87.62
303.13	65.62
303.36	86.62
303.59	77.62
303.82	87.62
304.051	88.62
304.281	77.62
304.511	79.62
304.741	81.62
304.971	78.62
305.201	77.62
305.431	76.62
305.661	91.62
305.891	72.62
306.121	73.62
306.352	80.62
306.582	72.62
306.812	93.62
307.042	71.62
307.272	73.62
307.502	86.62
307.731	81.62
307.961	77.62
308.191	81.62
308.421	86.62
308.651	78.62
308.881	80.62
309.111	84.62
309.341	86.62
309.571	70.62
309.8	101.62
310.03	76.62
310.26	70.62
310.49	86.62
310.72	89.62
310.949	87.62
311.179	73.62
311.409	87.62
311.639	75.62
311.868	73.62
312.098	89.62
312.328	80.62
312.557	69.62
312.787	80.62
313.017	85.62
313.246	84.62
313.476	81.62
313.706	82.62
313.935	88.62
314.165	78.62
314.394	82.62
314.624	92.62
314.853	76.62
315.083	84.62
315.312	93.62
315.542	85.62
315.771	80.62
316.001	88.62
316.23	79.62
316.46	88.62
316.689	83.62
316.919	67.62
317.148	95.62
317.377	87.62
317.607	73.62
317.836	81.62
318.065	72.62
318.295	80.62
318.524	96.62
318.753	80.62
318.983	78.62
319.212	92.62
319.441	77.62
319.67	70.62
319.9	83.62
320.129	77.62
320.358	83.62
320.587	65.62
320.816	70.62
321.046	70.62
321.275	81.62
321.504	86.62
321.733	80.62
321.962	73.62
322.191	90.62
322.42	92.62
322.649	88.62
322.878	87.62
323.108	88.62
323.337	88.62
323.566	82.62
323.795	88.62
324.024	79.62
324.253	76.62
324.482	88.62
324.71	88.62
324.939	81.62
325.168	78.62
325.397	87.62
325.626	93.62
325.855	84.62
326.084	73.62
326.313	88.62
326.542	80.62
326.77	81.62
326.999	85.62
327.228	89.62
327.457	86.62
327.686	77.62
327.914	80.62
328.143	91.62
328.372	85.62
328.6	74.62
328.829	89.62
329.058	92.62
329.287	77.62
329.515	71.62
329.744	74.62
329.972	70.62
330.201	96.62
330.43	90.62
330.658	80.62
330.887	84.62
331.115	72.62
331.344	81.62
331.572	88.62
331.801	76.62
332.03	65.62
332.258	84.62
332.486	84.62
332.715	86.62
332.943	81.62
333.172	81.62
333.4	78.62
333.629	90.62
333.857	68.62
334.085	87.62
334.314	85.62
334.542	92.62
334.771	77.62
334.999	82.62
335.227	73.62
335.455	79.62
335.684	84.62
335.912	89.62
336.14	85.62
336.369	81.62
336.597	84.62
336.825	95.62
337.053	74.62
337.281	89.62
337.51	78.62
337.738	78.62
337.966	84.62
338.194	67.62
338.422	74.62
338.65	76.62
338.878	81.62
339.106	89.62
339.334	91.62
339.562	76.62
339.79	76.62
340.018	83.62
340.246	79.62
340.474	80.62
340.702	80.62
340.93	90.62
341.158	79.62
341.386	81.62
341.614	79.62
341.842	89.62
342.07	86.62
342.298	98.62
342.526	70.62
342.754	90.62
342.981	97.62
343.209	97.62
343.437	76.62
343.665	81.62
343.893	96.62
344.12	88.62
344.348	107.62
344.576	96.62
344.804	80.62
345.031	79.62
345.259	80.62
345.487	83.62
345.714	81.62
345.942	80.62
346.17	80.62
346.397	72.62
346.625	80.62
346.853	83.62
347.08	70.62
347.308	91.62
347.535	84.62
347.763	71.62
347.99	90.62
348.218	87.62
348.445	93.62
348.673	100.62
348.9	86.62
349.128	81.62
349.355	82.62
349.583	88.62
349.81	79.62
350.037	69.62
350.265	85.62
350.492	85.62
350.72	64.62
350.947	85.62
351.174	100.62
351.402	71.62
351.629	89.62
351.856	94.62
352.083	97.62
352.311	84.62
352.538	81.62
352.765	76.62
352.992	90.62
353.22	86.62
353.447	84.62
353.674	77.62
353.901	86.62
354.128	84.62
354.355	84.62
354.583	78.62
354.81	78.62
355.037	80.62
355.264	84.62
355.491	72.62
355.718	78.62
355.945	87.62
356.172	76.62
356.399	69.62
356.626	81.62
356.853	80.62
357.08	77.62
357.307	96.62
357.534	78.62
357.761	82.62
357.988	83.62
358.215	85.62
358.441	89.62
358.668	82.62
358.895	89.62
359.122	85.62
359.349	91.62
359.576	82.62
359.802	78.62
360.029	84.62
360.256	95.62
360.483	83.62
360.709	83.62
360.936	87.62
361.163	74.62
361.39	92.62
361.616	87.62
361.843	77.62
362.07	78.62
362.296	69.62
362.523	62.62
362.749	70.62
362.976	106.62
363.203	84.62
363.429	78.62
363.656	69.62
363.882	75.62
364.109	70.62
364.335	86.62
364.562	69.62
364.788	86.62
365.015	79.62
365.241	86.62
365.468	85.62
365.694	83.62
365.92	86.62
366.147	75.62
366.373	84.62
366.599	83.62
366.826	65.62
367.052	69.62
367.278	87.62
367.505	76.62
367.731	83.62
367.957	79.62
368.184	86.62
368.41	75.62
368.636	86.62
368.862	82.62
369.089	86.62
369.315	92.62
369.541	75.62
369.767	81.62
369.993	58.62
370.219	75.62
370.445	73.62
370.672	89.62
370.898	83.62
371.124	88.62
371.35	85.62
371.576	86.62
371.802	78.62
372.028	70.62
372.254	84.62
372.48	72.62
372.706	77.62
372.932	70.62
373.158	78.62
373.384	96.62
373.61	84.62
373.835	64.62
374.061	87.62
374.287	71.62
374.513	74.62
374.739	73.62
374.965	86.62
375.191	85.62
375.416	84.62
375.642	77.62
375.868	92.62
376.094	94.62
376.319	83.62
376.545	83.62
376.771	80.62
376.997	65.62
377.222	83.62
377.448	68.62
377.674	76.62
377.899	81.62
378.125	91.62
378.35	85.62
378.576	84.62
378.802	85.62
379.027	81.62
379.253	89.62
379.478	93.62
379.704	84.62
379.929	82.62
380.155	73.62
380.38	87.62
380.606	76.62
380.831	86.62
381.057	95.62
381.282	76.62
381.507	84.62
381.733	85.62
381.958	90.62
382.184	76.62
382.409	93.62
382.634	96.62
382.86	89.62
383.085	79.62
383.31	68.62
383.535	75.62
383.761	96.62
383.986	86.62
384.211	77.62
384.436	77.62
384.662	88.62
384.887	91.62
385.112	83.62
385.337	96.62
385.562	74.62
385.787	93.62
386.013	90.62
386.238	83.62
386.463	85.62
386.688	78.62
386.913	78.62
387.138	103.62
387.363	84.62
387.588	92.62
387.813	79.62
388.038	70.62
388.263	84.62
388.488	81.62
388.713	74.62
388.938	94.62
389.163	84.62
389.387	89.62
389.612	99.62
389.837	81.62
390.062	84.62
390.287	89.62
390.512	80.62
390.736	71.62
390.961	78.62
391.186	81.62
391.411	85.62
391.636	86.62
391.86	73.62
392.085	93.62
392.31	79.62
392.534	76.62
392.759	97.62
392.984	101.62
393.208	86.62
393.433	67.62
393.658	82.62
393.882	98.62
394.107	84.62
394.331	84.62
394.556	59.62
394.78	72.62
395.005	80.62
395.229	83.62
395.454	86.62
395.678	108.62
395.903	97.62
396.127	92.62
396.352	74.62
396.576	81.62
396.801	89.62
397.025	86.62
397.249	82.62
397.474	101.62
397.698	84.62
397.922	73.62
398.147	82.62
398.371	85.62
398.595	82.62
398.82	92.62
399.044	81.62
399.268	88.62
399.492	87.62
399.717	81.62
399.941	89.62
400.165	89.62
400.389	86.62
400.613	82.62
400.837	88.62
401.062	91.62
401.286	74.62
401.51	78.62
401.734	90.62
401.958	73.62
402.182	70.62
402.406	86.62
402.63	102.62
402.854	78.62
403.078	83.62
403.302	80.62
403.526	76.62
403.75	85.62
403.974	87.62
404.198	86.62
404.422	85.62
404.645	78.62
404.869	92.62
405.093	104.62
405.317	81.62
405.541	83.62
405.765	90.62
405.988	86.62
406.212	83.62
406.436	79.62
406.66	109.62
406.883	96.62
407.107	84.62
407.331	84.62
407.555	87.62
407.778	75.62
408.002	85.62
408.226	75.62
408.449	87.62
408.673	88.62
408.896	89.62
409.12	93.62
409.344	83.62
409.567	81.62
409.791	79.62
410.014	83.62
410.238	97.62
410.461	85.62
410.685	92.62
410.908	99.62
411.132	87.62
411.355	86.62
411.578	84.62
411.802	80.62
412.025	83.62
412.249	89.62
412.472	99.62
412.695	102.62
412.919	89.62
413.142	93.62
413.365	90.62
413.589	97.62
413.812	88.62
414.035	101.62
414.258	78.62
414.482	83.62
414.705	92.62
414.928	95.62
415.151	87.62
415.374	87.62
415.597	100.62
415.821	90.62
416.044	87.62
416.267	81.62
416.49	96.62
416.713	86.62
416.936	93.62
417.159	89.62
417.382	95.62
417.605	93.62
417.828	104.62
418.051	80.62
418.274	95.62
418.497	96.62
418.72	88.62
418.943	89.62
419.166	90.62
419.389	94.62
419.611	101.62
419.834	113.62
420.057	92.62
420.28	82.62
420.503	95.62
420.726	77.62
420.948	98.62
421.171	96.62
421.394	89.62
421.617	97.62
421.839	98.62
422.062	90.62
422.285	98.62
422.507	80.62
422.73	74.62
422.953	85.62
423.175	89.62
423.398	76.62
423.621	95.62
423.843	100.62
424.066	85.62
424.288	104.62
424.511	96.62
424.733	92.62
424.956	100.62
425.178	102.62
425.401	88.62
425.623	99.62
425.846	95.62
426.068	87.62
426.291	88.62
426.513	74.62
426.735	92.62
426.958	87.62
427.18	91.62
427.402	91.62
427.625	96.62
427.847	102.62
428.069	99.62
428.292	93.62
428.514	93.62
428.736	98.62
428.958	86.62
429.181	89.62
429.403	99.62
429.625	78.62
429.847	94.62
430.069	95.62
430.292	98.62
430.514	95.62
430.736	86.62
430.958	94.62
431.18	81.62
431.402	98.62
431.624	93.62
431.846	98.62
432.068	88.62
432.29	84.62
432.512	105.62
432.734	81.62
432.956	79.62
433.178	95.62
433.4	85.62
433.622	83.62
433.844	89.62
434.066	74.62
434.287	70.62
434.509	78.62
434.731	82.62
434.953	81.62
435.175	97.62
435.397	96.62
435.618	94.62
435.84	95.62
436.062	106.62
436.284	100.62
436.505	89.62
436.727	93.62
436.949	81.62
437.17	100.62
437.392	97.62
437.614	81.62
437.835	85.62
438.057	84.62
438.278	93.62
438.5	93.62
438.721	97.62
438.943	102.62
439.165	87.62
439.386	78.62
439.608	90.62
439.829	100.62
440.05	103.62
440.272	88.62
440.493	100.62
440.715	105.62
440.936	90.62
441.158	102.62
441.379	97.62
441.6	95.62
441.822	100.62
442.043	106.62
442.264	85.62
442.486	106.62
442.707	96.62
442.928	98.62
443.149	94.62
443.371	98.62
443.592	91.62
443.813	100.62
444.034	104.62
444.255	93.62
444.476	102.62
444.698	85.62
444.919	94.62
445.14	190.62
445.361	137.62
445.582	102.62
445.803	109.62
446.024	106.62
446.245	100.62
446.466	93.62
446.687	91.62
446.908	95.62
447.129	87.62
447.35	97.62
447.571	94.62
447.792	105.62
448.013	94.62
448.234	87.62
448.455	87.62
448.675	93.62
448.896	88.62
449.117	84.62
449.338	94.62
449.559	81.62
449.779	102.62
450	113.62
450.221	95.62
450.442	89.62
450.662	97.62
450.883	91.62
451.104	96.62
451.324	102.62
451.545	100.62
451.766	94.62
451.986	99.62
452.207	89.62
452.428	103.62
452.648	92.62
452.869	97.62
453.089	86.62
453.31	95.62
453.53	80.62
453.751	73.62
453.971	77.62
454.192	80.62
454.412	85.62
454.633	105.62
454.853	95.62
455.073	96.62
455.294	88.62
455.514	98.62
455.734	82.62
455.955	79.62
456.175	85.62
456.395	87.62
456.616	86.62
456.836	100.62
457.056	78.62
457.276	81.62
457.497	95.62
457.717	81.62
457.937	87.62
458.157	86.62
458.377	85.62
458.598	108.62
458.818	83.62
459.038	72.62
459.258	92.62
459.478	90.62
459.698	80.62
459.918	79.62
460.138	86.62
460.358	89.62
460.578	92.62
460.798	99.62
461.018	85.62
461.238	96.62
461.458	93.62
461.678	90.62
461.898	98.62
462.118	88.62
462.338	94.62
462.558	97.62
462.777	83.62
462.997	88.62
463.217	71.62
463.437	87.62
463.657	82.62
463.876	96.62
464.096	84.62
464.316	80.62
464.536	81.62
464.755	79.62
464.975	86.62
465.195	94.62
465.414	82.62
465.634	87.62
465.854	85.62
466.073	89.62
466.293	96.62
466.512	88.62
466.732	90.62
466.951	91.62
467.171	101.62
467.391	94.62
467.61	96.62
467.829	87.62
468.049	93.62
468.268	92.62
468.488	75.62
468.707	104.62
468.927	92.62
469.146	86.62
469.365	97.62
469.585	72.62
469.804	93.62
470.023	104.62
470.243	88.62
470.462	92.62
470.681	97.62
470.901	103.62
471.12	91.62
471.339	95.62
471.558	96.62
471.777	96.62
471.997	104.62
472.216	80.62
472.435	101.62
472.654	97.62
472.873	98.62
473.092	92.62
473.311	92.62
473.53	70.62
473.749	80.62
473.968	93.62
474.187	101.62
474.406	78.62
474.625	90.62
474.844	97.62
475.063	90.62
475.282	90.62
475.501	97.62
475.72	95.62
475.939	91.62
476.158	89.62
476.377	77.62
476.596	101.62
476.814	92.62
477.033	93.62
477.252	81.62
477.471	81.62
477.69	96.62
477.908	89.62
478.127	103.62
478.346	109.62
478.564	104.62
478.783	88.62
479.002	96.62
479.22	100.62
479.439	94.62
479.658	91.62
479.876	79.62
480.095	86.62
480.313	100.62
480.532	100.62
480.751	100.62
480.969	80.62
481.188	71.62
481.406	85.62
481.624	82.62
481.843	88.62
482.061	91.62
482.28	83.62
482.498	98.62
482.717	80.62
482.935	104.62
483.153	116.62
483.372	102.62
483.59	92.62
483.808	96.62
484.027	79.62
484.245	80.62
484.463	105.62
484.681	116.62
484.9	101.62
485.118	106.62
485.336	88.62
485.554	87.62
485.772	93.62
485.99	90.62
486.209	93.62
486.427	82.62
486.645	88.62
486.863	94.62
487.081	78.62
487.299	90.62
487.517	98.62
487.735	105.62
487.953	118.62
488.171	126.62
488.389	101.62
488.607	111.62
488.825	90.62
489.043	90.62
489.261	101.62
489.479	111.62
489.696	99.62
489.914	88.62
490.132	92.62
490.35	98.62
490.568	103.62
490.786	104.62
491.003	111.62
491.221	116.62
491.439	111.62
491.657	121.62
491.874	127.62
492.092	132.62
492.31	121.62
492.527	116.62
492.745	130.62
492.963	108.62
493.18	115.62
493.398	84.62
493.615	105.62
493.833	120.62
494.05	110.62
494.268	113.62
494.485	102.62
494.703	114.62
494.92	102.62
495.138	112.62
495.355	98.62
495.573	108.62
495.79	108.62
496.008	109.62
496.225	110.62
496.442	106.62
496.66	112.62
496.877	93.62
497.094	104.62
497.312	103.62
497.529	102.62
497.746	101.62
497.963	105.62
498.181	92.62
498.398	89.62
498.615	94.62
498.832	83.62
499.049	94.62
499.267	101.62
499.484	90.62
499.701	101.62
499.918	94.62
500.135	91.62
500.352	86.62
500.569	90.62
500.786	102.62
501.003	93.62
501.22	105.62
501.437	108.62
501.654	91.62
501.871	89.62
502.088	100.62
502.305	100.62
502.522	89.62
502.739	99.62
502.956	102.62
503.172	96.62
503.389	81.62
503.606	82.62
503.823	86.62
504.04	94.62
504.256	93.62
504.473	80.62
504.69	77.62
504.907	87.62
505.123	89.62
505.34	87.62
505.557	89.62
505.773	97.62
505.99	82.62
506.207	98.62
506.423	77.62
506.64	81.62
506.856	97.62
507.073	82.62
507.289	87.62
507.506	87.62
507.722	96.62
507.939	100.62
508.155	90.62
508.372	93.62
508.588	89.62
508.805	97.62
509.021	93.62
509.238	85.62
509.454	88.62
509.67	79.62
509.887	105.62
510.103	88.62
510.319	85.62
510.536	89.62
510.752	85.62
510.968	86.62
511.184	84.62
511.401	80.62
511.617	81.62
511.833	83.62
512.049	87.62
512.265	72.62
512.481	88.62
512.698	86.62
512.914	95.62
513.13	80.62
513.346	79.62
513.562	81.62
513.778	85.62
513.994	77.62
514.21	96.62
514.426	83.62
514.642	93.62
514.858	83.62
515.074	85.62
515.29	73.62
515.506	78.62
515.721	81.62
515.937	71.62
516.153	85.62
516.369	82.62
516.585	73.62
516.801	78.62
517.016	88.62
517.232	90.62
517.448	81.62
517.664	89.62
517.879	73.62
