Data from Location4.07152019.Energy5.Lamp.07192019.3%Agarose_HRD10591_15-23-32-576.txt Node
Date: Fri Jul 19 15:23:32 EDT 2019
User: cochatt
Spectrometer: HR+D1059
Trigger mode: 1
Integration Time (sec): 1.000000E-1
Scans to average: 1
Electric dark correction enabled: true
Nonlinearity correction enabled: false
Boxcar width: 0
XAxis mode: Wavelengths
Number of Pixels in Spectrum: 2048
>>>>>Begin Spectral Data<<<<<
223.165	-2.12
223.4	-2.12
223.635	-2.12
223.869	-25.12
224.104	-35.12
224.338	-18.12
224.573	-15.12
224.808	-13.12
225.042	-1.12
225.277	-11.12
225.511	6.88
225.746	-2.12
225.98	6.88
226.215	19.88
226.449	8.88
226.683	25.88
226.918	27.88
227.152	26.88
227.387	29.88
227.621	41.88
227.856	49.88
228.09	46.88
228.324	43.88
228.559	47.88
228.793	62.88
229.027	56.88
229.262	63.88
229.496	68.88
229.73	64.88
229.964	49.88
230.199	78.88
230.433	80.88
230.667	77.88
230.901	89.88
231.136	80.88
231.37	87.88
231.604	76.88
231.838	79.88
232.072	85.88
232.306	78.88
232.541	72.88
232.775	77.88
233.009	89.88
233.243	89.88
233.477	82.88
233.711	90.88
233.945	78.88
234.179	69.88
234.413	86.88
234.647	98.88
234.881	82.88
235.115	90.88
235.349	81.88
235.583	86.88
235.817	79.88
236.051	77.88
236.285	85.88
236.519	76.88
236.753	72.88
236.987	74.88
237.221	82.88
237.455	83.88
237.689	72.88
237.922	85.88
238.156	73.88
238.39	78.88
238.624	63.88
238.858	78.88
239.091	86.88
239.325	71.88
239.559	79.88
239.793	66.88
240.027	85.88
240.26	89.88
240.494	75.88
240.728	82.88
240.961	73.88
241.195	70.88
241.429	78.88
241.662	76.88
241.896	72.88
242.13	84.88
242.363	74.88
242.597	86.88
242.83	80.88
243.064	87.88
243.298	81.88
243.531	70.88
243.765	79.88
243.998	80.88
244.232	84.88
244.465	90.88
244.699	71.88
244.932	84.88
245.166	81.88
245.399	63.88
245.633	89.88
245.866	85.88
246.099	81.88
246.333	68.88
246.566	72.88
246.8	67.88
247.033	70.88
247.266	67.88
247.5	69.88
247.733	84.88
247.966	86.88
248.2	90.88
248.433	64.88
248.666	92.88
248.899	80.88
249.133	66.88
249.366	75.88
249.599	68.88
249.832	75.88
250.066	63.88
250.299	73.88
250.532	92.88
250.765	79.88
250.998	85.88
251.231	85.88
251.465	74.88
251.698	82.88
251.931	67.88
252.164	78.88
252.397	80.88
252.63	86.88
252.863	75.88
253.096	86.88
253.329	80.88
253.562	77.88
253.795	83.88
254.028	76.88
254.261	90.88
254.494	68.88
254.727	88.88
254.96	81.88
255.193	78.88
255.426	75.88
255.659	69.88
255.892	86.88
256.124	77.88
256.357	85.88
256.59	85.88
256.823	75.88
257.056	79.88
257.289	85.88
257.521	74.88
257.754	73.88
257.987	72.88
258.22	85.88
258.452	87.88
258.685	77.88
258.918	92.88
259.151	76.88
259.383	84.88
259.616	72.88
259.849	79.88
260.081	92.88
260.314	79.88
260.547	90.88
260.779	84.88
261.012	86.88
261.244	93.88
261.477	70.88
261.71	73.88
261.942	78.88
262.175	88.88
262.407	88.88
262.64	92.88
262.872	88.88
263.105	78.88
263.337	68.88
263.57	82.88
263.802	94.88
264.035	90.88
264.267	82.88
264.499	77.88
264.732	85.88
264.964	86.88
265.197	87.88
265.429	84.88
265.661	87.88
265.894	84.88
266.126	81.88
266.358	96.88
266.591	92.88
266.823	90.88
267.055	84.88
267.287	85.88
267.52	79.88
267.752	83.88
267.984	93.88
268.216	73.88
268.448	88.88
268.681	84.88
268.913	82.88
269.145	101.88
269.377	97.88
269.609	76.88
269.841	75.88
270.073	58.88
270.306	88.88
270.538	83.88
270.77	81.88
271.002	73.88
271.234	89.88
271.466	90.88
271.698	79.88
271.93	81.88
272.162	93.88
272.394	81.88
272.626	78.88
272.858	66.88
273.09	77.88
273.322	86.88
273.553	75.88
273.785	80.88
274.017	73.88
274.249	92.88
274.481	81.88
274.713	76.88
274.945	85.88
275.176	71.88
275.408	85.88
275.64	74.88
275.872	93.88
276.104	93.88
276.335	96.88
276.567	77.88
276.799	82.88
277.031	91.88
277.262	82.88
277.494	92.88
277.726	75.88
277.957	94.88
278.189	82.88
278.421	75.88
278.652	91.88
278.884	90.88
279.115	96.88
279.347	78.88
279.579	80.88
279.81	83.88
280.042	89.88
280.273	94.88
280.505	89.88
280.736	80.88
280.968	81.88
281.199	87.88
281.431	86.88
281.662	108.88
281.894	80.88
282.125	74.88
282.356	95.88
282.588	86.88
282.819	85.88
283.051	87.88
283.282	70.88
283.513	73.88
283.745	75.88
283.976	75.88
284.207	82.88
284.439	81.88
284.67	82.88
284.901	87.88
285.132	82.88
285.364	86.88
285.595	97.88
285.826	79.88
286.057	73.88
286.288	76.88
286.52	82.88
286.751	81.88
286.982	82.88
287.213	76.88
287.444	77.88
287.675	87.88
287.906	94.88
288.138	83.88
288.369	84.88
288.6	86.88
288.831	93.88
289.062	98.88
289.293	78.88
289.524	78.88
289.755	74.88
289.986	81.88
290.217	84.88
290.448	80.88
290.679	87.88
290.91	105.88
291.141	93.88
291.371	74.88
291.602	85.88
291.833	91.88
292.064	81.88
292.295	99.88
292.526	106.88
292.757	86.88
292.987	88.88
293.218	82.88
293.449	86.88
293.68	93.88
293.91	85.88
294.141	66.88
294.372	91.88
294.603	94.88
294.833	81.88
295.064	90.88
295.295	83.88
295.525	87.88
295.756	95.88
295.987	77.88
296.217	94.88
296.448	77.88
296.679	88.88
296.909	85.88
297.14	81.88
297.37	71.88
297.601	89.88
297.831	91.88
298.062	91.88
298.292	93.88
298.523	77.88
298.753	87.88
298.984	82.88
299.214	87.88
299.445	105.88
299.675	87.88
299.905	87.88
300.136	86.88
300.366	72.88
300.597	84.88
300.827	83.88
301.057	79.88
301.288	83.88
301.518	85.88
301.748	81.88
301.979	89.88
302.209	65.88
302.439	89.88
302.669	78.88
302.9	75.88
303.13	86.88
303.36	78.88
303.59	84.88
303.82	87.88
304.051	84.88
304.281	85.88
304.511	89.88
304.741	76.88
304.971	86.88
305.201	76.88
305.431	86.88
305.661	86.88
305.891	85.88
306.121	83.88
306.352	82.88
306.582	80.88
306.812	89.88
307.042	98.88
307.272	82.88
307.502	78.88
307.731	87.88
307.961	83.88
308.191	81.88
308.421	77.88
308.651	92.88
308.881	86.88
309.111	82.88
309.341	90.88
309.571	93.88
309.8	77.88
310.03	74.88
310.26	84.88
310.49	90.88
310.72	71.88
310.949	84.88
311.179	83.88
311.409	76.88
311.639	85.88
311.868	97.88
312.098	82.88
312.328	87.88
312.557	89.88
312.787	95.88
313.017	98.88
313.246	97.88
313.476	93.88
313.706	89.88
313.935	94.88
314.165	83.88
314.394	83.88
314.624	95.88
314.853	87.88
315.083	97.88
315.312	85.88
315.542	85.88
315.771	87.88
316.001	90.88
316.23	94.88
316.46	74.88
316.689	81.88
316.919	93.88
317.148	95.88
317.377	98.88
317.607	89.88
317.836	76.88
318.065	90.88
318.295	85.88
318.524	92.88
318.753	95.88
318.983	88.88
319.212	93.88
319.441	81.88
319.67	94.88
319.9	90.88
320.129	101.88
320.358	81.88
320.587	85.88
320.816	92.88
321.046	79.88
321.275	82.88
321.504	87.88
321.733	94.88
321.962	77.88
322.191	90.88
322.42	93.88
322.649	82.88
322.878	81.88
323.108	66.88
323.337	100.88
323.566	83.88
323.795	82.88
324.024	85.88
324.253	63.88
324.482	82.88
324.71	79.88
324.939	98.88
325.168	97.88
325.397	86.88
325.626	87.88
325.855	84.88
326.084	96.88
326.313	87.88
326.542	85.88
326.77	79.88
326.999	66.88
327.228	86.88
327.457	94.88
327.686	72.88
327.914	81.88
328.143	84.88
328.372	76.88
328.6	79.88
328.829	81.88
329.058	85.88
329.287	71.88
329.515	88.88
329.744	78.88
329.972	74.88
330.201	90.88
330.43	80.88
330.658	89.88
330.887	75.88
331.115	81.88
331.344	92.88
331.572	83.88
331.801	78.88
332.03	81.88
332.258	89.88
332.486	96.88
332.715	104.88
332.943	83.88
333.172	88.88
333.4	86.88
333.629	72.88
333.857	92.88
334.085	72.88
334.314	92.88
334.542	97.88
334.771	82.88
334.999	85.88
335.227	72.88
335.455	81.88
335.684	100.88
335.912	84.88
336.14	83.88
336.369	83.88
336.597	86.88
336.825	92.88
337.053	70.88
337.281	91.88
337.51	82.88
337.738	91.88
337.966	92.88
338.194	81.88
338.422	92.88
338.65	85.88
338.878	75.88
339.106	89.88
339.334	89.88
339.562	78.88
339.79	80.88
340.018	80.88
340.246	85.88
340.474	84.88
340.702	80.88
340.93	88.88
341.158	80.88
341.386	82.88
341.614	73.88
341.842	92.88
342.07	75.88
342.298	87.88
342.526	92.88
342.754	88.88
342.981	74.88
343.209	78.88
343.437	88.88
343.665	69.88
343.893	76.88
344.12	81.88
344.348	80.88
344.576	82.88
344.804	87.88
345.031	77.88
345.259	103.88
345.487	68.88
345.714	80.88
345.942	80.88
346.17	95.88
346.397	99.88
346.625	82.88
346.853	72.88
347.08	72.88
347.308	78.88
347.535	83.88
347.763	81.88
347.99	72.88
348.218	87.88
348.445	84.88
348.673	88.88
348.9	74.88
349.128	90.88
349.355	83.88
349.583	74.88
349.81	84.88
350.037	92.88
350.265	82.88
350.492	80.88
350.72	83.88
350.947	89.88
351.174	86.88
351.402	83.88
351.629	72.88
351.856	70.88
352.083	91.88
352.311	75.88
352.538	100.88
352.765	83.88
352.992	82.88
353.22	78.88
353.447	72.88
353.674	76.88
353.901	81.88
354.128	81.88
354.355	81.88
354.583	78.88
354.81	85.88
355.037	86.88
355.264	85.88
355.491	80.88
355.718	79.88
355.945	80.88
356.172	77.88
356.399	76.88
356.626	82.88
356.853	92.88
357.08	96.88
357.307	73.88
357.534	77.88
357.761	81.88
357.988	85.88
358.215	84.88
358.441	84.88
358.668	90.88
358.895	74.88
359.122	82.88
359.349	78.88
359.576	87.88
359.802	82.88
360.029	84.88
360.256	89.88
360.483	74.88
360.709	76.88
360.936	87.88
361.163	84.88
361.39	87.88
361.616	84.88
361.843	72.88
362.07	85.88
362.296	88.88
362.523	81.88
362.749	93.88
362.976	75.88
363.203	85.88
363.429	90.88
363.656	80.88
363.882	99.88
364.109	80.88
364.335	96.88
364.562	81.88
364.788	79.88
365.015	81.88
365.241	85.88
365.468	87.88
365.694	94.88
365.92	76.88
366.147	75.88
366.373	81.88
366.599	80.88
366.826	82.88
367.052	70.88
367.278	93.88
367.505	70.88
367.731	73.88
367.957	76.88
368.184	83.88
368.41	95.88
368.636	83.88
368.862	81.88
369.089	90.88
369.315	89.88
369.541	99.88
369.767	94.88
369.993	85.88
370.219	83.88
370.445	77.88
370.672	94.88
370.898	84.88
371.124	88.88
371.35	74.88
371.576	88.88
371.802	84.88
372.028	73.88
372.254	98.88
372.48	87.88
372.706	81.88
372.932	77.88
373.158	92.88
373.384	78.88
373.61	98.88
373.835	80.88
374.061	87.88
374.287	87.88
374.513	90.88
374.739	90.88
374.965	71.88
375.191	81.88
375.416	89.88
375.642	82.88
375.868	90.88
376.094	85.88
376.319	64.88
376.545	72.88
376.771	71.88
376.997	74.88
377.222	71.88
377.448	85.88
377.674	100.88
377.899	90.88
378.125	95.88
378.35	84.88
378.576	73.88
378.802	82.88
379.027	72.88
379.253	72.88
379.478	80.88
379.704	85.88
379.929	83.88
380.155	86.88
380.38	84.88
380.606	81.88
380.831	73.88
381.057	97.88
381.282	82.88
381.507	83.88
381.733	87.88
381.958	84.88
382.184	81.88
382.409	83.88
382.634	82.88
382.86	83.88
383.085	87.88
383.31	95.88
383.535	75.88
383.761	76.88
383.986	87.88
384.211	81.88
384.436	90.88
384.662	83.88
384.887	77.88
385.112	82.88
385.337	91.88
385.562	83.88
385.787	79.88
386.013	103.88
386.238	78.88
386.463	75.88
386.688	89.88
386.913	106.88
387.138	79.88
387.363	87.88
387.588	85.88
387.813	74.88
388.038	83.88
388.263	89.88
388.488	63.88
388.713	88.88
388.938	82.88
389.163	103.88
389.387	81.88
389.612	78.88
389.837	88.88
390.062	97.88
390.287	92.88
390.512	85.88
390.736	96.88
390.961	74.88
391.186	83.88
391.411	79.88
391.636	94.88
391.86	89.88
392.085	77.88
392.31	90.88
392.534	80.88
392.759	94.88
392.984	86.88
393.208	92.88
393.433	82.88
393.658	85.88
393.882	72.88
394.107	85.88
394.331	85.88
394.556	78.88
394.78	89.88
395.005	76.88
395.229	90.88
395.454	103.88
395.678	91.88
395.903	78.88
396.127	90.88
396.352	71.88
396.576	95.88
396.801	77.88
397.025	89.88
397.249	99.88
397.474	91.88
397.698	90.88
397.922	93.88
398.147	85.88
398.371	84.88
398.595	90.88
398.82	86.88
399.044	87.88
399.268	87.88
399.492	86.88
399.717	84.88
399.941	70.88
400.165	97.88
400.389	89.88
400.613	92.88
400.837	95.88
401.062	88.88
401.286	85.88
401.51	83.88
401.734	82.88
401.958	90.88
402.182	90.88
402.406	83.88
402.63	91.88
402.854	82.88
403.078	93.88
403.302	88.88
403.526	102.88
403.75	90.88
403.974	84.88
404.198	93.88
404.422	91.88
404.645	102.88
404.869	86.88
405.093	83.88
405.317	83.88
405.541	80.88
405.765	79.88
405.988	90.88
406.212	83.88
406.436	79.88
406.66	81.88
406.883	95.88
407.107	84.88
407.331	105.88
407.555	90.88
407.778	86.88
408.002	88.88
408.226	91.88
408.449	102.88
408.673	86.88
408.896	81.88
409.12	90.88
409.344	91.88
409.567	86.88
409.791	95.88
410.014	90.88
410.238	93.88
410.461	81.88
410.685	105.88
410.908	73.88
411.132	91.88
411.355	74.88
411.578	100.88
411.802	92.88
412.025	102.88
412.249	81.88
412.472	82.88
412.695	96.88
412.919	77.88
413.142	84.88
413.365	90.88
413.589	101.88
413.812	83.88
414.035	93.88
414.258	86.88
414.482	97.88
414.705	88.88
414.928	81.88
415.151	94.88
415.374	84.88
415.597	99.88
415.821	79.88
416.044	97.88
416.267	96.88
416.49	71.88
416.713	95.88
416.936	87.88
417.159	95.88
417.382	94.88
417.605	107.88
417.828	99.88
418.051	93.88
418.274	97.88
418.497	99.88
418.72	93.88
418.943	85.88
419.166	85.88
419.389	87.88
419.611	86.88
419.834	89.88
420.057	102.88
420.28	94.88
420.503	86.88
420.726	99.88
420.948	96.88
421.171	91.88
421.394	94.88
421.617	95.88
421.839	95.88
422.062	91.88
422.285	92.88
422.507	97.88
422.73	95.88
422.953	82.88
423.175	87.88
423.398	101.88
423.621	86.88
423.843	90.88
424.066	102.88
424.288	96.88
424.511	89.88
424.733	97.88
424.956	89.88
425.178	116.88
425.401	88.88
425.623	107.88
425.846	79.88
426.068	90.88
426.291	98.88
426.513	100.88
426.735	95.88
426.958	104.88
427.18	93.88
427.402	85.88
427.625	93.88
427.847	98.88
428.069	97.88
428.292	83.88
428.514	102.88
428.736	82.88
428.958	83.88
429.181	93.88
429.403	105.88
429.625	88.88
429.847	98.88
430.069	86.88
430.292	99.88
430.514	93.88
430.736	94.88
430.958	85.88
431.18	82.88
431.402	86.88
431.624	98.88
431.846	65.88
432.068	91.88
432.29	84.88
432.512	91.88
432.734	88.88
432.956	94.88
433.178	94.88
433.4	89.88
433.622	90.88
433.844	85.88
434.066	102.88
434.287	90.88
434.509	77.88
434.731	72.88
434.953	87.88
435.175	83.88
435.397	97.88
435.618	78.88
435.84	82.88
436.062	89.88
436.284	100.88
436.505	90.88
436.727	80.88
436.949	98.88
437.17	89.88
437.392	94.88
437.614	89.88
437.835	91.88
438.057	94.88
438.278	85.88
438.5	77.88
438.721	86.88
438.943	89.88
439.165	95.88
439.386	99.88
439.608	86.88
439.829	103.88
440.05	97.88
440.272	93.88
440.493	83.88
440.715	94.88
440.936	87.88
441.158	97.88
441.379	101.88
441.6	102.88
441.822	90.88
442.043	83.88
442.264	98.88
442.486	95.88
442.707	87.88
442.928	98.88
443.149	95.88
443.371	98.88
443.592	95.88
443.813	105.88
444.034	105.88
444.255	100.88
444.476	95.88
444.698	95.88
444.919	109.88
445.14	159.88
445.361	140.88
445.582	106.88
445.803	85.88
446.024	105.88
446.245	110.88
446.466	97.88
446.687	100.88
446.908	100.88
447.129	87.88
447.35	86.88
447.571	93.88
447.792	109.88
448.013	99.88
448.234	92.88
448.455	99.88
448.675	94.88
448.896	100.88
449.117	94.88
449.338	96.88
449.559	99.88
449.779	99.88
450	101.88
450.221	95.88
450.442	91.88
450.662	104.88
450.883	74.88
451.104	96.88
451.324	92.88
451.545	89.88
451.766	101.88
451.986	84.88
452.207	94.88
452.428	87.88
452.648	108.88
452.869	97.88
453.089	96.88
453.31	93.88
453.53	95.88
453.751	82.88
453.971	89.88
454.192	91.88
454.412	101.88
454.633	99.88
454.853	80.88
455.073	99.88
455.294	93.88
455.514	91.88
455.734	78.88
455.955	85.88
456.175	100.88
456.395	94.88
456.616	83.88
456.836	91.88
457.056	93.88
457.276	81.88
457.497	85.88
457.717	94.88
457.937	89.88
458.157	90.88
458.377	80.88
458.598	81.88
458.818	83.88
459.038	88.88
459.258	88.88
459.478	67.88
459.698	89.88
459.918	78.88
460.138	85.88
460.358	80.88
460.578	94.88
460.798	98.88
461.018	101.88
461.238	69.88
461.458	91.88
461.678	100.88
461.898	70.88
462.118	77.88
462.338	78.88
462.558	66.88
462.777	80.88
462.997	83.88
463.217	81.88
463.437	70.88
463.657	80.88
463.876	84.88
464.096	90.88
464.316	80.88
464.536	86.88
464.755	88.88
464.975	91.88
465.195	84.88
465.414	91.88
465.634	98.88
465.854	82.88
466.073	78.88
466.293	103.88
466.512	104.88
466.732	88.88
466.951	74.88
467.171	87.88
467.391	89.88
467.61	88.88
467.829	95.88
468.049	101.88
468.268	101.88
468.488	88.88
468.707	103.88
468.927	94.88
469.146	86.88
469.365	96.88
469.585	94.88
469.804	102.88
470.023	108.88
470.243	92.88
470.462	86.88
470.681	94.88
470.901	109.88
471.12	82.88
471.339	89.88
471.558	95.88
471.777	85.88
471.997	91.88
472.216	100.88
472.435	87.88
472.654	97.88
472.873	95.88
473.092	90.88
473.311	92.88
473.53	86.88
473.749	92.88
473.968	102.88
474.187	92.88
474.406	94.88
474.625	87.88
474.844	91.88
475.063	101.88
475.282	95.88
475.501	82.88
475.72	96.88
475.939	97.88
476.158	85.88
476.377	83.88
476.596	93.88
476.814	83.88
477.033	74.88
477.252	84.88
477.471	96.88
477.69	102.88
477.908	91.88
478.127	94.88
478.346	96.88
478.564	109.88
478.783	88.88
479.002	102.88
479.22	94.88
479.439	90.88
479.658	93.88
479.876	81.88
480.095	87.88
480.313	87.88
480.532	90.88
480.751	82.88
480.969	90.88
481.188	75.88
481.406	85.88
481.624	97.88
481.843	81.88
482.061	78.88
482.28	89.88
482.498	78.88
482.717	105.88
482.935	97.88
483.153	86.88
483.372	96.88
483.59	91.88
483.808	99.88
484.027	98.88
484.245	99.88
484.463	93.88
484.681	115.88
484.9	98.88
485.118	75.88
485.336	95.88
485.554	89.88
485.772	83.88
485.99	88.88
486.209	90.88
486.427	98.88
486.645	87.88
486.863	101.88
487.081	98.88
487.299	99.88
487.517	105.88
487.735	113.88
487.953	115.88
488.171	118.88
488.389	107.88
488.607	105.88
488.825	109.88
489.043	93.88
489.261	105.88
489.479	90.88
489.696	102.88
489.914	92.88
490.132	86.88
490.35	88.88
490.568	114.88
490.786	121.88
491.003	111.88
491.221	103.88
491.439	109.88
491.657	92.88
491.874	120.88
492.092	126.88
492.31	127.88
492.527	123.88
492.745	114.88
492.963	105.88
493.18	97.88
493.398	102.88
493.615	94.88
493.833	116.88
494.05	109.88
494.268	106.88
494.485	104.88
494.703	103.88
494.92	105.88
495.138	115.88
495.355	119.88
495.573	123.88
495.79	106.88
496.008	112.88
496.225	109.88
496.442	106.88
496.66	100.88
496.877	104.88
497.094	119.88
497.312	121.88
497.529	118.88
497.746	107.88
497.963	109.88
498.181	102.88
498.398	90.88
498.615	75.88
498.832	94.88
499.049	90.88
499.267	77.88
499.484	91.88
499.701	109.88
499.918	107.88
500.135	95.88
500.352	85.88
500.569	112.88
500.786	95.88
501.003	96.88
501.22	94.88
501.437	100.88
501.654	104.88
501.871	81.88
502.088	92.88
502.305	93.88
502.522	108.88
502.739	97.88
502.956	101.88
503.172	106.88
503.389	93.88
503.606	98.88
503.823	97.88
504.04	88.88
504.256	95.88
504.473	94.88
504.69	97.88
504.907	101.88
505.123	85.88
505.34	95.88
505.557	94.88
505.773	94.88
505.99	99.88
506.207	85.88
506.423	84.88
506.64	84.88
506.856	97.88
507.073	89.88
507.289	84.88
507.506	86.88
507.722	78.88
507.939	90.88
508.155	97.88
508.372	89.88
508.588	82.88
508.805	82.88
509.021	87.88
509.238	95.88
509.454	93.88
509.67	87.88
509.887	87.88
510.103	77.88
510.319	76.88
510.536	81.88
510.752	82.88
510.968	77.88
511.184	81.88
511.401	89.88
511.617	97.88
511.833	74.88
512.049	86.88
512.265	74.88
512.481	91.88
512.698	86.88
512.914	86.88
513.13	86.88
513.346	85.88
513.562	80.88
513.778	86.88
513.994	83.88
514.21	75.88
514.426	85.88
514.642	76.88
514.858	77.88
515.074	81.88
515.29	72.88
515.506	91.88
515.721	102.88
515.937	96.88
516.153	71.88
516.369	79.88
516.585	81.88
516.801	82.88
517.016	85.88
517.232	74.88
517.448	78.88
517.664	93.88
