Data from Location4.07152019.Energy5.Lamp.07192019.3%Agarose_HRD10591_15-26-03-577.txt Node
Date: Fri Jul 19 15:26:03 EDT 2019
User: cochatt
Spectrometer: HR+D1059
Trigger mode: 1
Integration Time (sec): 1.000000E-1
Scans to average: 1
Electric dark correction enabled: true
Nonlinearity correction enabled: false
Boxcar width: 0
XAxis mode: Wavelengths
Number of Pixels in Spectrum: 2048
>>>>>Begin Spectral Data<<<<<
223.165	0.69
223.4	0.69
223.635	0.69
223.869	-7.31
224.104	-21.31
224.338	-27.31
224.573	-15.31
224.808	-12.31
225.042	-9.31
225.277	-7.31
225.511	-7.31
225.746	11.69
225.98	2.69
226.215	10.69
226.449	22.69
226.683	25.69
226.918	19.69
227.152	13.69
227.387	28.69
227.621	44.69
227.856	42.69
228.09	44.69
228.324	67.69
228.559	57.69
228.793	53.69
229.027	50.69
229.262	65.69
229.496	80.69
229.73	59.69
229.964	67.69
230.199	76.69
230.433	68.69
230.667	77.69
230.901	83.69
231.136	79.69
231.37	80.69
231.604	75.69
231.838	74.69
232.072	76.69
232.306	80.69
232.541	82.69
232.775	82.69
233.009	75.69
233.243	89.69
233.477	83.69
233.711	90.69
233.945	72.69
234.179	90.69
234.413	79.69
234.647	75.69
234.881	69.69
235.115	76.69
235.349	76.69
235.583	89.69
235.817	75.69
236.051	89.69
236.285	77.69
236.519	56.69
236.753	70.69
236.987	88.69
237.221	80.69
237.455	79.69
237.689	85.69
237.922	79.69
238.156	69.69
238.39	71.69
238.624	79.69
238.858	73.69
239.091	69.69
239.325	71.69
239.559	77.69
239.793	89.69
240.027	93.69
240.26	84.69
240.494	83.69
240.728	68.69
240.961	72.69
241.195	73.69
241.429	68.69
241.662	87.69
241.896	70.69
242.13	74.69
242.363	76.69
242.597	85.69
242.83	65.69
243.064	84.69
243.298	71.69
243.531	69.69
243.765	83.69
243.998	66.69
244.232	69.69
244.465	85.69
244.699	80.69
244.932	84.69
245.166	91.69
245.399	82.69
245.633	70.69
245.866	81.69
246.099	77.69
246.333	77.69
246.566	73.69
246.8	69.69
247.033	77.69
247.266	82.69
247.5	76.69
247.733	72.69
247.966	91.69
248.2	81.69
248.433	73.69
248.666	74.69
248.899	86.69
249.133	81.69
249.366	79.69
249.599	90.69
249.832	74.69
250.066	74.69
250.299	73.69
250.532	55.69
250.765	80.69
250.998	81.69
251.231	82.69
251.465	79.69
251.698	76.69
251.931	73.69
252.164	76.69
252.397	82.69
252.63	70.69
252.863	91.69
253.096	72.69
253.329	75.69
253.562	87.69
253.795	90.69
254.028	74.69
254.261	76.69
254.494	85.69
254.727	79.69
254.96	75.69
255.193	82.69
255.426	77.69
255.659	84.69
255.892	68.69
256.124	91.69
256.357	81.69
256.59	68.69
256.823	77.69
257.056	88.69
257.289	98.69
257.521	90.69
257.754	87.69
257.987	81.69
258.22	90.69
258.452	76.69
258.685	72.69
258.918	70.69
259.151	82.69
259.383	80.69
259.616	75.69
259.849	80.69
260.081	69.69
260.314	77.69
260.547	89.69
260.779	73.69
261.012	87.69
261.244	78.69
261.477	80.69
261.71	76.69
261.942	64.69
262.175	66.69
262.407	75.69
262.64	84.69
262.872	84.69
263.105	69.69
263.337	82.69
263.57	70.69
263.802	81.69
264.035	86.69
264.267	75.69
264.499	77.69
264.732	80.69
264.964	86.69
265.197	88.69
265.429	78.69
265.661	75.69
265.894	81.69
266.126	79.69
266.358	74.69
266.591	66.69
266.823	87.69
267.055	78.69
267.287	84.69
267.52	73.69
267.752	97.69
267.984	88.69
268.216	76.69
268.448	79.69
268.681	85.69
268.913	89.69
269.145	80.69
269.377	79.69
269.609	94.69
269.841	80.69
270.073	85.69
270.306	95.69
270.538	89.69
270.77	82.69
271.002	84.69
271.234	71.69
271.466	75.69
271.698	74.69
271.93	84.69
272.162	90.69
272.394	91.69
272.626	58.69
272.858	81.69
273.09	86.69
273.322	90.69
273.553	83.69
273.785	73.69
274.017	73.69
274.249	76.69
274.481	89.69
274.713	80.69
274.945	81.69
275.176	84.69
275.408	86.69
275.64	86.69
275.872	77.69
276.104	90.69
276.335	87.69
276.567	99.69
276.799	86.69
277.031	73.69
277.262	79.69
277.494	84.69
277.726	82.69
277.957	79.69
278.189	77.69
278.421	84.69
278.652	96.69
278.884	85.69
279.115	83.69
279.347	79.69
279.579	75.69
279.81	81.69
280.042	79.69
280.273	70.69
280.505	82.69
280.736	89.69
280.968	82.69
281.199	84.69
281.431	80.69
281.662	79.69
281.894	85.69
282.125	76.69
282.356	85.69
282.588	94.69
282.819	88.69
283.051	85.69
283.282	65.69
283.513	80.69
283.745	101.69
283.976	86.69
284.207	88.69
284.439	80.69
284.67	90.69
284.901	76.69
285.132	84.69
285.364	73.69
285.595	87.69
285.826	76.69
286.057	83.69
286.288	83.69
286.52	89.69
286.751	82.69
286.982	87.69
287.213	81.69
287.444	84.69
287.675	90.69
287.906	83.69
288.138	88.69
288.369	90.69
288.6	79.69
288.831	91.69
289.062	101.69
289.293	82.69
289.524	75.69
289.755	89.69
289.986	94.69
290.217	74.69
290.448	82.69
290.679	87.69
290.91	81.69
291.141	82.69
291.371	75.69
291.602	75.69
291.833	75.69
292.064	83.69
292.295	83.69
292.526	82.69
292.757	75.69
292.987	81.69
293.218	82.69
293.449	91.69
293.68	92.69
293.91	91.69
294.141	76.69
294.372	93.69
294.603	93.69
294.833	85.69
295.064	74.69
295.295	84.69
295.525	98.69
295.756	83.69
295.987	67.69
296.217	87.69
296.448	90.69
296.679	82.69
296.909	96.69
297.14	82.69
297.37	82.69
297.601	71.69
297.831	81.69
298.062	83.69
298.292	95.69
298.523	85.69
298.753	76.69
298.984	92.69
299.214	98.69
299.445	70.69
299.675	86.69
299.905	95.69
300.136	73.69
300.366	97.69
300.597	74.69
300.827	94.69
301.057	85.69
301.288	84.69
301.518	69.69
301.748	86.69
301.979	75.69
302.209	89.69
302.439	89.69
302.669	82.69
302.9	86.69
303.13	71.69
303.36	81.69
303.59	87.69
303.82	74.69
304.051	80.69
304.281	75.69
304.511	84.69
304.741	91.69
304.971	90.69
305.201	93.69
305.431	94.69
305.661	80.69
305.891	84.69
306.121	81.69
306.352	90.69
306.582	82.69
306.812	77.69
307.042	71.69
307.272	87.69
307.502	92.69
307.731	73.69
307.961	81.69
308.191	89.69
308.421	85.69
308.651	77.69
308.881	81.69
309.111	90.69
309.341	75.69
309.571	82.69
309.8	76.69
310.03	72.69
310.26	93.69
310.49	95.69
310.72	88.69
310.949	88.69
311.179	76.69
311.409	87.69
311.639	82.69
311.868	93.69
312.098	95.69
312.328	83.69
312.557	87.69
312.787	84.69
313.017	85.69
313.246	100.69
313.476	77.69
313.706	81.69
313.935	89.69
314.165	95.69
314.394	73.69
314.624	77.69
314.853	90.69
315.083	67.69
315.312	84.69
315.542	94.69
315.771	79.69
316.001	88.69
316.23	75.69
316.46	101.69
316.689	74.69
316.919	98.69
317.148	78.69
317.377	88.69
317.607	81.69
317.836	83.69
318.065	92.69
318.295	89.69
318.524	85.69
318.753	99.69
318.983	84.69
319.212	74.69
319.441	85.69
319.67	97.69
319.9	78.69
320.129	86.69
320.358	94.69
320.587	82.69
320.816	89.69
321.046	85.69
321.275	88.69
321.504	87.69
321.733	90.69
321.962	81.69
322.191	87.69
322.42	84.69
322.649	100.69
322.878	85.69
323.108	88.69
323.337	99.69
323.566	86.69
323.795	69.69
324.024	94.69
324.253	79.69
324.482	95.69
324.71	90.69
324.939	74.69
325.168	82.69
325.397	87.69
325.626	85.69
325.855	74.69
326.084	77.69
326.313	84.69
326.542	81.69
326.77	95.69
326.999	89.69
327.228	87.69
327.457	83.69
327.686	91.69
327.914	86.69
328.143	82.69
328.372	91.69
328.6	92.69
328.829	85.69
329.058	85.69
329.287	81.69
329.515	84.69
329.744	72.69
329.972	79.69
330.201	83.69
330.43	82.69
330.658	93.69
330.887	88.69
331.115	86.69
331.344	75.69
331.572	79.69
331.801	85.69
332.03	67.69
332.258	65.69
332.486	66.69
332.715	80.69
332.943	80.69
333.172	74.69
333.4	84.69
333.629	92.69
333.857	83.69
334.085	95.69
334.314	84.69
334.542	72.69
334.771	88.69
334.999	74.69
335.227	83.69
335.455	88.69
335.684	83.69
335.912	85.69
336.14	85.69
336.369	73.69
336.597	83.69
336.825	67.69
337.053	84.69
337.281	103.69
337.51	89.69
337.738	85.69
337.966	87.69
338.194	91.69
338.422	91.69
338.65	79.69
338.878	92.69
339.106	100.69
339.334	92.69
339.562	77.69
339.79	91.69
340.018	75.69
340.246	91.69
340.474	97.69
340.702	80.69
340.93	101.69
341.158	89.69
341.386	76.69
341.614	81.69
341.842	91.69
342.07	83.69
342.298	96.69
342.526	77.69
342.754	92.69
342.981	88.69
343.209	80.69
343.437	89.69
343.665	88.69
343.893	85.69
344.12	93.69
344.348	80.69
344.576	76.69
344.804	86.69
345.031	93.69
345.259	91.69
345.487	83.69
345.714	70.69
345.942	67.69
346.17	95.69
346.397	89.69
346.625	76.69
346.853	81.69
347.08	94.69
347.308	76.69
347.535	77.69
347.763	90.69
347.99	93.69
348.218	91.69
348.445	73.69
348.673	60.69
348.9	99.69
349.128	84.69
349.355	81.69
349.583	80.69
349.81	68.69
350.037	90.69
350.265	96.69
350.492	69.69
350.72	90.69
350.947	73.69
351.174	89.69
351.402	85.69
351.629	92.69
351.856	81.69
352.083	79.69
352.311	74.69
352.538	84.69
352.765	84.69
352.992	77.69
353.22	76.69
353.447	88.69
353.674	76.69
353.901	78.69
354.128	83.69
354.355	85.69
354.583	88.69
354.81	67.69
355.037	78.69
355.264	92.69
355.491	82.69
355.718	92.69
355.945	77.69
356.172	94.69
356.399	77.69
356.626	82.69
356.853	83.69
357.08	70.69
357.307	76.69
357.534	96.69
357.761	82.69
357.988	84.69
358.215	86.69
358.441	71.69
358.668	91.69
358.895	83.69
359.122	75.69
359.349	90.69
359.576	79.69
359.802	62.69
360.029	90.69
360.256	82.69
360.483	83.69
360.709	81.69
360.936	88.69
361.163	83.69
361.39	77.69
361.616	83.69
361.843	93.69
362.07	79.69
362.296	92.69
362.523	82.69
362.749	88.69
362.976	75.69
363.203	82.69
363.429	74.69
363.656	72.69
363.882	96.69
364.109	88.69
364.335	71.69
364.562	91.69
364.788	78.69
365.015	74.69
365.241	97.69
365.468	88.69
365.694	83.69
365.92	85.69
366.147	76.69
366.373	80.69
366.599	81.69
366.826	90.69
367.052	89.69
367.278	81.69
367.505	84.69
367.731	100.69
367.957	81.69
368.184	77.69
368.41	82.69
368.636	105.69
368.862	82.69
369.089	98.69
369.315	86.69
369.541	80.69
369.767	82.69
369.993	83.69
370.219	83.69
370.445	74.69
370.672	82.69
370.898	103.69
371.124	80.69
371.35	75.69
371.576	82.69
371.802	89.69
372.028	82.69
372.254	84.69
372.48	88.69
372.706	88.69
372.932	86.69
373.158	97.69
373.384	88.69
373.61	79.69
373.835	88.69
374.061	91.69
374.287	91.69
374.513	88.69
374.739	95.69
374.965	90.69
375.191	80.69
375.416	80.69
375.642	89.69
375.868	91.69
376.094	76.69
376.319	82.69
376.545	77.69
376.771	80.69
376.997	95.69
377.222	74.69
377.448	77.69
377.674	77.69
377.899	72.69
378.125	83.69
378.35	84.69
378.576	102.69
378.802	91.69
379.027	81.69
379.253	96.69
379.478	98.69
379.704	67.69
379.929	77.69
380.155	78.69
380.38	79.69
380.606	82.69
380.831	87.69
381.057	98.69
381.282	88.69
381.507	97.69
381.733	85.69
381.958	94.69
382.184	76.69
382.409	77.69
382.634	95.69
382.86	82.69
383.085	89.69
383.31	87.69
383.535	75.69
383.761	91.69
383.986	81.69
384.211	83.69
384.436	78.69
384.662	79.69
384.887	85.69
385.112	77.69
385.337	96.69
385.562	93.69
385.787	84.69
386.013	98.69
386.238	82.69
386.463	87.69
386.688	86.69
386.913	84.69
387.138	92.69
387.363	83.69
387.588	88.69
387.813	89.69
388.038	83.69
388.263	75.69
388.488	83.69
388.713	73.69
388.938	81.69
389.163	95.69
389.387	86.69
389.612	75.69
389.837	77.69
390.062	96.69
390.287	92.69
390.512	82.69
390.736	73.69
390.961	75.69
391.186	91.69
391.411	80.69
391.636	98.69
391.86	90.69
392.085	93.69
392.31	90.69
392.534	92.69
392.759	83.69
392.984	76.69
393.208	91.69
393.433	107.69
393.658	84.69
393.882	95.69
394.107	90.69
394.331	78.69
394.556	77.69
394.78	83.69
395.005	102.69
395.229	82.69
395.454	85.69
395.678	85.69
395.903	77.69
396.127	69.69
396.352	86.69
396.576	88.69
396.801	86.69
397.025	83.69
397.249	81.69
397.474	90.69
397.698	89.69
397.922	88.69
398.147	88.69
398.371	80.69
398.595	95.69
398.82	83.69
399.044	76.69
399.268	94.69
399.492	83.69
399.717	82.69
399.941	83.69
400.165	84.69
400.389	90.69
400.613	92.69
400.837	87.69
401.062	80.69
401.286	81.69
401.51	75.69
401.734	84.69
401.958	89.69
402.182	90.69
402.406	75.69
402.63	84.69
402.854	84.69
403.078	103.69
403.302	92.69
403.526	86.69
403.75	89.69
403.974	96.69
404.198	82.69
404.422	98.69
404.645	78.69
404.869	91.69
405.093	96.69
405.317	81.69
405.541	91.69
405.765	97.69
405.988	92.69
406.212	88.69
406.436	92.69
406.66	101.69
406.883	95.69
407.107	96.69
407.331	104.69
407.555	75.69
407.778	94.69
408.002	89.69
408.226	80.69
408.449	86.69
408.673	93.69
408.896	101.69
409.12	102.69
409.344	108.69
409.567	84.69
409.791	104.69
410.014	78.69
410.238	90.69
410.461	94.69
410.685	99.69
410.908	85.69
411.132	95.69
411.355	91.69
411.578	93.69
411.802	97.69
412.025	97.69
412.249	84.69
412.472	91.69
412.695	75.69
412.919	67.69
413.142	87.69
413.365	97.69
413.589	90.69
413.812	87.69
414.035	78.69
414.258	96.69
414.482	90.69
414.705	95.69
414.928	88.69
415.151	80.69
415.374	84.69
415.597	88.69
415.821	96.69
416.044	90.69
416.267	85.69
416.49	93.69
416.713	98.69
416.936	94.69
417.159	94.69
417.382	88.69
417.605	86.69
417.828	97.69
418.051	75.69
418.274	94.69
418.497	94.69
418.72	116.69
418.943	78.69
419.166	92.69
419.389	85.69
419.611	97.69
419.834	86.69
420.057	93.69
420.28	104.69
420.503	100.69
420.726	96.69
420.948	105.69
421.171	92.69
421.394	105.69
421.617	97.69
421.839	107.69
422.062	92.69
422.285	89.69
422.507	100.69
422.73	106.69
422.953	79.69
423.175	94.69
423.398	97.69
423.621	97.69
423.843	84.69
424.066	107.69
424.288	97.69
424.511	106.69
424.733	102.69
424.956	100.69
425.178	110.69
425.401	93.69
425.623	95.69
425.846	102.69
426.068	89.69
426.291	101.69
426.513	104.69
426.735	96.69
426.958	95.69
427.18	88.69
427.402	96.69
427.625	90.69
427.847	90.69
428.069	75.69
428.292	98.69
428.514	90.69
428.736	100.69
428.958	104.69
429.181	80.69
429.403	92.69
429.625	90.69
429.847	97.69
430.069	98.69
430.292	93.69
430.514	98.69
430.736	87.69
430.958	102.69
431.18	84.69
431.402	82.69
431.624	88.69
431.846	101.69
432.068	85.69
432.29	94.69
432.512	79.69
432.734	77.69
432.956	104.69
433.178	103.69
433.4	91.69
433.622	94.69
433.844	87.69
434.066	106.69
434.287	86.69
434.509	82.69
434.731	105.69
434.953	100.69
435.175	90.69
435.397	87.69
435.618	90.69
435.84	85.69
436.062	111.69
436.284	91.69
436.505	71.69
436.727	98.69
436.949	90.69
437.17	97.69
437.392	98.69
437.614	101.69
437.835	93.69
438.057	89.69
438.278	85.69
438.5	107.69
438.721	101.69
438.943	98.69
439.165	92.69
439.386	79.69
439.608	107.69
439.829	91.69
440.05	92.69
440.272	96.69
440.493	96.69
440.715	98.69
440.936	89.69
441.158	98.69
441.379	91.69
441.6	109.69
441.822	99.69
442.043	90.69
442.264	89.69
442.486	99.69
442.707	103.69
442.928	82.69
443.149	96.69
443.371	86.69
443.592	86.69
443.813	107.69
444.034	98.69
444.255	101.69
444.476	79.69
444.698	96.69
444.919	85.69
445.14	206.69
445.361	170.69
445.582	112.69
445.803	97.69
446.024	95.69
446.245	115.69
446.466	113.69
446.687	103.69
446.908	102.69
447.129	92.69
447.35	94.69
447.571	108.69
447.792	94.69
448.013	113.69
448.234	113.69
448.455	104.69
448.675	101.69
448.896	95.69
449.117	90.69
449.338	102.69
449.559	107.69
449.779	93.69
450	86.69
450.221	98.69
450.442	100.69
450.662	101.69
450.883	94.69
451.104	95.69
451.324	88.69
451.545	91.69
451.766	90.69
451.986	99.69
452.207	96.69
452.428	74.69
452.648	95.69
452.869	105.69
453.089	87.69
453.31	90.69
453.53	77.69
453.751	84.69
453.971	97.69
454.192	97.69
454.412	77.69
454.633	103.69
454.853	75.69
455.073	92.69
455.294	86.69
455.514	97.69
455.734	100.69
455.955	101.69
456.175	86.69
456.395	82.69
456.616	98.69
456.836	82.69
457.056	91.69
457.276	92.69
457.497	85.69
457.717	83.69
457.937	111.69
458.157	87.69
458.377	87.69
458.598	80.69
458.818	73.69
459.038	81.69
459.258	90.69
459.478	83.69
459.698	84.69
459.918	83.69
460.138	82.69
460.358	86.69
460.578	87.69
460.798	101.69
461.018	92.69
461.238	84.69
461.458	93.69
461.678	80.69
461.898	92.69
462.118	87.69
462.338	92.69
462.558	88.69
462.777	92.69
462.997	89.69
463.217	88.69
463.437	90.69
463.657	83.69
463.876	81.69
464.096	82.69
464.316	95.69
464.536	83.69
464.755	98.69
464.975	91.69
465.195	75.69
465.414	89.69
465.634	89.69
465.854	105.69
466.073	90.69
466.293	96.69
466.512	106.69
466.732	117.69
466.951	104.69
467.171	97.69
467.391	89.69
467.61	90.69
467.829	105.69
468.049	98.69
468.268	106.69
468.488	82.69
468.707	89.69
468.927	98.69
469.146	100.69
469.365	92.69
469.585	97.69
469.804	96.69
470.023	97.69
470.243	85.69
470.462	112.69
470.681	101.69
470.901	90.69
471.12	81.69
471.339	92.69
471.558	100.69
471.777	103.69
471.997	95.69
472.216	95.69
472.435	102.69
472.654	108.69
472.873	91.69
473.092	91.69
473.311	88.69
473.53	96.69
473.749	106.69
473.968	105.69
474.187	96.69
474.406	97.69
474.625	93.69
474.844	109.69
475.063	87.69
475.282	100.69
475.501	94.69
475.72	86.69
475.939	89.69
476.158	90.69
476.377	104.69
476.596	83.69
476.814	99.69
477.033	85.69
477.252	89.69
477.471	84.69
477.69	90.69
477.908	119.69
478.127	79.69
478.346	109.69
478.564	103.69
478.783	84.69
479.002	94.69
479.22	111.69
479.439	89.69
479.658	98.69
479.876	83.69
480.095	93.69
480.313	78.69
480.532	85.69
480.751	98.69
480.969	92.69
481.188	93.69
481.406	91.69
481.624	77.69
481.843	83.69
482.061	90.69
482.28	81.69
482.498	82.69
482.717	87.69
482.935	87.69
483.153	88.69
483.372	114.69
483.59	109.69
483.808	95.69
484.027	107.69
484.245	93.69
484.463	109.69
484.681	106.69
484.9	96.69
485.118	91.69
485.336	94.69
485.554	86.69
485.772	96.69
485.99	83.69
486.209	103.69
486.427	87.69
486.645	90.69
486.863	94.69
487.081	88.69
487.299	110.69
487.517	110.69
487.735	124.69
487.953	97.69
488.171	103.69
488.389	115.69
488.607	118.69
488.825	103.69
489.043	92.69
489.261	100.69
489.479	86.69
489.696	96.69
489.914	95.69
490.132	97.69
490.35	107.69
490.568	105.69
490.786	119.69
491.003	118.69
491.221	108.69
491.439	114.69
491.657	115.69
491.874	107.69
492.092	137.69
492.31	129.69
492.527	140.69
492.745	117.69
492.963	120.69
493.18	119.69
493.398	116.69
493.615	125.69
493.833	119.69
494.05	109.69
494.268	111.69
494.485	108.69
494.703	100.69
494.92	116.69
495.138	99.69
495.355	113.69
495.573	111.69
495.79	107.69
496.008	103.69
496.225	106.69
496.442	117.69
496.66	115.69
496.877	104.69
497.094	119.69
497.312	96.69
497.529	91.69
497.746	103.69
497.963	102.69
498.181	93.69
498.398	103.69
498.615	98.69
498.832	96.69
499.049	91.69
499.267	98.69
499.484	108.69
499.701	106.69
499.918	90.69
500.135	88.69
500.352	98.69
500.569	98.69
500.786	106.69
501.003	103.69
501.22	84.69
501.437	101.69
501.654	115.69
501.871	85.69
502.088	103.69
502.305	102.69
502.522	88.69
502.739	82.69
502.956	89.69
503.172	104.69
503.389	96.69
503.606	108.69
503.823	106.69
504.04	106.69
504.256	95.69
504.473	96.69
504.69	99.69
504.907	105.69
505.123	93.69
505.34	106.69
505.557	95.69
505.773	98.69
505.99	91.69
506.207	92.69
506.423	92.69
506.64	96.69
506.856	96.69
507.073	93.69
507.289	99.69
507.506	86.69
507.722	74.69
507.939	96.69
508.155	95.69
508.372	107.69
508.588	89.69
508.805	92.69
509.021	103.69
509.238	93.69
509.454	112.69
509.67	85.69
509.887	91.69
510.103	74.69
510.319	86.69
510.536	90.69
510.752	83.69
510.968	80.69
511.184	88.69
511.401	93.69
511.617	80.69
511.833	93.69
512.049	91.69
512.265	83.69
512.481	81.69
512.698	88.69
512.914	91.69
513.13	95.69
513.346	80.69
513.562	90.69
513.778	82.69
513.994	84.69
514.21	75.69
514.426	81.69
514.642	107.69
514.858	75.69
515.074	88.69
515.29	83.69
515.506	70.69
515.721	82.69
515.937	94.69
516.153	87.69
516.369	87.69
516.585	101.69
516.801	89.69
517.016	78.69
517.232	92.69
