Data from Location4.07152019.Energy5.Lamp.07192019.3%Agarose_HRD10591_15-24-53-578.txt Node
Date: Fri Jul 19 15:24:53 EDT 2019
User: cochatt
Spectrometer: HR+D1059
Trigger mode: 1
Integration Time (sec): 1.000000E-1
Scans to average: 1
Electric dark correction enabled: true
Nonlinearity correction enabled: false
Boxcar width: 0
XAxis mode: Wavelengths
Number of Pixels in Spectrum: 2048
>>>>>Begin Spectral Data<<<<<
223.165	-7.56
223.4	-7.56
223.635	-7.56
223.869	-18.56
224.104	-6.56
224.338	-3.56
224.573	-22.56
224.808	-11.56
225.042	-18.56
225.277	-0.56
225.511	-16.56
225.746	5.44
225.98	-0.56
226.215	13.44
226.449	18.44
226.683	25.44
226.918	16.44
227.152	27.44
227.387	21.44
227.621	24.44
227.856	54.44
228.09	39.44
228.324	61.44
228.559	63.44
228.793	55.44
229.027	54.44
229.262	60.44
229.496	55.44
229.73	59.44
229.964	84.44
230.199	66.44
230.433	80.44
230.667	76.44
230.901	73.44
231.136	80.44
231.37	79.44
231.604	80.44
231.838	91.44
232.072	65.44
232.306	89.44
232.541	68.44
232.775	84.44
233.009	84.44
233.243	74.44
233.477	84.44
233.711	65.44
233.945	68.44
234.179	75.44
234.413	87.44
234.647	74.44
234.881	86.44
235.115	75.44
235.349	75.44
235.583	68.44
235.817	74.44
236.051	79.44
236.285	61.44
236.519	83.44
236.753	79.44
236.987	83.44
237.221	62.44
237.455	78.44
237.689	82.44
237.922	72.44
238.156	72.44
238.39	77.44
238.624	81.44
238.858	70.44
239.091	66.44
239.325	67.44
239.559	72.44
239.793	68.44
240.027	89.44
240.26	67.44
240.494	70.44
240.728	84.44
240.961	73.44
241.195	78.44
241.429	74.44
241.662	59.44
241.896	72.44
242.13	77.44
242.363	75.44
242.597	72.44
242.83	79.44
243.064	75.44
243.298	62.44
243.531	67.44
243.765	73.44
243.998	78.44
244.232	76.44
244.465	79.44
244.699	71.44
244.932	84.44
245.166	75.44
245.399	72.44
245.633	85.44
245.866	71.44
246.099	78.44
246.333	71.44
246.566	73.44
246.8	78.44
247.033	81.44
247.266	74.44
247.5	64.44
247.733	80.44
247.966	72.44
248.2	67.44
248.433	71.44
248.666	83.44
248.899	89.44
249.133	65.44
249.366	76.44
249.599	82.44
249.832	84.44
250.066	77.44
250.299	74.44
250.532	80.44
250.765	83.44
250.998	75.44
251.231	68.44
251.465	82.44
251.698	72.44
251.931	72.44
252.164	73.44
252.397	73.44
252.63	75.44
252.863	85.44
253.096	91.44
253.329	82.44
253.562	79.44
253.795	84.44
254.028	91.44
254.261	77.44
254.494	87.44
254.727	83.44
254.96	73.44
255.193	76.44
255.426	81.44
255.659	90.44
255.892	77.44
256.124	81.44
256.357	77.44
256.59	67.44
256.823	84.44
257.056	86.44
257.289	83.44
257.521	76.44
257.754	71.44
257.987	79.44
258.22	91.44
258.452	75.44
258.685	78.44
258.918	74.44
259.151	79.44
259.383	87.44
259.616	78.44
259.849	74.44
260.081	78.44
260.314	83.44
260.547	83.44
260.779	73.44
261.012	74.44
261.244	82.44
261.477	76.44
261.71	83.44
261.942	76.44
262.175	77.44
262.407	91.44
262.64	79.44
262.872	81.44
263.105	72.44
263.337	85.44
263.57	84.44
263.802	87.44
264.035	78.44
264.267	86.44
264.499	71.44
264.732	92.44
264.964	78.44
265.197	73.44
265.429	79.44
265.661	76.44
265.894	61.44
266.126	80.44
266.358	66.44
266.591	75.44
266.823	78.44
267.055	88.44
267.287	86.44
267.52	77.44
267.752	92.44
267.984	88.44
268.216	70.44
268.448	87.44
268.681	77.44
268.913	75.44
269.145	78.44
269.377	73.44
269.609	88.44
269.841	81.44
270.073	79.44
270.306	83.44
270.538	68.44
270.77	70.44
271.002	84.44
271.234	64.44
271.466	82.44
271.698	78.44
271.93	62.44
272.162	83.44
272.394	92.44
272.626	80.44
272.858	76.44
273.09	72.44
273.322	75.44
273.553	100.44
273.785	80.44
274.017	82.44
274.249	88.44
274.481	86.44
274.713	67.44
274.945	84.44
275.176	84.44
275.408	73.44
275.64	84.44
275.872	89.44
276.104	84.44
276.335	79.44
276.567	76.44
276.799	78.44
277.031	84.44
277.262	89.44
277.494	84.44
277.726	88.44
277.957	71.44
278.189	71.44
278.421	84.44
278.652	68.44
278.884	75.44
279.115	91.44
279.347	88.44
279.579	90.44
279.81	67.44
280.042	91.44
280.273	88.44
280.505	66.44
280.736	79.44
280.968	80.44
281.199	72.44
281.431	81.44
281.662	97.44
281.894	73.44
282.125	73.44
282.356	74.44
282.588	83.44
282.819	89.44
283.051	77.44
283.282	72.44
283.513	82.44
283.745	68.44
283.976	83.44
284.207	91.44
284.439	87.44
284.67	71.44
284.901	88.44
285.132	86.44
285.364	96.44
285.595	95.44
285.826	88.44
286.057	89.44
286.288	77.44
286.52	88.44
286.751	84.44
286.982	78.44
287.213	74.44
287.444	86.44
287.675	92.44
287.906	78.44
288.138	78.44
288.369	79.44
288.6	85.44
288.831	73.44
289.062	79.44
289.293	88.44
289.524	73.44
289.755	72.44
289.986	81.44
290.217	89.44
290.448	83.44
290.679	92.44
290.91	78.44
291.141	84.44
291.371	80.44
291.602	69.44
291.833	76.44
292.064	86.44
292.295	88.44
292.526	70.44
292.757	78.44
292.987	91.44
293.218	80.44
293.449	73.44
293.68	70.44
293.91	77.44
294.141	94.44
294.372	79.44
294.603	73.44
294.833	79.44
295.064	77.44
295.295	90.44
295.525	78.44
295.756	81.44
295.987	78.44
296.217	71.44
296.448	81.44
296.679	81.44
296.909	74.44
297.14	71.44
297.37	99.44
297.601	75.44
297.831	83.44
298.062	70.44
298.292	79.44
298.523	80.44
298.753	89.44
298.984	86.44
299.214	81.44
299.445	85.44
299.675	86.44
299.905	85.44
300.136	88.44
300.366	86.44
300.597	75.44
300.827	79.44
301.057	75.44
301.288	70.44
301.518	82.44
301.748	86.44
301.979	73.44
302.209	71.44
302.439	86.44
302.669	79.44
302.9	93.44
303.13	76.44
303.36	85.44
303.59	88.44
303.82	86.44
304.051	95.44
304.281	91.44
304.511	83.44
304.741	88.44
304.971	81.44
305.201	86.44
305.431	84.44
305.661	85.44
305.891	84.44
306.121	87.44
306.352	87.44
306.582	90.44
306.812	86.44
307.042	71.44
307.272	75.44
307.502	64.44
307.731	85.44
307.961	86.44
308.191	79.44
308.421	87.44
308.651	70.44
308.881	80.44
309.111	80.44
309.341	75.44
309.571	95.44
309.8	73.44
310.03	76.44
310.26	79.44
310.49	81.44
310.72	87.44
310.949	88.44
311.179	71.44
311.409	64.44
311.639	86.44
311.868	98.44
312.098	86.44
312.328	86.44
312.557	73.44
312.787	89.44
313.017	92.44
313.246	81.44
313.476	76.44
313.706	70.44
313.935	77.44
314.165	79.44
314.394	74.44
314.624	86.44
314.853	81.44
315.083	69.44
315.312	100.44
315.542	100.44
315.771	80.44
316.001	79.44
316.23	77.44
316.46	77.44
316.689	80.44
316.919	82.44
317.148	79.44
317.377	83.44
317.607	84.44
317.836	73.44
318.065	85.44
318.295	77.44
318.524	84.44
318.753	83.44
318.983	93.44
319.212	94.44
319.441	81.44
319.67	86.44
319.9	96.44
320.129	70.44
320.358	81.44
320.587	77.44
320.816	92.44
321.046	87.44
321.275	84.44
321.504	91.44
321.733	88.44
321.962	89.44
322.191	79.44
322.42	74.44
322.649	80.44
322.878	64.44
323.108	94.44
323.337	77.44
323.566	79.44
323.795	78.44
324.024	92.44
324.253	69.44
324.482	89.44
324.71	99.44
324.939	83.44
325.168	80.44
325.397	81.44
325.626	89.44
325.855	79.44
326.084	95.44
326.313	87.44
326.542	91.44
326.77	79.44
326.999	75.44
327.228	65.44
327.457	79.44
327.686	86.44
327.914	66.44
328.143	79.44
328.372	89.44
328.6	90.44
328.829	72.44
329.058	85.44
329.287	99.44
329.515	86.44
329.744	67.44
329.972	81.44
330.201	73.44
330.43	81.44
330.658	73.44
330.887	79.44
331.115	75.44
331.344	74.44
331.572	77.44
331.801	95.44
332.03	75.44
332.258	66.44
332.486	74.44
332.715	80.44
332.943	73.44
333.172	68.44
333.4	81.44
333.629	76.44
333.857	80.44
334.085	76.44
334.314	86.44
334.542	93.44
334.771	78.44
334.999	85.44
335.227	97.44
335.455	99.44
335.684	101.44
335.912	78.44
336.14	81.44
336.369	70.44
336.597	79.44
336.825	104.44
337.053	82.44
337.281	75.44
337.51	71.44
337.738	83.44
337.966	79.44
338.194	79.44
338.422	78.44
338.65	80.44
338.878	86.44
339.106	87.44
339.334	86.44
339.562	70.44
339.79	83.44
340.018	84.44
340.246	85.44
340.474	78.44
340.702	68.44
340.93	92.44
341.158	91.44
341.386	74.44
341.614	80.44
341.842	84.44
342.07	81.44
342.298	88.44
342.526	70.44
342.754	75.44
342.981	80.44
343.209	79.44
343.437	81.44
343.665	79.44
343.893	90.44
344.12	92.44
344.348	86.44
344.576	87.44
344.804	74.44
345.031	79.44
345.259	72.44
345.487	81.44
345.714	78.44
345.942	97.44
346.17	84.44
346.397	68.44
346.625	91.44
346.853	95.44
347.08	81.44
347.308	79.44
347.535	73.44
347.763	63.44
347.99	80.44
348.218	82.44
348.445	85.44
348.673	87.44
348.9	80.44
349.128	80.44
349.355	77.44
349.583	96.44
349.81	88.44
350.037	80.44
350.265	82.44
350.492	72.44
350.72	92.44
350.947	74.44
351.174	86.44
351.402	83.44
351.629	74.44
351.856	81.44
352.083	77.44
352.311	80.44
352.538	86.44
352.765	79.44
352.992	92.44
353.22	81.44
353.447	80.44
353.674	77.44
353.901	86.44
354.128	96.44
354.355	69.44
354.583	81.44
354.81	77.44
355.037	71.44
355.264	78.44
355.491	95.44
355.718	67.44
355.945	85.44
356.172	71.44
356.399	84.44
356.626	83.44
356.853	71.44
357.08	86.44
357.307	79.44
357.534	88.44
357.761	92.44
357.988	91.44
358.215	75.44
358.441	72.44
358.668	75.44
358.895	79.44
359.122	84.44
359.349	88.44
359.576	82.44
359.802	91.44
360.029	79.44
360.256	88.44
360.483	76.44
360.709	91.44
360.936	95.44
361.163	81.44
361.39	86.44
361.616	85.44
361.843	91.44
362.07	84.44
362.296	82.44
362.523	80.44
362.749	77.44
362.976	80.44
363.203	91.44
363.429	65.44
363.656	87.44
363.882	79.44
364.109	86.44
364.335	79.44
364.562	77.44
364.788	85.44
365.015	65.44
365.241	73.44
365.468	89.44
365.694	84.44
365.92	79.44
366.147	96.44
366.373	86.44
366.599	84.44
366.826	81.44
367.052	85.44
367.278	74.44
367.505	82.44
367.731	73.44
367.957	71.44
368.184	95.44
368.41	80.44
368.636	76.44
368.862	79.44
369.089	79.44
369.315	72.44
369.541	74.44
369.767	90.44
369.993	87.44
370.219	82.44
370.445	87.44
370.672	61.44
370.898	75.44
371.124	73.44
371.35	71.44
371.576	87.44
371.802	82.44
372.028	73.44
372.254	78.44
372.48	96.44
372.706	77.44
372.932	81.44
373.158	76.44
373.384	73.44
373.61	81.44
373.835	73.44
374.061	91.44
374.287	88.44
374.513	88.44
374.739	80.44
374.965	86.44
375.191	90.44
375.416	83.44
375.642	76.44
375.868	87.44
376.094	84.44
376.319	69.44
376.545	80.44
376.771	82.44
376.997	79.44
377.222	87.44
377.448	94.44
377.674	81.44
377.899	70.44
378.125	88.44
378.35	84.44
378.576	87.44
378.802	103.44
379.027	79.44
379.253	93.44
379.478	80.44
379.704	90.44
379.929	94.44
380.155	80.44
380.38	84.44
380.606	85.44
380.831	87.44
381.057	78.44
381.282	101.44
381.507	91.44
381.733	79.44
381.958	78.44
382.184	69.44
382.409	87.44
382.634	93.44
382.86	81.44
383.085	89.44
383.31	80.44
383.535	73.44
383.761	77.44
383.986	75.44
384.211	84.44
384.436	76.44
384.662	86.44
384.887	84.44
385.112	79.44
385.337	88.44
385.562	86.44
385.787	76.44
386.013	97.44
386.238	83.44
386.463	71.44
386.688	75.44
386.913	83.44
387.138	80.44
387.363	77.44
387.588	85.44
387.813	76.44
388.038	80.44
388.263	98.44
388.488	74.44
388.713	91.44
388.938	88.44
389.163	77.44
389.387	72.44
389.612	87.44
389.837	85.44
390.062	78.44
390.287	79.44
390.512	81.44
390.736	77.44
390.961	83.44
391.186	84.44
391.411	79.44
391.636	89.44
391.86	74.44
392.085	73.44
392.31	87.44
392.534	83.44
392.759	92.44
392.984	84.44
393.208	84.44
393.433	69.44
393.658	93.44
393.882	81.44
394.107	86.44
394.331	83.44
394.556	77.44
394.78	87.44
395.005	97.44
395.229	76.44
395.454	80.44
395.678	79.44
395.903	79.44
396.127	84.44
396.352	85.44
396.576	78.44
396.801	86.44
397.025	89.44
397.249	88.44
397.474	84.44
397.698	94.44
397.922	91.44
398.147	99.44
398.371	94.44
398.595	91.44
398.82	87.44
399.044	81.44
399.268	86.44
399.492	76.44
399.717	81.44
399.941	86.44
400.165	87.44
400.389	100.44
400.613	96.44
400.837	89.44
401.062	76.44
401.286	82.44
401.51	92.44
401.734	93.44
401.958	86.44
402.182	81.44
402.406	87.44
402.63	98.44
402.854	81.44
403.078	89.44
403.302	72.44
403.526	82.44
403.75	95.44
403.974	82.44
404.198	95.44
404.422	89.44
404.645	90.44
404.869	93.44
405.093	77.44
405.317	88.44
405.541	91.44
405.765	86.44
405.988	88.44
406.212	80.44
406.436	88.44
406.66	93.44
406.883	98.44
407.107	98.44
407.331	100.44
407.555	78.44
407.778	86.44
408.002	87.44
408.226	97.44
408.449	79.44
408.673	92.44
408.896	81.44
409.12	96.44
409.344	89.44
409.567	96.44
409.791	93.44
410.014	80.44
410.238	84.44
410.461	87.44
410.685	101.44
410.908	90.44
411.132	83.44
411.355	81.44
411.578	80.44
411.802	85.44
412.025	91.44
412.249	99.44
412.472	102.44
412.695	101.44
412.919	78.44
413.142	91.44
413.365	89.44
413.589	87.44
413.812	88.44
414.035	84.44
414.258	93.44
414.482	80.44
414.705	86.44
414.928	89.44
415.151	85.44
415.374	94.44
415.597	88.44
415.821	99.44
416.044	94.44
416.267	80.44
416.49	92.44
416.713	80.44
416.936	95.44
417.159	90.44
417.382	83.44
417.605	100.44
417.828	95.44
418.051	90.44
418.274	85.44
418.497	98.44
418.72	91.44
418.943	88.44
419.166	93.44
419.389	95.44
419.611	80.44
419.834	87.44
420.057	79.44
420.28	93.44
420.503	91.44
420.726	94.44
420.948	103.44
421.171	93.44
421.394	101.44
421.617	93.44
421.839	108.44
422.062	100.44
422.285	89.44
422.507	84.44
422.73	85.44
422.953	85.44
423.175	97.44
423.398	93.44
423.621	84.44
423.843	86.44
424.066	95.44
424.288	89.44
424.511	95.44
424.733	112.44
424.956	81.44
425.178	101.44
425.401	89.44
425.623	93.44
425.846	78.44
426.068	86.44
426.291	96.44
426.513	89.44
426.735	99.44
426.958	99.44
427.18	104.44
427.402	80.44
427.625	85.44
427.847	85.44
428.069	87.44
428.292	92.44
428.514	88.44
428.736	92.44
428.958	103.44
429.181	87.44
429.403	107.44
429.625	95.44
429.847	85.44
430.069	86.44
430.292	74.44
430.514	95.44
430.736	91.44
430.958	91.44
431.18	98.44
431.402	101.44
431.624	82.44
431.846	65.44
432.068	90.44
432.29	91.44
432.512	90.44
432.734	93.44
432.956	88.44
433.178	88.44
433.4	93.44
433.622	91.44
433.844	100.44
434.066	93.44
434.287	72.44
434.509	82.44
434.731	100.44
434.953	84.44
435.175	87.44
435.397	99.44
435.618	69.44
435.84	99.44
436.062	94.44
436.284	93.44
436.505	91.44
436.727	85.44
436.949	88.44
437.17	97.44
437.392	86.44
437.614	84.44
437.835	89.44
438.057	98.44
438.278	91.44
438.5	95.44
438.721	96.44
438.943	99.44
439.165	90.44
439.386	100.44
439.608	109.44
439.829	103.44
440.05	89.44
440.272	110.44
440.493	79.44
440.715	88.44
440.936	93.44
441.158	102.44
441.379	88.44
441.6	89.44
441.822	92.44
442.043	98.44
442.264	87.44
442.486	95.44
442.707	89.44
442.928	109.44
443.149	96.44
443.371	92.44
443.592	98.44
443.813	95.44
444.034	98.44
444.255	104.44
444.476	98.44
444.698	100.44
444.919	95.44
445.14	208.44
445.361	144.44
445.582	105.44
445.803	80.44
446.024	111.44
446.245	94.44
446.466	103.44
446.687	112.44
446.908	107.44
447.129	116.44
447.35	79.44
447.571	109.44
447.792	91.44
448.013	102.44
448.234	87.44
448.455	91.44
448.675	99.44
448.896	95.44
449.117	97.44
449.338	90.44
449.559	74.44
449.779	98.44
450	94.44
450.221	88.44
450.442	97.44
450.662	89.44
450.883	101.44
451.104	101.44
451.324	93.44
451.545	86.44
451.766	111.44
451.986	96.44
452.207	91.44
452.428	102.44
452.648	97.44
452.869	87.44
453.089	87.44
453.31	80.44
453.53	83.44
453.751	84.44
453.971	75.44
454.192	80.44
454.412	88.44
454.633	93.44
454.853	79.44
455.073	90.44
455.294	92.44
455.514	103.44
455.734	86.44
455.955	70.44
456.175	88.44
456.395	72.44
456.616	85.44
456.836	90.44
457.056	81.44
457.276	82.44
457.497	81.44
457.717	82.44
457.937	87.44
458.157	83.44
458.377	88.44
458.598	97.44
458.818	90.44
459.038	88.44
459.258	78.44
459.478	88.44
459.698	79.44
459.918	86.44
460.138	88.44
460.358	78.44
460.578	82.44
460.798	80.44
461.018	79.44
461.238	100.44
461.458	99.44
461.678	96.44
461.898	97.44
462.118	85.44
462.338	84.44
462.558	87.44
462.777	92.44
462.997	85.44
463.217	80.44
463.437	95.44
463.657	94.44
463.876	79.44
464.096	87.44
464.316	81.44
464.536	100.44
464.755	71.44
464.975	79.44
465.195	103.44
465.414	86.44
465.634	83.44
465.854	92.44
466.073	95.44
466.293	98.44
466.512	79.44
466.732	86.44
466.951	88.44
467.171	94.44
467.391	84.44
467.61	96.44
467.829	96.44
468.049	78.44
468.268	90.44
468.488	93.44
468.707	108.44
468.927	88.44
469.146	91.44
469.365	93.44
469.585	108.44
469.804	102.44
470.023	97.44
470.243	92.44
470.462	101.44
470.681	84.44
470.901	85.44
471.12	82.44
471.339	101.44
471.558	81.44
471.777	102.44
471.997	87.44
472.216	87.44
472.435	90.44
472.654	68.44
472.873	100.44
473.092	87.44
473.311	86.44
473.53	85.44
473.749	99.44
473.968	107.44
474.187	100.44
474.406	97.44
474.625	93.44
474.844	96.44
475.063	98.44
475.282	98.44
475.501	85.44
475.72	108.44
475.939	87.44
476.158	87.44
476.377	101.44
476.596	93.44
476.814	80.44
477.033	98.44
477.252	77.44
477.471	90.44
477.69	88.44
477.908	83.44
478.127	107.44
478.346	101.44
478.564	89.44
478.783	89.44
479.002	91.44
479.22	100.44
479.439	101.44
479.658	111.44
479.876	73.44
480.095	93.44
480.313	96.44
480.532	89.44
480.751	98.44
480.969	83.44
481.188	79.44
481.406	91.44
481.624	75.44
481.843	85.44
482.061	77.44
482.28	89.44
482.498	91.44
482.717	83.44
482.935	101.44
483.153	99.44
483.372	98.44
483.59	90.44
483.808	93.44
484.027	84.44
484.245	91.44
484.463	93.44
484.681	95.44
484.9	107.44
485.118	94.44
485.336	87.44
485.554	83.44
485.772	88.44
485.99	93.44
486.209	103.44
486.427	83.44
486.645	72.44
486.863	85.44
487.081	107.44
487.299	91.44
487.517	97.44
487.735	111.44
487.953	96.44
488.171	116.44
488.389	111.44
488.607	92.44
488.825	94.44
489.043	88.44
489.261	100.44
489.479	98.44
489.696	87.44
489.914	102.44
490.132	94.44
490.35	102.44
490.568	113.44
490.786	114.44
491.003	100.44
491.221	109.44
491.439	100.44
491.657	103.44
491.874	103.44
492.092	115.44
492.31	120.44
492.527	131.44
492.745	115.44
492.963	114.44
493.18	116.44
493.398	109.44
493.615	100.44
493.833	109.44
494.05	115.44
494.268	113.44
494.485	111.44
494.703	117.44
494.92	114.44
495.138	123.44
495.355	103.44
495.573	110.44
495.79	103.44
496.008	109.44
496.225	109.44
496.442	100.44
496.66	103.44
496.877	103.44
497.094	111.44
497.312	110.44
497.529	98.44
497.746	108.44
497.963	103.44
498.181	91.44
498.398	107.44
498.615	107.44
498.832	96.44
499.049	91.44
499.267	86.44
499.484	104.44
499.701	100.44
499.918	91.44
500.135	98.44
500.352	95.44
500.569	92.44
500.786	101.44
501.003	93.44
501.22	96.44
501.437	100.44
501.654	102.44
501.871	104.44
502.088	106.44
502.305	113.44
502.522	96.44
502.739	88.44
502.956	93.44
503.172	105.44
503.389	93.44
503.606	89.44
503.823	91.44
504.04	79.44
504.256	87.44
504.473	81.44
504.69	93.44
504.907	91.44
505.123	96.44
505.34	86.44
505.557	81.44
505.773	92.44
505.99	83.44
506.207	94.44
506.423	90.44
506.64	104.44
506.856	86.44
507.073	100.44
507.289	92.44
507.506	90.44
507.722	93.44
507.939	94.44
508.155	83.44
508.372	86.44
508.588	85.44
508.805	82.44
509.021	76.44
509.238	91.44
509.454	97.44
509.67	84.44
509.887	92.44
510.103	84.44
510.319	102.44
510.536	83.44
510.752	86.44
510.968	86.44
511.184	76.44
511.401	67.44
511.617	80.44
511.833	96.44
512.049	85.44
512.265	82.44
512.481	95.44
512.698	87.44
512.914	92.44
513.13	92.44
513.346	96.44
513.562	80.44
513.778	80.44
513.994	91.44
514.21	89.44
514.426	87.44
514.642	68.44
514.858	78.44
515.074	82.44
515.29	96.44
515.506	81.44
515.721	81.44
515.937	84.44
516.153	80.44
516.369	73.44
516.585	99.44
516.801	76.44
517.016	79.44
517.232	97.44
517.448	87.44
517.664	97.44
