Data from Location4.07152019.Energy5.Lamp.07192019.3%Agarose_HRD10591_15-26-14-578.txt Node
Date: Fri Jul 19 15:26:14 EDT 2019
User: cochatt
Spectrometer: HR+D1059
Trigger mode: 1
Integration Time (sec): 1.000000E-1
Scans to average: 1
Electric dark correction enabled: true
Nonlinearity correction enabled: false
Boxcar width: 0
XAxis mode: Wavelengths
Number of Pixels in Spectrum: 2048
>>>>>Begin Spectral Data<<<<<
223.165	-11.12
223.4	-11.12
223.635	-11.12
223.869	-20.12
224.104	-19.12
224.338	-8.12
224.573	-9.12
224.808	-10.12
225.042	-4.12
225.277	-2.12
225.511	4.88
225.746	-1.12
225.98	8.88
226.215	9.88
226.449	7.88
226.683	9.88
226.918	16.88
227.152	26.88
227.387	29.88
227.621	34.88
227.856	50.88
228.09	51.88
228.324	57.88
228.559	66.88
228.793	55.88
229.027	62.88
229.262	57.88
229.496	61.88
229.73	92.88
229.964	84.88
230.199	80.88
230.433	92.88
230.667	69.88
230.901	71.88
231.136	85.88
231.37	85.88
231.604	70.88
231.838	84.88
232.072	88.88
232.306	82.88
232.541	78.88
232.775	87.88
233.009	91.88
233.243	81.88
233.477	79.88
233.711	85.88
233.945	74.88
234.179	93.88
234.413	94.88
234.647	83.88
234.881	88.88
235.115	81.88
235.349	82.88
235.583	72.88
235.817	63.88
236.051	63.88
236.285	89.88
236.519	84.88
236.753	80.88
236.987	79.88
237.221	79.88
237.455	85.88
237.689	81.88
237.922	70.88
238.156	75.88
238.39	71.88
238.624	90.88
238.858	70.88
239.091	85.88
239.325	70.88
239.559	79.88
239.793	98.88
240.027	83.88
240.26	90.88
240.494	79.88
240.728	78.88
240.961	83.88
241.195	70.88
241.429	75.88
241.662	76.88
241.896	89.88
242.13	73.88
242.363	77.88
242.597	72.88
242.83	70.88
243.064	79.88
243.298	85.88
243.531	69.88
243.765	81.88
243.998	79.88
244.232	69.88
244.465	68.88
244.699	73.88
244.932	64.88
245.166	79.88
245.399	86.88
245.633	76.88
245.866	75.88
246.099	70.88
246.333	90.88
246.566	91.88
246.8	87.88
247.033	85.88
247.266	83.88
247.5	63.88
247.733	87.88
247.966	67.88
248.2	77.88
248.433	95.88
248.666	74.88
248.899	79.88
249.133	86.88
249.366	82.88
249.599	85.88
249.832	86.88
250.066	87.88
250.299	75.88
250.532	91.88
250.765	72.88
250.998	81.88
251.231	75.88
251.465	69.88
251.698	80.88
251.931	86.88
252.164	92.88
252.397	84.88
252.63	68.88
252.863	89.88
253.096	92.88
253.329	88.88
253.562	84.88
253.795	78.88
254.028	74.88
254.261	84.88
254.494	66.88
254.727	79.88
254.96	68.88
255.193	72.88
255.426	79.88
255.659	75.88
255.892	84.88
256.124	93.88
256.357	76.88
256.59	87.88
256.823	81.88
257.056	88.88
257.289	85.88
257.521	80.88
257.754	76.88
257.987	79.88
258.22	71.88
258.452	90.88
258.685	82.88
258.918	82.88
259.151	79.88
259.383	85.88
259.616	78.88
259.849	93.88
260.081	88.88
260.314	74.88
260.547	86.88
260.779	84.88
261.012	87.88
261.244	83.88
261.477	83.88
261.71	93.88
261.942	74.88
262.175	74.88
262.407	82.88
262.64	91.88
262.872	73.88
263.105	77.88
263.337	94.88
263.57	87.88
263.802	76.88
264.035	74.88
264.267	83.88
264.499	83.88
264.732	74.88
264.964	93.88
265.197	75.88
265.429	84.88
265.661	91.88
265.894	87.88
266.126	79.88
266.358	82.88
266.591	88.88
266.823	84.88
267.055	78.88
267.287	95.88
267.52	84.88
267.752	79.88
267.984	90.88
268.216	71.88
268.448	95.88
268.681	82.88
268.913	83.88
269.145	82.88
269.377	69.88
269.609	85.88
269.841	86.88
270.073	86.88
270.306	78.88
270.538	86.88
270.77	72.88
271.002	81.88
271.234	91.88
271.466	79.88
271.698	85.88
271.93	80.88
272.162	87.88
272.394	84.88
272.626	77.88
272.858	76.88
273.09	78.88
273.322	72.88
273.553	85.88
273.785	86.88
274.017	95.88
274.249	97.88
274.481	90.88
274.713	75.88
274.945	74.88
275.176	94.88
275.408	95.88
275.64	92.88
275.872	85.88
276.104	92.88
276.335	94.88
276.567	79.88
276.799	93.88
277.031	87.88
277.262	82.88
277.494	83.88
277.726	83.88
277.957	79.88
278.189	76.88
278.421	88.88
278.652	81.88
278.884	75.88
279.115	73.88
279.347	92.88
279.579	87.88
279.81	80.88
280.042	90.88
280.273	83.88
280.505	89.88
280.736	87.88
280.968	87.88
281.199	90.88
281.431	92.88
281.662	90.88
281.894	93.88
282.125	84.88
282.356	85.88
282.588	101.88
282.819	83.88
283.051	95.88
283.282	80.88
283.513	78.88
283.745	88.88
283.976	78.88
284.207	70.88
284.439	88.88
284.67	90.88
284.901	64.88
285.132	99.88
285.364	82.88
285.595	87.88
285.826	82.88
286.057	91.88
286.288	90.88
286.52	71.88
286.751	83.88
286.982	84.88
287.213	88.88
287.444	97.88
287.675	71.88
287.906	92.88
288.138	77.88
288.369	82.88
288.6	97.88
288.831	74.88
289.062	73.88
289.293	87.88
289.524	88.88
289.755	93.88
289.986	77.88
290.217	84.88
290.448	84.88
290.679	80.88
290.91	81.88
291.141	93.88
291.371	86.88
291.602	100.88
291.833	89.88
292.064	82.88
292.295	82.88
292.526	92.88
292.757	72.88
292.987	66.88
293.218	84.88
293.449	87.88
293.68	87.88
293.91	90.88
294.141	88.88
294.372	82.88
294.603	98.88
294.833	73.88
295.064	77.88
295.295	72.88
295.525	85.88
295.756	84.88
295.987	72.88
296.217	94.88
296.448	101.88
296.679	90.88
296.909	94.88
297.14	90.88
297.37	80.88
297.601	94.88
297.831	79.88
298.062	96.88
298.292	89.88
298.523	92.88
298.753	91.88
298.984	77.88
299.214	95.88
299.445	93.88
299.675	81.88
299.905	97.88
300.136	76.88
300.366	77.88
300.597	74.88
300.827	83.88
301.057	81.88
301.288	89.88
301.518	85.88
301.748	87.88
301.979	83.88
302.209	102.88
302.439	100.88
302.669	72.88
302.9	88.88
303.13	92.88
303.36	89.88
303.59	100.88
303.82	81.88
304.051	78.88
304.281	94.88
304.511	88.88
304.741	84.88
304.971	91.88
305.201	75.88
305.431	90.88
305.661	86.88
305.891	104.88
306.121	82.88
306.352	85.88
306.582	85.88
306.812	70.88
307.042	78.88
307.272	97.88
307.502	90.88
307.731	79.88
307.961	85.88
308.191	79.88
308.421	103.88
308.651	93.88
308.881	89.88
309.111	88.88
309.341	82.88
309.571	108.88
309.8	88.88
310.03	98.88
310.26	77.88
310.49	87.88
310.72	81.88
310.949	88.88
311.179	92.88
311.409	86.88
311.639	84.88
311.868	78.88
312.098	92.88
312.328	99.88
312.557	82.88
312.787	85.88
313.017	80.88
313.246	90.88
313.476	87.88
313.706	104.88
313.935	89.88
314.165	89.88
314.394	79.88
314.624	78.88
314.853	84.88
315.083	83.88
315.312	82.88
315.542	86.88
315.771	88.88
316.001	75.88
316.23	79.88
316.46	79.88
316.689	79.88
316.919	78.88
317.148	94.88
317.377	90.88
317.607	96.88
317.836	89.88
318.065	87.88
318.295	85.88
318.524	91.88
318.753	86.88
318.983	88.88
319.212	97.88
319.441	89.88
319.67	91.88
319.9	73.88
320.129	91.88
320.358	89.88
320.587	96.88
320.816	81.88
321.046	93.88
321.275	89.88
321.504	85.88
321.733	80.88
321.962	95.88
322.191	94.88
322.42	99.88
322.649	92.88
322.878	93.88
323.108	88.88
323.337	82.88
323.566	82.88
323.795	77.88
324.024	87.88
324.253	88.88
324.482	72.88
324.71	79.88
324.939	90.88
325.168	79.88
325.397	71.88
325.626	79.88
325.855	98.88
326.084	89.88
326.313	98.88
326.542	84.88
326.77	100.88
326.999	86.88
327.228	95.88
327.457	102.88
327.686	93.88
327.914	109.88
328.143	85.88
328.372	81.88
328.6	90.88
328.829	70.88
329.058	93.88
329.287	85.88
329.515	76.88
329.744	94.88
329.972	89.88
330.201	84.88
330.43	80.88
330.658	85.88
330.887	71.88
331.115	87.88
331.344	93.88
331.572	96.88
331.801	74.88
332.03	93.88
332.258	93.88
332.486	83.88
332.715	82.88
332.943	92.88
333.172	88.88
333.4	82.88
333.629	86.88
333.857	86.88
334.085	85.88
334.314	100.88
334.542	89.88
334.771	80.88
334.999	69.88
335.227	76.88
335.455	81.88
335.684	98.88
335.912	83.88
336.14	78.88
336.369	102.88
336.597	86.88
336.825	86.88
337.053	88.88
337.281	83.88
337.51	86.88
337.738	80.88
337.966	101.88
338.194	87.88
338.422	85.88
338.65	75.88
338.878	69.88
339.106	76.88
339.334	90.88
339.562	86.88
339.79	79.88
340.018	83.88
340.246	81.88
340.474	74.88
340.702	81.88
340.93	86.88
341.158	88.88
341.386	83.88
341.614	84.88
341.842	86.88
342.07	89.88
342.298	94.88
342.526	98.88
342.754	81.88
342.981	88.88
343.209	83.88
343.437	80.88
343.665	82.88
343.893	90.88
344.12	83.88
344.348	81.88
344.576	77.88
344.804	91.88
345.031	91.88
345.259	78.88
345.487	73.88
345.714	83.88
345.942	86.88
346.17	95.88
346.397	81.88
346.625	91.88
346.853	89.88
347.08	82.88
347.308	86.88
347.535	74.88
347.763	81.88
347.99	76.88
348.218	75.88
348.445	90.88
348.673	65.88
348.9	82.88
349.128	93.88
349.355	85.88
349.583	81.88
349.81	76.88
350.037	85.88
350.265	92.88
350.492	88.88
350.72	87.88
350.947	94.88
351.174	92.88
351.402	88.88
351.629	81.88
351.856	76.88
352.083	83.88
352.311	77.88
352.538	87.88
352.765	92.88
352.992	93.88
353.22	82.88
353.447	94.88
353.674	81.88
353.901	91.88
354.128	87.88
354.355	89.88
354.583	77.88
354.81	91.88
355.037	92.88
355.264	71.88
355.491	72.88
355.718	94.88
355.945	90.88
356.172	87.88
356.399	85.88
356.626	86.88
356.853	86.88
357.08	89.88
357.307	86.88
357.534	95.88
357.761	98.88
357.988	73.88
358.215	95.88
358.441	81.88
358.668	89.88
358.895	70.88
359.122	87.88
359.349	90.88
359.576	96.88
359.802	89.88
360.029	103.88
360.256	75.88
360.483	95.88
360.709	83.88
360.936	101.88
361.163	86.88
361.39	92.88
361.616	85.88
361.843	75.88
362.07	78.88
362.296	93.88
362.523	95.88
362.749	95.88
362.976	89.88
363.203	79.88
363.429	86.88
363.656	89.88
363.882	86.88
364.109	88.88
364.335	87.88
364.562	73.88
364.788	75.88
365.015	84.88
365.241	87.88
365.468	91.88
365.694	92.88
365.92	83.88
366.147	77.88
366.373	92.88
366.599	86.88
366.826	87.88
367.052	101.88
367.278	78.88
367.505	93.88
367.731	85.88
367.957	78.88
368.184	79.88
368.41	85.88
368.636	104.88
368.862	97.88
369.089	91.88
369.315	82.88
369.541	92.88
369.767	70.88
369.993	92.88
370.219	81.88
370.445	96.88
370.672	90.88
370.898	76.88
371.124	78.88
371.35	99.88
371.576	66.88
371.802	81.88
372.028	87.88
372.254	94.88
372.48	91.88
372.706	97.88
372.932	87.88
373.158	93.88
373.384	87.88
373.61	71.88
373.835	78.88
374.061	81.88
374.287	84.88
374.513	94.88
374.739	82.88
374.965	68.88
375.191	86.88
375.416	86.88
375.642	94.88
375.868	92.88
376.094	88.88
376.319	85.88
376.545	94.88
376.771	85.88
376.997	81.88
377.222	79.88
377.448	86.88
377.674	87.88
377.899	103.88
378.125	96.88
378.35	94.88
378.576	68.88
378.802	67.88
379.027	83.88
379.253	76.88
379.478	85.88
379.704	79.88
379.929	91.88
380.155	88.88
380.38	91.88
380.606	89.88
380.831	89.88
381.057	103.88
381.282	82.88
381.507	91.88
381.733	103.88
381.958	93.88
382.184	106.88
382.409	84.88
382.634	79.88
382.86	87.88
383.085	86.88
383.31	80.88
383.535	92.88
383.761	82.88
383.986	86.88
384.211	103.88
384.436	99.88
384.662	85.88
384.887	76.88
385.112	82.88
385.337	63.88
385.562	74.88
385.787	84.88
386.013	84.88
386.238	95.88
386.463	84.88
386.688	79.88
386.913	96.88
387.138	100.88
387.363	90.88
387.588	93.88
387.813	76.88
388.038	97.88
388.263	91.88
388.488	86.88
388.713	79.88
388.938	91.88
389.163	90.88
389.387	90.88
389.612	96.88
389.837	83.88
390.062	93.88
390.287	98.88
390.512	89.88
390.736	77.88
390.961	68.88
391.186	83.88
391.411	104.88
391.636	87.88
391.86	93.88
392.085	94.88
392.31	73.88
392.534	92.88
392.759	104.88
392.984	99.88
393.208	97.88
393.433	101.88
393.658	90.88
393.882	93.88
394.107	81.88
394.331	86.88
394.556	78.88
394.78	86.88
395.005	92.88
395.229	77.88
395.454	91.88
395.678	87.88
395.903	114.88
396.127	87.88
396.352	91.88
396.576	75.88
396.801	89.88
397.025	92.88
397.249	88.88
397.474	95.88
397.698	91.88
397.922	94.88
398.147	99.88
398.371	76.88
398.595	88.88
398.82	87.88
399.044	86.88
399.268	77.88
399.492	94.88
399.717	103.88
399.941	97.88
400.165	101.88
400.389	99.88
400.613	92.88
400.837	79.88
401.062	82.88
401.286	91.88
401.51	83.88
401.734	85.88
401.958	92.88
402.182	93.88
402.406	74.88
402.63	87.88
402.854	83.88
403.078	100.88
403.302	84.88
403.526	98.88
403.75	94.88
403.974	100.88
404.198	96.88
404.422	81.88
404.645	78.88
404.869	97.88
405.093	93.88
405.317	90.88
405.541	99.88
405.765	85.88
405.988	98.88
406.212	107.88
406.436	101.88
406.66	102.88
406.883	93.88
407.107	94.88
407.331	78.88
407.555	92.88
407.778	79.88
408.002	83.88
408.226	90.88
408.449	100.88
408.673	88.88
408.896	91.88
409.12	94.88
409.344	105.88
409.567	80.88
409.791	78.88
410.014	89.88
410.238	93.88
410.461	104.88
410.685	101.88
410.908	90.88
411.132	104.88
411.355	95.88
411.578	107.88
411.802	80.88
412.025	79.88
412.249	82.88
412.472	91.88
412.695	74.88
412.919	90.88
413.142	107.88
413.365	90.88
413.589	85.88
413.812	91.88
414.035	101.88
414.258	90.88
414.482	82.88
414.705	92.88
414.928	97.88
415.151	105.88
415.374	100.88
415.597	98.88
415.821	110.88
416.044	94.88
416.267	98.88
416.49	91.88
416.713	85.88
416.936	87.88
417.159	96.88
417.382	85.88
417.605	88.88
417.828	88.88
418.051	102.88
418.274	104.88
418.497	94.88
418.72	94.88
418.943	107.88
419.166	97.88
419.389	94.88
419.611	105.88
419.834	84.88
420.057	83.88
420.28	86.88
420.503	97.88
420.726	95.88
420.948	106.88
421.171	92.88
421.394	103.88
421.617	102.88
421.839	100.88
422.062	103.88
422.285	102.88
422.507	86.88
422.73	99.88
422.953	103.88
423.175	89.88
423.398	108.88
423.621	94.88
423.843	102.88
424.066	110.88
424.288	115.88
424.511	109.88
424.733	78.88
424.956	87.88
425.178	83.88
425.401	86.88
425.623	100.88
425.846	106.88
426.068	99.88
426.291	89.88
426.513	91.88
426.735	101.88
426.958	86.88
427.18	96.88
427.402	94.88
427.625	88.88
427.847	101.88
428.069	85.88
428.292	91.88
428.514	77.88
428.736	94.88
428.958	102.88
429.181	95.88
429.403	97.88
429.625	86.88
429.847	106.88
430.069	95.88
430.292	79.88
430.514	84.88
430.736	63.88
430.958	89.88
431.18	87.88
431.402	91.88
431.624	93.88
431.846	101.88
432.068	87.88
432.29	84.88
432.512	72.88
432.734	80.88
432.956	95.88
433.178	101.88
433.4	84.88
433.622	86.88
433.844	87.88
434.066	97.88
434.287	93.88
434.509	92.88
434.731	78.88
434.953	102.88
435.175	88.88
435.397	77.88
435.618	97.88
435.84	89.88
436.062	91.88
436.284	89.88
436.505	108.88
436.727	85.88
436.949	102.88
437.17	109.88
437.392	99.88
437.614	94.88
437.835	105.88
438.057	89.88
438.278	84.88
438.5	91.88
438.721	101.88
438.943	95.88
439.165	97.88
439.386	100.88
439.608	94.88
439.829	96.88
440.05	91.88
440.272	91.88
440.493	89.88
440.715	93.88
440.936	100.88
441.158	99.88
441.379	96.88
441.6	102.88
441.822	104.88
442.043	101.88
442.264	100.88
442.486	93.88
442.707	101.88
442.928	89.88
443.149	90.88
443.371	98.88
443.592	91.88
443.813	110.88
444.034	85.88
444.255	94.88
444.476	98.88
444.698	97.88
444.919	100.88
445.14	214.88
445.361	164.88
445.582	102.88
445.803	112.88
446.024	123.88
446.245	118.88
446.466	103.88
446.687	90.88
446.908	98.88
447.129	94.88
447.35	83.88
447.571	95.88
447.792	88.88
448.013	89.88
448.234	103.88
448.455	88.88
448.675	102.88
448.896	106.88
449.117	93.88
449.338	99.88
449.559	87.88
449.779	96.88
450	107.88
450.221	105.88
450.442	85.88
450.662	84.88
450.883	89.88
451.104	109.88
451.324	94.88
451.545	91.88
451.766	91.88
451.986	99.88
452.207	74.88
452.428	91.88
452.648	101.88
452.869	80.88
453.089	95.88
453.31	95.88
453.53	87.88
453.751	85.88
453.971	90.88
454.192	77.88
454.412	94.88
454.633	81.88
454.853	84.88
455.073	108.88
455.294	92.88
455.514	93.88
455.734	90.88
455.955	89.88
456.175	90.88
456.395	83.88
456.616	100.88
456.836	91.88
457.056	87.88
457.276	98.88
457.497	102.88
457.717	99.88
457.937	94.88
458.157	83.88
458.377	72.88
458.598	93.88
458.818	76.88
459.038	94.88
459.258	95.88
459.478	63.88
459.698	78.88
459.918	83.88
460.138	85.88
460.358	90.88
460.578	91.88
460.798	105.88
461.018	92.88
461.238	102.88
461.458	95.88
461.678	86.88
461.898	98.88
462.118	94.88
462.338	100.88
462.558	92.88
462.777	94.88
462.997	85.88
463.217	89.88
463.437	90.88
463.657	102.88
463.876	74.88
464.096	87.88
464.316	94.88
464.536	84.88
464.755	88.88
464.975	90.88
465.195	79.88
465.414	95.88
465.634	99.88
465.854	82.88
466.073	109.88
466.293	94.88
466.512	90.88
466.732	104.88
466.951	113.88
467.171	98.88
467.391	105.88
467.61	101.88
467.829	88.88
468.049	89.88
468.268	90.88
468.488	101.88
468.707	100.88
468.927	105.88
469.146	87.88
469.365	99.88
469.585	97.88
469.804	97.88
470.023	104.88
470.243	101.88
470.462	108.88
470.681	88.88
470.901	96.88
471.12	88.88
471.339	85.88
471.558	95.88
471.777	100.88
471.997	97.88
472.216	97.88
472.435	98.88
472.654	86.88
472.873	90.88
473.092	98.88
473.311	67.88
473.53	88.88
473.749	88.88
473.968	85.88
474.187	108.88
474.406	106.88
474.625	88.88
474.844	90.88
475.063	108.88
475.282	91.88
475.501	92.88
475.72	112.88
475.939	85.88
476.158	89.88
476.377	107.88
476.596	91.88
476.814	98.88
477.033	87.88
477.252	107.88
477.471	98.88
477.69	93.88
477.908	106.88
478.127	106.88
478.346	94.88
478.564	98.88
478.783	97.88
479.002	94.88
479.22	102.88
479.439	98.88
479.658	82.88
479.876	95.88
480.095	92.88
480.313	81.88
480.532	92.88
480.751	86.88
480.969	91.88
481.188	74.88
481.406	86.88
481.624	70.88
481.843	82.88
482.061	76.88
482.28	103.88
482.498	86.88
482.717	89.88
482.935	103.88
483.153	109.88
483.372	105.88
483.59	101.88
483.808	98.88
484.027	105.88
484.245	98.88
484.463	91.88
484.681	94.88
484.9	95.88
485.118	99.88
485.336	104.88
485.554	105.88
485.772	106.88
485.99	86.88
486.209	82.88
486.427	101.88
486.645	85.88
486.863	109.88
487.081	104.88
487.299	102.88
487.517	92.88
487.735	107.88
487.953	111.88
488.171	121.88
488.389	90.88
488.607	102.88
488.825	92.88
489.043	89.88
489.261	86.88
489.479	95.88
489.696	98.88
489.914	104.88
490.132	104.88
490.35	105.88
490.568	118.88
490.786	91.88
491.003	109.88
491.221	97.88
491.439	107.88
491.657	109.88
491.874	119.88
492.092	131.88
492.31	133.88
492.527	135.88
492.745	111.88
492.963	124.88
493.18	118.88
493.398	123.88
493.615	112.88
493.833	123.88
494.05	104.88
494.268	98.88
494.485	119.88
494.703	118.88
494.92	106.88
495.138	116.88
495.355	117.88
495.573	103.88
495.79	102.88
496.008	117.88
496.225	113.88
496.442	96.88
496.66	111.88
496.877	109.88
497.094	91.88
497.312	108.88
497.529	119.88
497.746	107.88
497.963	98.88
498.181	107.88
498.398	97.88
498.615	92.88
498.832	75.88
499.049	97.88
499.267	95.88
499.484	97.88
499.701	93.88
499.918	94.88
500.135	101.88
500.352	101.88
500.569	95.88
500.786	100.88
501.003	114.88
501.22	110.88
501.437	104.88
501.654	109.88
501.871	89.88
502.088	92.88
502.305	83.88
502.522	98.88
502.739	107.88
502.956	86.88
503.172	100.88
503.389	75.88
503.606	85.88
503.823	90.88
504.04	97.88
504.256	95.88
504.473	84.88
504.69	92.88
504.907	98.88
505.123	105.88
505.34	96.88
505.557	102.88
505.773	96.88
505.99	101.88
506.207	87.88
506.423	98.88
506.64	82.88
506.856	95.88
507.073	88.88
507.289	90.88
507.506	95.88
507.722	93.88
507.939	102.88
508.155	86.88
508.372	99.88
508.588	96.88
508.805	99.88
509.021	97.88
509.238	101.88
509.454	89.88
509.67	88.88
509.887	88.88
510.103	92.88
510.319	92.88
510.536	76.88
510.752	91.88
510.968	81.88
511.184	87.88
511.401	91.88
511.617	82.88
511.833	87.88
512.049	82.88
512.265	84.88
512.481	79.88
512.698	88.88
512.914	82.88
513.13	98.88
513.346	94.88
513.562	84.88
513.778	90.88
513.994	89.88
514.21	82.88
514.426	95.88
514.642	100.88
514.858	97.88
515.074	73.88
515.29	82.88
515.506	106.88
515.721	73.88
515.937	89.88
516.153	78.88
516.369	78.88
516.585	91.88
516.801	80.88
