Data from Location4.07152019.Energy5.Lamp.07192019.3%Agarose_HRD10591_15-25-58-578.txt Node
Date: Fri Jul 19 15:25:58 EDT 2019
User: cochatt
Spectrometer: HR+D1059
Trigger mode: 1
Integration Time (sec): 1.000000E-1
Scans to average: 1
Electric dark correction enabled: true
Nonlinearity correction enabled: false
Boxcar width: 0
XAxis mode: Wavelengths
Number of Pixels in Spectrum: 2048
>>>>>Begin Spectral Data<<<<<
223.165	-8.81
223.4	-8.81
223.635	-8.81
223.869	-17.81
224.104	-10.81
224.338	-13.81
224.573	-23.81
224.808	-2.81
225.042	-15.81
225.277	-15.81
225.511	-7.81
225.746	8.19
225.98	14.19
226.215	3.19
226.449	10.19
226.683	18.19
226.918	18.19
227.152	45.19
227.387	51.19
227.621	49.19
227.856	40.19
228.09	49.19
228.324	66.19
228.559	52.19
228.793	62.19
229.027	57.19
229.262	71.19
229.496	59.19
229.73	67.19
229.964	79.19
230.199	67.19
230.433	85.19
230.667	71.19
230.901	82.19
231.136	82.19
231.37	92.19
231.604	90.19
231.838	80.19
232.072	74.19
232.306	91.19
232.541	76.19
232.775	74.19
233.009	88.19
233.243	69.19
233.477	77.19
233.711	89.19
233.945	86.19
234.179	83.19
234.413	89.19
234.647	63.19
234.881	71.19
235.115	89.19
235.349	89.19
235.583	87.19
235.817	75.19
236.051	80.19
236.285	69.19
236.519	84.19
236.753	83.19
236.987	69.19
237.221	83.19
237.455	81.19
237.689	65.19
237.922	93.19
238.156	86.19
238.39	80.19
238.624	81.19
238.858	77.19
239.091	81.19
239.325	80.19
239.559	91.19
239.793	80.19
240.027	90.19
240.26	71.19
240.494	82.19
240.728	85.19
240.961	81.19
241.195	75.19
241.429	77.19
241.662	60.19
241.896	83.19
242.13	79.19
242.363	74.19
242.597	84.19
242.83	87.19
243.064	75.19
243.298	76.19
243.531	89.19
243.765	92.19
243.998	69.19
244.232	82.19
244.465	75.19
244.699	75.19
244.932	80.19
245.166	85.19
245.399	80.19
245.633	82.19
245.866	86.19
246.099	84.19
246.333	90.19
246.566	73.19
246.8	85.19
247.033	90.19
247.266	76.19
247.5	85.19
247.733	82.19
247.966	85.19
248.2	81.19
248.433	86.19
248.666	74.19
248.899	73.19
249.133	78.19
249.366	80.19
249.599	87.19
249.832	75.19
250.066	78.19
250.299	86.19
250.532	81.19
250.765	81.19
250.998	84.19
251.231	82.19
251.465	80.19
251.698	75.19
251.931	80.19
252.164	90.19
252.397	70.19
252.63	81.19
252.863	83.19
253.096	76.19
253.329	96.19
253.562	76.19
253.795	88.19
254.028	96.19
254.261	82.19
254.494	69.19
254.727	69.19
254.96	87.19
255.193	85.19
255.426	86.19
255.659	78.19
255.892	85.19
256.124	91.19
256.357	91.19
256.59	84.19
256.823	93.19
257.056	80.19
257.289	85.19
257.521	79.19
257.754	73.19
257.987	96.19
258.22	80.19
258.452	73.19
258.685	60.19
258.918	73.19
259.151	93.19
259.383	69.19
259.616	77.19
259.849	82.19
260.081	78.19
260.314	88.19
260.547	67.19
260.779	70.19
261.012	85.19
261.244	95.19
261.477	85.19
261.71	80.19
261.942	74.19
262.175	92.19
262.407	80.19
262.64	92.19
262.872	82.19
263.105	91.19
263.337	79.19
263.57	92.19
263.802	85.19
264.035	83.19
264.267	81.19
264.499	76.19
264.732	87.19
264.964	85.19
265.197	83.19
265.429	71.19
265.661	84.19
265.894	75.19
266.126	91.19
266.358	86.19
266.591	74.19
266.823	89.19
267.055	84.19
267.287	86.19
267.52	78.19
267.752	97.19
267.984	78.19
268.216	79.19
268.448	82.19
268.681	83.19
268.913	100.19
269.145	84.19
269.377	88.19
269.609	83.19
269.841	85.19
270.073	84.19
270.306	84.19
270.538	84.19
270.77	95.19
271.002	91.19
271.234	88.19
271.466	85.19
271.698	92.19
271.93	76.19
272.162	75.19
272.394	80.19
272.626	90.19
272.858	71.19
273.09	91.19
273.322	97.19
273.553	87.19
273.785	102.19
274.017	77.19
274.249	73.19
274.481	78.19
274.713	78.19
274.945	76.19
275.176	81.19
275.408	77.19
275.64	91.19
275.872	89.19
276.104	84.19
276.335	97.19
276.567	82.19
276.799	79.19
277.031	93.19
277.262	84.19
277.494	87.19
277.726	88.19
277.957	81.19
278.189	87.19
278.421	86.19
278.652	75.19
278.884	105.19
279.115	87.19
279.347	83.19
279.579	69.19
279.81	73.19
280.042	90.19
280.273	73.19
280.505	92.19
280.736	99.19
280.968	91.19
281.199	100.19
281.431	78.19
281.662	93.19
281.894	75.19
282.125	79.19
282.356	100.19
282.588	87.19
282.819	104.19
283.051	81.19
283.282	80.19
283.513	91.19
283.745	91.19
283.976	79.19
284.207	77.19
284.439	91.19
284.67	84.19
284.901	92.19
285.132	81.19
285.364	88.19
285.595	89.19
285.826	94.19
286.057	78.19
286.288	63.19
286.52	84.19
286.751	83.19
286.982	76.19
287.213	102.19
287.444	87.19
287.675	79.19
287.906	76.19
288.138	91.19
288.369	95.19
288.6	82.19
288.831	87.19
289.062	88.19
289.293	84.19
289.524	87.19
289.755	95.19
289.986	93.19
290.217	80.19
290.448	82.19
290.679	77.19
290.91	84.19
291.141	72.19
291.371	77.19
291.602	95.19
291.833	87.19
292.064	87.19
292.295	79.19
292.526	84.19
292.757	76.19
292.987	93.19
293.218	82.19
293.449	87.19
293.68	88.19
293.91	82.19
294.141	79.19
294.372	81.19
294.603	91.19
294.833	82.19
295.064	86.19
295.295	81.19
295.525	90.19
295.756	72.19
295.987	87.19
296.217	79.19
296.448	95.19
296.679	95.19
296.909	84.19
297.14	97.19
297.37	97.19
297.601	94.19
297.831	97.19
298.062	87.19
298.292	83.19
298.523	82.19
298.753	77.19
298.984	84.19
299.214	88.19
299.445	88.19
299.675	86.19
299.905	88.19
300.136	77.19
300.366	75.19
300.597	89.19
300.827	82.19
301.057	79.19
301.288	87.19
301.518	84.19
301.748	75.19
301.979	80.19
302.209	91.19
302.439	97.19
302.669	84.19
302.9	93.19
303.13	92.19
303.36	89.19
303.59	97.19
303.82	76.19
304.051	84.19
304.281	91.19
304.511	82.19
304.741	101.19
304.971	85.19
305.201	77.19
305.431	104.19
305.661	77.19
305.891	92.19
306.121	88.19
306.352	78.19
306.582	75.19
306.812	76.19
307.042	95.19
307.272	80.19
307.502	80.19
307.731	97.19
307.961	93.19
308.191	83.19
308.421	81.19
308.651	93.19
308.881	100.19
309.111	80.19
309.341	92.19
309.571	87.19
309.8	81.19
310.03	102.19
310.26	92.19
310.49	74.19
310.72	77.19
310.949	76.19
311.179	80.19
311.409	80.19
311.639	94.19
311.868	77.19
312.098	90.19
312.328	83.19
312.557	87.19
312.787	92.19
313.017	83.19
313.246	98.19
313.476	79.19
313.706	93.19
313.935	99.19
314.165	78.19
314.394	74.19
314.624	79.19
314.853	83.19
315.083	84.19
315.312	85.19
315.542	91.19
315.771	86.19
316.001	86.19
316.23	93.19
316.46	90.19
316.689	100.19
316.919	107.19
317.148	85.19
317.377	92.19
317.607	87.19
317.836	73.19
318.065	84.19
318.295	91.19
318.524	75.19
318.753	85.19
318.983	90.19
319.212	96.19
319.441	96.19
319.67	90.19
319.9	73.19
320.129	84.19
320.358	68.19
320.587	96.19
320.816	89.19
321.046	85.19
321.275	78.19
321.504	85.19
321.733	81.19
321.962	78.19
322.191	91.19
322.42	87.19
322.649	79.19
322.878	75.19
323.108	81.19
323.337	77.19
323.566	91.19
323.795	81.19
324.024	83.19
324.253	85.19
324.482	74.19
324.71	76.19
324.939	84.19
325.168	84.19
325.397	82.19
325.626	90.19
325.855	89.19
326.084	82.19
326.313	85.19
326.542	71.19
326.77	93.19
326.999	83.19
327.228	108.19
327.457	84.19
327.686	87.19
327.914	92.19
328.143	94.19
328.372	83.19
328.6	90.19
328.829	88.19
329.058	81.19
329.287	76.19
329.515	77.19
329.744	84.19
329.972	91.19
330.201	74.19
330.43	75.19
330.658	88.19
330.887	80.19
331.115	101.19
331.344	90.19
331.572	86.19
331.801	75.19
332.03	83.19
332.258	90.19
332.486	84.19
332.715	82.19
332.943	76.19
333.172	77.19
333.4	94.19
333.629	94.19
333.857	84.19
334.085	89.19
334.314	74.19
334.542	98.19
334.771	95.19
334.999	90.19
335.227	82.19
335.455	91.19
335.684	87.19
335.912	88.19
336.14	77.19
336.369	99.19
336.597	86.19
336.825	88.19
337.053	96.19
337.281	86.19
337.51	88.19
337.738	97.19
337.966	89.19
338.194	62.19
338.422	82.19
338.65	88.19
338.878	79.19
339.106	81.19
339.334	94.19
339.562	75.19
339.79	80.19
340.018	96.19
340.246	82.19
340.474	93.19
340.702	95.19
340.93	91.19
341.158	78.19
341.386	96.19
341.614	95.19
341.842	95.19
342.07	71.19
342.298	90.19
342.526	94.19
342.754	84.19
342.981	90.19
343.209	79.19
343.437	77.19
343.665	84.19
343.893	92.19
344.12	96.19
344.348	96.19
344.576	88.19
344.804	81.19
345.031	80.19
345.259	85.19
345.487	82.19
345.714	101.19
345.942	91.19
346.17	97.19
346.397	84.19
346.625	73.19
346.853	87.19
347.08	85.19
347.308	76.19
347.535	85.19
347.763	95.19
347.99	97.19
348.218	88.19
348.445	87.19
348.673	64.19
348.9	93.19
349.128	84.19
349.355	83.19
349.583	96.19
349.81	81.19
350.037	80.19
350.265	91.19
350.492	80.19
350.72	71.19
350.947	88.19
351.174	92.19
351.402	70.19
351.629	87.19
351.856	77.19
352.083	85.19
352.311	89.19
352.538	72.19
352.765	83.19
352.992	95.19
353.22	90.19
353.447	90.19
353.674	92.19
353.901	87.19
354.128	94.19
354.355	92.19
354.583	98.19
354.81	95.19
355.037	75.19
355.264	79.19
355.491	90.19
355.718	86.19
355.945	84.19
356.172	92.19
356.399	89.19
356.626	85.19
356.853	93.19
357.08	88.19
357.307	93.19
357.534	86.19
357.761	74.19
357.988	81.19
358.215	92.19
358.441	85.19
358.668	98.19
358.895	91.19
359.122	85.19
359.349	83.19
359.576	94.19
359.802	80.19
360.029	80.19
360.256	78.19
360.483	75.19
360.709	77.19
360.936	83.19
361.163	83.19
361.39	84.19
361.616	88.19
361.843	83.19
362.07	76.19
362.296	77.19
362.523	93.19
362.749	99.19
362.976	76.19
363.203	76.19
363.429	80.19
363.656	73.19
363.882	89.19
364.109	74.19
364.335	95.19
364.562	82.19
364.788	85.19
365.015	86.19
365.241	86.19
365.468	82.19
365.694	88.19
365.92	88.19
366.147	91.19
366.373	93.19
366.599	82.19
366.826	86.19
367.052	88.19
367.278	86.19
367.505	76.19
367.731	95.19
367.957	88.19
368.184	92.19
368.41	85.19
368.636	90.19
368.862	85.19
369.089	80.19
369.315	83.19
369.541	71.19
369.767	88.19
369.993	78.19
370.219	76.19
370.445	97.19
370.672	77.19
370.898	95.19
371.124	83.19
371.35	76.19
371.576	95.19
371.802	89.19
372.028	76.19
372.254	65.19
372.48	92.19
372.706	73.19
372.932	92.19
373.158	100.19
373.384	85.19
373.61	92.19
373.835	99.19
374.061	76.19
374.287	93.19
374.513	85.19
374.739	80.19
374.965	80.19
375.191	82.19
375.416	98.19
375.642	84.19
375.868	87.19
376.094	75.19
376.319	80.19
376.545	70.19
376.771	75.19
376.997	78.19
377.222	86.19
377.448	83.19
377.674	95.19
377.899	74.19
378.125	85.19
378.35	84.19
378.576	69.19
378.802	82.19
379.027	89.19
379.253	90.19
379.478	91.19
379.704	80.19
379.929	75.19
380.155	89.19
380.38	84.19
380.606	91.19
380.831	85.19
381.057	99.19
381.282	85.19
381.507	98.19
381.733	93.19
381.958	82.19
382.184	91.19
382.409	85.19
382.634	84.19
382.86	80.19
383.085	88.19
383.31	89.19
383.535	89.19
383.761	76.19
383.986	91.19
384.211	76.19
384.436	86.19
384.662	92.19
384.887	83.19
385.112	88.19
385.337	88.19
385.562	80.19
385.787	87.19
386.013	88.19
386.238	98.19
386.463	70.19
386.688	94.19
386.913	84.19
387.138	73.19
387.363	88.19
387.588	78.19
387.813	90.19
388.038	92.19
388.263	91.19
388.488	100.19
388.713	88.19
388.938	100.19
389.163	94.19
389.387	85.19
389.612	97.19
389.837	96.19
390.062	94.19
390.287	84.19
390.512	97.19
390.736	97.19
390.961	101.19
391.186	102.19
391.411	92.19
391.636	94.19
391.86	105.19
392.085	103.19
392.31	98.19
392.534	79.19
392.759	86.19
392.984	91.19
393.208	103.19
393.433	81.19
393.658	96.19
393.882	83.19
394.107	87.19
394.331	85.19
394.556	92.19
394.78	83.19
395.005	99.19
395.229	85.19
395.454	85.19
395.678	86.19
395.903	96.19
396.127	88.19
396.352	88.19
396.576	88.19
396.801	83.19
397.025	87.19
397.249	90.19
397.474	107.19
397.698	98.19
397.922	101.19
398.147	82.19
398.371	92.19
398.595	83.19
398.82	82.19
399.044	88.19
399.268	83.19
399.492	82.19
399.717	86.19
399.941	98.19
400.165	78.19
400.389	87.19
400.613	84.19
400.837	99.19
401.062	99.19
401.286	90.19
401.51	91.19
401.734	93.19
401.958	85.19
402.182	95.19
402.406	101.19
402.63	87.19
402.854	97.19
403.078	104.19
403.302	94.19
403.526	77.19
403.75	93.19
403.974	97.19
404.198	88.19
404.422	91.19
404.645	89.19
404.869	93.19
405.093	98.19
405.317	91.19
405.541	88.19
405.765	82.19
405.988	101.19
406.212	91.19
406.436	86.19
406.66	91.19
406.883	93.19
407.107	81.19
407.331	91.19
407.555	101.19
407.778	90.19
408.002	101.19
408.226	106.19
408.449	81.19
408.673	76.19
408.896	90.19
409.12	84.19
409.344	91.19
409.567	104.19
409.791	89.19
410.014	94.19
410.238	81.19
410.461	94.19
410.685	99.19
410.908	91.19
411.132	103.19
411.355	81.19
411.578	86.19
411.802	89.19
412.025	84.19
412.249	80.19
412.472	93.19
412.695	92.19
412.919	103.19
413.142	101.19
413.365	90.19
413.589	86.19
413.812	91.19
414.035	98.19
414.258	89.19
414.482	90.19
414.705	94.19
414.928	89.19
415.151	85.19
415.374	101.19
415.597	96.19
415.821	88.19
416.044	95.19
416.267	86.19
416.49	102.19
416.713	89.19
416.936	91.19
417.159	80.19
417.382	93.19
417.605	95.19
417.828	86.19
418.051	87.19
418.274	100.19
418.497	78.19
418.72	92.19
418.943	92.19
419.166	112.19
419.389	92.19
419.611	96.19
419.834	97.19
420.057	88.19
420.28	89.19
420.503	94.19
420.726	102.19
420.948	97.19
421.171	99.19
421.394	89.19
421.617	106.19
421.839	96.19
422.062	85.19
422.285	86.19
422.507	97.19
422.73	87.19
422.953	98.19
423.175	91.19
423.398	91.19
423.621	81.19
423.843	103.19
424.066	105.19
424.288	103.19
424.511	99.19
424.733	86.19
424.956	88.19
425.178	105.19
425.401	98.19
425.623	103.19
425.846	89.19
426.068	90.19
426.291	96.19
426.513	92.19
426.735	114.19
426.958	95.19
427.18	85.19
427.402	95.19
427.625	84.19
427.847	82.19
428.069	88.19
428.292	93.19
428.514	100.19
428.736	91.19
428.958	94.19
429.181	92.19
429.403	93.19
429.625	103.19
429.847	105.19
430.069	101.19
430.292	104.19
430.514	95.19
430.736	90.19
430.958	98.19
431.18	92.19
431.402	95.19
431.624	92.19
431.846	95.19
432.068	79.19
432.29	86.19
432.512	93.19
432.734	88.19
432.956	91.19
433.178	102.19
433.4	91.19
433.622	96.19
433.844	99.19
434.066	88.19
434.287	88.19
434.509	88.19
434.731	95.19
434.953	100.19
435.175	86.19
435.397	115.19
435.618	88.19
435.84	86.19
436.062	105.19
436.284	103.19
436.505	87.19
436.727	113.19
436.949	97.19
437.17	95.19
437.392	99.19
437.614	84.19
437.835	83.19
438.057	75.19
438.278	96.19
438.5	85.19
438.721	88.19
438.943	86.19
439.165	84.19
439.386	93.19
439.608	103.19
439.829	97.19
440.05	102.19
440.272	100.19
440.493	95.19
440.715	109.19
440.936	112.19
441.158	117.19
441.379	106.19
441.6	95.19
441.822	118.19
442.043	116.19
442.264	100.19
442.486	87.19
442.707	90.19
442.928	102.19
443.149	85.19
443.371	101.19
443.592	89.19
443.813	102.19
444.034	93.19
444.255	98.19
444.476	96.19
444.698	102.19
444.919	99.19
445.14	218.19
445.361	143.19
445.582	99.19
445.803	107.19
446.024	101.19
446.245	107.19
446.466	102.19
446.687	99.19
446.908	96.19
447.129	106.19
447.35	99.19
447.571	107.19
447.792	88.19
448.013	98.19
448.234	94.19
448.455	99.19
448.675	103.19
448.896	96.19
449.117	91.19
449.338	109.19
449.559	95.19
449.779	99.19
450	95.19
450.221	92.19
450.442	92.19
450.662	98.19
450.883	106.19
451.104	100.19
451.324	90.19
451.545	85.19
451.766	107.19
451.986	91.19
452.207	88.19
452.428	81.19
452.648	99.19
452.869	92.19
453.089	87.19
453.31	91.19
453.53	80.19
453.751	91.19
453.971	77.19
454.192	91.19
454.412	83.19
454.633	94.19
454.853	85.19
455.073	84.19
455.294	97.19
455.514	91.19
455.734	103.19
455.955	90.19
456.175	96.19
456.395	89.19
456.616	101.19
456.836	91.19
457.056	101.19
457.276	93.19
457.497	81.19
457.717	95.19
457.937	83.19
458.157	95.19
458.377	83.19
458.598	94.19
458.818	91.19
459.038	91.19
459.258	70.19
459.478	75.19
459.698	74.19
459.918	95.19
460.138	100.19
460.358	90.19
460.578	101.19
460.798	89.19
461.018	91.19
461.238	91.19
461.458	89.19
461.678	90.19
461.898	100.19
462.118	103.19
462.338	81.19
462.558	90.19
462.777	84.19
462.997	92.19
463.217	90.19
463.437	102.19
463.657	85.19
463.876	97.19
464.096	97.19
464.316	84.19
464.536	95.19
464.755	95.19
464.975	83.19
465.195	81.19
465.414	104.19
465.634	101.19
465.854	91.19
466.073	102.19
466.293	92.19
466.512	91.19
466.732	100.19
466.951	89.19
467.171	89.19
467.391	90.19
467.61	100.19
467.829	95.19
468.049	86.19
468.268	105.19
468.488	100.19
468.707	93.19
468.927	105.19
469.146	101.19
469.365	98.19
469.585	112.19
469.804	100.19
470.023	92.19
470.243	98.19
470.462	94.19
470.681	94.19
470.901	97.19
471.12	103.19
471.339	120.19
471.558	96.19
471.777	89.19
471.997	90.19
472.216	93.19
472.435	85.19
472.654	87.19
472.873	100.19
473.092	84.19
473.311	105.19
473.53	92.19
473.749	98.19
473.968	109.19
474.187	98.19
474.406	98.19
474.625	100.19
474.844	99.19
475.063	102.19
475.282	89.19
475.501	104.19
475.72	97.19
475.939	91.19
476.158	107.19
476.377	99.19
476.596	108.19
476.814	97.19
477.033	90.19
477.252	94.19
477.471	90.19
477.69	95.19
477.908	100.19
478.127	105.19
478.346	100.19
478.564	102.19
478.783	103.19
479.002	105.19
479.22	103.19
479.439	87.19
479.658	101.19
479.876	93.19
480.095	85.19
480.313	97.19
480.532	78.19
480.751	84.19
480.969	77.19
481.188	101.19
481.406	90.19
481.624	82.19
481.843	92.19
482.061	99.19
482.28	89.19
482.498	95.19
482.717	82.19
482.935	74.19
483.153	92.19
483.372	107.19
483.59	90.19
483.808	96.19
484.027	98.19
484.245	97.19
484.463	99.19
484.681	107.19
484.9	109.19
485.118	111.19
485.336	86.19
485.554	98.19
485.772	96.19
485.99	97.19
486.209	86.19
486.427	89.19
486.645	85.19
486.863	83.19
487.081	110.19
487.299	104.19
487.517	97.19
487.735	100.19
487.953	117.19
488.171	111.19
488.389	97.19
488.607	103.19
488.825	102.19
489.043	84.19
489.261	91.19
489.479	109.19
489.696	109.19
489.914	102.19
490.132	101.19
490.35	99.19
490.568	111.19
490.786	94.19
491.003	103.19
491.221	106.19
491.439	107.19
491.657	116.19
491.874	129.19
492.092	120.19
492.31	138.19
492.527	131.19
492.745	113.19
492.963	117.19
493.18	124.19
493.398	113.19
493.615	125.19
493.833	131.19
494.05	122.19
494.268	101.19
494.485	115.19
494.703	111.19
494.92	104.19
495.138	124.19
495.355	111.19
495.573	113.19
495.79	90.19
496.008	99.19
496.225	106.19
496.442	105.19
496.66	111.19
496.877	127.19
497.094	132.19
497.312	95.19
497.529	120.19
497.746	93.19
497.963	95.19
498.181	103.19
498.398	97.19
498.615	99.19
498.832	89.19
499.049	89.19
499.267	97.19
499.484	98.19
499.701	94.19
499.918	121.19
500.135	102.19
500.352	104.19
500.569	94.19
500.786	97.19
501.003	91.19
501.22	91.19
501.437	95.19
501.654	111.19
501.871	93.19
502.088	98.19
502.305	104.19
502.522	93.19
502.739	92.19
502.956	85.19
503.172	98.19
503.389	88.19
503.606	94.19
503.823	87.19
504.04	100.19
504.256	92.19
504.473	96.19
504.69	101.19
504.907	103.19
505.123	103.19
505.34	87.19
505.557	81.19
505.773	90.19
505.99	76.19
506.207	96.19
506.423	97.19
506.64	97.19
506.856	93.19
507.073	88.19
507.289	103.19
507.506	99.19
507.722	95.19
507.939	81.19
508.155	102.19
508.372	91.19
508.588	102.19
508.805	97.19
509.021	97.19
509.238	90.19
509.454	93.19
509.67	93.19
509.887	88.19
510.103	98.19
510.319	100.19
510.536	91.19
510.752	82.19
510.968	91.19
511.184	79.19
511.401	85.19
511.617	80.19
511.833	82.19
512.049	83.19
512.265	95.19
512.481	86.19
512.698	81.19
512.914	88.19
513.13	91.19
513.346	98.19
513.562	90.19
513.778	102.19
513.994	90.19
514.21	92.19
514.426	97.19
514.642	77.19
514.858	78.19
515.074	98.19
515.29	103.19
515.506	100.19
515.721	92.19
515.937	95.19
516.153	87.19
516.369	85.19
516.585	88.19
516.801	83.19
