Data from Location4.07152019.Energy5.Lamp.07192019.3%Agarose_HRD10591_15-23-56-577.txt Node
Date: Fri Jul 19 15:23:56 EDT 2019
User: cochatt
Spectrometer: HR+D1059
Trigger mode: 1
Integration Time (sec): 1.000000E-1
Scans to average: 1
Electric dark correction enabled: true
Nonlinearity correction enabled: false
Boxcar width: 0
XAxis mode: Wavelengths
Number of Pixels in Spectrum: 2048
>>>>>Begin Spectral Data<<<<<
223.165	-27.38
223.4	-27.38
223.635	-27.38
223.869	-19.38
224.104	-19.38
224.338	3.62
224.573	-15.38
224.808	-14.38
225.042	-14.38
225.277	-7.38
225.511	-9.38
225.746	5.62
225.98	6.62
226.215	15.62
226.449	21.62
226.683	16.62
226.918	31.62
227.152	25.62
227.387	33.62
227.621	32.62
227.856	37.62
228.09	41.62
228.324	53.62
228.559	65.62
228.793	52.62
229.027	42.62
229.262	58.62
229.496	64.62
229.73	67.62
229.964	52.62
230.199	61.62
230.433	75.62
230.667	77.62
230.901	76.62
231.136	82.62
231.37	76.62
231.604	79.62
231.838	86.62
232.072	69.62
232.306	71.62
232.541	75.62
232.775	86.62
233.009	73.62
233.243	70.62
233.477	82.62
233.711	79.62
233.945	79.62
234.179	74.62
234.413	86.62
234.647	75.62
234.881	72.62
235.115	71.62
235.349	79.62
235.583	86.62
235.817	78.62
236.051	70.62
236.285	86.62
236.519	76.62
236.753	85.62
236.987	78.62
237.221	66.62
237.455	63.62
237.689	81.62
237.922	73.62
238.156	79.62
238.39	78.62
238.624	84.62
238.858	74.62
239.091	72.62
239.325	80.62
239.559	76.62
239.793	74.62
240.027	79.62
240.26	80.62
240.494	78.62
240.728	86.62
240.961	73.62
241.195	71.62
241.429	71.62
241.662	80.62
241.896	48.62
242.13	73.62
242.363	76.62
242.597	64.62
242.83	83.62
243.064	66.62
243.298	78.62
243.531	73.62
243.765	82.62
243.998	70.62
244.232	72.62
244.465	68.62
244.699	70.62
244.932	77.62
245.166	77.62
245.399	78.62
245.633	71.62
245.866	65.62
246.099	72.62
246.333	67.62
246.566	81.62
246.8	76.62
247.033	78.62
247.266	81.62
247.5	75.62
247.733	58.62
247.966	64.62
248.2	64.62
248.433	83.62
248.666	57.62
248.899	73.62
249.133	58.62
249.366	65.62
249.599	77.62
249.832	73.62
250.066	88.62
250.299	75.62
250.532	74.62
250.765	68.62
250.998	77.62
251.231	62.62
251.465	80.62
251.698	72.62
251.931	94.62
252.164	87.62
252.397	71.62
252.63	84.62
252.863	72.62
253.096	64.62
253.329	74.62
253.562	77.62
253.795	73.62
254.028	77.62
254.261	83.62
254.494	75.62
254.727	73.62
254.96	86.62
255.193	78.62
255.426	90.62
255.659	92.62
255.892	89.62
256.124	79.62
256.357	86.62
256.59	75.62
256.823	73.62
257.056	79.62
257.289	79.62
257.521	79.62
257.754	83.62
257.987	75.62
258.22	84.62
258.452	74.62
258.685	73.62
258.918	80.62
259.151	67.62
259.383	73.62
259.616	74.62
259.849	94.62
260.081	72.62
260.314	81.62
260.547	72.62
260.779	75.62
261.012	82.62
261.244	73.62
261.477	77.62
261.71	78.62
261.942	66.62
262.175	60.62
262.407	82.62
262.64	78.62
262.872	80.62
263.105	72.62
263.337	75.62
263.57	90.62
263.802	84.62
264.035	83.62
264.267	72.62
264.499	81.62
264.732	76.62
264.964	75.62
265.197	83.62
265.429	79.62
265.661	71.62
265.894	93.62
266.126	79.62
266.358	84.62
266.591	78.62
266.823	78.62
267.055	70.62
267.287	89.62
267.52	87.62
267.752	90.62
267.984	88.62
268.216	73.62
268.448	86.62
268.681	76.62
268.913	82.62
269.145	96.62
269.377	74.62
269.609	77.62
269.841	86.62
270.073	78.62
270.306	81.62
270.538	79.62
270.77	78.62
271.002	91.62
271.234	82.62
271.466	74.62
271.698	101.62
271.93	68.62
272.162	65.62
272.394	83.62
272.626	93.62
272.858	74.62
273.09	77.62
273.322	82.62
273.553	85.62
273.785	81.62
274.017	81.62
274.249	78.62
274.481	88.62
274.713	82.62
274.945	100.62
275.176	85.62
275.408	84.62
275.64	83.62
275.872	78.62
276.104	75.62
276.335	95.62
276.567	81.62
276.799	80.62
277.031	78.62
277.262	73.62
277.494	84.62
277.726	75.62
277.957	77.62
278.189	92.62
278.421	78.62
278.652	89.62
278.884	80.62
279.115	91.62
279.347	77.62
279.579	76.62
279.81	73.62
280.042	69.62
280.273	59.62
280.505	88.62
280.736	76.62
280.968	93.62
281.199	83.62
281.431	65.62
281.662	88.62
281.894	84.62
282.125	80.62
282.356	64.62
282.588	88.62
282.819	74.62
283.051	70.62
283.282	81.62
283.513	81.62
283.745	89.62
283.976	102.62
284.207	79.62
284.439	87.62
284.67	70.62
284.901	87.62
285.132	70.62
285.364	84.62
285.595	84.62
285.826	73.62
286.057	74.62
286.288	88.62
286.52	95.62
286.751	71.62
286.982	86.62
287.213	75.62
287.444	90.62
287.675	88.62
287.906	77.62
288.138	70.62
288.369	86.62
288.6	83.62
288.831	85.62
289.062	72.62
289.293	64.62
289.524	79.62
289.755	66.62
289.986	87.62
290.217	79.62
290.448	94.62
290.679	75.62
290.91	94.62
291.141	65.62
291.371	63.62
291.602	84.62
291.833	80.62
292.064	75.62
292.295	82.62
292.526	80.62
292.757	86.62
292.987	96.62
293.218	77.62
293.449	80.62
293.68	82.62
293.91	83.62
294.141	80.62
294.372	96.62
294.603	81.62
294.833	83.62
295.064	78.62
295.295	84.62
295.525	89.62
295.756	81.62
295.987	77.62
296.217	85.62
296.448	85.62
296.679	83.62
296.909	92.62
297.14	77.62
297.37	80.62
297.601	84.62
297.831	87.62
298.062	78.62
298.292	88.62
298.523	89.62
298.753	84.62
298.984	91.62
299.214	89.62
299.445	78.62
299.675	88.62
299.905	69.62
300.136	77.62
300.366	84.62
300.597	73.62
300.827	91.62
301.057	93.62
301.288	78.62
301.518	72.62
301.748	73.62
301.979	85.62
302.209	105.62
302.439	84.62
302.669	85.62
302.9	71.62
303.13	74.62
303.36	84.62
303.59	88.62
303.82	81.62
304.051	86.62
304.281	94.62
304.511	81.62
304.741	84.62
304.971	81.62
305.201	62.62
305.431	91.62
305.661	80.62
305.891	77.62
306.121	80.62
306.352	78.62
306.582	69.62
306.812	96.62
307.042	87.62
307.272	78.62
307.502	78.62
307.731	92.62
307.961	81.62
308.191	86.62
308.421	82.62
308.651	90.62
308.881	93.62
309.111	81.62
309.341	88.62
309.571	73.62
309.8	75.62
310.03	82.62
310.26	86.62
310.49	82.62
310.72	104.62
310.949	79.62
311.179	87.62
311.409	97.62
311.639	79.62
311.868	76.62
312.098	86.62
312.328	79.62
312.557	75.62
312.787	70.62
313.017	80.62
313.246	83.62
313.476	93.62
313.706	85.62
313.935	74.62
314.165	81.62
314.394	88.62
314.624	79.62
314.853	82.62
315.083	88.62
315.312	89.62
315.542	78.62
315.771	86.62
316.001	82.62
316.23	76.62
316.46	79.62
316.689	82.62
316.919	88.62
317.148	84.62
317.377	75.62
317.607	81.62
317.836	92.62
318.065	86.62
318.295	66.62
318.524	90.62
318.753	86.62
318.983	85.62
319.212	72.62
319.441	66.62
319.67	88.62
319.9	82.62
320.129	78.62
320.358	74.62
320.587	80.62
320.816	76.62
321.046	83.62
321.275	94.62
321.504	78.62
321.733	89.62
321.962	87.62
322.191	81.62
322.42	83.62
322.649	82.62
322.878	94.62
323.108	77.62
323.337	95.62
323.566	78.62
323.795	73.62
324.024	83.62
324.253	70.62
324.482	72.62
324.71	96.62
324.939	93.62
325.168	94.62
325.397	81.62
325.626	85.62
325.855	85.62
326.084	81.62
326.313	91.62
326.542	81.62
326.77	85.62
326.999	91.62
327.228	85.62
327.457	90.62
327.686	63.62
327.914	75.62
328.143	79.62
328.372	87.62
328.6	79.62
328.829	93.62
329.058	93.62
329.287	83.62
329.515	82.62
329.744	92.62
329.972	69.62
330.201	91.62
330.43	88.62
330.658	84.62
330.887	90.62
331.115	78.62
331.344	76.62
331.572	96.62
331.801	87.62
332.03	88.62
332.258	84.62
332.486	71.62
332.715	73.62
332.943	73.62
333.172	86.62
333.4	74.62
333.629	85.62
333.857	87.62
334.085	84.62
334.314	85.62
334.542	76.62
334.771	81.62
334.999	77.62
335.227	76.62
335.455	80.62
335.684	82.62
335.912	86.62
336.14	73.62
336.369	85.62
336.597	83.62
336.825	73.62
337.053	76.62
337.281	91.62
337.51	75.62
337.738	83.62
337.966	88.62
338.194	69.62
338.422	77.62
338.65	74.62
338.878	87.62
339.106	92.62
339.334	79.62
339.562	74.62
339.79	96.62
340.018	79.62
340.246	72.62
340.474	88.62
340.702	86.62
340.93	72.62
341.158	85.62
341.386	74.62
341.614	89.62
341.842	87.62
342.07	71.62
342.298	87.62
342.526	77.62
342.754	99.62
342.981	83.62
343.209	73.62
343.437	89.62
343.665	77.62
343.893	73.62
344.12	83.62
344.348	99.62
344.576	95.62
344.804	76.62
345.031	79.62
345.259	86.62
345.487	82.62
345.714	97.62
345.942	77.62
346.17	93.62
346.397	81.62
346.625	82.62
346.853	95.62
347.08	74.62
347.308	66.62
347.535	88.62
347.763	78.62
347.99	81.62
348.218	75.62
348.445	75.62
348.673	70.62
348.9	96.62
349.128	80.62
349.355	73.62
349.583	82.62
349.81	79.62
350.037	66.62
350.265	82.62
350.492	83.62
350.72	83.62
350.947	72.62
351.174	87.62
351.402	92.62
351.629	99.62
351.856	88.62
352.083	82.62
352.311	80.62
352.538	82.62
352.765	94.62
352.992	93.62
353.22	77.62
353.447	90.62
353.674	84.62
353.901	86.62
354.128	75.62
354.355	90.62
354.583	70.62
354.81	72.62
355.037	75.62
355.264	82.62
355.491	70.62
355.718	85.62
355.945	80.62
356.172	83.62
356.399	80.62
356.626	78.62
356.853	91.62
357.08	82.62
357.307	91.62
357.534	82.62
357.761	76.62
357.988	85.62
358.215	93.62
358.441	72.62
358.668	98.62
358.895	78.62
359.122	84.62
359.349	94.62
359.576	74.62
359.802	69.62
360.029	87.62
360.256	92.62
360.483	82.62
360.709	71.62
360.936	95.62
361.163	90.62
361.39	85.62
361.616	73.62
361.843	69.62
362.07	79.62
362.296	85.62
362.523	81.62
362.749	78.62
362.976	74.62
363.203	71.62
363.429	79.62
363.656	80.62
363.882	87.62
364.109	89.62
364.335	81.62
364.562	97.62
364.788	92.62
365.015	81.62
365.241	73.62
365.468	71.62
365.694	79.62
365.92	85.62
366.147	82.62
366.373	80.62
366.599	91.62
366.826	94.62
367.052	80.62
367.278	63.62
367.505	64.62
367.731	88.62
367.957	90.62
368.184	74.62
368.41	85.62
368.636	82.62
368.862	82.62
369.089	88.62
369.315	78.62
369.541	80.62
369.767	101.62
369.993	99.62
370.219	78.62
370.445	90.62
370.672	86.62
370.898	79.62
371.124	75.62
371.35	87.62
371.576	80.62
371.802	87.62
372.028	82.62
372.254	82.62
372.48	78.62
372.706	86.62
372.932	82.62
373.158	99.62
373.384	85.62
373.61	87.62
373.835	92.62
374.061	77.62
374.287	71.62
374.513	82.62
374.739	86.62
374.965	72.62
375.191	69.62
375.416	86.62
375.642	92.62
375.868	79.62
376.094	71.62
376.319	84.62
376.545	82.62
376.771	90.62
376.997	80.62
377.222	73.62
377.448	76.62
377.674	77.62
377.899	95.62
378.125	99.62
378.35	71.62
378.576	79.62
378.802	73.62
379.027	82.62
379.253	81.62
379.478	78.62
379.704	94.62
379.929	85.62
380.155	83.62
380.38	77.62
380.606	94.62
380.831	90.62
381.057	85.62
381.282	83.62
381.507	78.62
381.733	80.62
381.958	89.62
382.184	82.62
382.409	83.62
382.634	81.62
382.86	89.62
383.085	84.62
383.31	84.62
383.535	78.62
383.761	82.62
383.986	71.62
384.211	78.62
384.436	80.62
384.662	81.62
384.887	77.62
385.112	70.62
385.337	65.62
385.562	79.62
385.787	86.62
386.013	88.62
386.238	90.62
386.463	101.62
386.688	90.62
386.913	82.62
387.138	75.62
387.363	84.62
387.588	77.62
387.813	83.62
388.038	95.62
388.263	91.62
388.488	84.62
388.713	88.62
388.938	79.62
389.163	95.62
389.387	85.62
389.612	76.62
389.837	79.62
390.062	80.62
390.287	81.62
390.512	78.62
390.736	95.62
390.961	93.62
391.186	90.62
391.411	81.62
391.636	89.62
391.86	91.62
392.085	95.62
392.31	96.62
392.534	89.62
392.759	86.62
392.984	85.62
393.208	103.62
393.433	83.62
393.658	100.62
393.882	91.62
394.107	93.62
394.331	86.62
394.556	88.62
394.78	97.62
395.005	81.62
395.229	82.62
395.454	83.62
395.678	85.62
395.903	80.62
396.127	90.62
396.352	88.62
396.576	85.62
396.801	94.62
397.025	83.62
397.249	88.62
397.474	81.62
397.698	105.62
397.922	91.62
398.147	87.62
398.371	74.62
398.595	85.62
398.82	87.62
399.044	87.62
399.268	78.62
399.492	94.62
399.717	78.62
399.941	85.62
400.165	92.62
400.389	79.62
400.613	81.62
400.837	90.62
401.062	103.62
401.286	77.62
401.51	88.62
401.734	89.62
401.958	95.62
402.182	101.62
402.406	72.62
402.63	89.62
402.854	88.62
403.078	74.62
403.302	90.62
403.526	93.62
403.75	84.62
403.974	82.62
404.198	87.62
404.422	88.62
404.645	95.62
404.869	93.62
405.093	93.62
405.317	74.62
405.541	80.62
405.765	87.62
405.988	84.62
406.212	81.62
406.436	93.62
406.66	80.62
406.883	87.62
407.107	91.62
407.331	103.62
407.555	89.62
407.778	82.62
408.002	82.62
408.226	79.62
408.449	69.62
408.673	76.62
408.896	88.62
409.12	94.62
409.344	87.62
409.567	104.62
409.791	86.62
410.014	84.62
410.238	86.62
410.461	95.62
410.685	79.62
410.908	90.62
411.132	93.62
411.355	98.62
411.578	80.62
411.802	97.62
412.025	75.62
412.249	93.62
412.472	87.62
412.695	85.62
412.919	82.62
413.142	89.62
413.365	82.62
413.589	84.62
413.812	77.62
414.035	97.62
414.258	94.62
414.482	100.62
414.705	93.62
414.928	80.62
415.151	93.62
415.374	89.62
415.597	81.62
415.821	97.62
416.044	79.62
416.267	91.62
416.49	73.62
416.713	96.62
416.936	88.62
417.159	64.62
417.382	93.62
417.605	89.62
417.828	87.62
418.051	81.62
418.274	95.62
418.497	79.62
418.72	97.62
418.943	81.62
419.166	92.62
419.389	82.62
419.611	81.62
419.834	94.62
420.057	89.62
420.28	85.62
420.503	88.62
420.726	91.62
420.948	84.62
421.171	97.62
421.394	97.62
421.617	97.62
421.839	100.62
422.062	89.62
422.285	89.62
422.507	92.62
422.73	91.62
422.953	84.62
423.175	81.62
423.398	87.62
423.621	86.62
423.843	95.62
424.066	78.62
424.288	112.62
424.511	90.62
424.733	117.62
424.956	96.62
425.178	84.62
425.401	92.62
425.623	89.62
425.846	84.62
426.068	82.62
426.291	92.62
426.513	89.62
426.735	93.62
426.958	81.62
427.18	102.62
427.402	93.62
427.625	109.62
427.847	97.62
428.069	106.62
428.292	104.62
428.514	91.62
428.736	93.62
428.958	100.62
429.181	93.62
429.403	93.62
429.625	83.62
429.847	89.62
430.069	81.62
430.292	111.62
430.514	95.62
430.736	81.62
430.958	83.62
431.18	90.62
431.402	100.62
431.624	108.62
431.846	94.62
432.068	93.62
432.29	80.62
432.512	90.62
432.734	93.62
432.956	89.62
433.178	94.62
433.4	87.62
433.622	88.62
433.844	99.62
434.066	84.62
434.287	84.62
434.509	82.62
434.731	78.62
434.953	96.62
435.175	83.62
435.397	94.62
435.618	88.62
435.84	87.62
436.062	81.62
436.284	90.62
436.505	105.62
436.727	90.62
436.949	78.62
437.17	80.62
437.392	88.62
437.614	97.62
437.835	96.62
438.057	102.62
438.278	93.62
438.5	99.62
438.721	90.62
438.943	89.62
439.165	103.62
439.386	96.62
439.608	91.62
439.829	97.62
440.05	104.62
440.272	101.62
440.493	86.62
440.715	105.62
440.936	87.62
441.158	77.62
441.379	109.62
441.6	82.62
441.822	96.62
442.043	95.62
442.264	96.62
442.486	83.62
442.707	85.62
442.928	88.62
443.149	97.62
443.371	76.62
443.592	89.62
443.813	99.62
444.034	96.62
444.255	88.62
444.476	82.62
444.698	103.62
444.919	108.62
445.14	185.62
445.361	145.62
445.582	97.62
445.803	85.62
446.024	94.62
446.245	103.62
446.466	98.62
446.687	97.62
446.908	72.62
447.129	96.62
447.35	105.62
447.571	105.62
447.792	75.62
448.013	91.62
448.234	101.62
448.455	89.62
448.675	91.62
448.896	89.62
449.117	89.62
449.338	80.62
449.559	91.62
449.779	83.62
450	75.62
450.221	85.62
450.442	91.62
450.662	102.62
450.883	95.62
451.104	97.62
451.324	95.62
451.545	101.62
451.766	92.62
451.986	75.62
452.207	86.62
452.428	87.62
452.648	92.62
452.869	88.62
453.089	75.62
453.31	92.62
453.53	80.62
453.751	69.62
453.971	74.62
454.192	63.62
454.412	96.62
454.633	81.62
454.853	89.62
455.073	103.62
455.294	70.62
455.514	93.62
455.734	85.62
455.955	73.62
456.175	91.62
456.395	86.62
456.616	94.62
456.836	93.62
457.056	83.62
457.276	82.62
457.497	81.62
457.717	80.62
457.937	82.62
458.157	79.62
458.377	77.62
458.598	78.62
458.818	94.62
459.038	80.62
459.258	87.62
459.478	80.62
459.698	80.62
459.918	84.62
460.138	95.62
460.358	78.62
460.578	82.62
460.798	91.62
461.018	73.62
461.238	84.62
461.458	84.62
461.678	78.62
461.898	88.62
462.118	83.62
462.338	92.62
462.558	90.62
462.777	84.62
462.997	92.62
463.217	76.62
463.437	86.62
463.657	87.62
463.876	96.62
464.096	97.62
464.316	80.62
464.536	81.62
464.755	86.62
464.975	75.62
465.195	87.62
465.414	93.62
465.634	81.62
465.854	88.62
466.073	88.62
466.293	99.62
466.512	90.62
466.732	85.62
466.951	85.62
467.171	84.62
467.391	110.62
467.61	83.62
467.829	98.62
468.049	90.62
468.268	92.62
468.488	96.62
468.707	87.62
468.927	103.62
469.146	97.62
469.365	98.62
469.585	102.62
469.804	79.62
470.023	97.62
470.243	86.62
470.462	93.62
470.681	80.62
470.901	93.62
471.12	94.62
471.339	94.62
471.558	96.62
471.777	106.62
471.997	112.62
472.216	83.62
472.435	97.62
472.654	94.62
472.873	82.62
473.092	82.62
473.311	93.62
473.53	87.62
473.749	97.62
473.968	100.62
474.187	98.62
474.406	92.62
474.625	90.62
474.844	107.62
475.063	86.62
475.282	90.62
475.501	85.62
475.72	83.62
475.939	100.62
476.158	94.62
476.377	104.62
476.596	97.62
476.814	85.62
477.033	96.62
477.252	89.62
477.471	79.62
477.69	87.62
477.908	105.62
478.127	84.62
478.346	92.62
478.564	90.62
478.783	88.62
479.002	88.62
479.22	88.62
479.439	78.62
479.658	87.62
479.876	92.62
480.095	80.62
480.313	89.62
480.532	70.62
480.751	98.62
480.969	88.62
481.188	87.62
481.406	82.62
481.624	86.62
481.843	96.62
482.061	84.62
482.28	83.62
482.498	94.62
482.717	76.62
482.935	82.62
483.153	104.62
483.372	93.62
483.59	99.62
483.808	83.62
484.027	97.62
484.245	108.62
484.463	88.62
484.681	86.62
484.9	94.62
485.118	86.62
485.336	94.62
485.554	101.62
485.772	104.62
485.99	95.62
486.209	95.62
486.427	89.62
486.645	75.62
486.863	93.62
487.081	83.62
487.299	90.62
487.517	91.62
487.735	109.62
487.953	118.62
488.171	111.62
488.389	108.62
488.607	108.62
488.825	101.62
489.043	90.62
489.261	104.62
489.479	90.62
489.696	100.62
489.914	96.62
490.132	95.62
490.35	100.62
490.568	106.62
490.786	101.62
491.003	105.62
491.221	103.62
491.439	98.62
491.657	110.62
491.874	116.62
492.092	129.62
492.31	130.62
492.527	129.62
492.745	124.62
492.963	118.62
493.18	110.62
493.398	122.62
493.615	121.62
493.833	110.62
494.05	104.62
494.268	110.62
494.485	102.62
494.703	112.62
494.92	95.62
495.138	110.62
495.355	99.62
495.573	104.62
495.79	110.62
496.008	104.62
496.225	117.62
496.442	114.62
496.66	103.62
496.877	90.62
497.094	113.62
497.312	111.62
497.529	94.62
497.746	91.62
497.963	104.62
498.181	92.62
498.398	95.62
498.615	93.62
498.832	90.62
499.049	104.62
499.267	101.62
499.484	88.62
499.701	94.62
499.918	100.62
500.135	90.62
500.352	94.62
500.569	98.62
500.786	101.62
501.003	84.62
501.22	101.62
501.437	97.62
501.654	108.62
501.871	85.62
502.088	93.62
502.305	91.62
502.522	99.62
502.739	90.62
502.956	97.62
503.172	84.62
503.389	90.62
503.606	96.62
503.823	101.62
504.04	103.62
504.256	86.62
504.473	91.62
504.69	94.62
504.907	88.62
505.123	94.62
505.34	88.62
505.557	92.62
505.773	101.62
505.99	89.62
506.207	69.62
506.423	93.62
506.64	85.62
506.856	87.62
507.073	85.62
507.289	95.62
507.506	95.62
507.722	88.62
507.939	77.62
508.155	95.62
508.372	83.62
508.588	80.62
508.805	79.62
509.021	99.62
509.238	101.62
509.454	82.62
509.67	93.62
509.887	82.62
510.103	82.62
510.319	81.62
510.536	83.62
510.752	85.62
510.968	68.62
511.184	79.62
511.401	89.62
511.617	89.62
511.833	77.62
512.049	92.62
512.265	82.62
512.481	84.62
512.698	88.62
512.914	82.62
513.13	90.62
513.346	89.62
513.562	57.62
513.778	84.62
513.994	93.62
514.21	82.62
514.426	87.62
514.642	80.62
514.858	86.62
515.074	81.62
515.29	86.62
515.506	73.62
515.721	80.62
515.937	89.62
516.153	78.62
516.369	80.62
516.585	89.62
516.801	82.62
517.016	93.62
517.232	81.62
517.448	73.62
517.664	89.62
517.879	92.62
518.095	84.62
