Data from Location4.07152019.Energy5.Lamp.07192019.3%Agarose_HRD10591_15-26-11-578.txt Node
Date: Fri Jul 19 15:26:11 EDT 2019
User: cochatt
Spectrometer: HR+D1059
Trigger mode: 1
Integration Time (sec): 1.000000E-1
Scans to average: 1
Electric dark correction enabled: true
Nonlinearity correction enabled: false
Boxcar width: 0
XAxis mode: Wavelengths
Number of Pixels in Spectrum: 2048
>>>>>Begin Spectral Data<<<<<
223.165	-11.12
223.4	-11.12
223.635	-11.12
223.869	-4.12
224.104	-9.12
224.338	-10.12
224.573	-13.12
224.808	-24.12
225.042	-7.12
225.277	-2.12
225.511	-1.12
225.746	5.88
225.98	2.88
226.215	1.88
226.449	10.88
226.683	26.88
226.918	14.88
227.152	18.88
227.387	23.88
227.621	45.88
227.856	32.88
228.09	37.88
228.324	51.88
228.559	56.88
228.793	62.88
229.027	35.88
229.262	58.88
229.496	73.88
229.73	58.88
229.964	66.88
230.199	61.88
230.433	83.88
230.667	81.88
230.901	73.88
231.136	75.88
231.37	83.88
231.604	70.88
231.838	77.88
232.072	77.88
232.306	74.88
232.541	85.88
232.775	79.88
233.009	69.88
233.243	70.88
233.477	68.88
233.711	80.88
233.945	81.88
234.179	79.88
234.413	89.88
234.647	75.88
234.881	85.88
235.115	80.88
235.349	79.88
235.583	77.88
235.817	69.88
236.051	59.88
236.285	68.88
236.519	89.88
236.753	90.88
236.987	92.88
237.221	72.88
237.455	85.88
237.689	66.88
237.922	70.88
238.156	81.88
238.39	75.88
238.624	69.88
238.858	62.88
239.091	79.88
239.325	70.88
239.559	63.88
239.793	63.88
240.027	90.88
240.26	71.88
240.494	81.88
240.728	74.88
240.961	60.88
241.195	74.88
241.429	71.88
241.662	83.88
241.896	78.88
242.13	71.88
242.363	72.88
242.597	68.88
242.83	81.88
243.064	79.88
243.298	81.88
243.531	68.88
243.765	67.88
243.998	70.88
244.232	93.88
244.465	86.88
244.699	74.88
244.932	82.88
245.166	67.88
245.399	78.88
245.633	76.88
245.866	76.88
246.099	71.88
246.333	81.88
246.566	61.88
246.8	73.88
247.033	84.88
247.266	65.88
247.5	87.88
247.733	86.88
247.966	83.88
248.2	79.88
248.433	76.88
248.666	85.88
248.899	85.88
249.133	69.88
249.366	81.88
249.599	77.88
249.832	78.88
250.066	86.88
250.299	75.88
250.532	69.88
250.765	68.88
250.998	83.88
251.231	81.88
251.465	66.88
251.698	62.88
251.931	75.88
252.164	89.88
252.397	88.88
252.63	69.88
252.863	79.88
253.096	81.88
253.329	86.88
253.562	80.88
253.795	87.88
254.028	83.88
254.261	69.88
254.494	80.88
254.727	82.88
254.96	94.88
255.193	94.88
255.426	80.88
255.659	82.88
255.892	72.88
256.124	77.88
256.357	79.88
256.59	78.88
256.823	82.88
257.056	80.88
257.289	88.88
257.521	81.88
257.754	93.88
257.987	58.88
258.22	60.88
258.452	74.88
258.685	69.88
258.918	75.88
259.151	74.88
259.383	83.88
259.616	81.88
259.849	72.88
260.081	88.88
260.314	88.88
260.547	88.88
260.779	65.88
261.012	90.88
261.244	80.88
261.477	86.88
261.71	85.88
261.942	69.88
262.175	83.88
262.407	85.88
262.64	78.88
262.872	74.88
263.105	80.88
263.337	87.88
263.57	66.88
263.802	83.88
264.035	69.88
264.267	77.88
264.499	80.88
264.732	75.88
264.964	81.88
265.197	90.88
265.429	75.88
265.661	89.88
265.894	76.88
266.126	74.88
266.358	85.88
266.591	80.88
266.823	79.88
267.055	72.88
267.287	66.88
267.52	67.88
267.752	74.88
267.984	88.88
268.216	93.88
268.448	92.88
268.681	81.88
268.913	74.88
269.145	79.88
269.377	90.88
269.609	81.88
269.841	96.88
270.073	76.88
270.306	78.88
270.538	66.88
270.77	82.88
271.002	88.88
271.234	91.88
271.466	80.88
271.698	79.88
271.93	70.88
272.162	75.88
272.394	89.88
272.626	75.88
272.858	81.88
273.09	82.88
273.322	71.88
273.553	83.88
273.785	92.88
274.017	71.88
274.249	75.88
274.481	81.88
274.713	69.88
274.945	92.88
275.176	78.88
275.408	81.88
275.64	76.88
275.872	82.88
276.104	84.88
276.335	84.88
276.567	81.88
276.799	62.88
277.031	84.88
277.262	76.88
277.494	85.88
277.726	89.88
277.957	85.88
278.189	81.88
278.421	83.88
278.652	84.88
278.884	72.88
279.115	93.88
279.347	79.88
279.579	78.88
279.81	92.88
280.042	87.88
280.273	97.88
280.505	78.88
280.736	73.88
280.968	69.88
281.199	87.88
281.431	75.88
281.662	87.88
281.894	91.88
282.125	82.88
282.356	93.88
282.588	90.88
282.819	74.88
283.051	77.88
283.282	90.88
283.513	82.88
283.745	71.88
283.976	71.88
284.207	72.88
284.439	96.88
284.67	85.88
284.901	76.88
285.132	71.88
285.364	77.88
285.595	85.88
285.826	78.88
286.057	80.88
286.288	88.88
286.52	81.88
286.751	67.88
286.982	94.88
287.213	69.88
287.444	81.88
287.675	93.88
287.906	95.88
288.138	85.88
288.369	75.88
288.6	86.88
288.831	97.88
289.062	79.88
289.293	77.88
289.524	76.88
289.755	78.88
289.986	83.88
290.217	86.88
290.448	80.88
290.679	88.88
290.91	79.88
291.141	81.88
291.371	74.88
291.602	84.88
291.833	81.88
292.064	79.88
292.295	83.88
292.526	82.88
292.757	81.88
292.987	90.88
293.218	86.88
293.449	91.88
293.68	79.88
293.91	95.88
294.141	87.88
294.372	86.88
294.603	69.88
294.833	98.88
295.064	75.88
295.295	80.88
295.525	78.88
295.756	84.88
295.987	93.88
296.217	86.88
296.448	81.88
296.679	79.88
296.909	89.88
297.14	96.88
297.37	93.88
297.601	91.88
297.831	97.88
298.062	90.88
298.292	88.88
298.523	80.88
298.753	87.88
298.984	87.88
299.214	84.88
299.445	87.88
299.675	90.88
299.905	78.88
300.136	71.88
300.366	86.88
300.597	79.88
300.827	79.88
301.057	78.88
301.288	94.88
301.518	95.88
301.748	82.88
301.979	71.88
302.209	76.88
302.439	70.88
302.669	84.88
302.9	85.88
303.13	99.88
303.36	100.88
303.59	90.88
303.82	81.88
304.051	92.88
304.281	89.88
304.511	89.88
304.741	84.88
304.971	82.88
305.201	66.88
305.431	89.88
305.661	87.88
305.891	81.88
306.121	84.88
306.352	93.88
306.582	88.88
306.812	95.88
307.042	88.88
307.272	88.88
307.502	90.88
307.731	71.88
307.961	95.88
308.191	84.88
308.421	78.88
308.651	82.88
308.881	88.88
309.111	81.88
309.341	83.88
309.571	89.88
309.8	85.88
310.03	86.88
310.26	87.88
310.49	90.88
310.72	87.88
310.949	81.88
311.179	80.88
311.409	90.88
311.639	90.88
311.868	76.88
312.098	78.88
312.328	80.88
312.557	76.88
312.787	79.88
313.017	92.88
313.246	82.88
313.476	82.88
313.706	78.88
313.935	70.88
314.165	90.88
314.394	83.88
314.624	91.88
314.853	71.88
315.083	79.88
315.312	108.88
315.542	97.88
315.771	84.88
316.001	91.88
316.23	85.88
316.46	86.88
316.689	86.88
316.919	81.88
317.148	90.88
317.377	92.88
317.607	87.88
317.836	83.88
318.065	88.88
318.295	76.88
318.524	93.88
318.753	85.88
318.983	79.88
319.212	83.88
319.441	94.88
319.67	91.88
319.9	82.88
320.129	103.88
320.358	75.88
320.587	83.88
320.816	85.88
321.046	87.88
321.275	96.88
321.504	80.88
321.733	84.88
321.962	77.88
322.191	87.88
322.42	77.88
322.649	85.88
322.878	97.88
323.108	80.88
323.337	87.88
323.566	74.88
323.795	85.88
324.024	99.88
324.253	81.88
324.482	75.88
324.71	78.88
324.939	84.88
325.168	88.88
325.397	89.88
325.626	77.88
325.855	73.88
326.084	71.88
326.313	86.88
326.542	87.88
326.77	75.88
326.999	63.88
327.228	63.88
327.457	84.88
327.686	76.88
327.914	88.88
328.143	87.88
328.372	88.88
328.6	78.88
328.829	91.88
329.058	74.88
329.287	107.88
329.515	86.88
329.744	79.88
329.972	78.88
330.201	78.88
330.43	96.88
330.658	85.88
330.887	81.88
331.115	83.88
331.344	78.88
331.572	70.88
331.801	88.88
332.03	97.88
332.258	84.88
332.486	83.88
332.715	85.88
332.943	75.88
333.172	80.88
333.4	84.88
333.629	75.88
333.857	91.88
334.085	88.88
334.314	87.88
334.542	104.88
334.771	83.88
334.999	78.88
335.227	90.88
335.455	88.88
335.684	92.88
335.912	101.88
336.14	74.88
336.369	78.88
336.597	70.88
336.825	78.88
337.053	92.88
337.281	70.88
337.51	83.88
337.738	75.88
337.966	83.88
338.194	93.88
338.422	89.88
338.65	85.88
338.878	84.88
339.106	82.88
339.334	81.88
339.562	71.88
339.79	89.88
340.018	82.88
340.246	72.88
340.474	89.88
340.702	80.88
340.93	84.88
341.158	88.88
341.386	83.88
341.614	92.88
341.842	84.88
342.07	85.88
342.298	73.88
342.526	94.88
342.754	79.88
342.981	73.88
343.209	93.88
343.437	80.88
343.665	79.88
343.893	69.88
344.12	85.88
344.348	79.88
344.576	81.88
344.804	93.88
345.031	73.88
345.259	83.88
345.487	85.88
345.714	86.88
345.942	75.88
346.17	79.88
346.397	85.88
346.625	75.88
346.853	93.88
347.08	82.88
347.308	86.88
347.535	82.88
347.763	83.88
347.99	83.88
348.218	75.88
348.445	97.88
348.673	92.88
348.9	72.88
349.128	83.88
349.355	65.88
349.583	82.88
349.81	71.88
350.037	81.88
350.265	79.88
350.492	88.88
350.72	76.88
350.947	81.88
351.174	82.88
351.402	75.88
351.629	86.88
351.856	82.88
352.083	71.88
352.311	80.88
352.538	89.88
352.765	88.88
352.992	82.88
353.22	74.88
353.447	76.88
353.674	85.88
353.901	88.88
354.128	84.88
354.355	66.88
354.583	71.88
354.81	87.88
355.037	82.88
355.264	84.88
355.491	86.88
355.718	94.88
355.945	83.88
356.172	95.88
356.399	87.88
356.626	80.88
356.853	89.88
357.08	76.88
357.307	89.88
357.534	87.88
357.761	93.88
357.988	107.88
358.215	76.88
358.441	80.88
358.668	82.88
358.895	78.88
359.122	72.88
359.349	73.88
359.576	93.88
359.802	86.88
360.029	84.88
360.256	81.88
360.483	72.88
360.709	72.88
360.936	89.88
361.163	72.88
361.39	71.88
361.616	80.88
361.843	81.88
362.07	102.88
362.296	87.88
362.523	87.88
362.749	88.88
362.976	74.88
363.203	87.88
363.429	82.88
363.656	74.88
363.882	74.88
364.109	77.88
364.335	87.88
364.562	82.88
364.788	83.88
365.015	91.88
365.241	92.88
365.468	86.88
365.694	73.88
365.92	85.88
366.147	82.88
366.373	75.88
366.599	80.88
366.826	77.88
367.052	68.88
367.278	83.88
367.505	105.88
367.731	89.88
367.957	66.88
368.184	90.88
368.41	90.88
368.636	75.88
368.862	92.88
369.089	90.88
369.315	90.88
369.541	84.88
369.767	88.88
369.993	80.88
370.219	75.88
370.445	92.88
370.672	84.88
370.898	88.88
371.124	87.88
371.35	76.88
371.576	84.88
371.802	84.88
372.028	83.88
372.254	96.88
372.48	84.88
372.706	97.88
372.932	73.88
373.158	87.88
373.384	91.88
373.61	77.88
373.835	76.88
374.061	49.88
374.287	77.88
374.513	78.88
374.739	84.88
374.965	79.88
375.191	82.88
375.416	84.88
375.642	86.88
375.868	77.88
376.094	69.88
376.319	82.88
376.545	71.88
376.771	77.88
376.997	80.88
377.222	79.88
377.448	80.88
377.674	70.88
377.899	88.88
378.125	88.88
378.35	88.88
378.576	80.88
378.802	85.88
379.027	77.88
379.253	77.88
379.478	84.88
379.704	78.88
379.929	66.88
380.155	70.88
380.38	72.88
380.606	81.88
380.831	78.88
381.057	71.88
381.282	87.88
381.507	84.88
381.733	80.88
381.958	75.88
382.184	69.88
382.409	86.88
382.634	80.88
382.86	84.88
383.085	86.88
383.31	89.88
383.535	82.88
383.761	79.88
383.986	94.88
384.211	87.88
384.436	90.88
384.662	88.88
384.887	89.88
385.112	81.88
385.337	97.88
385.562	87.88
385.787	81.88
386.013	83.88
386.238	81.88
386.463	89.88
386.688	92.88
386.913	81.88
387.138	70.88
387.363	82.88
387.588	75.88
387.813	85.88
388.038	88.88
388.263	90.88
388.488	88.88
388.713	77.88
388.938	78.88
389.163	59.88
389.387	94.88
389.612	73.88
389.837	83.88
390.062	82.88
390.287	79.88
390.512	69.88
390.736	94.88
390.961	76.88
391.186	66.88
391.411	95.88
391.636	77.88
391.86	86.88
392.085	85.88
392.31	68.88
392.534	78.88
392.759	72.88
392.984	79.88
393.208	82.88
393.433	90.88
393.658	92.88
393.882	86.88
394.107	86.88
394.331	92.88
394.556	81.88
394.78	66.88
395.005	83.88
395.229	92.88
395.454	84.88
395.678	78.88
395.903	75.88
396.127	102.88
396.352	83.88
396.576	78.88
396.801	84.88
397.025	78.88
397.249	75.88
397.474	90.88
397.698	81.88
397.922	100.88
398.147	83.88
398.371	83.88
398.595	86.88
398.82	98.88
399.044	83.88
399.268	91.88
399.492	71.88
399.717	89.88
399.941	78.88
400.165	92.88
400.389	88.88
400.613	94.88
400.837	97.88
401.062	87.88
401.286	90.88
401.51	93.88
401.734	80.88
401.958	81.88
402.182	74.88
402.406	81.88
402.63	79.88
402.854	97.88
403.078	86.88
403.302	95.88
403.526	98.88
403.75	89.88
403.974	100.88
404.198	80.88
404.422	86.88
404.645	87.88
404.869	98.88
405.093	81.88
405.317	86.88
405.541	83.88
405.765	94.88
405.988	85.88
406.212	81.88
406.436	93.88
406.66	83.88
406.883	91.88
407.107	91.88
407.331	69.88
407.555	95.88
407.778	89.88
408.002	74.88
408.226	83.88
408.449	89.88
408.673	93.88
408.896	94.88
409.12	91.88
409.344	83.88
409.567	87.88
409.791	86.88
410.014	80.88
410.238	80.88
410.461	74.88
410.685	87.88
410.908	89.88
411.132	77.88
411.355	83.88
411.578	85.88
411.802	93.88
412.025	88.88
412.249	94.88
412.472	98.88
412.695	110.88
412.919	95.88
413.142	85.88
413.365	89.88
413.589	79.88
413.812	100.88
414.035	86.88
414.258	109.88
414.482	89.88
414.705	98.88
414.928	85.88
415.151	93.88
415.374	82.88
415.597	97.88
415.821	83.88
416.044	92.88
416.267	86.88
416.49	85.88
416.713	79.88
416.936	84.88
417.159	90.88
417.382	96.88
417.605	96.88
417.828	95.88
418.051	99.88
418.274	77.88
418.497	96.88
418.72	93.88
418.943	96.88
419.166	89.88
419.389	88.88
419.611	106.88
419.834	99.88
420.057	90.88
420.28	78.88
420.503	97.88
420.726	99.88
420.948	102.88
421.171	96.88
421.394	91.88
421.617	108.88
421.839	103.88
422.062	96.88
422.285	109.88
422.507	85.88
422.73	88.88
422.953	86.88
423.175	88.88
423.398	97.88
423.621	98.88
423.843	84.88
424.066	95.88
424.288	99.88
424.511	96.88
424.733	98.88
424.956	87.88
425.178	94.88
425.401	92.88
425.623	96.88
425.846	88.88
426.068	89.88
426.291	89.88
426.513	101.88
426.735	98.88
426.958	101.88
427.18	91.88
427.402	86.88
427.625	100.88
427.847	85.88
428.069	89.88
428.292	89.88
428.514	106.88
428.736	87.88
428.958	75.88
429.181	91.88
429.403	89.88
429.625	81.88
429.847	95.88
430.069	93.88
430.292	94.88
430.514	87.88
430.736	91.88
430.958	105.88
431.18	83.88
431.402	84.88
431.624	90.88
431.846	85.88
432.068	73.88
432.29	79.88
432.512	99.88
432.734	90.88
432.956	92.88
433.178	93.88
433.4	95.88
433.622	79.88
433.844	74.88
434.066	91.88
434.287	87.88
434.509	83.88
434.731	82.88
434.953	100.88
435.175	88.88
435.397	90.88
435.618	90.88
435.84	83.88
436.062	81.88
436.284	80.88
436.505	86.88
436.727	104.88
436.949	81.88
437.17	93.88
437.392	93.88
437.614	101.88
437.835	94.88
438.057	95.88
438.278	83.88
438.5	87.88
438.721	87.88
438.943	93.88
439.165	95.88
439.386	101.88
439.608	91.88
439.829	86.88
440.05	97.88
440.272	96.88
440.493	91.88
440.715	103.88
440.936	93.88
441.158	110.88
441.379	86.88
441.6	89.88
441.822	89.88
442.043	89.88
442.264	85.88
442.486	93.88
442.707	91.88
442.928	104.88
443.149	106.88
443.371	83.88
443.592	88.88
443.813	93.88
444.034	119.88
444.255	95.88
444.476	101.88
444.698	90.88
444.919	74.88
445.14	201.88
445.361	145.88
445.582	106.88
445.803	100.88
446.024	91.88
446.245	98.88
446.466	97.88
446.687	114.88
446.908	100.88
447.129	107.88
447.35	106.88
447.571	102.88
447.792	101.88
448.013	102.88
448.234	106.88
448.455	89.88
448.675	78.88
448.896	85.88
449.117	86.88
449.338	104.88
449.559	98.88
449.779	97.88
450	109.88
450.221	94.88
450.442	93.88
450.662	93.88
450.883	88.88
451.104	82.88
451.324	90.88
451.545	89.88
451.766	88.88
451.986	96.88
452.207	93.88
452.428	99.88
452.648	107.88
452.869	103.88
453.089	70.88
453.31	86.88
453.53	73.88
453.751	74.88
453.971	87.88
454.192	88.88
454.412	91.88
454.633	91.88
454.853	110.88
455.073	95.88
455.294	86.88
455.514	93.88
455.734	79.88
455.955	84.88
456.175	84.88
456.395	94.88
456.616	93.88
456.836	78.88
457.056	90.88
457.276	87.88
457.497	97.88
457.717	76.88
457.937	89.88
458.157	87.88
458.377	77.88
458.598	87.88
458.818	83.88
459.038	79.88
459.258	70.88
459.478	69.88
459.698	85.88
459.918	84.88
460.138	68.88
460.358	77.88
460.578	88.88
460.798	86.88
461.018	86.88
461.238	83.88
461.458	92.88
461.678	86.88
461.898	87.88
462.118	73.88
462.338	88.88
462.558	74.88
462.777	85.88
462.997	85.88
463.217	84.88
463.437	86.88
463.657	89.88
463.876	95.88
464.096	79.88
464.316	89.88
464.536	72.88
464.755	93.88
464.975	81.88
465.195	77.88
465.414	90.88
465.634	82.88
465.854	86.88
466.073	107.88
466.293	90.88
466.512	79.88
466.732	86.88
466.951	84.88
467.171	104.88
467.391	96.88
467.61	97.88
467.829	100.88
468.049	90.88
468.268	93.88
468.488	94.88
468.707	77.88
468.927	100.88
469.146	96.88
469.365	76.88
469.585	104.88
469.804	87.88
470.023	101.88
470.243	89.88
470.462	97.88
470.681	102.88
470.901	98.88
471.12	97.88
471.339	96.88
471.558	93.88
471.777	84.88
471.997	99.88
472.216	94.88
472.435	80.88
472.654	107.88
472.873	97.88
473.092	94.88
473.311	93.88
473.53	86.88
473.749	92.88
473.968	101.88
474.187	83.88
474.406	89.88
474.625	83.88
474.844	92.88
475.063	92.88
475.282	86.88
475.501	99.88
475.72	95.88
475.939	90.88
476.158	82.88
476.377	88.88
476.596	79.88
476.814	87.88
477.033	99.88
477.252	80.88
477.471	82.88
477.69	92.88
477.908	91.88
478.127	94.88
478.346	97.88
478.564	94.88
478.783	101.88
479.002	97.88
479.22	105.88
479.439	79.88
479.658	90.88
479.876	85.88
480.095	83.88
480.313	96.88
480.532	96.88
480.751	87.88
480.969	79.88
481.188	68.88
481.406	75.88
481.624	81.88
481.843	73.88
482.061	79.88
482.28	88.88
482.498	90.88
482.717	105.88
482.935	92.88
483.153	85.88
483.372	94.88
483.59	105.88
483.808	79.88
484.027	91.88
484.245	91.88
484.463	88.88
484.681	92.88
484.9	99.88
485.118	85.88
485.336	105.88
485.554	86.88
485.772	87.88
485.99	89.88
486.209	89.88
486.427	85.88
486.645	74.88
486.863	97.88
487.081	92.88
487.299	87.88
487.517	97.88
487.735	101.88
487.953	102.88
488.171	113.88
488.389	104.88
488.607	100.88
488.825	95.88
489.043	78.88
489.261	104.88
489.479	83.88
489.696	88.88
489.914	85.88
490.132	88.88
490.35	101.88
490.568	100.88
490.786	93.88
491.003	106.88
491.221	97.88
491.439	104.88
491.657	105.88
491.874	114.88
492.092	117.88
492.31	136.88
492.527	120.88
492.745	124.88
492.963	112.88
493.18	104.88
493.398	109.88
493.615	110.88
493.833	104.88
494.05	99.88
494.268	105.88
494.485	109.88
494.703	111.88
494.92	112.88
495.138	111.88
495.355	109.88
495.573	115.88
495.79	103.88
496.008	99.88
496.225	107.88
496.442	105.88
496.66	112.88
496.877	114.88
497.094	107.88
497.312	91.88
497.529	102.88
497.746	106.88
497.963	85.88
498.181	106.88
498.398	86.88
498.615	101.88
498.832	78.88
499.049	96.88
499.267	90.88
499.484	82.88
499.701	73.88
499.918	102.88
500.135	84.88
500.352	88.88
500.569	95.88
500.786	106.88
501.003	98.88
501.22	84.88
501.437	83.88
501.654	100.88
501.871	101.88
502.088	89.88
502.305	93.88
502.522	87.88
502.739	78.88
502.956	92.88
503.172	92.88
503.389	93.88
503.606	98.88
503.823	88.88
504.04	79.88
504.256	90.88
504.473	89.88
504.69	78.88
504.907	90.88
505.123	90.88
505.34	89.88
505.557	82.88
505.773	78.88
505.99	83.88
506.207	92.88
506.423	85.88
506.64	108.88
506.856	87.88
507.073	86.88
507.289	101.88
507.506	91.88
507.722	88.88
507.939	94.88
508.155	90.88
508.372	101.88
508.588	104.88
508.805	77.88
509.021	88.88
509.238	100.88
509.454	87.88
509.67	84.88
509.887	99.88
510.103	82.88
510.319	84.88
510.536	92.88
510.752	83.88
510.968	82.88
511.184	78.88
511.401	77.88
511.617	75.88
511.833	80.88
512.049	79.88
512.265	81.88
512.481	75.88
512.698	91.88
512.914	87.88
513.13	72.88
513.346	97.88
513.562	85.88
513.778	67.88
513.994	77.88
514.21	86.88
514.426	77.88
514.642	83.88
514.858	87.88
515.074	77.88
515.29	80.88
515.506	86.88
515.721	76.88
515.937	76.88
516.153	82.88
516.369	71.88
516.585	86.88
516.801	79.88
517.016	75.88
517.232	81.88
517.448	85.88
517.664	93.88
517.879	81.88
