Data from Location4.07152019.Energy5.Lamp.07192019.3%Agarose_HRD10591_15-25-33-579.txt Node
Date: Fri Jul 19 15:25:33 EDT 2019
User: cochatt
Spectrometer: HR+D1059
Trigger mode: 1
Integration Time (sec): 1.000000E-1
Scans to average: 1
Electric dark correction enabled: true
Nonlinearity correction enabled: false
Boxcar width: 0
XAxis mode: Wavelengths
Number of Pixels in Spectrum: 2048
>>>>>Begin Spectral Data<<<<<
223.165	-10.88
223.4	-10.88
223.635	-10.88
223.869	-18.88
224.104	-9.88
224.338	-14.88
224.573	-17.88
224.808	-8.88
225.042	-7.88
225.277	-4.88
225.511	3.12
225.746	12.12
225.98	7.12
226.215	6.12
226.449	3.12
226.683	7.12
226.918	28.12
227.152	27.12
227.387	21.12
227.621	29.12
227.856	38.12
228.09	29.12
228.324	39.12
228.559	43.12
228.793	53.12
229.027	58.12
229.262	65.12
229.496	75.12
229.73	74.12
229.964	76.12
230.199	67.12
230.433	85.12
230.667	75.12
230.901	84.12
231.136	80.12
231.37	90.12
231.604	90.12
231.838	82.12
232.072	83.12
232.306	77.12
232.541	75.12
232.775	71.12
233.009	84.12
233.243	83.12
233.477	77.12
233.711	86.12
233.945	78.12
234.179	84.12
234.413	80.12
234.647	86.12
234.881	81.12
235.115	71.12
235.349	73.12
235.583	76.12
235.817	89.12
236.051	87.12
236.285	82.12
236.519	89.12
236.753	87.12
236.987	80.12
237.221	72.12
237.455	80.12
237.689	91.12
237.922	85.12
238.156	87.12
238.39	77.12
238.624	74.12
238.858	59.12
239.091	71.12
239.325	78.12
239.559	75.12
239.793	72.12
240.027	73.12
240.26	85.12
240.494	78.12
240.728	82.12
240.961	80.12
241.195	85.12
241.429	70.12
241.662	73.12
241.896	76.12
242.13	68.12
242.363	71.12
242.597	68.12
242.83	75.12
243.064	87.12
243.298	73.12
243.531	72.12
243.765	85.12
243.998	79.12
244.232	75.12
244.465	76.12
244.699	80.12
244.932	88.12
245.166	74.12
245.399	85.12
245.633	81.12
245.866	85.12
246.099	77.12
246.333	87.12
246.566	79.12
246.8	75.12
247.033	89.12
247.266	87.12
247.5	86.12
247.733	81.12
247.966	78.12
248.2	102.12
248.433	66.12
248.666	88.12
248.899	79.12
249.133	86.12
249.366	75.12
249.599	81.12
249.832	76.12
250.066	67.12
250.299	93.12
250.532	74.12
250.765	72.12
250.998	81.12
251.231	93.12
251.465	70.12
251.698	73.12
251.931	77.12
252.164	94.12
252.397	88.12
252.63	83.12
252.863	87.12
253.096	90.12
253.329	86.12
253.562	77.12
253.795	91.12
254.028	76.12
254.261	80.12
254.494	81.12
254.727	86.12
254.96	84.12
255.193	86.12
255.426	83.12
255.659	83.12
255.892	98.12
256.124	74.12
256.357	73.12
256.59	79.12
256.823	86.12
257.056	73.12
257.289	75.12
257.521	73.12
257.754	90.12
257.987	100.12
258.22	71.12
258.452	88.12
258.685	86.12
258.918	86.12
259.151	68.12
259.383	78.12
259.616	95.12
259.849	85.12
260.081	83.12
260.314	78.12
260.547	76.12
260.779	100.12
261.012	85.12
261.244	91.12
261.477	98.12
261.71	75.12
261.942	81.12
262.175	81.12
262.407	78.12
262.64	73.12
262.872	81.12
263.105	85.12
263.337	83.12
263.57	72.12
263.802	85.12
264.035	84.12
264.267	72.12
264.499	78.12
264.732	76.12
264.964	71.12
265.197	78.12
265.429	75.12
265.661	78.12
265.894	79.12
266.126	82.12
266.358	69.12
266.591	76.12
266.823	88.12
267.055	84.12
267.287	80.12
267.52	61.12
267.752	74.12
267.984	78.12
268.216	88.12
268.448	91.12
268.681	77.12
268.913	68.12
269.145	92.12
269.377	73.12
269.609	95.12
269.841	88.12
270.073	69.12
270.306	99.12
270.538	82.12
270.77	73.12
271.002	90.12
271.234	81.12
271.466	82.12
271.698	102.12
271.93	90.12
272.162	98.12
272.394	81.12
272.626	92.12
272.858	85.12
273.09	92.12
273.322	93.12
273.553	84.12
273.785	87.12
274.017	85.12
274.249	82.12
274.481	87.12
274.713	82.12
274.945	74.12
275.176	87.12
275.408	74.12
275.64	90.12
275.872	79.12
276.104	84.12
276.335	89.12
276.567	90.12
276.799	87.12
277.031	93.12
277.262	76.12
277.494	82.12
277.726	83.12
277.957	87.12
278.189	85.12
278.421	81.12
278.652	82.12
278.884	74.12
279.115	76.12
279.347	81.12
279.579	85.12
279.81	76.12
280.042	81.12
280.273	76.12
280.505	87.12
280.736	75.12
280.968	84.12
281.199	84.12
281.431	86.12
281.662	92.12
281.894	83.12
282.125	63.12
282.356	85.12
282.588	80.12
282.819	86.12
283.051	82.12
283.282	85.12
283.513	80.12
283.745	84.12
283.976	86.12
284.207	92.12
284.439	87.12
284.67	88.12
284.901	88.12
285.132	86.12
285.364	89.12
285.595	87.12
285.826	81.12
286.057	79.12
286.288	82.12
286.52	75.12
286.751	104.12
286.982	83.12
287.213	83.12
287.444	81.12
287.675	84.12
287.906	89.12
288.138	92.12
288.369	82.12
288.6	88.12
288.831	87.12
289.062	89.12
289.293	81.12
289.524	66.12
289.755	97.12
289.986	74.12
290.217	85.12
290.448	87.12
290.679	77.12
290.91	82.12
291.141	80.12
291.371	88.12
291.602	87.12
291.833	80.12
292.064	80.12
292.295	84.12
292.526	91.12
292.757	84.12
292.987	80.12
293.218	70.12
293.449	90.12
293.68	100.12
293.91	83.12
294.141	73.12
294.372	87.12
294.603	100.12
294.833	81.12
295.064	84.12
295.295	77.12
295.525	70.12
295.756	96.12
295.987	85.12
296.217	85.12
296.448	94.12
296.679	89.12
296.909	95.12
297.14	96.12
297.37	80.12
297.601	98.12
297.831	88.12
298.062	87.12
298.292	102.12
298.523	91.12
298.753	74.12
298.984	92.12
299.214	89.12
299.445	92.12
299.675	90.12
299.905	97.12
300.136	91.12
300.366	75.12
300.597	75.12
300.827	73.12
301.057	80.12
301.288	89.12
301.518	89.12
301.748	92.12
301.979	85.12
302.209	87.12
302.439	86.12
302.669	92.12
302.9	92.12
303.13	103.12
303.36	109.12
303.59	75.12
303.82	72.12
304.051	80.12
304.281	82.12
304.511	83.12
304.741	82.12
304.971	100.12
305.201	109.12
305.431	89.12
305.661	75.12
305.891	93.12
306.121	91.12
306.352	86.12
306.582	87.12
306.812	93.12
307.042	78.12
307.272	85.12
307.502	85.12
307.731	100.12
307.961	90.12
308.191	84.12
308.421	95.12
308.651	85.12
308.881	96.12
309.111	70.12
309.341	80.12
309.571	85.12
309.8	91.12
310.03	89.12
310.26	90.12
310.49	85.12
310.72	72.12
310.949	76.12
311.179	85.12
311.409	82.12
311.639	68.12
311.868	80.12
312.098	82.12
312.328	80.12
312.557	96.12
312.787	78.12
313.017	85.12
313.246	88.12
313.476	69.12
313.706	93.12
313.935	79.12
314.165	92.12
314.394	91.12
314.624	84.12
314.853	90.12
315.083	90.12
315.312	76.12
315.542	79.12
315.771	85.12
316.001	80.12
316.23	87.12
316.46	74.12
316.689	74.12
316.919	87.12
317.148	78.12
317.377	79.12
317.607	82.12
317.836	76.12
318.065	70.12
318.295	82.12
318.524	74.12
318.753	86.12
318.983	79.12
319.212	86.12
319.441	96.12
319.67	90.12
319.9	84.12
320.129	85.12
320.358	90.12
320.587	86.12
320.816	70.12
321.046	90.12
321.275	82.12
321.504	87.12
321.733	89.12
321.962	82.12
322.191	83.12
322.42	92.12
322.649	100.12
322.878	83.12
323.108	80.12
323.337	88.12
323.566	88.12
323.795	91.12
324.024	88.12
324.253	86.12
324.482	87.12
324.71	74.12
324.939	89.12
325.168	90.12
325.397	88.12
325.626	78.12
325.855	79.12
326.084	82.12
326.313	86.12
326.542	84.12
326.77	91.12
326.999	93.12
327.228	100.12
327.457	99.12
327.686	81.12
327.914	93.12
328.143	101.12
328.372	76.12
328.6	70.12
328.829	67.12
329.058	84.12
329.287	90.12
329.515	88.12
329.744	87.12
329.972	84.12
330.201	96.12
330.43	86.12
330.658	84.12
330.887	81.12
331.115	80.12
331.344	82.12
331.572	92.12
331.801	87.12
332.03	67.12
332.258	80.12
332.486	92.12
332.715	68.12
332.943	77.12
333.172	96.12
333.4	83.12
333.629	86.12
333.857	77.12
334.085	80.12
334.314	90.12
334.542	88.12
334.771	89.12
334.999	85.12
335.227	96.12
335.455	104.12
335.684	73.12
335.912	74.12
336.14	86.12
336.369	83.12
336.597	76.12
336.825	76.12
337.053	93.12
337.281	82.12
337.51	83.12
337.738	71.12
337.966	79.12
338.194	77.12
338.422	99.12
338.65	83.12
338.878	76.12
339.106	76.12
339.334	90.12
339.562	81.12
339.79	80.12
340.018	77.12
340.246	74.12
340.474	83.12
340.702	89.12
340.93	75.12
341.158	83.12
341.386	81.12
341.614	95.12
341.842	85.12
342.07	90.12
342.298	91.12
342.526	89.12
342.754	74.12
342.981	82.12
343.209	98.12
343.437	81.12
343.665	73.12
343.893	79.12
344.12	94.12
344.348	94.12
344.576	91.12
344.804	81.12
345.031	75.12
345.259	89.12
345.487	96.12
345.714	112.12
345.942	90.12
346.17	76.12
346.397	74.12
346.625	85.12
346.853	82.12
347.08	78.12
347.308	87.12
347.535	82.12
347.763	91.12
347.99	85.12
348.218	80.12
348.445	76.12
348.673	89.12
348.9	78.12
349.128	94.12
349.355	77.12
349.583	75.12
349.81	83.12
350.037	86.12
350.265	85.12
350.492	82.12
350.72	89.12
350.947	82.12
351.174	90.12
351.402	85.12
351.629	85.12
351.856	83.12
352.083	72.12
352.311	79.12
352.538	69.12
352.765	86.12
352.992	76.12
353.22	86.12
353.447	87.12
353.674	91.12
353.901	83.12
354.128	99.12
354.355	86.12
354.583	82.12
354.81	88.12
355.037	90.12
355.264	93.12
355.491	82.12
355.718	88.12
355.945	82.12
356.172	73.12
356.399	87.12
356.626	91.12
356.853	83.12
357.08	88.12
357.307	76.12
357.534	96.12
357.761	83.12
357.988	86.12
358.215	87.12
358.441	90.12
358.668	75.12
358.895	88.12
359.122	79.12
359.349	83.12
359.576	96.12
359.802	85.12
360.029	81.12
360.256	91.12
360.483	89.12
360.709	78.12
360.936	91.12
361.163	99.12
361.39	90.12
361.616	86.12
361.843	86.12
362.07	84.12
362.296	78.12
362.523	82.12
362.749	78.12
362.976	75.12
363.203	97.12
363.429	90.12
363.656	91.12
363.882	70.12
364.109	80.12
364.335	85.12
364.562	92.12
364.788	84.12
365.015	87.12
365.241	87.12
365.468	87.12
365.694	98.12
365.92	90.12
366.147	77.12
366.373	73.12
366.599	89.12
366.826	88.12
367.052	84.12
367.278	81.12
367.505	85.12
367.731	84.12
367.957	84.12
368.184	72.12
368.41	74.12
368.636	92.12
368.862	89.12
369.089	96.12
369.315	86.12
369.541	85.12
369.767	95.12
369.993	78.12
370.219	71.12
370.445	96.12
370.672	84.12
370.898	78.12
371.124	84.12
371.35	79.12
371.576	92.12
371.802	82.12
372.028	85.12
372.254	90.12
372.48	85.12
372.706	94.12
372.932	81.12
373.158	82.12
373.384	75.12
373.61	84.12
373.835	99.12
374.061	70.12
374.287	69.12
374.513	84.12
374.739	88.12
374.965	88.12
375.191	87.12
375.416	89.12
375.642	88.12
375.868	93.12
376.094	89.12
376.319	89.12
376.545	98.12
376.771	85.12
376.997	83.12
377.222	89.12
377.448	93.12
377.674	77.12
377.899	87.12
378.125	84.12
378.35	88.12
378.576	95.12
378.802	96.12
379.027	83.12
379.253	76.12
379.478	103.12
379.704	97.12
379.929	89.12
380.155	77.12
380.38	79.12
380.606	81.12
380.831	89.12
381.057	73.12
381.282	92.12
381.507	101.12
381.733	101.12
381.958	84.12
382.184	96.12
382.409	82.12
382.634	91.12
382.86	100.12
383.085	96.12
383.31	82.12
383.535	90.12
383.761	93.12
383.986	88.12
384.211	79.12
384.436	87.12
384.662	84.12
384.887	96.12
385.112	94.12
385.337	100.12
385.562	92.12
385.787	84.12
386.013	81.12
386.238	94.12
386.463	96.12
386.688	86.12
386.913	88.12
387.138	90.12
387.363	88.12
387.588	88.12
387.813	89.12
388.038	74.12
388.263	86.12
388.488	77.12
388.713	81.12
388.938	86.12
389.163	88.12
389.387	89.12
389.612	89.12
389.837	86.12
390.062	81.12
390.287	80.12
390.512	84.12
390.736	91.12
390.961	78.12
391.186	97.12
391.411	89.12
391.636	82.12
391.86	93.12
392.085	98.12
392.31	78.12
392.534	85.12
392.759	81.12
392.984	102.12
393.208	87.12
393.433	79.12
393.658	94.12
393.882	92.12
394.107	94.12
394.331	88.12
394.556	99.12
394.78	91.12
395.005	93.12
395.229	96.12
395.454	93.12
395.678	92.12
395.903	82.12
396.127	74.12
396.352	76.12
396.576	95.12
396.801	94.12
397.025	88.12
397.249	86.12
397.474	101.12
397.698	90.12
397.922	88.12
398.147	93.12
398.371	83.12
398.595	71.12
398.82	82.12
399.044	82.12
399.268	88.12
399.492	88.12
399.717	92.12
399.941	84.12
400.165	101.12
400.389	98.12
400.613	101.12
400.837	83.12
401.062	79.12
401.286	86.12
401.51	89.12
401.734	84.12
401.958	91.12
402.182	96.12
402.406	84.12
402.63	87.12
402.854	80.12
403.078	83.12
403.302	86.12
403.526	84.12
403.75	93.12
403.974	82.12
404.198	94.12
404.422	86.12
404.645	87.12
404.869	93.12
405.093	91.12
405.317	87.12
405.541	99.12
405.765	94.12
405.988	95.12
406.212	112.12
406.436	95.12
406.66	98.12
406.883	92.12
407.107	78.12
407.331	100.12
407.555	98.12
407.778	81.12
408.002	101.12
408.226	97.12
408.449	93.12
408.673	90.12
408.896	93.12
409.12	71.12
409.344	85.12
409.567	102.12
409.791	100.12
410.014	104.12
410.238	98.12
410.461	96.12
410.685	97.12
410.908	93.12
411.132	91.12
411.355	91.12
411.578	93.12
411.802	73.12
412.025	92.12
412.249	100.12
412.472	94.12
412.695	99.12
412.919	85.12
413.142	93.12
413.365	98.12
413.589	100.12
413.812	89.12
414.035	92.12
414.258	97.12
414.482	90.12
414.705	91.12
414.928	94.12
415.151	94.12
415.374	86.12
415.597	90.12
415.821	82.12
416.044	92.12
416.267	102.12
416.49	101.12
416.713	91.12
416.936	92.12
417.159	92.12
417.382	96.12
417.605	84.12
417.828	89.12
418.051	90.12
418.274	99.12
418.497	98.12
418.72	97.12
418.943	97.12
419.166	100.12
419.389	81.12
419.611	99.12
419.834	92.12
420.057	94.12
420.28	68.12
420.503	77.12
420.726	94.12
420.948	106.12
421.171	101.12
421.394	86.12
421.617	103.12
421.839	97.12
422.062	93.12
422.285	101.12
422.507	101.12
422.73	90.12
422.953	90.12
423.175	91.12
423.398	94.12
423.621	91.12
423.843	89.12
424.066	97.12
424.288	102.12
424.511	97.12
424.733	86.12
424.956	82.12
425.178	100.12
425.401	105.12
425.623	105.12
425.846	106.12
426.068	92.12
426.291	88.12
426.513	91.12
426.735	105.12
426.958	85.12
427.18	99.12
427.402	92.12
427.625	93.12
427.847	94.12
428.069	86.12
428.292	89.12
428.514	117.12
428.736	81.12
428.958	76.12
429.181	97.12
429.403	89.12
429.625	101.12
429.847	98.12
430.069	98.12
430.292	93.12
430.514	99.12
430.736	95.12
430.958	78.12
431.18	93.12
431.402	98.12
431.624	92.12
431.846	90.12
432.068	84.12
432.29	93.12
432.512	93.12
432.734	102.12
432.956	102.12
433.178	90.12
433.4	93.12
433.622	100.12
433.844	106.12
434.066	87.12
434.287	93.12
434.509	105.12
434.731	97.12
434.953	96.12
435.175	99.12
435.397	92.12
435.618	88.12
435.84	90.12
436.062	84.12
436.284	99.12
436.505	99.12
436.727	105.12
436.949	98.12
437.17	85.12
437.392	107.12
437.614	113.12
437.835	100.12
438.057	103.12
438.278	103.12
438.5	88.12
438.721	105.12
438.943	98.12
439.165	116.12
439.386	124.12
439.608	100.12
439.829	87.12
440.05	104.12
440.272	96.12
440.493	102.12
440.715	105.12
440.936	99.12
441.158	106.12
441.379	98.12
441.6	91.12
441.822	99.12
442.043	120.12
442.264	97.12
442.486	110.12
442.707	93.12
442.928	93.12
443.149	98.12
443.371	100.12
443.592	97.12
443.813	99.12
444.034	105.12
444.255	109.12
444.476	91.12
444.698	76.12
444.919	96.12
445.14	236.12
445.361	164.12
445.582	111.12
445.803	108.12
446.024	94.12
446.245	110.12
446.466	81.12
446.687	109.12
446.908	110.12
447.129	112.12
447.35	91.12
447.571	115.12
447.792	102.12
448.013	86.12
448.234	114.12
448.455	92.12
448.675	97.12
448.896	112.12
449.117	91.12
449.338	98.12
449.559	114.12
449.779	104.12
450	99.12
450.221	102.12
450.442	93.12
450.662	101.12
450.883	106.12
451.104	97.12
451.324	105.12
451.545	106.12
451.766	85.12
451.986	100.12
452.207	104.12
452.428	87.12
452.648	97.12
452.869	98.12
453.089	81.12
453.31	94.12
453.53	80.12
453.751	98.12
453.971	98.12
454.192	86.12
454.412	97.12
454.633	76.12
454.853	109.12
455.073	89.12
455.294	83.12
455.514	100.12
455.734	88.12
455.955	97.12
456.175	77.12
456.395	101.12
456.616	98.12
456.836	85.12
457.056	89.12
457.276	84.12
457.497	82.12
457.717	104.12
457.937	70.12
458.157	82.12
458.377	85.12
458.598	85.12
458.818	79.12
459.038	88.12
459.258	88.12
459.478	82.12
459.698	75.12
459.918	82.12
460.138	90.12
460.358	88.12
460.578	98.12
460.798	94.12
461.018	93.12
461.238	87.12
461.458	80.12
461.678	87.12
461.898	92.12
462.118	93.12
462.338	94.12
462.558	86.12
462.777	101.12
462.997	83.12
463.217	84.12
463.437	101.12
463.657	104.12
463.876	96.12
464.096	95.12
464.316	91.12
464.536	87.12
464.755	96.12
464.975	90.12
465.195	89.12
465.414	96.12
465.634	89.12
465.854	88.12
466.073	102.12
466.293	84.12
466.512	85.12
466.732	89.12
466.951	95.12
467.171	108.12
467.391	108.12
467.61	99.12
467.829	117.12
468.049	106.12
468.268	112.12
468.488	84.12
468.707	86.12
468.927	104.12
469.146	92.12
469.365	106.12
469.585	89.12
469.804	91.12
470.023	107.12
470.243	99.12
470.462	107.12
470.681	113.12
470.901	96.12
471.12	88.12
471.339	103.12
471.558	99.12
471.777	102.12
471.997	97.12
472.216	103.12
472.435	97.12
472.654	77.12
472.873	103.12
473.092	102.12
473.311	99.12
473.53	92.12
473.749	84.12
473.968	116.12
474.187	94.12
474.406	98.12
474.625	93.12
474.844	90.12
475.063	95.12
475.282	97.12
475.501	93.12
475.72	103.12
475.939	87.12
476.158	98.12
476.377	101.12
476.596	98.12
476.814	99.12
477.033	88.12
477.252	85.12
477.471	81.12
477.69	96.12
477.908	108.12
478.127	99.12
478.346	101.12
478.564	100.12
478.783	87.12
479.002	93.12
479.22	109.12
479.439	92.12
479.658	92.12
479.876	93.12
480.095	97.12
480.313	84.12
480.532	90.12
480.751	105.12
480.969	91.12
481.188	65.12
481.406	74.12
481.624	94.12
481.843	86.12
482.061	95.12
482.28	92.12
482.498	88.12
482.717	79.12
482.935	100.12
483.153	100.12
483.372	106.12
483.59	105.12
483.808	93.12
484.027	107.12
484.245	93.12
484.463	98.12
484.681	99.12
484.9	84.12
485.118	90.12
485.336	106.12
485.554	86.12
485.772	87.12
485.99	90.12
486.209	90.12
486.427	80.12
486.645	89.12
486.863	107.12
487.081	99.12
487.299	96.12
487.517	106.12
487.735	112.12
487.953	118.12
488.171	105.12
488.389	114.12
488.607	105.12
488.825	103.12
489.043	93.12
489.261	97.12
489.479	94.12
489.696	96.12
489.914	104.12
490.132	87.12
490.35	85.12
490.568	114.12
490.786	117.12
491.003	115.12
491.221	111.12
491.439	120.12
491.657	106.12
491.874	113.12
492.092	120.12
492.31	141.12
492.527	130.12
492.745	125.12
492.963	122.12
493.18	107.12
493.398	117.12
493.615	108.12
493.833	96.12
494.05	104.12
494.268	120.12
494.485	100.12
494.703	103.12
494.92	114.12
495.138	100.12
495.355	106.12
495.573	121.12
495.79	109.12
496.008	117.12
496.225	112.12
496.442	101.12
496.66	112.12
496.877	114.12
497.094	100.12
497.312	100.12
497.529	98.12
497.746	97.12
497.963	98.12
498.181	101.12
498.398	89.12
498.615	98.12
498.832	93.12
499.049	100.12
499.267	108.12
499.484	100.12
499.701	98.12
499.918	97.12
500.135	99.12
500.352	102.12
500.569	106.12
500.786	93.12
501.003	99.12
501.22	103.12
501.437	107.12
501.654	103.12
501.871	99.12
502.088	99.12
502.305	107.12
502.522	99.12
502.739	82.12
502.956	93.12
503.172	94.12
503.389	89.12
503.606	90.12
503.823	91.12
504.04	94.12
504.256	93.12
504.473	92.12
504.69	89.12
504.907	107.12
505.123	106.12
505.34	106.12
505.557	89.12
505.773	94.12
505.99	98.12
506.207	101.12
506.423	89.12
506.64	96.12
506.856	94.12
507.073	90.12
507.289	109.12
507.506	94.12
507.722	89.12
507.939	94.12
508.155	97.12
508.372	100.12
508.588	82.12
508.805	99.12
509.021	93.12
509.238	88.12
509.454	82.12
509.67	95.12
509.887	93.12
510.103	99.12
510.319	89.12
510.536	83.12
510.752	75.12
510.968	89.12
511.184	80.12
511.401	82.12
511.617	76.12
511.833	93.12
512.049	88.12
512.265	97.12
512.481	89.12
512.698	85.12
512.914	85.12
513.13	84.12
513.346	93.12
513.562	99.12
513.778	100.12
513.994	78.12
514.21	84.12
514.426	88.12
514.642	90.12
514.858	93.12
515.074	79.12
515.29	80.12
515.506	84.12
515.721	84.12
515.937	92.12
516.153	70.12
516.369	88.12
516.585	91.12
516.801	82.12
