Data from Location4.07152019.Energy5.Lamp.07192019.3%Agarose_HRD10591_15-25-15-577.txt Node
Date: Fri Jul 19 15:25:15 EDT 2019
User: cochatt
Spectrometer: HR+D1059
Trigger mode: 1
Integration Time (sec): 1.000000E-1
Scans to average: 1
Electric dark correction enabled: true
Nonlinearity correction enabled: false
Boxcar width: 0
XAxis mode: Wavelengths
Number of Pixels in Spectrum: 2048
>>>>>Begin Spectral Data<<<<<
223.165	-10.06
223.4	-10.06
223.635	-10.06
223.869	-22.06
224.104	-24.06
224.338	-19.06
224.573	-20.06
224.808	-15.06
225.042	-10.06
225.277	2.94
225.511	8.94
225.746	-7.06
225.98	3.94
226.215	4.94
226.449	24.94
226.683	20.94
226.918	22.94
227.152	37.94
227.387	26.94
227.621	33.94
227.856	45.94
228.09	33.94
228.324	47.94
228.559	38.94
228.793	48.94
229.027	54.94
229.262	52.94
229.496	68.94
229.73	54.94
229.964	69.94
230.199	69.94
230.433	77.94
230.667	98.94
230.901	68.94
231.136	80.94
231.37	57.94
231.604	83.94
231.838	83.94
232.072	82.94
232.306	72.94
232.541	78.94
232.775	73.94
233.009	77.94
233.243	83.94
233.477	93.94
233.711	74.94
233.945	85.94
234.179	90.94
234.413	95.94
234.647	74.94
234.881	65.94
235.115	88.94
235.349	69.94
235.583	78.94
235.817	81.94
236.051	84.94
236.285	67.94
236.519	66.94
236.753	58.94
236.987	75.94
237.221	85.94
237.455	75.94
237.689	84.94
237.922	66.94
238.156	77.94
238.39	84.94
238.624	84.94
238.858	83.94
239.091	77.94
239.325	79.94
239.559	52.94
239.793	81.94
240.027	87.94
240.26	75.94
240.494	73.94
240.728	70.94
240.961	83.94
241.195	66.94
241.429	61.94
241.662	67.94
241.896	67.94
242.13	79.94
242.363	83.94
242.597	79.94
242.83	90.94
243.064	82.94
243.298	63.94
243.531	74.94
243.765	68.94
243.998	82.94
244.232	78.94
244.465	83.94
244.699	74.94
244.932	84.94
245.166	88.94
245.399	89.94
245.633	89.94
245.866	72.94
246.099	82.94
246.333	64.94
246.566	78.94
246.8	77.94
247.033	82.94
247.266	77.94
247.5	73.94
247.733	71.94
247.966	66.94
248.2	70.94
248.433	73.94
248.666	65.94
248.899	75.94
249.133	77.94
249.366	68.94
249.599	83.94
249.832	85.94
250.066	75.94
250.299	84.94
250.532	84.94
250.765	83.94
250.998	84.94
251.231	78.94
251.465	73.94
251.698	75.94
251.931	82.94
252.164	87.94
252.397	79.94
252.63	73.94
252.863	68.94
253.096	72.94
253.329	87.94
253.562	77.94
253.795	101.94
254.028	89.94
254.261	93.94
254.494	84.94
254.727	78.94
254.96	81.94
255.193	79.94
255.426	83.94
255.659	72.94
255.892	77.94
256.124	71.94
256.357	81.94
256.59	79.94
256.823	83.94
257.056	78.94
257.289	70.94
257.521	79.94
257.754	76.94
257.987	85.94
258.22	85.94
258.452	84.94
258.685	93.94
258.918	80.94
259.151	80.94
259.383	78.94
259.616	86.94
259.849	90.94
260.081	86.94
260.314	65.94
260.547	67.94
260.779	83.94
261.012	71.94
261.244	73.94
261.477	76.94
261.71	73.94
261.942	97.94
262.175	78.94
262.407	90.94
262.64	68.94
262.872	81.94
263.105	80.94
263.337	73.94
263.57	79.94
263.802	74.94
264.035	95.94
264.267	94.94
264.499	74.94
264.732	87.94
264.964	93.94
265.197	83.94
265.429	62.94
265.661	88.94
265.894	94.94
266.126	79.94
266.358	89.94
266.591	88.94
266.823	85.94
267.055	77.94
267.287	82.94
267.52	67.94
267.752	77.94
267.984	91.94
268.216	79.94
268.448	68.94
268.681	76.94
268.913	68.94
269.145	87.94
269.377	89.94
269.609	71.94
269.841	85.94
270.073	79.94
270.306	79.94
270.538	94.94
270.77	84.94
271.002	80.94
271.234	79.94
271.466	79.94
271.698	85.94
271.93	84.94
272.162	92.94
272.394	80.94
272.626	78.94
272.858	83.94
273.09	81.94
273.322	96.94
273.553	85.94
273.785	91.94
274.017	74.94
274.249	85.94
274.481	83.94
274.713	92.94
274.945	101.94
275.176	79.94
275.408	78.94
275.64	79.94
275.872	78.94
276.104	77.94
276.335	77.94
276.567	80.94
276.799	88.94
277.031	89.94
277.262	94.94
277.494	72.94
277.726	80.94
277.957	81.94
278.189	82.94
278.421	77.94
278.652	79.94
278.884	72.94
279.115	90.94
279.347	78.94
279.579	77.94
279.81	88.94
280.042	76.94
280.273	85.94
280.505	78.94
280.736	76.94
280.968	73.94
281.199	82.94
281.431	103.94
281.662	81.94
281.894	78.94
282.125	77.94
282.356	93.94
282.588	70.94
282.819	77.94
283.051	69.94
283.282	67.94
283.513	77.94
283.745	82.94
283.976	85.94
284.207	72.94
284.439	86.94
284.67	81.94
284.901	86.94
285.132	87.94
285.364	86.94
285.595	92.94
285.826	79.94
286.057	74.94
286.288	72.94
286.52	72.94
286.751	66.94
286.982	79.94
287.213	94.94
287.444	84.94
287.675	81.94
287.906	84.94
288.138	81.94
288.369	93.94
288.6	88.94
288.831	70.94
289.062	79.94
289.293	75.94
289.524	82.94
289.755	94.94
289.986	74.94
290.217	97.94
290.448	95.94
290.679	90.94
290.91	88.94
291.141	90.94
291.371	88.94
291.602	92.94
291.833	86.94
292.064	81.94
292.295	80.94
292.526	85.94
292.757	85.94
292.987	74.94
293.218	72.94
293.449	76.94
293.68	76.94
293.91	74.94
294.141	80.94
294.372	78.94
294.603	81.94
294.833	73.94
295.064	85.94
295.295	81.94
295.525	78.94
295.756	88.94
295.987	71.94
296.217	81.94
296.448	87.94
296.679	72.94
296.909	71.94
297.14	84.94
297.37	96.94
297.601	97.94
297.831	67.94
298.062	80.94
298.292	87.94
298.523	90.94
298.753	93.94
298.984	86.94
299.214	69.94
299.445	73.94
299.675	89.94
299.905	82.94
300.136	89.94
300.366	77.94
300.597	81.94
300.827	78.94
301.057	85.94
301.288	88.94
301.518	88.94
301.748	87.94
301.979	92.94
302.209	89.94
302.439	98.94
302.669	84.94
302.9	82.94
303.13	84.94
303.36	85.94
303.59	102.94
303.82	74.94
304.051	94.94
304.281	94.94
304.511	77.94
304.741	93.94
304.971	86.94
305.201	94.94
305.431	92.94
305.661	79.94
305.891	90.94
306.121	100.94
306.352	88.94
306.582	85.94
306.812	86.94
307.042	67.94
307.272	85.94
307.502	81.94
307.731	77.94
307.961	77.94
308.191	94.94
308.421	77.94
308.651	88.94
308.881	87.94
309.111	87.94
309.341	78.94
309.571	94.94
309.8	69.94
310.03	86.94
310.26	82.94
310.49	87.94
310.72	78.94
310.949	89.94
311.179	87.94
311.409	82.94
311.639	76.94
311.868	85.94
312.098	82.94
312.328	87.94
312.557	89.94
312.787	79.94
313.017	91.94
313.246	91.94
313.476	94.94
313.706	79.94
313.935	74.94
314.165	92.94
314.394	89.94
314.624	88.94
314.853	93.94
315.083	87.94
315.312	85.94
315.542	82.94
315.771	72.94
316.001	75.94
316.23	86.94
316.46	79.94
316.689	80.94
316.919	100.94
317.148	79.94
317.377	92.94
317.607	92.94
317.836	82.94
318.065	83.94
318.295	84.94
318.524	79.94
318.753	77.94
318.983	75.94
319.212	88.94
319.441	88.94
319.67	86.94
319.9	81.94
320.129	83.94
320.358	71.94
320.587	67.94
320.816	63.94
321.046	100.94
321.275	86.94
321.504	79.94
321.733	91.94
321.962	87.94
322.191	84.94
322.42	79.94
322.649	94.94
322.878	84.94
323.108	100.94
323.337	105.94
323.566	93.94
323.795	82.94
324.024	90.94
324.253	79.94
324.482	88.94
324.71	86.94
324.939	95.94
325.168	75.94
325.397	77.94
325.626	75.94
325.855	87.94
326.084	75.94
326.313	85.94
326.542	84.94
326.77	78.94
326.999	77.94
327.228	76.94
327.457	79.94
327.686	87.94
327.914	84.94
328.143	84.94
328.372	86.94
328.6	79.94
328.829	82.94
329.058	81.94
329.287	91.94
329.515	81.94
329.744	89.94
329.972	84.94
330.201	78.94
330.43	80.94
330.658	89.94
330.887	72.94
331.115	87.94
331.344	76.94
331.572	72.94
331.801	81.94
332.03	93.94
332.258	75.94
332.486	81.94
332.715	90.94
332.943	81.94
333.172	79.94
333.4	96.94
333.629	82.94
333.857	82.94
334.085	75.94
334.314	87.94
334.542	88.94
334.771	82.94
334.999	73.94
335.227	90.94
335.455	90.94
335.684	81.94
335.912	79.94
336.14	84.94
336.369	85.94
336.597	91.94
336.825	83.94
337.053	96.94
337.281	74.94
337.51	69.94
337.738	81.94
337.966	74.94
338.194	82.94
338.422	86.94
338.65	78.94
338.878	75.94
339.106	72.94
339.334	66.94
339.562	89.94
339.79	89.94
340.018	88.94
340.246	87.94
340.474	84.94
340.702	81.94
340.93	88.94
341.158	80.94
341.386	78.94
341.614	76.94
341.842	68.94
342.07	61.94
342.298	78.94
342.526	88.94
342.754	84.94
342.981	75.94
343.209	86.94
343.437	85.94
343.665	81.94
343.893	87.94
344.12	73.94
344.348	74.94
344.576	88.94
344.804	94.94
345.031	88.94
345.259	88.94
345.487	87.94
345.714	89.94
345.942	75.94
346.17	77.94
346.397	84.94
346.625	65.94
346.853	76.94
347.08	77.94
347.308	74.94
347.535	88.94
347.763	80.94
347.99	74.94
348.218	82.94
348.445	81.94
348.673	69.94
348.9	84.94
349.128	101.94
349.355	87.94
349.583	76.94
349.81	94.94
350.037	74.94
350.265	88.94
350.492	87.94
350.72	69.94
350.947	81.94
351.174	62.94
351.402	80.94
351.629	92.94
351.856	79.94
352.083	80.94
352.311	76.94
352.538	87.94
352.765	78.94
352.992	72.94
353.22	78.94
353.447	80.94
353.674	98.94
353.901	79.94
354.128	88.94
354.355	83.94
354.583	69.94
354.81	68.94
355.037	85.94
355.264	72.94
355.491	81.94
355.718	92.94
355.945	68.94
356.172	101.94
356.399	86.94
356.626	85.94
356.853	93.94
357.08	78.94
357.307	68.94
357.534	80.94
357.761	72.94
357.988	85.94
358.215	94.94
358.441	85.94
358.668	83.94
358.895	88.94
359.122	109.94
359.349	75.94
359.576	83.94
359.802	79.94
360.029	81.94
360.256	81.94
360.483	80.94
360.709	94.94
360.936	96.94
361.163	85.94
361.39	72.94
361.616	80.94
361.843	89.94
362.07	90.94
362.296	87.94
362.523	81.94
362.749	78.94
362.976	87.94
363.203	82.94
363.429	83.94
363.656	88.94
363.882	75.94
364.109	76.94
364.335	87.94
364.562	94.94
364.788	90.94
365.015	81.94
365.241	88.94
365.468	75.94
365.694	88.94
365.92	80.94
366.147	80.94
366.373	86.94
366.599	73.94
366.826	83.94
367.052	96.94
367.278	79.94
367.505	82.94
367.731	80.94
367.957	83.94
368.184	92.94
368.41	82.94
368.636	92.94
368.862	80.94
369.089	85.94
369.315	77.94
369.541	86.94
369.767	86.94
369.993	77.94
370.219	97.94
370.445	81.94
370.672	83.94
370.898	88.94
371.124	89.94
371.35	80.94
371.576	85.94
371.802	75.94
372.028	89.94
372.254	79.94
372.48	73.94
372.706	76.94
372.932	74.94
373.158	90.94
373.384	83.94
373.61	72.94
373.835	90.94
374.061	86.94
374.287	81.94
374.513	65.94
374.739	85.94
374.965	82.94
375.191	92.94
375.416	86.94
375.642	98.94
375.868	98.94
376.094	82.94
376.319	95.94
376.545	79.94
376.771	75.94
376.997	73.94
377.222	79.94
377.448	84.94
377.674	82.94
377.899	77.94
378.125	84.94
378.35	79.94
378.576	92.94
378.802	86.94
379.027	89.94
379.253	73.94
379.478	90.94
379.704	80.94
379.929	68.94
380.155	80.94
380.38	68.94
380.606	70.94
380.831	84.94
381.057	95.94
381.282	86.94
381.507	76.94
381.733	82.94
381.958	92.94
382.184	81.94
382.409	67.94
382.634	87.94
382.86	82.94
383.085	81.94
383.31	77.94
383.535	88.94
383.761	81.94
383.986	75.94
384.211	89.94
384.436	87.94
384.662	85.94
384.887	74.94
385.112	79.94
385.337	73.94
385.562	88.94
385.787	78.94
386.013	89.94
386.238	72.94
386.463	90.94
386.688	77.94
386.913	82.94
387.138	87.94
387.363	79.94
387.588	95.94
387.813	82.94
388.038	67.94
388.263	80.94
388.488	90.94
388.713	74.94
388.938	74.94
389.163	76.94
389.387	84.94
389.612	84.94
389.837	86.94
390.062	96.94
390.287	77.94
390.512	88.94
390.736	76.94
390.961	89.94
391.186	85.94
391.411	88.94
391.636	83.94
391.86	85.94
392.085	91.94
392.31	74.94
392.534	85.94
392.759	85.94
392.984	98.94
393.208	83.94
393.433	74.94
393.658	87.94
393.882	94.94
394.107	92.94
394.331	89.94
394.556	81.94
394.78	72.94
395.005	79.94
395.229	74.94
395.454	79.94
395.678	81.94
395.903	92.94
396.127	80.94
396.352	91.94
396.576	81.94
396.801	89.94
397.025	72.94
397.249	70.94
397.474	78.94
397.698	85.94
397.922	91.94
398.147	81.94
398.371	80.94
398.595	76.94
398.82	89.94
399.044	81.94
399.268	89.94
399.492	87.94
399.717	90.94
399.941	82.94
400.165	89.94
400.389	87.94
400.613	89.94
400.837	90.94
401.062	83.94
401.286	82.94
401.51	86.94
401.734	96.94
401.958	96.94
402.182	88.94
402.406	89.94
402.63	99.94
402.854	91.94
403.078	82.94
403.302	103.94
403.526	78.94
403.75	88.94
403.974	87.94
404.198	64.94
404.422	80.94
404.645	77.94
404.869	81.94
405.093	94.94
405.317	96.94
405.541	90.94
405.765	83.94
405.988	91.94
406.212	86.94
406.436	94.94
406.66	86.94
406.883	80.94
407.107	88.94
407.331	88.94
407.555	84.94
407.778	85.94
408.002	92.94
408.226	86.94
408.449	82.94
408.673	89.94
408.896	99.94
409.12	89.94
409.344	89.94
409.567	105.94
409.791	92.94
410.014	96.94
410.238	94.94
410.461	77.94
410.685	80.94
410.908	95.94
411.132	98.94
411.355	92.94
411.578	96.94
411.802	99.94
412.025	95.94
412.249	85.94
412.472	89.94
412.695	77.94
412.919	84.94
413.142	98.94
413.365	93.94
413.589	87.94
413.812	101.94
414.035	102.94
414.258	89.94
414.482	86.94
414.705	73.94
414.928	104.94
415.151	79.94
415.374	90.94
415.597	83.94
415.821	90.94
416.044	101.94
416.267	90.94
416.49	85.94
416.713	93.94
416.936	99.94
417.159	98.94
417.382	83.94
417.605	83.94
417.828	86.94
418.051	94.94
418.274	73.94
418.497	108.94
418.72	101.94
418.943	108.94
419.166	88.94
419.389	97.94
419.611	102.94
419.834	71.94
420.057	94.94
420.28	93.94
420.503	85.94
420.726	92.94
420.948	106.94
421.171	87.94
421.394	95.94
421.617	84.94
421.839	73.94
422.062	118.94
422.285	101.94
422.507	106.94
422.73	84.94
422.953	80.94
423.175	92.94
423.398	82.94
423.621	88.94
423.843	99.94
424.066	88.94
424.288	99.94
424.511	98.94
424.733	80.94
424.956	96.94
425.178	100.94
425.401	89.94
425.623	84.94
425.846	101.94
426.068	82.94
426.291	84.94
426.513	93.94
426.735	72.94
426.958	83.94
427.18	95.94
427.402	97.94
427.625	95.94
427.847	78.94
428.069	92.94
428.292	95.94
428.514	84.94
428.736	101.94
428.958	86.94
429.181	85.94
429.403	88.94
429.625	90.94
429.847	94.94
430.069	87.94
430.292	112.94
430.514	101.94
430.736	98.94
430.958	85.94
431.18	88.94
431.402	93.94
431.624	94.94
431.846	95.94
432.068	96.94
432.29	89.94
432.512	89.94
432.734	102.94
432.956	101.94
433.178	89.94
433.4	105.94
433.622	104.94
433.844	102.94
434.066	93.94
434.287	90.94
434.509	69.94
434.731	79.94
434.953	81.94
435.175	97.94
435.397	115.94
435.618	90.94
435.84	85.94
436.062	90.94
436.284	86.94
436.505	88.94
436.727	98.94
436.949	78.94
437.17	90.94
437.392	85.94
437.614	73.94
437.835	85.94
438.057	90.94
438.278	76.94
438.5	98.94
438.721	96.94
438.943	90.94
439.165	100.94
439.386	85.94
439.608	108.94
439.829	110.94
440.05	79.94
440.272	93.94
440.493	95.94
440.715	96.94
440.936	98.94
441.158	92.94
441.379	89.94
441.6	119.94
441.822	98.94
442.043	91.94
442.264	101.94
442.486	88.94
442.707	97.94
442.928	95.94
443.149	89.94
443.371	94.94
443.592	93.94
443.813	103.94
444.034	94.94
444.255	87.94
444.476	93.94
444.698	81.94
444.919	88.94
445.14	205.94
445.361	155.94
445.582	91.94
445.803	92.94
446.024	84.94
446.245	116.94
446.466	78.94
446.687	94.94
446.908	119.94
447.129	93.94
447.35	104.94
447.571	89.94
447.792	90.94
448.013	84.94
448.234	80.94
448.455	86.94
448.675	96.94
448.896	104.94
449.117	89.94
449.338	104.94
449.559	86.94
449.779	97.94
450	103.94
450.221	100.94
450.442	90.94
450.662	113.94
450.883	81.94
451.104	88.94
451.324	93.94
451.545	86.94
451.766	103.94
451.986	95.94
452.207	89.94
452.428	102.94
452.648	94.94
452.869	92.94
453.089	95.94
453.31	86.94
453.53	85.94
453.751	93.94
453.971	79.94
454.192	84.94
454.412	99.94
454.633	89.94
454.853	84.94
455.073	90.94
455.294	99.94
455.514	90.94
455.734	101.94
455.955	93.94
456.175	88.94
456.395	90.94
456.616	92.94
456.836	82.94
457.056	93.94
457.276	99.94
457.497	93.94
457.717	86.94
457.937	91.94
458.157	97.94
458.377	81.94
458.598	62.94
458.818	86.94
459.038	68.94
459.258	91.94
459.478	82.94
459.698	89.94
459.918	86.94
460.138	80.94
460.358	93.94
460.578	105.94
460.798	87.94
461.018	93.94
461.238	98.94
461.458	100.94
461.678	93.94
461.898	85.94
462.118	92.94
462.338	82.94
462.558	94.94
462.777	115.94
462.997	94.94
463.217	84.94
463.437	89.94
463.657	82.94
463.876	84.94
464.096	95.94
464.316	94.94
464.536	82.94
464.755	94.94
464.975	73.94
465.195	86.94
465.414	72.94
465.634	79.94
465.854	102.94
466.073	89.94
466.293	68.94
466.512	92.94
466.732	87.94
466.951	79.94
467.171	101.94
467.391	96.94
467.61	92.94
467.829	106.94
468.049	94.94
468.268	99.94
468.488	102.94
468.707	97.94
468.927	93.94
469.146	95.94
469.365	97.94
469.585	110.94
469.804	97.94
470.023	92.94
470.243	103.94
470.462	89.94
470.681	84.94
470.901	91.94
471.12	108.94
471.339	94.94
471.558	94.94
471.777	105.94
471.997	89.94
472.216	82.94
472.435	92.94
472.654	88.94
472.873	94.94
473.092	83.94
473.311	87.94
473.53	101.94
473.749	88.94
473.968	105.94
474.187	84.94
474.406	84.94
474.625	92.94
474.844	85.94
475.063	84.94
475.282	92.94
475.501	101.94
475.72	84.94
475.939	103.94
476.158	88.94
476.377	89.94
476.596	88.94
476.814	93.94
477.033	78.94
477.252	109.94
477.471	91.94
477.69	108.94
477.908	97.94
478.127	86.94
478.346	97.94
478.564	82.94
478.783	99.94
479.002	89.94
479.22	102.94
479.439	95.94
479.658	99.94
479.876	84.94
480.095	81.94
480.313	71.94
480.532	100.94
480.751	93.94
480.969	78.94
481.188	81.94
481.406	75.94
481.624	80.94
481.843	78.94
482.061	72.94
482.28	86.94
482.498	81.94
482.717	81.94
482.935	91.94
483.153	104.94
483.372	105.94
483.59	96.94
483.808	89.94
484.027	88.94
484.245	87.94
484.463	105.94
484.681	107.94
484.9	95.94
485.118	88.94
485.336	100.94
485.554	94.94
485.772	86.94
485.99	80.94
486.209	91.94
486.427	87.94
486.645	81.94
486.863	84.94
487.081	112.94
487.299	84.94
487.517	89.94
487.735	105.94
487.953	113.94
488.171	105.94
488.389	104.94
488.607	109.94
488.825	79.94
489.043	105.94
489.261	89.94
489.479	84.94
489.696	89.94
489.914	84.94
490.132	88.94
490.35	88.94
490.568	122.94
490.786	88.94
491.003	108.94
491.221	96.94
491.439	103.94
491.657	101.94
491.874	125.94
492.092	130.94
492.31	129.94
492.527	120.94
492.745	124.94
492.963	122.94
493.18	105.94
493.398	109.94
493.615	120.94
493.833	118.94
494.05	120.94
494.268	109.94
494.485	114.94
494.703	124.94
494.92	109.94
495.138	98.94
495.355	102.94
495.573	107.94
495.79	104.94
496.008	101.94
496.225	106.94
496.442	100.94
496.66	127.94
496.877	121.94
497.094	108.94
497.312	100.94
497.529	99.94
497.746	109.94
497.963	91.94
498.181	94.94
498.398	92.94
498.615	85.94
498.832	84.94
499.049	84.94
499.267	87.94
499.484	102.94
499.701	92.94
499.918	105.94
500.135	99.94
500.352	98.94
500.569	88.94
500.786	112.94
501.003	109.94
501.22	93.94
501.437	95.94
501.654	93.94
501.871	95.94
502.088	89.94
502.305	95.94
502.522	88.94
502.739	100.94
502.956	102.94
503.172	100.94
503.389	92.94
503.606	92.94
503.823	86.94
504.04	86.94
504.256	92.94
504.473	96.94
504.69	84.94
504.907	89.94
505.123	99.94
505.34	93.94
505.557	83.94
505.773	94.94
505.99	88.94
506.207	102.94
506.423	86.94
506.64	84.94
506.856	87.94
507.073	97.94
507.289	101.94
507.506	89.94
507.722	77.94
507.939	91.94
508.155	98.94
508.372	84.94
508.588	87.94
508.805	82.94
509.021	89.94
509.238	83.94
509.454	85.94
509.67	90.94
509.887	91.94
510.103	73.94
510.319	82.94
510.536	102.94
510.752	67.94
510.968	80.94
511.184	88.94
511.401	77.94
511.617	90.94
511.833	82.94
512.049	87.94
512.265	80.94
512.481	82.94
512.698	90.94
512.914	80.94
513.13	82.94
513.346	93.94
513.562	90.94
513.778	85.94
513.994	70.94
514.21	86.94
514.426	82.94
514.642	97.94
514.858	100.94
515.074	85.94
515.29	93.94
515.506	68.94
515.721	85.94
515.937	69.94
516.153	81.94
516.369	86.94
516.585	90.94
516.801	77.94
517.016	87.94
517.232	77.94
517.448	87.94
517.664	85.94
