Data from Location4.07152019.Energy5.Lamp.07192019.3%Agarose_HRD10591_15-24-19-579.txt Node
Date: Fri Jul 19 15:24:19 EDT 2019
User: cochatt
Spectrometer: HR+D1059
Trigger mode: 1
Integration Time (sec): 1.000000E-1
Scans to average: 1
Electric dark correction enabled: true
Nonlinearity correction enabled: false
Boxcar width: 0
XAxis mode: Wavelengths
Number of Pixels in Spectrum: 2048
>>>>>Begin Spectral Data<<<<<
223.165	-18.56
223.4	-18.56
223.635	-18.56
223.869	-2.56
224.104	-24.56
224.338	-8.56
224.573	-13.56
224.808	-7.56
225.042	-2.56
225.277	-3.56
225.511	0.44
225.746	9.44
225.98	-15.56
226.215	5.44
226.449	10.44
226.683	26.44
226.918	7.44
227.152	37.44
227.387	45.44
227.621	34.44
227.856	43.44
228.09	49.44
228.324	55.44
228.559	37.44
228.793	56.44
229.027	63.44
229.262	71.44
229.496	59.44
229.73	73.44
229.964	69.44
230.199	61.44
230.433	85.44
230.667	79.44
230.901	83.44
231.136	66.44
231.37	87.44
231.604	88.44
231.838	94.44
232.072	78.44
232.306	83.44
232.541	73.44
232.775	74.44
233.009	86.44
233.243	73.44
233.477	71.44
233.711	75.44
233.945	82.44
234.179	74.44
234.413	75.44
234.647	86.44
234.881	91.44
235.115	77.44
235.349	90.44
235.583	76.44
235.817	69.44
236.051	73.44
236.285	70.44
236.519	69.44
236.753	74.44
236.987	67.44
237.221	70.44
237.455	74.44
237.689	77.44
237.922	66.44
238.156	69.44
238.39	77.44
238.624	71.44
238.858	79.44
239.091	78.44
239.325	63.44
239.559	83.44
239.793	70.44
240.027	68.44
240.26	60.44
240.494	79.44
240.728	63.44
240.961	62.44
241.195	92.44
241.429	76.44
241.662	79.44
241.896	81.44
242.13	59.44
242.363	78.44
242.597	89.44
242.83	81.44
243.064	83.44
243.298	76.44
243.531	80.44
243.765	78.44
243.998	77.44
244.232	79.44
244.465	81.44
244.699	71.44
244.932	73.44
245.166	66.44
245.399	70.44
245.633	77.44
245.866	88.44
246.099	80.44
246.333	78.44
246.566	71.44
246.8	60.44
247.033	89.44
247.266	78.44
247.5	85.44
247.733	78.44
247.966	68.44
248.2	86.44
248.433	81.44
248.666	65.44
248.899	75.44
249.133	78.44
249.366	69.44
249.599	85.44
249.832	73.44
250.066	81.44
250.299	87.44
250.532	73.44
250.765	67.44
250.998	74.44
251.231	64.44
251.465	87.44
251.698	86.44
251.931	75.44
252.164	74.44
252.397	72.44
252.63	88.44
252.863	82.44
253.096	92.44
253.329	75.44
253.562	74.44
253.795	76.44
254.028	91.44
254.261	86.44
254.494	57.44
254.727	79.44
254.96	82.44
255.193	89.44
255.426	74.44
255.659	77.44
255.892	87.44
256.124	62.44
256.357	80.44
256.59	80.44
256.823	62.44
257.056	53.44
257.289	55.44
257.521	74.44
257.754	69.44
257.987	74.44
258.22	97.44
258.452	88.44
258.685	75.44
258.918	78.44
259.151	86.44
259.383	84.44
259.616	89.44
259.849	73.44
260.081	76.44
260.314	71.44
260.547	74.44
260.779	86.44
261.012	74.44
261.244	77.44
261.477	70.44
261.71	66.44
261.942	81.44
262.175	73.44
262.407	72.44
262.64	79.44
262.872	85.44
263.105	78.44
263.337	82.44
263.57	79.44
263.802	86.44
264.035	65.44
264.267	63.44
264.499	77.44
264.732	73.44
264.964	68.44
265.197	79.44
265.429	78.44
265.661	88.44
265.894	86.44
266.126	95.44
266.358	95.44
266.591	72.44
266.823	73.44
267.055	79.44
267.287	88.44
267.52	79.44
267.752	81.44
267.984	86.44
268.216	85.44
268.448	80.44
268.681	97.44
268.913	85.44
269.145	92.44
269.377	82.44
269.609	79.44
269.841	67.44
270.073	82.44
270.306	87.44
270.538	81.44
270.77	92.44
271.002	84.44
271.234	85.44
271.466	81.44
271.698	87.44
271.93	84.44
272.162	92.44
272.394	95.44
272.626	86.44
272.858	78.44
273.09	70.44
273.322	84.44
273.553	73.44
273.785	80.44
274.017	88.44
274.249	76.44
274.481	68.44
274.713	65.44
274.945	90.44
275.176	68.44
275.408	73.44
275.64	75.44
275.872	64.44
276.104	77.44
276.335	86.44
276.567	83.44
276.799	70.44
277.031	88.44
277.262	72.44
277.494	85.44
277.726	82.44
277.957	72.44
278.189	78.44
278.421	83.44
278.652	72.44
278.884	74.44
279.115	86.44
279.347	73.44
279.579	85.44
279.81	73.44
280.042	70.44
280.273	81.44
280.505	91.44
280.736	72.44
280.968	79.44
281.199	83.44
281.431	72.44
281.662	79.44
281.894	90.44
282.125	85.44
282.356	76.44
282.588	93.44
282.819	83.44
283.051	93.44
283.282	64.44
283.513	86.44
283.745	87.44
283.976	80.44
284.207	85.44
284.439	83.44
284.67	77.44
284.901	65.44
285.132	74.44
285.364	82.44
285.595	98.44
285.826	84.44
286.057	74.44
286.288	89.44
286.52	89.44
286.751	80.44
286.982	84.44
287.213	75.44
287.444	80.44
287.675	75.44
287.906	98.44
288.138	73.44
288.369	87.44
288.6	81.44
288.831	86.44
289.062	85.44
289.293	71.44
289.524	81.44
289.755	77.44
289.986	81.44
290.217	91.44
290.448	73.44
290.679	83.44
290.91	83.44
291.141	86.44
291.371	72.44
291.602	93.44
291.833	92.44
292.064	89.44
292.295	77.44
292.526	75.44
292.757	65.44
292.987	86.44
293.218	91.44
293.449	81.44
293.68	82.44
293.91	74.44
294.141	67.44
294.372	78.44
294.603	91.44
294.833	85.44
295.064	80.44
295.295	74.44
295.525	85.44
295.756	70.44
295.987	77.44
296.217	73.44
296.448	67.44
296.679	74.44
296.909	79.44
297.14	77.44
297.37	71.44
297.601	83.44
297.831	69.44
298.062	77.44
298.292	82.44
298.523	90.44
298.753	86.44
298.984	88.44
299.214	88.44
299.445	87.44
299.675	91.44
299.905	68.44
300.136	82.44
300.366	90.44
300.597	83.44
300.827	87.44
301.057	81.44
301.288	81.44
301.518	72.44
301.748	83.44
301.979	84.44
302.209	77.44
302.439	81.44
302.669	86.44
302.9	78.44
303.13	80.44
303.36	78.44
303.59	73.44
303.82	85.44
304.051	81.44
304.281	82.44
304.511	88.44
304.741	82.44
304.971	89.44
305.201	85.44
305.431	89.44
305.661	93.44
305.891	82.44
306.121	74.44
306.352	87.44
306.582	75.44
306.812	81.44
307.042	80.44
307.272	83.44
307.502	86.44
307.731	85.44
307.961	91.44
308.191	78.44
308.421	83.44
308.651	71.44
308.881	65.44
309.111	89.44
309.341	81.44
309.571	75.44
309.8	75.44
310.03	71.44
310.26	88.44
310.49	77.44
310.72	82.44
310.949	92.44
311.179	78.44
311.409	91.44
311.639	79.44
311.868	96.44
312.098	86.44
312.328	85.44
312.557	89.44
312.787	86.44
313.017	87.44
313.246	82.44
313.476	76.44
313.706	69.44
313.935	73.44
314.165	85.44
314.394	64.44
314.624	86.44
314.853	83.44
315.083	72.44
315.312	88.44
315.542	94.44
315.771	71.44
316.001	70.44
316.23	74.44
316.46	75.44
316.689	74.44
316.919	91.44
317.148	86.44
317.377	87.44
317.607	88.44
317.836	88.44
318.065	81.44
318.295	74.44
318.524	77.44
318.753	90.44
318.983	75.44
319.212	83.44
319.441	82.44
319.67	80.44
319.9	84.44
320.129	75.44
320.358	81.44
320.587	79.44
320.816	83.44
321.046	85.44
321.275	78.44
321.504	65.44
321.733	81.44
321.962	79.44
322.191	70.44
322.42	80.44
322.649	82.44
322.878	89.44
323.108	84.44
323.337	81.44
323.566	84.44
323.795	87.44
324.024	77.44
324.253	102.44
324.482	79.44
324.71	82.44
324.939	81.44
325.168	89.44
325.397	75.44
325.626	72.44
325.855	79.44
326.084	84.44
326.313	79.44
326.542	73.44
326.77	85.44
326.999	58.44
327.228	79.44
327.457	92.44
327.686	80.44
327.914	71.44
328.143	85.44
328.372	79.44
328.6	91.44
328.829	87.44
329.058	86.44
329.287	87.44
329.515	77.44
329.744	81.44
329.972	83.44
330.201	79.44
330.43	80.44
330.658	90.44
330.887	83.44
331.115	82.44
331.344	101.44
331.572	90.44
331.801	87.44
332.03	79.44
332.258	84.44
332.486	81.44
332.715	89.44
332.943	86.44
333.172	88.44
333.4	79.44
333.629	68.44
333.857	85.44
334.085	92.44
334.314	83.44
334.542	91.44
334.771	91.44
334.999	73.44
335.227	88.44
335.455	87.44
335.684	83.44
335.912	73.44
336.14	73.44
336.369	79.44
336.597	89.44
336.825	77.44
337.053	82.44
337.281	100.44
337.51	82.44
337.738	86.44
337.966	85.44
338.194	79.44
338.422	83.44
338.65	78.44
338.878	84.44
339.106	78.44
339.334	90.44
339.562	87.44
339.79	95.44
340.018	86.44
340.246	69.44
340.474	91.44
340.702	65.44
340.93	84.44
341.158	80.44
341.386	78.44
341.614	72.44
341.842	95.44
342.07	84.44
342.298	69.44
342.526	89.44
342.754	81.44
342.981	88.44
343.209	78.44
343.437	77.44
343.665	78.44
343.893	93.44
344.12	89.44
344.348	103.44
344.576	89.44
344.804	65.44
345.031	83.44
345.259	79.44
345.487	72.44
345.714	79.44
345.942	73.44
346.17	88.44
346.397	82.44
346.625	73.44
346.853	79.44
347.08	70.44
347.308	84.44
347.535	85.44
347.763	88.44
347.99	85.44
348.218	75.44
348.445	70.44
348.673	81.44
348.9	77.44
349.128	93.44
349.355	70.44
349.583	70.44
349.81	64.44
350.037	87.44
350.265	97.44
350.492	69.44
350.72	70.44
350.947	70.44
351.174	69.44
351.402	77.44
351.629	87.44
351.856	71.44
352.083	86.44
352.311	57.44
352.538	65.44
352.765	73.44
352.992	81.44
353.22	77.44
353.447	72.44
353.674	97.44
353.901	70.44
354.128	74.44
354.355	73.44
354.583	81.44
354.81	73.44
355.037	83.44
355.264	83.44
355.491	89.44
355.718	76.44
355.945	79.44
356.172	70.44
356.399	85.44
356.626	83.44
356.853	83.44
357.08	89.44
357.307	70.44
357.534	80.44
357.761	87.44
357.988	84.44
358.215	81.44
358.441	75.44
358.668	87.44
358.895	73.44
359.122	72.44
359.349	100.44
359.576	85.44
359.802	93.44
360.029	86.44
360.256	77.44
360.483	79.44
360.709	80.44
360.936	84.44
361.163	73.44
361.39	66.44
361.616	70.44
361.843	86.44
362.07	85.44
362.296	63.44
362.523	70.44
362.749	79.44
362.976	72.44
363.203	75.44
363.429	80.44
363.656	79.44
363.882	75.44
364.109	82.44
364.335	85.44
364.562	93.44
364.788	70.44
365.015	80.44
365.241	72.44
365.468	90.44
365.694	94.44
365.92	80.44
366.147	98.44
366.373	74.44
366.599	70.44
366.826	67.44
367.052	77.44
367.278	88.44
367.505	53.44
367.731	85.44
367.957	81.44
368.184	87.44
368.41	76.44
368.636	85.44
368.862	83.44
369.089	74.44
369.315	81.44
369.541	76.44
369.767	86.44
369.993	77.44
370.219	96.44
370.445	80.44
370.672	91.44
370.898	64.44
371.124	82.44
371.35	82.44
371.576	79.44
371.802	85.44
372.028	70.44
372.254	85.44
372.48	95.44
372.706	79.44
372.932	88.44
373.158	82.44
373.384	79.44
373.61	78.44
373.835	94.44
374.061	78.44
374.287	83.44
374.513	79.44
374.739	74.44
374.965	87.44
375.191	84.44
375.416	82.44
375.642	82.44
375.868	71.44
376.094	72.44
376.319	81.44
376.545	86.44
376.771	72.44
376.997	84.44
377.222	86.44
377.448	70.44
377.674	69.44
377.899	86.44
378.125	84.44
378.35	94.44
378.576	88.44
378.802	76.44
379.027	96.44
379.253	88.44
379.478	82.44
379.704	81.44
379.929	75.44
380.155	67.44
380.38	93.44
380.606	83.44
380.831	85.44
381.057	86.44
381.282	83.44
381.507	95.44
381.733	86.44
381.958	79.44
382.184	78.44
382.409	83.44
382.634	90.44
382.86	69.44
383.085	83.44
383.31	80.44
383.535	87.44
383.761	81.44
383.986	82.44
384.211	90.44
384.436	81.44
384.662	78.44
384.887	77.44
385.112	85.44
385.337	80.44
385.562	86.44
385.787	94.44
386.013	93.44
386.238	94.44
386.463	75.44
386.688	68.44
386.913	73.44
387.138	78.44
387.363	73.44
387.588	86.44
387.813	94.44
388.038	99.44
388.263	88.44
388.488	70.44
388.713	82.44
388.938	60.44
389.163	88.44
389.387	86.44
389.612	90.44
389.837	81.44
390.062	79.44
390.287	77.44
390.512	79.44
390.736	70.44
390.961	76.44
391.186	86.44
391.411	87.44
391.636	74.44
391.86	55.44
392.085	73.44
392.31	90.44
392.534	78.44
392.759	84.44
392.984	85.44
393.208	101.44
393.433	80.44
393.658	99.44
393.882	92.44
394.107	88.44
394.331	88.44
394.556	84.44
394.78	91.44
395.005	86.44
395.229	90.44
395.454	73.44
395.678	90.44
395.903	75.44
396.127	85.44
396.352	81.44
396.576	86.44
396.801	67.44
397.025	89.44
397.249	75.44
397.474	89.44
397.698	72.44
397.922	83.44
398.147	90.44
398.371	72.44
398.595	95.44
398.82	89.44
399.044	79.44
399.268	81.44
399.492	89.44
399.717	88.44
399.941	93.44
400.165	74.44
400.389	95.44
400.613	72.44
400.837	85.44
401.062	74.44
401.286	82.44
401.51	95.44
401.734	85.44
401.958	94.44
402.182	105.44
402.406	86.44
402.63	81.44
402.854	89.44
403.078	76.44
403.302	78.44
403.526	79.44
403.75	86.44
403.974	85.44
404.198	90.44
404.422	79.44
404.645	101.44
404.869	91.44
405.093	89.44
405.317	89.44
405.541	87.44
405.765	84.44
405.988	81.44
406.212	84.44
406.436	82.44
406.66	76.44
406.883	85.44
407.107	97.44
407.331	74.44
407.555	89.44
407.778	83.44
408.002	83.44
408.226	87.44
408.449	82.44
408.673	71.44
408.896	74.44
409.12	87.44
409.344	95.44
409.567	90.44
409.791	78.44
410.014	89.44
410.238	80.44
410.461	83.44
410.685	80.44
410.908	93.44
411.132	93.44
411.355	71.44
411.578	87.44
411.802	85.44
412.025	94.44
412.249	94.44
412.472	80.44
412.695	85.44
412.919	89.44
413.142	94.44
413.365	87.44
413.589	88.44
413.812	89.44
414.035	84.44
414.258	87.44
414.482	96.44
414.705	90.44
414.928	88.44
415.151	86.44
415.374	85.44
415.597	76.44
415.821	87.44
416.044	99.44
416.267	103.44
416.49	86.44
416.713	107.44
416.936	96.44
417.159	92.44
417.382	93.44
417.605	103.44
417.828	94.44
418.051	98.44
418.274	81.44
418.497	75.44
418.72	92.44
418.943	101.44
419.166	88.44
419.389	93.44
419.611	110.44
419.834	101.44
420.057	89.44
420.28	94.44
420.503	87.44
420.726	90.44
420.948	81.44
421.171	90.44
421.394	95.44
421.617	93.44
421.839	97.44
422.062	97.44
422.285	84.44
422.507	100.44
422.73	84.44
422.953	90.44
423.175	97.44
423.398	94.44
423.621	86.44
423.843	91.44
424.066	86.44
424.288	75.44
424.511	93.44
424.733	99.44
424.956	94.44
425.178	82.44
425.401	86.44
425.623	90.44
425.846	82.44
426.068	95.44
426.291	85.44
426.513	80.44
426.735	86.44
426.958	88.44
427.18	98.44
427.402	94.44
427.625	88.44
427.847	97.44
428.069	89.44
428.292	90.44
428.514	84.44
428.736	98.44
428.958	97.44
429.181	96.44
429.403	92.44
429.625	89.44
429.847	100.44
430.069	98.44
430.292	91.44
430.514	95.44
430.736	78.44
430.958	105.44
431.18	94.44
431.402	95.44
431.624	83.44
431.846	73.44
432.068	85.44
432.29	95.44
432.512	88.44
432.734	92.44
432.956	85.44
433.178	97.44
433.4	94.44
433.622	103.44
433.844	93.44
434.066	94.44
434.287	71.44
434.509	66.44
434.731	91.44
434.953	102.44
435.175	106.44
435.397	90.44
435.618	82.44
435.84	64.44
436.062	90.44
436.284	82.44
436.505	93.44
436.727	93.44
436.949	80.44
437.17	77.44
437.392	97.44
437.614	84.44
437.835	87.44
438.057	81.44
438.278	69.44
438.5	82.44
438.721	97.44
438.943	70.44
439.165	73.44
439.386	90.44
439.608	85.44
439.829	94.44
440.05	98.44
440.272	97.44
440.493	90.44
440.715	90.44
440.936	102.44
441.158	96.44
441.379	102.44
441.6	97.44
441.822	79.44
442.043	92.44
442.264	89.44
442.486	101.44
442.707	83.44
442.928	101.44
443.149	98.44
443.371	98.44
443.592	96.44
443.813	88.44
444.034	101.44
444.255	86.44
444.476	96.44
444.698	93.44
444.919	100.44
445.14	174.44
445.361	135.44
445.582	106.44
445.803	91.44
446.024	99.44
446.245	93.44
446.466	89.44
446.687	99.44
446.908	93.44
447.129	91.44
447.35	81.44
447.571	87.44
447.792	95.44
448.013	94.44
448.234	96.44
448.455	87.44
448.675	93.44
448.896	78.44
449.117	94.44
449.338	98.44
449.559	102.44
449.779	105.44
450	96.44
450.221	88.44
450.442	110.44
450.662	91.44
450.883	89.44
451.104	95.44
451.324	101.44
451.545	95.44
451.766	89.44
451.986	96.44
452.207	99.44
452.428	84.44
452.648	90.44
452.869	99.44
453.089	92.44
453.31	83.44
453.53	79.44
453.751	73.44
453.971	98.44
454.192	91.44
454.412	97.44
454.633	79.44
454.853	87.44
455.073	97.44
455.294	83.44
455.514	101.44
455.734	80.44
455.955	78.44
456.175	79.44
456.395	78.44
456.616	83.44
456.836	93.44
457.056	89.44
457.276	86.44
457.497	82.44
457.717	82.44
457.937	88.44
458.157	95.44
458.377	76.44
458.598	94.44
458.818	78.44
459.038	88.44
459.258	78.44
459.478	87.44
459.698	70.44
459.918	78.44
460.138	90.44
460.358	92.44
460.578	88.44
460.798	80.44
461.018	93.44
461.238	83.44
461.458	86.44
461.678	91.44
461.898	87.44
462.118	93.44
462.338	96.44
462.558	79.44
462.777	81.44
462.997	88.44
463.217	93.44
463.437	78.44
463.657	92.44
463.876	101.44
464.096	90.44
464.316	85.44
464.536	84.44
464.755	88.44
464.975	99.44
465.195	91.44
465.414	103.44
465.634	103.44
465.854	94.44
466.073	84.44
466.293	82.44
466.512	101.44
466.732	95.44
466.951	94.44
467.171	99.44
467.391	85.44
467.61	92.44
467.829	108.44
468.049	89.44
468.268	95.44
468.488	93.44
468.707	88.44
468.927	97.44
469.146	91.44
469.365	94.44
469.585	106.44
469.804	111.44
470.023	98.44
470.243	100.44
470.462	101.44
470.681	99.44
470.901	106.44
471.12	94.44
471.339	83.44
471.558	83.44
471.777	85.44
471.997	96.44
472.216	95.44
472.435	97.44
472.654	96.44
472.873	96.44
473.092	86.44
473.311	91.44
473.53	85.44
473.749	85.44
473.968	90.44
474.187	86.44
474.406	90.44
474.625	100.44
474.844	93.44
475.063	85.44
475.282	88.44
475.501	93.44
475.72	96.44
475.939	93.44
476.158	91.44
476.377	94.44
476.596	82.44
476.814	86.44
477.033	87.44
477.252	82.44
477.471	84.44
477.69	90.44
477.908	96.44
478.127	89.44
478.346	92.44
478.564	89.44
478.783	77.44
479.002	87.44
479.22	97.44
479.439	83.44
479.658	89.44
479.876	85.44
480.095	77.44
480.313	90.44
480.532	83.44
480.751	96.44
480.969	90.44
481.188	82.44
481.406	74.44
481.624	80.44
481.843	69.44
482.061	80.44
482.28	88.44
482.498	86.44
482.717	73.44
482.935	86.44
483.153	100.44
483.372	90.44
483.59	93.44
483.808	76.44
484.027	95.44
484.245	95.44
484.463	102.44
484.681	103.44
484.9	97.44
485.118	102.44
485.336	97.44
485.554	98.44
485.772	88.44
485.99	71.44
486.209	86.44
486.427	78.44
486.645	84.44
486.863	89.44
487.081	98.44
487.299	98.44
487.517	105.44
487.735	101.44
487.953	121.44
488.171	97.44
488.389	102.44
488.607	97.44
488.825	77.44
489.043	92.44
489.261	84.44
489.479	105.44
489.696	104.44
489.914	94.44
490.132	100.44
490.35	94.44
490.568	97.44
490.786	98.44
491.003	102.44
491.221	118.44
491.439	105.44
491.657	113.44
491.874	122.44
492.092	122.44
492.31	120.44
492.527	109.44
492.745	118.44
492.963	118.44
493.18	105.44
493.398	112.44
493.615	95.44
493.833	99.44
494.05	129.44
494.268	106.44
494.485	105.44
494.703	103.44
494.92	104.44
495.138	89.44
495.355	93.44
495.573	108.44
495.79	96.44
496.008	100.44
496.225	101.44
496.442	116.44
496.66	98.44
496.877	100.44
497.094	123.44
497.312	109.44
497.529	116.44
497.746	100.44
497.963	106.44
498.181	95.44
498.398	107.44
498.615	88.44
498.832	86.44
499.049	90.44
499.267	86.44
499.484	80.44
499.701	91.44
499.918	104.44
500.135	104.44
500.352	102.44
500.569	110.44
500.786	83.44
501.003	94.44
501.22	93.44
501.437	94.44
501.654	105.44
501.871	90.44
502.088	87.44
502.305	99.44
502.522	99.44
502.739	109.44
502.956	89.44
503.172	81.44
503.389	90.44
503.606	87.44
503.823	83.44
504.04	102.44
504.256	101.44
504.473	94.44
504.69	85.44
504.907	85.44
505.123	91.44
505.34	89.44
505.557	81.44
505.773	101.44
505.99	80.44
506.207	100.44
506.423	94.44
506.64	95.44
506.856	85.44
507.073	76.44
507.289	94.44
507.506	85.44
507.722	95.44
507.939	79.44
508.155	80.44
508.372	72.44
508.588	87.44
508.805	87.44
509.021	89.44
509.238	79.44
509.454	73.44
509.67	72.44
509.887	76.44
510.103	72.44
510.319	90.44
510.536	81.44
510.752	86.44
510.968	93.44
511.184	81.44
511.401	79.44
511.617	82.44
511.833	80.44
512.049	87.44
512.265	81.44
512.481	73.44
512.698	83.44
512.914	82.44
513.13	81.44
513.346	82.44
513.562	85.44
513.778	75.44
513.994	73.44
514.21	71.44
514.426	90.44
514.642	72.44
514.858	77.44
515.074	86.44
515.29	96.44
515.506	67.44
515.721	81.44
515.937	71.44
516.153	74.44
516.369	77.44
516.585	77.44
516.801	80.44
517.016	73.44
517.232	84.44
517.448	81.44
517.664	87.44
517.879	91.44
518.095	91.44
518.311	91.44
