Data from Location4.07152019.Energy5.Lamp.07192019.3%Agarose_HRD10591_15-26-19-578.txt Node
Date: Fri Jul 19 15:26:19 EDT 2019
User: cochatt
Spectrometer: HR+D1059
Trigger mode: 1
Integration Time (sec): 1.000000E-1
Scans to average: 1
Electric dark correction enabled: true
Nonlinearity correction enabled: false
Boxcar width: 0
XAxis mode: Wavelengths
Number of Pixels in Spectrum: 2048
>>>>>Begin Spectral Data<<<<<
223.165	-23.88
223.4	-23.88
223.635	-23.88
223.869	-19.88
224.104	-16.88
224.338	-15.88
224.573	-6.88
224.808	-7.88
225.042	-15.88
225.277	-19.88
225.511	-11.88
225.746	21.12
225.98	12.12
226.215	9.12
226.449	20.12
226.683	18.12
226.918	21.12
227.152	37.12
227.387	38.12
227.621	32.12
227.856	46.12
228.09	40.12
228.324	42.12
228.559	50.12
228.793	41.12
229.027	50.12
229.262	85.12
229.496	62.12
229.73	74.12
229.964	68.12
230.199	56.12
230.433	56.12
230.667	80.12
230.901	69.12
231.136	70.12
231.37	68.12
231.604	90.12
231.838	79.12
232.072	82.12
232.306	85.12
232.541	94.12
232.775	85.12
233.009	85.12
233.243	73.12
233.477	82.12
233.711	78.12
233.945	79.12
234.179	95.12
234.413	88.12
234.647	68.12
234.881	80.12
235.115	73.12
235.349	79.12
235.583	71.12
235.817	86.12
236.051	79.12
236.285	82.12
236.519	70.12
236.753	87.12
236.987	90.12
237.221	84.12
237.455	78.12
237.689	64.12
237.922	80.12
238.156	76.12
238.39	73.12
238.624	77.12
238.858	67.12
239.091	68.12
239.325	79.12
239.559	66.12
239.793	67.12
240.027	77.12
240.26	63.12
240.494	73.12
240.728	73.12
240.961	81.12
241.195	78.12
241.429	71.12
241.662	72.12
241.896	81.12
242.13	64.12
242.363	64.12
242.597	80.12
242.83	76.12
243.064	66.12
243.298	75.12
243.531	85.12
243.765	67.12
243.998	81.12
244.232	94.12
244.465	80.12
244.699	65.12
244.932	60.12
245.166	80.12
245.399	64.12
245.633	85.12
245.866	66.12
246.099	77.12
246.333	89.12
246.566	77.12
246.8	76.12
247.033	72.12
247.266	58.12
247.5	78.12
247.733	85.12
247.966	86.12
248.2	55.12
248.433	61.12
248.666	75.12
248.899	82.12
249.133	71.12
249.366	87.12
249.599	72.12
249.832	73.12
250.066	85.12
250.299	69.12
250.532	85.12
250.765	67.12
250.998	73.12
251.231	75.12
251.465	80.12
251.698	79.12
251.931	81.12
252.164	64.12
252.397	60.12
252.63	84.12
252.863	74.12
253.096	67.12
253.329	76.12
253.562	81.12
253.795	73.12
254.028	84.12
254.261	80.12
254.494	74.12
254.727	73.12
254.96	76.12
255.193	85.12
255.426	84.12
255.659	97.12
255.892	72.12
256.124	79.12
256.357	73.12
256.59	72.12
256.823	77.12
257.056	89.12
257.289	94.12
257.521	73.12
257.754	71.12
257.987	77.12
258.22	73.12
258.452	89.12
258.685	75.12
258.918	72.12
259.151	61.12
259.383	71.12
259.616	82.12
259.849	89.12
260.081	82.12
260.314	82.12
260.547	79.12
260.779	70.12
261.012	76.12
261.244	67.12
261.477	89.12
261.71	64.12
261.942	72.12
262.175	83.12
262.407	94.12
262.64	81.12
262.872	60.12
263.105	74.12
263.337	85.12
263.57	89.12
263.802	83.12
264.035	74.12
264.267	74.12
264.499	90.12
264.732	86.12
264.964	81.12
265.197	90.12
265.429	82.12
265.661	71.12
265.894	70.12
266.126	78.12
266.358	82.12
266.591	87.12
266.823	85.12
267.055	78.12
267.287	70.12
267.52	67.12
267.752	95.12
267.984	79.12
268.216	80.12
268.448	72.12
268.681	84.12
268.913	82.12
269.145	69.12
269.377	73.12
269.609	64.12
269.841	64.12
270.073	81.12
270.306	85.12
270.538	78.12
270.77	87.12
271.002	79.12
271.234	79.12
271.466	79.12
271.698	84.12
271.93	85.12
272.162	85.12
272.394	78.12
272.626	75.12
272.858	74.12
273.09	78.12
273.322	84.12
273.553	94.12
273.785	63.12
274.017	77.12
274.249	76.12
274.481	72.12
274.713	68.12
274.945	93.12
275.176	84.12
275.408	83.12
275.64	87.12
275.872	96.12
276.104	82.12
276.335	82.12
276.567	76.12
276.799	93.12
277.031	71.12
277.262	89.12
277.494	70.12
277.726	86.12
277.957	85.12
278.189	78.12
278.421	81.12
278.652	82.12
278.884	88.12
279.115	87.12
279.347	66.12
279.579	91.12
279.81	85.12
280.042	80.12
280.273	80.12
280.505	75.12
280.736	90.12
280.968	81.12
281.199	68.12
281.431	73.12
281.662	85.12
281.894	79.12
282.125	98.12
282.356	90.12
282.588	89.12
282.819	108.12
283.051	97.12
283.282	70.12
283.513	82.12
283.745	76.12
283.976	86.12
284.207	82.12
284.439	80.12
284.67	80.12
284.901	88.12
285.132	93.12
285.364	75.12
285.595	63.12
285.826	75.12
286.057	86.12
286.288	85.12
286.52	99.12
286.751	84.12
286.982	81.12
287.213	70.12
287.444	90.12
287.675	87.12
287.906	82.12
288.138	84.12
288.369	70.12
288.6	94.12
288.831	79.12
289.062	94.12
289.293	82.12
289.524	91.12
289.755	71.12
289.986	79.12
290.217	74.12
290.448	74.12
290.679	83.12
290.91	67.12
291.141	72.12
291.371	85.12
291.602	87.12
291.833	92.12
292.064	92.12
292.295	78.12
292.526	85.12
292.757	77.12
292.987	80.12
293.218	80.12
293.449	87.12
293.68	80.12
293.91	80.12
294.141	78.12
294.372	70.12
294.603	80.12
294.833	82.12
295.064	74.12
295.295	93.12
295.525	77.12
295.756	89.12
295.987	94.12
296.217	72.12
296.448	74.12
296.679	79.12
296.909	78.12
297.14	83.12
297.37	96.12
297.601	84.12
297.831	86.12
298.062	78.12
298.292	94.12
298.523	79.12
298.753	92.12
298.984	73.12
299.214	82.12
299.445	64.12
299.675	79.12
299.905	80.12
300.136	103.12
300.366	85.12
300.597	79.12
300.827	87.12
301.057	90.12
301.288	98.12
301.518	90.12
301.748	77.12
301.979	71.12
302.209	87.12
302.439	81.12
302.669	76.12
302.9	88.12
303.13	87.12
303.36	74.12
303.59	76.12
303.82	89.12
304.051	80.12
304.281	72.12
304.511	79.12
304.741	81.12
304.971	85.12
305.201	85.12
305.431	77.12
305.661	73.12
305.891	69.12
306.121	66.12
306.352	87.12
306.582	93.12
306.812	91.12
307.042	78.12
307.272	78.12
307.502	83.12
307.731	79.12
307.961	77.12
308.191	77.12
308.421	73.12
308.651	91.12
308.881	72.12
309.111	81.12
309.341	86.12
309.571	78.12
309.8	93.12
310.03	86.12
310.26	79.12
310.49	94.12
310.72	75.12
310.949	84.12
311.179	77.12
311.409	92.12
311.639	79.12
311.868	68.12
312.098	87.12
312.328	82.12
312.557	99.12
312.787	84.12
313.017	80.12
313.246	78.12
313.476	87.12
313.706	80.12
313.935	79.12
314.165	79.12
314.394	76.12
314.624	94.12
314.853	89.12
315.083	83.12
315.312	77.12
315.542	79.12
315.771	84.12
316.001	100.12
316.23	85.12
316.46	92.12
316.689	82.12
316.919	76.12
317.148	90.12
317.377	81.12
317.607	77.12
317.836	68.12
318.065	61.12
318.295	94.12
318.524	81.12
318.753	88.12
318.983	76.12
319.212	82.12
319.441	87.12
319.67	82.12
319.9	74.12
320.129	80.12
320.358	75.12
320.587	77.12
320.816	72.12
321.046	91.12
321.275	69.12
321.504	85.12
321.733	77.12
321.962	94.12
322.191	83.12
322.42	82.12
322.649	95.12
322.878	82.12
323.108	83.12
323.337	80.12
323.566	89.12
323.795	96.12
324.024	85.12
324.253	80.12
324.482	83.12
324.71	72.12
324.939	79.12
325.168	79.12
325.397	80.12
325.626	79.12
325.855	84.12
326.084	80.12
326.313	73.12
326.542	78.12
326.77	67.12
326.999	76.12
327.228	75.12
327.457	78.12
327.686	76.12
327.914	83.12
328.143	71.12
328.372	73.12
328.6	84.12
328.829	91.12
329.058	75.12
329.287	84.12
329.515	74.12
329.744	89.12
329.972	83.12
330.201	91.12
330.43	72.12
330.658	87.12
330.887	87.12
331.115	88.12
331.344	68.12
331.572	91.12
331.801	92.12
332.03	89.12
332.258	84.12
332.486	73.12
332.715	87.12
332.943	78.12
333.172	101.12
333.4	77.12
333.629	83.12
333.857	75.12
334.085	72.12
334.314	88.12
334.542	88.12
334.771	65.12
334.999	66.12
335.227	84.12
335.455	76.12
335.684	77.12
335.912	87.12
336.14	69.12
336.369	89.12
336.597	81.12
336.825	82.12
337.053	91.12
337.281	79.12
337.51	81.12
337.738	72.12
337.966	73.12
338.194	94.12
338.422	93.12
338.65	73.12
338.878	77.12
339.106	81.12
339.334	74.12
339.562	84.12
339.79	83.12
340.018	78.12
340.246	72.12
340.474	79.12
340.702	86.12
340.93	66.12
341.158	84.12
341.386	89.12
341.614	75.12
341.842	79.12
342.07	81.12
342.298	75.12
342.526	73.12
342.754	81.12
342.981	74.12
343.209	83.12
343.437	80.12
343.665	76.12
343.893	83.12
344.12	90.12
344.348	89.12
344.576	68.12
344.804	82.12
345.031	90.12
345.259	82.12
345.487	83.12
345.714	84.12
345.942	80.12
346.17	79.12
346.397	80.12
346.625	87.12
346.853	72.12
347.08	74.12
347.308	76.12
347.535	76.12
347.763	84.12
347.99	80.12
348.218	93.12
348.445	88.12
348.673	81.12
348.9	85.12
349.128	67.12
349.355	74.12
349.583	72.12
349.81	87.12
350.037	77.12
350.265	71.12
350.492	77.12
350.72	82.12
350.947	102.12
351.174	88.12
351.402	71.12
351.629	81.12
351.856	87.12
352.083	80.12
352.311	80.12
352.538	80.12
352.765	83.12
352.992	73.12
353.22	85.12
353.447	76.12
353.674	71.12
353.901	84.12
354.128	80.12
354.355	82.12
354.583	95.12
354.81	86.12
355.037	73.12
355.264	86.12
355.491	70.12
355.718	85.12
355.945	76.12
356.172	80.12
356.399	84.12
356.626	80.12
356.853	97.12
357.08	86.12
357.307	84.12
357.534	80.12
357.761	81.12
357.988	85.12
358.215	84.12
358.441	78.12
358.668	85.12
358.895	89.12
359.122	79.12
359.349	71.12
359.576	94.12
359.802	92.12
360.029	68.12
360.256	76.12
360.483	76.12
360.709	77.12
360.936	89.12
361.163	85.12
361.39	74.12
361.616	78.12
361.843	92.12
362.07	83.12
362.296	84.12
362.523	93.12
362.749	78.12
362.976	85.12
363.203	85.12
363.429	74.12
363.656	81.12
363.882	87.12
364.109	92.12
364.335	93.12
364.562	87.12
364.788	91.12
365.015	78.12
365.241	72.12
365.468	70.12
365.694	81.12
365.92	89.12
366.147	69.12
366.373	76.12
366.599	92.12
366.826	79.12
367.052	90.12
367.278	74.12
367.505	94.12
367.731	82.12
367.957	86.12
368.184	75.12
368.41	85.12
368.636	82.12
368.862	85.12
369.089	78.12
369.315	87.12
369.541	95.12
369.767	93.12
369.993	76.12
370.219	85.12
370.445	82.12
370.672	81.12
370.898	99.12
371.124	78.12
371.35	85.12
371.576	86.12
371.802	87.12
372.028	91.12
372.254	82.12
372.48	94.12
372.706	79.12
372.932	83.12
373.158	96.12
373.384	93.12
373.61	74.12
373.835	73.12
374.061	77.12
374.287	73.12
374.513	80.12
374.739	89.12
374.965	69.12
375.191	81.12
375.416	87.12
375.642	84.12
375.868	70.12
376.094	72.12
376.319	85.12
376.545	89.12
376.771	81.12
376.997	73.12
377.222	94.12
377.448	82.12
377.674	77.12
377.899	84.12
378.125	67.12
378.35	78.12
378.576	79.12
378.802	78.12
379.027	85.12
379.253	82.12
379.478	71.12
379.704	89.12
379.929	92.12
380.155	83.12
380.38	91.12
380.606	91.12
380.831	80.12
381.057	93.12
381.282	70.12
381.507	70.12
381.733	78.12
381.958	96.12
382.184	93.12
382.409	80.12
382.634	84.12
382.86	70.12
383.085	82.12
383.31	90.12
383.535	93.12
383.761	76.12
383.986	87.12
384.211	91.12
384.436	80.12
384.662	88.12
384.887	74.12
385.112	72.12
385.337	87.12
385.562	83.12
385.787	86.12
386.013	84.12
386.238	80.12
386.463	88.12
386.688	78.12
386.913	87.12
387.138	77.12
387.363	85.12
387.588	85.12
387.813	82.12
388.038	72.12
388.263	81.12
388.488	84.12
388.713	79.12
388.938	87.12
389.163	92.12
389.387	78.12
389.612	68.12
389.837	68.12
390.062	99.12
390.287	83.12
390.512	93.12
390.736	82.12
390.961	83.12
391.186	87.12
391.411	78.12
391.636	84.12
391.86	78.12
392.085	88.12
392.31	100.12
392.534	84.12
392.759	82.12
392.984	98.12
393.208	70.12
393.433	82.12
393.658	93.12
393.882	71.12
394.107	82.12
394.331	86.12
394.556	87.12
394.78	89.12
395.005	81.12
395.229	96.12
395.454	98.12
395.678	74.12
395.903	79.12
396.127	99.12
396.352	89.12
396.576	88.12
396.801	88.12
397.025	76.12
397.249	75.12
397.474	93.12
397.698	83.12
397.922	80.12
398.147	72.12
398.371	70.12
398.595	82.12
398.82	84.12
399.044	99.12
399.268	87.12
399.492	78.12
399.717	86.12
399.941	83.12
400.165	82.12
400.389	82.12
400.613	83.12
400.837	86.12
401.062	100.12
401.286	80.12
401.51	81.12
401.734	93.12
401.958	84.12
402.182	67.12
402.406	84.12
402.63	73.12
402.854	87.12
403.078	89.12
403.302	88.12
403.526	97.12
403.75	93.12
403.974	101.12
404.198	74.12
404.422	95.12
404.645	82.12
404.869	81.12
405.093	88.12
405.317	88.12
405.541	73.12
405.765	84.12
405.988	87.12
406.212	88.12
406.436	86.12
406.66	86.12
406.883	81.12
407.107	93.12
407.331	95.12
407.555	85.12
407.778	86.12
408.002	99.12
408.226	82.12
408.449	99.12
408.673	84.12
408.896	84.12
409.12	86.12
409.344	84.12
409.567	82.12
409.791	93.12
410.014	87.12
410.238	96.12
410.461	85.12
410.685	88.12
410.908	92.12
411.132	92.12
411.355	78.12
411.578	85.12
411.802	89.12
412.025	75.12
412.249	81.12
412.472	92.12
412.695	86.12
412.919	91.12
413.142	77.12
413.365	67.12
413.589	87.12
413.812	71.12
414.035	95.12
414.258	90.12
414.482	87.12
414.705	93.12
414.928	77.12
415.151	85.12
415.374	88.12
415.597	88.12
415.821	81.12
416.044	91.12
416.267	91.12
416.49	86.12
416.713	89.12
416.936	84.12
417.159	87.12
417.382	77.12
417.605	84.12
417.828	93.12
418.051	88.12
418.274	97.12
418.497	89.12
418.72	86.12
418.943	84.12
419.166	89.12
419.389	97.12
419.611	88.12
419.834	98.12
420.057	89.12
420.28	77.12
420.503	89.12
420.726	91.12
420.948	80.12
421.171	102.12
421.394	83.12
421.617	84.12
421.839	93.12
422.062	94.12
422.285	93.12
422.507	94.12
422.73	80.12
422.953	87.12
423.175	96.12
423.398	92.12
423.621	99.12
423.843	98.12
424.066	84.12
424.288	89.12
424.511	104.12
424.733	98.12
424.956	104.12
425.178	97.12
425.401	93.12
425.623	93.12
425.846	91.12
426.068	96.12
426.291	94.12
426.513	97.12
426.735	92.12
426.958	88.12
427.18	93.12
427.402	94.12
427.625	79.12
427.847	91.12
428.069	95.12
428.292	115.12
428.514	78.12
428.736	87.12
428.958	79.12
429.181	104.12
429.403	94.12
429.625	89.12
429.847	95.12
430.069	83.12
430.292	92.12
430.514	95.12
430.736	85.12
430.958	93.12
431.18	89.12
431.402	84.12
431.624	96.12
431.846	85.12
432.068	88.12
432.29	74.12
432.512	91.12
432.734	94.12
432.956	85.12
433.178	90.12
433.4	100.12
433.622	92.12
433.844	97.12
434.066	87.12
434.287	83.12
434.509	89.12
434.731	75.12
434.953	86.12
435.175	88.12
435.397	88.12
435.618	89.12
435.84	86.12
436.062	77.12
436.284	90.12
436.505	94.12
436.727	108.12
436.949	81.12
437.17	94.12
437.392	94.12
437.614	80.12
437.835	94.12
438.057	94.12
438.278	86.12
438.5	98.12
438.721	100.12
438.943	95.12
439.165	92.12
439.386	105.12
439.608	98.12
439.829	100.12
440.05	104.12
440.272	91.12
440.493	100.12
440.715	91.12
440.936	105.12
441.158	103.12
441.379	113.12
441.6	95.12
441.822	93.12
442.043	90.12
442.264	95.12
442.486	84.12
442.707	95.12
442.928	109.12
443.149	85.12
443.371	86.12
443.592	87.12
443.813	80.12
444.034	88.12
444.255	86.12
444.476	86.12
444.698	94.12
444.919	89.12
445.14	199.12
445.361	134.12
445.582	99.12
445.803	97.12
446.024	97.12
446.245	86.12
446.466	105.12
446.687	98.12
446.908	108.12
447.129	104.12
447.35	101.12
447.571	89.12
447.792	96.12
448.013	86.12
448.234	93.12
448.455	93.12
448.675	96.12
448.896	103.12
449.117	96.12
449.338	93.12
449.559	99.12
449.779	102.12
450	96.12
450.221	90.12
450.442	93.12
450.662	88.12
450.883	81.12
451.104	92.12
451.324	83.12
451.545	102.12
451.766	89.12
451.986	87.12
452.207	100.12
452.428	92.12
452.648	91.12
452.869	91.12
453.089	95.12
453.31	90.12
453.53	104.12
453.751	95.12
453.971	85.12
454.192	86.12
454.412	78.12
454.633	83.12
454.853	83.12
455.073	105.12
455.294	83.12
455.514	80.12
455.734	101.12
455.955	98.12
456.175	97.12
456.395	87.12
456.616	81.12
456.836	82.12
457.056	91.12
457.276	81.12
457.497	93.12
457.717	83.12
457.937	80.12
458.157	100.12
458.377	80.12
458.598	85.12
458.818	76.12
459.038	77.12
459.258	78.12
459.478	79.12
459.698	78.12
459.918	86.12
460.138	75.12
460.358	78.12
460.578	82.12
460.798	97.12
461.018	77.12
461.238	81.12
461.458	88.12
461.678	93.12
461.898	84.12
462.118	79.12
462.338	94.12
462.558	94.12
462.777	91.12
462.997	92.12
463.217	79.12
463.437	79.12
463.657	74.12
463.876	78.12
464.096	86.12
464.316	83.12
464.536	92.12
464.755	104.12
464.975	89.12
465.195	95.12
465.414	94.12
465.634	87.12
465.854	92.12
466.073	78.12
466.293	83.12
466.512	83.12
466.732	99.12
466.951	106.12
467.171	106.12
467.391	95.12
467.61	97.12
467.829	101.12
468.049	89.12
468.268	85.12
468.488	96.12
468.707	83.12
468.927	90.12
469.146	97.12
469.365	99.12
469.585	85.12
469.804	82.12
470.023	98.12
470.243	96.12
470.462	98.12
470.681	89.12
470.901	92.12
471.12	95.12
471.339	94.12
471.558	93.12
471.777	94.12
471.997	87.12
472.216	97.12
472.435	78.12
472.654	82.12
472.873	84.12
473.092	88.12
473.311	89.12
473.53	102.12
473.749	96.12
473.968	104.12
474.187	103.12
474.406	80.12
474.625	93.12
474.844	89.12
475.063	78.12
475.282	91.12
475.501	95.12
475.72	93.12
475.939	105.12
476.158	93.12
476.377	96.12
476.596	93.12
476.814	86.12
477.033	83.12
477.252	88.12
477.471	86.12
477.69	113.12
477.908	94.12
478.127	102.12
478.346	110.12
478.564	106.12
478.783	85.12
479.002	88.12
479.22	95.12
479.439	96.12
479.658	80.12
479.876	79.12
480.095	75.12
480.313	89.12
480.532	94.12
480.751	105.12
480.969	87.12
481.188	82.12
481.406	83.12
481.624	90.12
481.843	86.12
482.061	76.12
482.28	85.12
482.498	80.12
482.717	81.12
482.935	82.12
483.153	99.12
483.372	98.12
483.59	110.12
483.808	95.12
484.027	95.12
484.245	96.12
484.463	104.12
484.681	101.12
484.9	93.12
485.118	94.12
485.336	82.12
485.554	85.12
485.772	93.12
485.99	81.12
486.209	72.12
486.427	85.12
486.645	90.12
486.863	103.12
487.081	89.12
487.299	89.12
487.517	91.12
487.735	95.12
487.953	121.12
488.171	107.12
488.389	114.12
488.607	93.12
488.825	92.12
489.043	92.12
489.261	88.12
489.479	94.12
489.696	104.12
489.914	79.12
490.132	93.12
490.35	106.12
490.568	102.12
490.786	101.12
491.003	103.12
491.221	103.12
491.439	119.12
491.657	102.12
491.874	105.12
492.092	135.12
492.31	130.12
492.527	130.12
492.745	111.12
492.963	127.12
493.18	112.12
493.398	116.12
493.615	99.12
493.833	103.12
494.05	103.12
494.268	101.12
494.485	101.12
494.703	92.12
494.92	120.12
495.138	116.12
495.355	112.12
495.573	110.12
495.79	101.12
496.008	102.12
496.225	109.12
496.442	98.12
496.66	103.12
496.877	91.12
497.094	105.12
497.312	90.12
497.529	92.12
497.746	104.12
497.963	99.12
498.181	101.12
498.398	85.12
498.615	87.12
498.832	83.12
499.049	88.12
499.267	106.12
499.484	76.12
499.701	98.12
499.918	93.12
500.135	110.12
500.352	93.12
500.569	102.12
500.786	103.12
501.003	101.12
501.22	89.12
501.437	108.12
501.654	94.12
501.871	105.12
502.088	103.12
502.305	91.12
502.522	87.12
502.739	96.12
502.956	95.12
503.172	98.12
503.389	89.12
503.606	88.12
503.823	83.12
504.04	90.12
504.256	105.12
504.473	97.12
504.69	97.12
504.907	79.12
505.123	86.12
505.34	95.12
505.557	103.12
505.773	101.12
505.99	90.12
506.207	94.12
506.423	83.12
506.64	85.12
506.856	88.12
507.073	94.12
507.289	95.12
507.506	81.12
507.722	95.12
507.939	89.12
508.155	99.12
508.372	92.12
508.588	86.12
508.805	87.12
509.021	97.12
509.238	86.12
509.454	92.12
509.67	101.12
509.887	73.12
510.103	93.12
510.319	85.12
510.536	79.12
510.752	99.12
510.968	85.12
511.184	67.12
511.401	72.12
511.617	79.12
511.833	80.12
512.049	83.12
512.265	93.12
512.481	84.12
512.698	87.12
512.914	81.12
513.13	74.12
513.346	74.12
513.562	74.12
513.778	77.12
513.994	83.12
514.21	75.12
514.426	88.12
514.642	86.12
514.858	76.12
515.074	86.12
515.29	94.12
515.506	88.12
515.721	95.12
515.937	86.12
516.153	78.12
516.369	83.12
516.585	87.12
516.801	92.12
517.016	92.12
517.232	71.12
517.448	91.12
517.664	88.12
517.879	94.12
518.095	80.12
