Data from Location4.07152019.Energy5.Lamp.07192019.3%Agarose_HRD10591_15-25-06-577.txt Node
Date: Fri Jul 19 15:25:06 EDT 2019
User: cochatt
Spectrometer: HR+D1059
Trigger mode: 1
Integration Time (sec): 1.000000E-1
Scans to average: 1
Electric dark correction enabled: true
Nonlinearity correction enabled: false
Boxcar width: 0
XAxis mode: Wavelengths
Number of Pixels in Spectrum: 2048
>>>>>Begin Spectral Data<<<<<
223.165	-24.88
223.4	-24.88
223.635	-24.88
223.869	-0.88
224.104	-6.88
224.338	-13.88
224.573	-7.88
224.808	-12.88
225.042	-1.88
225.277	-11.88
225.511	-0.88
225.746	-11.88
225.98	-0.88
226.215	3.12
226.449	2.12
226.683	28.12
226.918	22.12
227.152	39.12
227.387	39.12
227.621	30.12
227.856	30.12
228.09	43.12
228.324	58.12
228.559	50.12
228.793	57.12
229.027	56.12
229.262	60.12
229.496	67.12
229.73	77.12
229.964	69.12
230.199	71.12
230.433	67.12
230.667	63.12
230.901	72.12
231.136	71.12
231.37	79.12
231.604	79.12
231.838	79.12
232.072	87.12
232.306	85.12
232.541	86.12
232.775	85.12
233.009	77.12
233.243	85.12
233.477	78.12
233.711	79.12
233.945	95.12
234.179	86.12
234.413	88.12
234.647	79.12
234.881	71.12
235.115	87.12
235.349	79.12
235.583	78.12
235.817	89.12
236.051	88.12
236.285	78.12
236.519	69.12
236.753	82.12
236.987	72.12
237.221	74.12
237.455	78.12
237.689	59.12
237.922	71.12
238.156	78.12
238.39	84.12
238.624	71.12
238.858	76.12
239.091	78.12
239.325	78.12
239.559	78.12
239.793	76.12
240.027	77.12
240.26	72.12
240.494	81.12
240.728	78.12
240.961	75.12
241.195	70.12
241.429	94.12
241.662	77.12
241.896	68.12
242.13	76.12
242.363	72.12
242.597	79.12
242.83	77.12
243.064	80.12
243.298	73.12
243.531	90.12
243.765	76.12
243.998	73.12
244.232	75.12
244.465	75.12
244.699	67.12
244.932	87.12
245.166	70.12
245.399	63.12
245.633	58.12
245.866	65.12
246.099	84.12
246.333	83.12
246.566	70.12
246.8	60.12
247.033	71.12
247.266	83.12
247.5	75.12
247.733	84.12
247.966	78.12
248.2	87.12
248.433	85.12
248.666	79.12
248.899	91.12
249.133	72.12
249.366	73.12
249.599	78.12
249.832	77.12
250.066	85.12
250.299	81.12
250.532	71.12
250.765	66.12
250.998	82.12
251.231	84.12
251.465	79.12
251.698	78.12
251.931	81.12
252.164	77.12
252.397	83.12
252.63	82.12
252.863	64.12
253.096	82.12
253.329	84.12
253.562	62.12
253.795	64.12
254.028	80.12
254.261	68.12
254.494	73.12
254.727	69.12
254.96	92.12
255.193	77.12
255.426	69.12
255.659	70.12
255.892	78.12
256.124	63.12
256.357	56.12
256.59	80.12
256.823	75.12
257.056	70.12
257.289	78.12
257.521	79.12
257.754	78.12
257.987	85.12
258.22	91.12
258.452	85.12
258.685	80.12
258.918	86.12
259.151	72.12
259.383	75.12
259.616	77.12
259.849	81.12
260.081	86.12
260.314	87.12
260.547	78.12
260.779	81.12
261.012	84.12
261.244	89.12
261.477	94.12
261.71	95.12
261.942	80.12
262.175	92.12
262.407	79.12
262.64	78.12
262.872	85.12
263.105	62.12
263.337	72.12
263.57	72.12
263.802	70.12
264.035	76.12
264.267	79.12
264.499	57.12
264.732	100.12
264.964	85.12
265.197	73.12
265.429	79.12
265.661	87.12
265.894	84.12
266.126	91.12
266.358	84.12
266.591	81.12
266.823	82.12
267.055	88.12
267.287	69.12
267.52	69.12
267.752	96.12
267.984	76.12
268.216	76.12
268.448	70.12
268.681	71.12
268.913	76.12
269.145	81.12
269.377	85.12
269.609	81.12
269.841	70.12
270.073	68.12
270.306	84.12
270.538	76.12
270.77	79.12
271.002	65.12
271.234	59.12
271.466	86.12
271.698	89.12
271.93	91.12
272.162	90.12
272.394	78.12
272.626	74.12
272.858	72.12
273.09	78.12
273.322	87.12
273.553	84.12
273.785	83.12
274.017	95.12
274.249	71.12
274.481	70.12
274.713	81.12
274.945	77.12
275.176	68.12
275.408	80.12
275.64	87.12
275.872	89.12
276.104	95.12
276.335	81.12
276.567	74.12
276.799	85.12
277.031	79.12
277.262	80.12
277.494	88.12
277.726	94.12
277.957	77.12
278.189	76.12
278.421	80.12
278.652	86.12
278.884	92.12
279.115	90.12
279.347	76.12
279.579	82.12
279.81	93.12
280.042	68.12
280.273	75.12
280.505	79.12
280.736	77.12
280.968	99.12
281.199	88.12
281.431	92.12
281.662	79.12
281.894	80.12
282.125	83.12
282.356	96.12
282.588	91.12
282.819	85.12
283.051	83.12
283.282	93.12
283.513	92.12
283.745	85.12
283.976	80.12
284.207	86.12
284.439	83.12
284.67	72.12
284.901	72.12
285.132	92.12
285.364	81.12
285.595	98.12
285.826	84.12
286.057	68.12
286.288	76.12
286.52	85.12
286.751	69.12
286.982	79.12
287.213	76.12
287.444	93.12
287.675	76.12
287.906	81.12
288.138	93.12
288.369	78.12
288.6	81.12
288.831	76.12
289.062	84.12
289.293	72.12
289.524	79.12
289.755	81.12
289.986	86.12
290.217	74.12
290.448	81.12
290.679	80.12
290.91	77.12
291.141	83.12
291.371	76.12
291.602	84.12
291.833	80.12
292.064	108.12
292.295	84.12
292.526	70.12
292.757	82.12
292.987	80.12
293.218	94.12
293.449	88.12
293.68	75.12
293.91	81.12
294.141	96.12
294.372	75.12
294.603	94.12
294.833	83.12
295.064	67.12
295.295	78.12
295.525	81.12
295.756	85.12
295.987	70.12
296.217	81.12
296.448	75.12
296.679	83.12
296.909	80.12
297.14	85.12
297.37	74.12
297.601	72.12
297.831	75.12
298.062	72.12
298.292	85.12
298.523	87.12
298.753	90.12
298.984	82.12
299.214	73.12
299.445	77.12
299.675	79.12
299.905	78.12
300.136	84.12
300.366	82.12
300.597	76.12
300.827	80.12
301.057	93.12
301.288	79.12
301.518	82.12
301.748	78.12
301.979	79.12
302.209	81.12
302.439	89.12
302.669	94.12
302.9	96.12
303.13	82.12
303.36	82.12
303.59	99.12
303.82	79.12
304.051	76.12
304.281	81.12
304.511	76.12
304.741	76.12
304.971	87.12
305.201	88.12
305.431	85.12
305.661	81.12
305.891	93.12
306.121	84.12
306.352	81.12
306.582	86.12
306.812	96.12
307.042	85.12
307.272	70.12
307.502	69.12
307.731	79.12
307.961	69.12
308.191	71.12
308.421	77.12
308.651	84.12
308.881	82.12
309.111	80.12
309.341	90.12
309.571	87.12
309.8	84.12
310.03	96.12
310.26	100.12
310.49	92.12
310.72	86.12
310.949	72.12
311.179	90.12
311.409	82.12
311.639	79.12
311.868	87.12
312.098	78.12
312.328	75.12
312.557	85.12
312.787	73.12
313.017	82.12
313.246	90.12
313.476	75.12
313.706	90.12
313.935	77.12
314.165	74.12
314.394	90.12
314.624	81.12
314.853	82.12
315.083	76.12
315.312	88.12
315.542	73.12
315.771	86.12
316.001	83.12
316.23	67.12
316.46	80.12
316.689	78.12
316.919	79.12
317.148	83.12
317.377	89.12
317.607	83.12
317.836	61.12
318.065	81.12
318.295	69.12
318.524	83.12
318.753	76.12
318.983	91.12
319.212	86.12
319.441	91.12
319.67	86.12
319.9	92.12
320.129	89.12
320.358	92.12
320.587	81.12
320.816	93.12
321.046	99.12
321.275	96.12
321.504	78.12
321.733	77.12
321.962	90.12
322.191	82.12
322.42	75.12
322.649	91.12
322.878	89.12
323.108	92.12
323.337	81.12
323.566	96.12
323.795	85.12
324.024	72.12
324.253	79.12
324.482	74.12
324.71	83.12
324.939	88.12
325.168	94.12
325.397	79.12
325.626	85.12
325.855	93.12
326.084	94.12
326.313	86.12
326.542	93.12
326.77	63.12
326.999	87.12
327.228	84.12
327.457	89.12
327.686	76.12
327.914	85.12
328.143	83.12
328.372	79.12
328.6	80.12
328.829	77.12
329.058	76.12
329.287	83.12
329.515	83.12
329.744	79.12
329.972	91.12
330.201	87.12
330.43	94.12
330.658	73.12
330.887	86.12
331.115	76.12
331.344	92.12
331.572	78.12
331.801	86.12
332.03	97.12
332.258	73.12
332.486	92.12
332.715	82.12
332.943	79.12
333.172	88.12
333.4	74.12
333.629	75.12
333.857	87.12
334.085	81.12
334.314	87.12
334.542	81.12
334.771	75.12
334.999	72.12
335.227	85.12
335.455	84.12
335.684	67.12
335.912	83.12
336.14	86.12
336.369	83.12
336.597	79.12
336.825	85.12
337.053	81.12
337.281	76.12
337.51	74.12
337.738	91.12
337.966	84.12
338.194	77.12
338.422	75.12
338.65	86.12
338.878	80.12
339.106	84.12
339.334	85.12
339.562	79.12
339.79	95.12
340.018	79.12
340.246	75.12
340.474	72.12
340.702	75.12
340.93	83.12
341.158	82.12
341.386	81.12
341.614	90.12
341.842	94.12
342.07	72.12
342.298	78.12
342.526	77.12
342.754	83.12
342.981	80.12
343.209	83.12
343.437	91.12
343.665	82.12
343.893	83.12
344.12	95.12
344.348	80.12
344.576	72.12
344.804	75.12
345.031	85.12
345.259	88.12
345.487	90.12
345.714	77.12
345.942	84.12
346.17	80.12
346.397	74.12
346.625	87.12
346.853	76.12
347.08	67.12
347.308	79.12
347.535	89.12
347.763	87.12
347.99	84.12
348.218	70.12
348.445	92.12
348.673	87.12
348.9	83.12
349.128	86.12
349.355	81.12
349.583	84.12
349.81	73.12
350.037	69.12
350.265	80.12
350.492	84.12
350.72	66.12
350.947	71.12
351.174	73.12
351.402	80.12
351.629	74.12
351.856	83.12
352.083	88.12
352.311	80.12
352.538	95.12
352.765	82.12
352.992	80.12
353.22	80.12
353.447	88.12
353.674	63.12
353.901	81.12
354.128	91.12
354.355	61.12
354.583	73.12
354.81	85.12
355.037	84.12
355.264	92.12
355.491	93.12
355.718	88.12
355.945	74.12
356.172	74.12
356.399	87.12
356.626	83.12
356.853	70.12
357.08	81.12
357.307	85.12
357.534	87.12
357.761	73.12
357.988	89.12
358.215	91.12
358.441	83.12
358.668	77.12
358.895	80.12
359.122	79.12
359.349	67.12
359.576	77.12
359.802	77.12
360.029	76.12
360.256	96.12
360.483	80.12
360.709	79.12
360.936	87.12
361.163	84.12
361.39	74.12
361.616	84.12
361.843	88.12
362.07	92.12
362.296	87.12
362.523	77.12
362.749	70.12
362.976	83.12
363.203	86.12
363.429	85.12
363.656	85.12
363.882	84.12
364.109	76.12
364.335	98.12
364.562	81.12
364.788	84.12
365.015	89.12
365.241	81.12
365.468	71.12
365.694	81.12
365.92	80.12
366.147	79.12
366.373	80.12
366.599	80.12
366.826	86.12
367.052	75.12
367.278	75.12
367.505	84.12
367.731	90.12
367.957	86.12
368.184	74.12
368.41	81.12
368.636	91.12
368.862	78.12
369.089	81.12
369.315	91.12
369.541	82.12
369.767	79.12
369.993	92.12
370.219	90.12
370.445	88.12
370.672	70.12
370.898	73.12
371.124	80.12
371.35	81.12
371.576	81.12
371.802	73.12
372.028	86.12
372.254	90.12
372.48	87.12
372.706	71.12
372.932	79.12
373.158	81.12
373.384	99.12
373.61	80.12
373.835	75.12
374.061	63.12
374.287	68.12
374.513	88.12
374.739	82.12
374.965	87.12
375.191	81.12
375.416	80.12
375.642	88.12
375.868	74.12
376.094	74.12
376.319	82.12
376.545	76.12
376.771	83.12
376.997	73.12
377.222	74.12
377.448	79.12
377.674	80.12
377.899	83.12
378.125	74.12
378.35	80.12
378.576	59.12
378.802	72.12
379.027	75.12
379.253	85.12
379.478	80.12
379.704	79.12
379.929	83.12
380.155	63.12
380.38	81.12
380.606	86.12
380.831	70.12
381.057	71.12
381.282	84.12
381.507	55.12
381.733	78.12
381.958	83.12
382.184	89.12
382.409	90.12
382.634	88.12
382.86	68.12
383.085	73.12
383.31	75.12
383.535	73.12
383.761	84.12
383.986	77.12
384.211	72.12
384.436	85.12
384.662	89.12
384.887	77.12
385.112	80.12
385.337	84.12
385.562	81.12
385.787	69.12
386.013	94.12
386.238	80.12
386.463	79.12
386.688	69.12
386.913	69.12
387.138	87.12
387.363	75.12
387.588	94.12
387.813	91.12
388.038	75.12
388.263	85.12
388.488	83.12
388.713	94.12
388.938	85.12
389.163	76.12
389.387	77.12
389.612	76.12
389.837	85.12
390.062	79.12
390.287	89.12
390.512	89.12
390.736	68.12
390.961	75.12
391.186	83.12
391.411	91.12
391.636	86.12
391.86	77.12
392.085	83.12
392.31	83.12
392.534	80.12
392.759	87.12
392.984	83.12
393.208	69.12
393.433	89.12
393.658	79.12
393.882	88.12
394.107	94.12
394.331	97.12
394.556	81.12
394.78	83.12
395.005	85.12
395.229	88.12
395.454	73.12
395.678	80.12
395.903	65.12
396.127	74.12
396.352	72.12
396.576	78.12
396.801	69.12
397.025	71.12
397.249	84.12
397.474	93.12
397.698	94.12
397.922	79.12
398.147	97.12
398.371	82.12
398.595	87.12
398.82	91.12
399.044	63.12
399.268	90.12
399.492	88.12
399.717	85.12
399.941	85.12
400.165	96.12
400.389	80.12
400.613	85.12
400.837	74.12
401.062	83.12
401.286	77.12
401.51	81.12
401.734	82.12
401.958	87.12
402.182	79.12
402.406	92.12
402.63	97.12
402.854	74.12
403.078	79.12
403.302	83.12
403.526	88.12
403.75	95.12
403.974	89.12
404.198	86.12
404.422	80.12
404.645	88.12
404.869	83.12
405.093	83.12
405.317	90.12
405.541	94.12
405.765	95.12
405.988	68.12
406.212	83.12
406.436	87.12
406.66	73.12
406.883	96.12
407.107	89.12
407.331	63.12
407.555	95.12
407.778	93.12
408.002	87.12
408.226	84.12
408.449	91.12
408.673	65.12
408.896	78.12
409.12	88.12
409.344	74.12
409.567	80.12
409.791	89.12
410.014	69.12
410.238	87.12
410.461	80.12
410.685	80.12
410.908	81.12
411.132	96.12
411.355	84.12
411.578	96.12
411.802	78.12
412.025	88.12
412.249	77.12
412.472	80.12
412.695	85.12
412.919	87.12
413.142	75.12
413.365	92.12
413.589	80.12
413.812	83.12
414.035	78.12
414.258	81.12
414.482	84.12
414.705	84.12
414.928	103.12
415.151	81.12
415.374	88.12
415.597	90.12
415.821	99.12
416.044	92.12
416.267	91.12
416.49	93.12
416.713	94.12
416.936	91.12
417.159	100.12
417.382	86.12
417.605	83.12
417.828	73.12
418.051	88.12
418.274	67.12
418.497	82.12
418.72	114.12
418.943	99.12
419.166	96.12
419.389	95.12
419.611	97.12
419.834	92.12
420.057	88.12
420.28	80.12
420.503	78.12
420.726	83.12
420.948	90.12
421.171	93.12
421.394	107.12
421.617	88.12
421.839	91.12
422.062	86.12
422.285	97.12
422.507	91.12
422.73	103.12
422.953	92.12
423.175	78.12
423.398	93.12
423.621	92.12
423.843	72.12
424.066	102.12
424.288	100.12
424.511	101.12
424.733	98.12
424.956	89.12
425.178	88.12
425.401	104.12
425.623	108.12
425.846	83.12
426.068	104.12
426.291	97.12
426.513	89.12
426.735	99.12
426.958	90.12
427.18	92.12
427.402	99.12
427.625	87.12
427.847	86.12
428.069	92.12
428.292	77.12
428.514	99.12
428.736	98.12
428.958	81.12
429.181	81.12
429.403	95.12
429.625	94.12
429.847	80.12
430.069	92.12
430.292	94.12
430.514	92.12
430.736	104.12
430.958	104.12
431.18	100.12
431.402	97.12
431.624	81.12
431.846	84.12
432.068	87.12
432.29	78.12
432.512	84.12
432.734	86.12
432.956	91.12
433.178	97.12
433.4	96.12
433.622	81.12
433.844	87.12
434.066	97.12
434.287	83.12
434.509	92.12
434.731	80.12
434.953	72.12
435.175	95.12
435.397	89.12
435.618	73.12
435.84	89.12
436.062	95.12
436.284	98.12
436.505	89.12
436.727	107.12
436.949	95.12
437.17	99.12
437.392	100.12
437.614	86.12
437.835	79.12
438.057	69.12
438.278	84.12
438.5	81.12
438.721	81.12
438.943	102.12
439.165	87.12
439.386	75.12
439.608	92.12
439.829	85.12
440.05	85.12
440.272	95.12
440.493	88.12
440.715	113.12
440.936	89.12
441.158	98.12
441.379	112.12
441.6	94.12
441.822	89.12
442.043	92.12
442.264	87.12
442.486	91.12
442.707	90.12
442.928	100.12
443.149	91.12
443.371	78.12
443.592	83.12
443.813	96.12
444.034	92.12
444.255	80.12
444.476	91.12
444.698	104.12
444.919	100.12
445.14	220.12
445.361	150.12
445.582	92.12
445.803	102.12
446.024	96.12
446.245	89.12
446.466	94.12
446.687	94.12
446.908	89.12
447.129	108.12
447.35	100.12
447.571	94.12
447.792	80.12
448.013	86.12
448.234	96.12
448.455	89.12
448.675	85.12
448.896	97.12
449.117	94.12
449.338	110.12
449.559	87.12
449.779	90.12
450	96.12
450.221	92.12
450.442	106.12
450.662	81.12
450.883	98.12
451.104	84.12
451.324	84.12
451.545	86.12
451.766	102.12
451.986	95.12
452.207	87.12
452.428	86.12
452.648	80.12
452.869	90.12
453.089	80.12
453.31	87.12
453.53	84.12
453.751	85.12
453.971	87.12
454.192	89.12
454.412	83.12
454.633	85.12
454.853	88.12
455.073	95.12
455.294	81.12
455.514	100.12
455.734	80.12
455.955	76.12
456.175	87.12
456.395	78.12
456.616	91.12
456.836	83.12
457.056	93.12
457.276	76.12
457.497	80.12
457.717	92.12
457.937	84.12
458.157	83.12
458.377	87.12
458.598	75.12
458.818	77.12
459.038	82.12
459.258	90.12
459.478	88.12
459.698	73.12
459.918	93.12
460.138	85.12
460.358	84.12
460.578	83.12
460.798	86.12
461.018	94.12
461.238	82.12
461.458	89.12
461.678	88.12
461.898	96.12
462.118	71.12
462.338	86.12
462.558	81.12
462.777	93.12
462.997	71.12
463.217	77.12
463.437	83.12
463.657	88.12
463.876	87.12
464.096	86.12
464.316	89.12
464.536	77.12
464.755	83.12
464.975	85.12
465.195	100.12
465.414	79.12
465.634	92.12
465.854	87.12
466.073	93.12
466.293	83.12
466.512	85.12
466.732	103.12
466.951	85.12
467.171	85.12
467.391	90.12
467.61	92.12
467.829	82.12
468.049	79.12
468.268	91.12
468.488	90.12
468.707	105.12
468.927	80.12
469.146	93.12
469.365	85.12
469.585	95.12
469.804	81.12
470.023	103.12
470.243	89.12
470.462	80.12
470.681	82.12
470.901	99.12
471.12	94.12
471.339	100.12
471.558	95.12
471.777	100.12
471.997	98.12
472.216	92.12
472.435	89.12
472.654	76.12
472.873	88.12
473.092	84.12
473.311	86.12
473.53	94.12
473.749	101.12
473.968	109.12
474.187	85.12
474.406	92.12
474.625	100.12
474.844	90.12
475.063	89.12
475.282	93.12
475.501	84.12
475.72	95.12
475.939	89.12
476.158	83.12
476.377	99.12
476.596	91.12
476.814	89.12
477.033	86.12
477.252	74.12
477.471	69.12
477.69	90.12
477.908	85.12
478.127	103.12
478.346	111.12
478.564	87.12
478.783	81.12
479.002	93.12
479.22	90.12
479.439	98.12
479.658	75.12
479.876	84.12
480.095	78.12
480.313	85.12
480.532	92.12
480.751	95.12
480.969	77.12
481.188	75.12
481.406	80.12
481.624	80.12
481.843	82.12
482.061	82.12
482.28	87.12
482.498	91.12
482.717	93.12
482.935	88.12
483.153	93.12
483.372	99.12
483.59	113.12
483.808	96.12
484.027	87.12
484.245	98.12
484.463	108.12
484.681	101.12
484.9	86.12
485.118	102.12
485.336	113.12
485.554	81.12
485.772	80.12
485.99	75.12
486.209	90.12
486.427	99.12
486.645	92.12
486.863	100.12
487.081	87.12
487.299	96.12
487.517	104.12
487.735	104.12
487.953	111.12
488.171	116.12
488.389	108.12
488.607	100.12
488.825	104.12
489.043	91.12
489.261	89.12
489.479	95.12
489.696	89.12
489.914	76.12
490.132	104.12
490.35	108.12
490.568	93.12
490.786	107.12
491.003	102.12
491.221	115.12
491.439	94.12
491.657	111.12
491.874	120.12
492.092	131.12
492.31	117.12
492.527	124.12
492.745	104.12
492.963	117.12
493.18	113.12
493.398	85.12
493.615	117.12
493.833	114.12
494.05	111.12
494.268	96.12
494.485	100.12
494.703	122.12
494.92	109.12
495.138	111.12
495.355	92.12
495.573	96.12
495.79	112.12
496.008	115.12
496.225	120.12
496.442	105.12
496.66	101.12
496.877	105.12
497.094	107.12
497.312	96.12
497.529	99.12
497.746	96.12
497.963	96.12
498.181	96.12
498.398	83.12
498.615	93.12
498.832	81.12
499.049	92.12
499.267	93.12
499.484	85.12
499.701	90.12
499.918	89.12
500.135	106.12
500.352	100.12
500.569	94.12
500.786	92.12
501.003	90.12
501.22	105.12
501.437	99.12
501.654	91.12
501.871	101.12
502.088	86.12
502.305	88.12
502.522	109.12
502.739	92.12
502.956	101.12
503.172	91.12
503.389	99.12
503.606	105.12
503.823	101.12
504.04	90.12
504.256	83.12
504.473	88.12
504.69	96.12
504.907	93.12
505.123	92.12
505.34	82.12
505.557	94.12
505.773	107.12
505.99	107.12
506.207	96.12
506.423	85.12
506.64	83.12
506.856	92.12
507.073	73.12
507.289	89.12
507.506	101.12
507.722	79.12
507.939	85.12
508.155	96.12
508.372	85.12
508.588	84.12
508.805	88.12
509.021	94.12
509.238	93.12
509.454	83.12
509.67	75.12
509.887	91.12
510.103	77.12
510.319	86.12
510.536	92.12
510.752	85.12
510.968	80.12
511.184	84.12
511.401	70.12
511.617	76.12
511.833	90.12
512.049	81.12
512.265	83.12
512.481	76.12
512.698	69.12
512.914	81.12
513.13	79.12
513.346	66.12
513.562	73.12
513.778	89.12
513.994	76.12
514.21	75.12
514.426	86.12
514.642	86.12
514.858	72.12
515.074	86.12
515.29	92.12
515.506	77.12
515.721	70.12
515.937	77.12
516.153	77.12
516.369	76.12
516.585	89.12
516.801	88.12
517.016	92.12
517.232	87.12
517.448	88.12
517.664	83.12
517.879	92.12
518.095	86.12
