Data from Location4.07152019.Energy5.Lamp.07192019.3%Agarose_HRD10591_15-26-15-578.txt Node
Date: Fri Jul 19 15:26:15 EDT 2019
User: cochatt
Spectrometer: HR+D1059
Trigger mode: 1
Integration Time (sec): 1.000000E-1
Scans to average: 1
Electric dark correction enabled: true
Nonlinearity correction enabled: false
Boxcar width: 0
XAxis mode: Wavelengths
Number of Pixels in Spectrum: 2048
>>>>>Begin Spectral Data<<<<<
223.165	-22.44
223.4	-22.44
223.635	-22.44
223.869	-18.44
224.104	-22.44
224.338	-28.44
224.573	-21.44
224.808	1.56
225.042	-6.44
225.277	-12.44
225.511	0.56
225.746	5.56
225.98	17.56
226.215	13.56
226.449	15.56
226.683	12.56
226.918	33.56
227.152	31.56
227.387	35.56
227.621	42.56
227.856	41.56
228.09	34.56
228.324	60.56
228.559	62.56
228.793	80.56
229.027	53.56
229.262	67.56
229.496	71.56
229.73	63.56
229.964	64.56
230.199	74.56
230.433	80.56
230.667	83.56
230.901	74.56
231.136	72.56
231.37	80.56
231.604	90.56
231.838	80.56
232.072	98.56
232.306	83.56
232.541	88.56
232.775	78.56
233.009	88.56
233.243	80.56
233.477	96.56
233.711	96.56
233.945	81.56
234.179	86.56
234.413	81.56
234.647	89.56
234.881	83.56
235.115	72.56
235.349	75.56
235.583	76.56
235.817	77.56
236.051	66.56
236.285	87.56
236.519	70.56
236.753	83.56
236.987	71.56
237.221	71.56
237.455	78.56
237.689	74.56
237.922	76.56
238.156	78.56
238.39	87.56
238.624	85.56
238.858	61.56
239.091	79.56
239.325	70.56
239.559	83.56
239.793	88.56
240.027	76.56
240.26	79.56
240.494	82.56
240.728	87.56
240.961	74.56
241.195	69.56
241.429	84.56
241.662	70.56
241.896	81.56
242.13	86.56
242.363	80.56
242.597	72.56
242.83	80.56
243.064	78.56
243.298	95.56
243.531	79.56
243.765	63.56
243.998	69.56
244.232	70.56
244.465	71.56
244.699	77.56
244.932	83.56
245.166	79.56
245.399	87.56
245.633	76.56
245.866	85.56
246.099	76.56
246.333	68.56
246.566	90.56
246.8	83.56
247.033	72.56
247.266	75.56
247.5	79.56
247.733	82.56
247.966	88.56
248.2	71.56
248.433	82.56
248.666	77.56
248.899	87.56
249.133	73.56
249.366	64.56
249.599	85.56
249.832	83.56
250.066	66.56
250.299	87.56
250.532	77.56
250.765	73.56
250.998	88.56
251.231	83.56
251.465	95.56
251.698	81.56
251.931	84.56
252.164	76.56
252.397	81.56
252.63	78.56
252.863	76.56
253.096	74.56
253.329	71.56
253.562	79.56
253.795	83.56
254.028	90.56
254.261	79.56
254.494	79.56
254.727	72.56
254.96	88.56
255.193	92.56
255.426	82.56
255.659	72.56
255.892	73.56
256.124	89.56
256.357	85.56
256.59	77.56
256.823	90.56
257.056	82.56
257.289	67.56
257.521	60.56
257.754	77.56
257.987	87.56
258.22	87.56
258.452	73.56
258.685	77.56
258.918	80.56
259.151	77.56
259.383	76.56
259.616	77.56
259.849	81.56
260.081	69.56
260.314	88.56
260.547	89.56
260.779	81.56
261.012	88.56
261.244	68.56
261.477	87.56
261.71	87.56
261.942	87.56
262.175	75.56
262.407	90.56
262.64	91.56
262.872	88.56
263.105	81.56
263.337	84.56
263.57	77.56
263.802	81.56
264.035	83.56
264.267	88.56
264.499	96.56
264.732	76.56
264.964	71.56
265.197	88.56
265.429	81.56
265.661	91.56
265.894	79.56
266.126	85.56
266.358	87.56
266.591	78.56
266.823	77.56
267.055	66.56
267.287	84.56
267.52	85.56
267.752	77.56
267.984	84.56
268.216	99.56
268.448	87.56
268.681	69.56
268.913	87.56
269.145	78.56
269.377	88.56
269.609	96.56
269.841	82.56
270.073	84.56
270.306	85.56
270.538	77.56
270.77	84.56
271.002	89.56
271.234	84.56
271.466	75.56
271.698	85.56
271.93	92.56
272.162	82.56
272.394	96.56
272.626	89.56
272.858	87.56
273.09	95.56
273.322	78.56
273.553	82.56
273.785	91.56
274.017	79.56
274.249	81.56
274.481	76.56
274.713	93.56
274.945	105.56
275.176	83.56
275.408	80.56
275.64	83.56
275.872	77.56
276.104	98.56
276.335	80.56
276.567	86.56
276.799	93.56
277.031	69.56
277.262	84.56
277.494	92.56
277.726	96.56
277.957	92.56
278.189	95.56
278.421	98.56
278.652	85.56
278.884	92.56
279.115	90.56
279.347	100.56
279.579	77.56
279.81	95.56
280.042	97.56
280.273	84.56
280.505	80.56
280.736	92.56
280.968	79.56
281.199	83.56
281.431	84.56
281.662	92.56
281.894	84.56
282.125	99.56
282.356	84.56
282.588	90.56
282.819	96.56
283.051	89.56
283.282	85.56
283.513	94.56
283.745	81.56
283.976	99.56
284.207	81.56
284.439	86.56
284.67	86.56
284.901	83.56
285.132	79.56
285.364	87.56
285.595	88.56
285.826	84.56
286.057	75.56
286.288	86.56
286.52	97.56
286.751	93.56
286.982	103.56
287.213	85.56
287.444	87.56
287.675	76.56
287.906	69.56
288.138	80.56
288.369	92.56
288.6	91.56
288.831	73.56
289.062	92.56
289.293	87.56
289.524	79.56
289.755	85.56
289.986	93.56
290.217	83.56
290.448	89.56
290.679	79.56
290.91	94.56
291.141	87.56
291.371	92.56
291.602	91.56
291.833	74.56
292.064	75.56
292.295	87.56
292.526	98.56
292.757	80.56
292.987	95.56
293.218	70.56
293.449	84.56
293.68	84.56
293.91	80.56
294.141	83.56
294.372	95.56
294.603	83.56
294.833	98.56
295.064	93.56
295.295	99.56
295.525	73.56
295.756	80.56
295.987	77.56
296.217	97.56
296.448	98.56
296.679	82.56
296.909	93.56
297.14	90.56
297.37	92.56
297.601	87.56
297.831	91.56
298.062	94.56
298.292	83.56
298.523	68.56
298.753	72.56
298.984	81.56
299.214	75.56
299.445	93.56
299.675	96.56
299.905	77.56
300.136	83.56
300.366	93.56
300.597	82.56
300.827	78.56
301.057	80.56
301.288	92.56
301.518	85.56
301.748	92.56
301.979	95.56
302.209	90.56
302.439	79.56
302.669	80.56
302.9	89.56
303.13	91.56
303.36	70.56
303.59	95.56
303.82	85.56
304.051	80.56
304.281	88.56
304.511	89.56
304.741	91.56
304.971	82.56
305.201	78.56
305.431	84.56
305.661	77.56
305.891	84.56
306.121	91.56
306.352	81.56
306.582	91.56
306.812	82.56
307.042	76.56
307.272	79.56
307.502	90.56
307.731	86.56
307.961	89.56
308.191	80.56
308.421	74.56
308.651	94.56
308.881	86.56
309.111	100.56
309.341	96.56
309.571	87.56
309.8	70.56
310.03	90.56
310.26	95.56
310.49	86.56
310.72	89.56
310.949	92.56
311.179	91.56
311.409	80.56
311.639	88.56
311.868	84.56
312.098	95.56
312.328	95.56
312.557	80.56
312.787	86.56
313.017	82.56
313.246	84.56
313.476	103.56
313.706	92.56
313.935	88.56
314.165	88.56
314.394	92.56
314.624	78.56
314.853	83.56
315.083	81.56
315.312	83.56
315.542	98.56
315.771	81.56
316.001	96.56
316.23	77.56
316.46	79.56
316.689	87.56
316.919	83.56
317.148	91.56
317.377	88.56
317.607	83.56
317.836	79.56
318.065	91.56
318.295	81.56
318.524	93.56
318.753	81.56
318.983	83.56
319.212	78.56
319.441	82.56
319.67	82.56
319.9	102.56
320.129	75.56
320.358	84.56
320.587	82.56
320.816	79.56
321.046	90.56
321.275	93.56
321.504	84.56
321.733	81.56
321.962	85.56
322.191	90.56
322.42	87.56
322.649	80.56
322.878	82.56
323.108	85.56
323.337	81.56
323.566	92.56
323.795	81.56
324.024	92.56
324.253	93.56
324.482	76.56
324.71	97.56
324.939	79.56
325.168	91.56
325.397	92.56
325.626	83.56
325.855	91.56
326.084	85.56
326.313	99.56
326.542	87.56
326.77	77.56
326.999	93.56
327.228	100.56
327.457	85.56
327.686	88.56
327.914	77.56
328.143	90.56
328.372	100.56
328.6	94.56
328.829	89.56
329.058	94.56
329.287	95.56
329.515	83.56
329.744	96.56
329.972	78.56
330.201	80.56
330.43	89.56
330.658	80.56
330.887	81.56
331.115	95.56
331.344	91.56
331.572	76.56
331.801	83.56
332.03	91.56
332.258	92.56
332.486	89.56
332.715	91.56
332.943	83.56
333.172	77.56
333.4	83.56
333.629	88.56
333.857	90.56
334.085	75.56
334.314	92.56
334.542	90.56
334.771	86.56
334.999	92.56
335.227	81.56
335.455	100.56
335.684	106.56
335.912	86.56
336.14	78.56
336.369	95.56
336.597	102.56
336.825	97.56
337.053	85.56
337.281	96.56
337.51	82.56
337.738	93.56
337.966	86.56
338.194	78.56
338.422	95.56
338.65	80.56
338.878	85.56
339.106	77.56
339.334	86.56
339.562	95.56
339.79	89.56
340.018	85.56
340.246	81.56
340.474	82.56
340.702	74.56
340.93	88.56
341.158	91.56
341.386	82.56
341.614	78.56
341.842	75.56
342.07	83.56
342.298	90.56
342.526	88.56
342.754	84.56
342.981	88.56
343.209	100.56
343.437	84.56
343.665	80.56
343.893	88.56
344.12	80.56
344.348	91.56
344.576	83.56
344.804	90.56
345.031	80.56
345.259	72.56
345.487	82.56
345.714	81.56
345.942	80.56
346.17	86.56
346.397	85.56
346.625	87.56
346.853	97.56
347.08	78.56
347.308	80.56
347.535	76.56
347.763	95.56
347.99	82.56
348.218	99.56
348.445	75.56
348.673	90.56
348.9	91.56
349.128	83.56
349.355	85.56
349.583	89.56
349.81	91.56
350.037	88.56
350.265	76.56
350.492	82.56
350.72	81.56
350.947	91.56
351.174	82.56
351.402	73.56
351.629	81.56
351.856	82.56
352.083	89.56
352.311	75.56
352.538	79.56
352.765	93.56
352.992	86.56
353.22	84.56
353.447	90.56
353.674	87.56
353.901	93.56
354.128	93.56
354.355	84.56
354.583	81.56
354.81	97.56
355.037	76.56
355.264	82.56
355.491	80.56
355.718	75.56
355.945	88.56
356.172	84.56
356.399	89.56
356.626	68.56
356.853	89.56
357.08	83.56
357.307	81.56
357.534	81.56
357.761	91.56
357.988	100.56
358.215	73.56
358.441	87.56
358.668	75.56
358.895	73.56
359.122	88.56
359.349	84.56
359.576	80.56
359.802	85.56
360.029	76.56
360.256	94.56
360.483	90.56
360.709	82.56
360.936	88.56
361.163	81.56
361.39	93.56
361.616	60.56
361.843	81.56
362.07	76.56
362.296	83.56
362.523	83.56
362.749	84.56
362.976	80.56
363.203	87.56
363.429	75.56
363.656	89.56
363.882	78.56
364.109	75.56
364.335	84.56
364.562	81.56
364.788	79.56
365.015	82.56
365.241	93.56
365.468	82.56
365.694	83.56
365.92	82.56
366.147	91.56
366.373	77.56
366.599	93.56
366.826	91.56
367.052	89.56
367.278	77.56
367.505	82.56
367.731	106.56
367.957	76.56
368.184	88.56
368.41	86.56
368.636	81.56
368.862	87.56
369.089	84.56
369.315	90.56
369.541	80.56
369.767	88.56
369.993	84.56
370.219	72.56
370.445	84.56
370.672	65.56
370.898	82.56
371.124	80.56
371.35	85.56
371.576	80.56
371.802	88.56
372.028	76.56
372.254	83.56
372.48	101.56
372.706	87.56
372.932	91.56
373.158	88.56
373.384	78.56
373.61	93.56
373.835	94.56
374.061	82.56
374.287	76.56
374.513	76.56
374.739	97.56
374.965	85.56
375.191	92.56
375.416	89.56
375.642	78.56
375.868	95.56
376.094	89.56
376.319	98.56
376.545	84.56
376.771	76.56
376.997	92.56
377.222	85.56
377.448	89.56
377.674	77.56
377.899	74.56
378.125	90.56
378.35	96.56
378.576	77.56
378.802	85.56
379.027	105.56
379.253	79.56
379.478	75.56
379.704	92.56
379.929	83.56
380.155	76.56
380.38	79.56
380.606	85.56
380.831	89.56
381.057	96.56
381.282	83.56
381.507	89.56
381.733	85.56
381.958	84.56
382.184	91.56
382.409	85.56
382.634	88.56
382.86	74.56
383.085	96.56
383.31	97.56
383.535	90.56
383.761	96.56
383.986	84.56
384.211	82.56
384.436	83.56
384.662	91.56
384.887	82.56
385.112	106.56
385.337	78.56
385.562	89.56
385.787	75.56
386.013	70.56
386.238	83.56
386.463	75.56
386.688	90.56
386.913	89.56
387.138	88.56
387.363	78.56
387.588	67.56
387.813	91.56
388.038	92.56
388.263	94.56
388.488	89.56
388.713	77.56
388.938	83.56
389.163	79.56
389.387	99.56
389.612	96.56
389.837	98.56
390.062	88.56
390.287	95.56
390.512	84.56
390.736	83.56
390.961	91.56
391.186	86.56
391.411	81.56
391.636	73.56
391.86	93.56
392.085	83.56
392.31	84.56
392.534	68.56
392.759	82.56
392.984	80.56
393.208	72.56
393.433	83.56
393.658	89.56
393.882	83.56
394.107	85.56
394.331	91.56
394.556	75.56
394.78	84.56
395.005	88.56
395.229	83.56
395.454	77.56
395.678	95.56
395.903	83.56
396.127	76.56
396.352	103.56
396.576	83.56
396.801	89.56
397.025	84.56
397.249	86.56
397.474	88.56
397.698	91.56
397.922	96.56
398.147	83.56
398.371	95.56
398.595	72.56
398.82	83.56
399.044	93.56
399.268	77.56
399.492	92.56
399.717	85.56
399.941	85.56
400.165	104.56
400.389	86.56
400.613	84.56
400.837	87.56
401.062	99.56
401.286	93.56
401.51	90.56
401.734	87.56
401.958	95.56
402.182	82.56
402.406	88.56
402.63	80.56
402.854	92.56
403.078	78.56
403.302	90.56
403.526	79.56
403.75	81.56
403.974	95.56
404.198	89.56
404.422	89.56
404.645	77.56
404.869	95.56
405.093	82.56
405.317	83.56
405.541	99.56
405.765	89.56
405.988	93.56
406.212	98.56
406.436	92.56
406.66	98.56
406.883	98.56
407.107	87.56
407.331	84.56
407.555	71.56
407.778	99.56
408.002	85.56
408.226	69.56
408.449	87.56
408.673	84.56
408.896	97.56
409.12	89.56
409.344	84.56
409.567	86.56
409.791	87.56
410.014	99.56
410.238	83.56
410.461	83.56
410.685	92.56
410.908	90.56
411.132	104.56
411.355	93.56
411.578	78.56
411.802	92.56
412.025	91.56
412.249	99.56
412.472	87.56
412.695	83.56
412.919	95.56
413.142	101.56
413.365	80.56
413.589	75.56
413.812	79.56
414.035	100.56
414.258	95.56
414.482	75.56
414.705	95.56
414.928	95.56
415.151	85.56
415.374	91.56
415.597	90.56
415.821	100.56
416.044	99.56
416.267	91.56
416.49	81.56
416.713	80.56
416.936	95.56
417.159	103.56
417.382	87.56
417.605	77.56
417.828	96.56
418.051	93.56
418.274	92.56
418.497	97.56
418.72	96.56
418.943	96.56
419.166	93.56
419.389	96.56
419.611	92.56
419.834	95.56
420.057	98.56
420.28	96.56
420.503	97.56
420.726	92.56
420.948	82.56
421.171	90.56
421.394	84.56
421.617	102.56
421.839	100.56
422.062	98.56
422.285	91.56
422.507	87.56
422.73	92.56
422.953	103.56
423.175	102.56
423.398	83.56
423.621	85.56
423.843	78.56
424.066	92.56
424.288	88.56
424.511	98.56
424.733	95.56
424.956	90.56
425.178	105.56
425.401	102.56
425.623	90.56
425.846	86.56
426.068	85.56
426.291	97.56
426.513	85.56
426.735	91.56
426.958	88.56
427.18	105.56
427.402	100.56
427.625	85.56
427.847	93.56
428.069	101.56
428.292	97.56
428.514	84.56
428.736	90.56
428.958	92.56
429.181	85.56
429.403	85.56
429.625	104.56
429.847	98.56
430.069	97.56
430.292	98.56
430.514	95.56
430.736	103.56
430.958	101.56
431.18	92.56
431.402	81.56
431.624	87.56
431.846	88.56
432.068	88.56
432.29	100.56
432.512	92.56
432.734	96.56
432.956	98.56
433.178	104.56
433.4	95.56
433.622	98.56
433.844	87.56
434.066	100.56
434.287	105.56
434.509	85.56
434.731	91.56
434.953	81.56
435.175	89.56
435.397	87.56
435.618	91.56
435.84	85.56
436.062	90.56
436.284	102.56
436.505	103.56
436.727	89.56
436.949	83.56
437.17	97.56
437.392	104.56
437.614	93.56
437.835	78.56
438.057	76.56
438.278	98.56
438.5	83.56
438.721	80.56
438.943	99.56
439.165	95.56
439.386	83.56
439.608	88.56
439.829	101.56
440.05	91.56
440.272	97.56
440.493	100.56
440.715	89.56
440.936	90.56
441.158	89.56
441.379	104.56
441.6	85.56
441.822	108.56
442.043	90.56
442.264	89.56
442.486	96.56
442.707	102.56
442.928	101.56
443.149	98.56
443.371	89.56
443.592	99.56
443.813	95.56
444.034	112.56
444.255	95.56
444.476	104.56
444.698	88.56
444.919	104.56
445.14	228.56
445.361	160.56
445.582	99.56
445.803	96.56
446.024	96.56
446.245	100.56
446.466	96.56
446.687	106.56
446.908	109.56
447.129	106.56
447.35	105.56
447.571	100.56
447.792	100.56
448.013	94.56
448.234	107.56
448.455	99.56
448.675	93.56
448.896	76.56
449.117	84.56
449.338	100.56
449.559	98.56
449.779	95.56
450	106.56
450.221	90.56
450.442	102.56
450.662	87.56
450.883	93.56
451.104	105.56
451.324	111.56
451.545	84.56
451.766	95.56
451.986	91.56
452.207	81.56
452.428	91.56
452.648	98.56
452.869	81.56
453.089	82.56
453.31	83.56
453.53	78.56
453.751	88.56
453.971	87.56
454.192	91.56
454.412	83.56
454.633	95.56
454.853	90.56
455.073	82.56
455.294	101.56
455.514	93.56
455.734	89.56
455.955	100.56
456.175	85.56
456.395	88.56
456.616	91.56
456.836	92.56
457.056	88.56
457.276	90.56
457.497	69.56
457.717	77.56
457.937	95.56
458.157	86.56
458.377	97.56
458.598	86.56
458.818	87.56
459.038	95.56
459.258	87.56
459.478	84.56
459.698	76.56
459.918	88.56
460.138	93.56
460.358	97.56
460.578	93.56
460.798	83.56
461.018	101.56
461.238	79.56
461.458	93.56
461.678	88.56
461.898	87.56
462.118	95.56
462.338	91.56
462.558	84.56
462.777	86.56
462.997	95.56
463.217	63.56
463.437	86.56
463.657	78.56
463.876	118.56
464.096	92.56
464.316	81.56
464.536	98.56
464.755	93.56
464.975	77.56
465.195	96.56
465.414	95.56
465.634	80.56
465.854	92.56
466.073	89.56
466.293	95.56
466.512	99.56
466.732	90.56
466.951	94.56
467.171	92.56
467.391	94.56
467.61	93.56
467.829	111.56
468.049	102.56
468.268	84.56
468.488	110.56
468.707	115.56
468.927	90.56
469.146	85.56
469.365	91.56
469.585	87.56
469.804	90.56
470.023	99.56
470.243	95.56
470.462	103.56
470.681	92.56
470.901	102.56
471.12	112.56
471.339	104.56
471.558	100.56
471.777	103.56
471.997	108.56
472.216	104.56
472.435	96.56
472.654	74.56
472.873	100.56
473.092	91.56
473.311	96.56
473.53	96.56
473.749	103.56
473.968	107.56
474.187	85.56
474.406	98.56
474.625	107.56
474.844	98.56
475.063	103.56
475.282	77.56
475.501	98.56
475.72	95.56
475.939	94.56
476.158	89.56
476.377	98.56
476.596	101.56
476.814	86.56
477.033	90.56
477.252	80.56
477.471	102.56
477.69	92.56
477.908	96.56
478.127	91.56
478.346	88.56
478.564	100.56
478.783	97.56
479.002	103.56
479.22	83.56
479.439	95.56
479.658	103.56
479.876	93.56
480.095	86.56
480.313	87.56
480.532	93.56
480.751	100.56
480.969	81.56
481.188	76.56
481.406	87.56
481.624	77.56
481.843	82.56
482.061	93.56
482.28	83.56
482.498	93.56
482.717	102.56
482.935	97.56
483.153	87.56
483.372	100.56
483.59	98.56
483.808	115.56
484.027	113.56
484.245	93.56
484.463	68.56
484.681	106.56
484.9	100.56
485.118	115.56
485.336	103.56
485.554	93.56
485.772	95.56
485.99	88.56
486.209	94.56
486.427	96.56
486.645	90.56
486.863	97.56
487.081	104.56
487.299	114.56
487.517	93.56
487.735	102.56
487.953	123.56
488.171	115.56
488.389	115.56
488.607	115.56
488.825	116.56
489.043	87.56
489.261	102.56
489.479	91.56
489.696	106.56
489.914	93.56
490.132	102.56
490.35	93.56
490.568	104.56
490.786	113.56
491.003	115.56
491.221	107.56
491.439	120.56
491.657	111.56
491.874	127.56
492.092	124.56
492.31	133.56
492.527	123.56
492.745	118.56
492.963	103.56
493.18	95.56
493.398	118.56
493.615	95.56
493.833	115.56
494.05	108.56
494.268	116.56
494.485	115.56
494.703	105.56
494.92	105.56
495.138	112.56
495.355	107.56
495.573	113.56
495.79	113.56
496.008	129.56
496.225	115.56
496.442	100.56
496.66	115.56
496.877	109.56
497.094	117.56
497.312	99.56
497.529	106.56
497.746	91.56
497.963	100.56
498.181	102.56
498.398	89.56
498.615	98.56
498.832	100.56
499.049	100.56
499.267	91.56
499.484	80.56
499.701	88.56
499.918	99.56
500.135	98.56
500.352	100.56
500.569	92.56
500.786	100.56
501.003	91.56
501.22	98.56
501.437	100.56
501.654	107.56
501.871	76.56
502.088	99.56
502.305	103.56
502.522	97.56
502.739	111.56
502.956	108.56
503.172	89.56
503.389	88.56
503.606	87.56
503.823	102.56
504.04	102.56
504.256	88.56
504.473	92.56
504.69	95.56
504.907	94.56
505.123	73.56
505.34	116.56
505.557	101.56
505.773	104.56
505.99	97.56
506.207	88.56
506.423	97.56
506.64	87.56
506.856	92.56
507.073	92.56
507.289	84.56
507.506	81.56
507.722	82.56
507.939	74.56
508.155	82.56
508.372	96.56
508.588	88.56
508.805	101.56
509.021	91.56
509.238	89.56
509.454	95.56
509.67	77.56
509.887	80.56
510.103	84.56
510.319	93.56
510.536	96.56
510.752	80.56
510.968	82.56
511.184	85.56
511.401	84.56
511.617	101.56
511.833	76.56
512.049	76.56
512.265	81.56
512.481	84.56
512.698	92.56
512.914	92.56
513.13	89.56
513.346	77.56
513.562	91.56
513.778	95.56
513.994	79.56
514.21	70.56
514.426	74.56
514.642	87.56
514.858	72.56
515.074	84.56
515.29	87.56
515.506	85.56
515.721	81.56
515.937	84.56
516.153	82.56
516.369	91.56
516.585	80.56
516.801	92.56
517.016	88.56
517.232	77.56
