Data from Location4.07152019.Energy5.Lamp.07192019.3%Agarose_HRD10591_15-23-12-576.txt Node
Date: Fri Jul 19 15:23:12 EDT 2019
User: cochatt
Spectrometer: HR+D1059
Trigger mode: 1
Integration Time (sec): 1.000000E-1
Scans to average: 1
Electric dark correction enabled: true
Nonlinearity correction enabled: false
Boxcar width: 0
XAxis mode: Wavelengths
Number of Pixels in Spectrum: 2048
>>>>>Begin Spectral Data<<<<<
223.165	-21.25
223.4	-21.25
223.635	-21.25
223.869	-32.25
224.104	-14.25
224.338	-14.25
224.573	-22.25
224.808	2.75
225.042	-3.25
225.277	-10.25
225.511	-1.25
225.746	-1.25
225.98	10.75
226.215	13.75
226.449	12.75
226.683	20.75
226.918	33.75
227.152	25.75
227.387	28.75
227.621	33.75
227.856	50.75
228.09	39.75
228.324	42.75
228.559	58.75
228.793	61.75
229.027	55.75
229.262	73.75
229.496	70.75
229.73	61.75
229.964	67.75
230.199	69.75
230.433	65.75
230.667	66.75
230.901	67.75
231.136	71.75
231.37	85.75
231.604	82.75
231.838	78.75
232.072	77.75
232.306	78.75
232.541	89.75
232.775	63.75
233.009	87.75
233.243	89.75
233.477	78.75
233.711	79.75
233.945	81.75
234.179	80.75
234.413	74.75
234.647	88.75
234.881	93.75
235.115	81.75
235.349	83.75
235.583	74.75
235.817	85.75
236.051	75.75
236.285	79.75
236.519	77.75
236.753	79.75
236.987	74.75
237.221	60.75
237.455	77.75
237.689	81.75
237.922	74.75
238.156	69.75
238.39	74.75
238.624	78.75
238.858	82.75
239.091	80.75
239.325	70.75
239.559	87.75
239.793	70.75
240.027	94.75
240.26	69.75
240.494	82.75
240.728	81.75
240.961	76.75
241.195	74.75
241.429	84.75
241.662	76.75
241.896	80.75
242.13	76.75
242.363	77.75
242.597	77.75
242.83	74.75
243.064	88.75
243.298	84.75
243.531	81.75
243.765	78.75
243.998	83.75
244.232	79.75
244.465	77.75
244.699	90.75
244.932	81.75
245.166	74.75
245.399	81.75
245.633	83.75
245.866	76.75
246.099	76.75
246.333	77.75
246.566	80.75
246.8	82.75
247.033	83.75
247.266	69.75
247.5	73.75
247.733	86.75
247.966	66.75
248.2	77.75
248.433	71.75
248.666	76.75
248.899	76.75
249.133	79.75
249.366	80.75
249.599	92.75
249.832	74.75
250.066	77.75
250.299	81.75
250.532	100.75
250.765	75.75
250.998	78.75
251.231	71.75
251.465	82.75
251.698	82.75
251.931	84.75
252.164	68.75
252.397	74.75
252.63	64.75
252.863	81.75
253.096	74.75
253.329	98.75
253.562	83.75
253.795	94.75
254.028	91.75
254.261	77.75
254.494	82.75
254.727	83.75
254.96	70.75
255.193	80.75
255.426	77.75
255.659	88.75
255.892	99.75
256.124	73.75
256.357	81.75
256.59	83.75
256.823	72.75
257.056	74.75
257.289	87.75
257.521	81.75
257.754	74.75
257.987	82.75
258.22	70.75
258.452	73.75
258.685	91.75
258.918	67.75
259.151	80.75
259.383	78.75
259.616	89.75
259.849	63.75
260.081	83.75
260.314	72.75
260.547	85.75
260.779	78.75
261.012	83.75
261.244	80.75
261.477	78.75
261.71	64.75
261.942	84.75
262.175	89.75
262.407	80.75
262.64	79.75
262.872	63.75
263.105	80.75
263.337	72.75
263.57	79.75
263.802	72.75
264.035	75.75
264.267	73.75
264.499	81.75
264.732	86.75
264.964	78.75
265.197	69.75
265.429	82.75
265.661	84.75
265.894	75.75
266.126	72.75
266.358	86.75
266.591	98.75
266.823	72.75
267.055	81.75
267.287	93.75
267.52	81.75
267.752	92.75
267.984	83.75
268.216	76.75
268.448	82.75
268.681	95.75
268.913	78.75
269.145	79.75
269.377	83.75
269.609	76.75
269.841	89.75
270.073	88.75
270.306	81.75
270.538	74.75
270.77	79.75
271.002	78.75
271.234	81.75
271.466	82.75
271.698	71.75
271.93	81.75
272.162	69.75
272.394	83.75
272.626	83.75
272.858	89.75
273.09	81.75
273.322	78.75
273.553	76.75
273.785	92.75
274.017	73.75
274.249	84.75
274.481	78.75
274.713	79.75
274.945	76.75
275.176	89.75
275.408	81.75
275.64	81.75
275.872	79.75
276.104	100.75
276.335	88.75
276.567	82.75
276.799	73.75
277.031	80.75
277.262	86.75
277.494	74.75
277.726	82.75
277.957	83.75
278.189	71.75
278.421	88.75
278.652	85.75
278.884	74.75
279.115	73.75
279.347	74.75
279.579	89.75
279.81	80.75
280.042	84.75
280.273	83.75
280.505	98.75
280.736	72.75
280.968	55.75
281.199	88.75
281.431	83.75
281.662	90.75
281.894	82.75
282.125	73.75
282.356	75.75
282.588	71.75
282.819	83.75
283.051	103.75
283.282	89.75
283.513	93.75
283.745	85.75
283.976	91.75
284.207	97.75
284.439	84.75
284.67	88.75
284.901	74.75
285.132	74.75
285.364	76.75
285.595	79.75
285.826	82.75
286.057	89.75
286.288	96.75
286.52	96.75
286.751	80.75
286.982	86.75
287.213	92.75
287.444	82.75
287.675	74.75
287.906	100.75
288.138	87.75
288.369	82.75
288.6	89.75
288.831	75.75
289.062	84.75
289.293	84.75
289.524	84.75
289.755	74.75
289.986	82.75
290.217	80.75
290.448	85.75
290.679	69.75
290.91	93.75
291.141	86.75
291.371	88.75
291.602	82.75
291.833	78.75
292.064	83.75
292.295	92.75
292.526	92.75
292.757	87.75
292.987	92.75
293.218	71.75
293.449	77.75
293.68	85.75
293.91	89.75
294.141	66.75
294.372	80.75
294.603	94.75
294.833	81.75
295.064	72.75
295.295	90.75
295.525	88.75
295.756	83.75
295.987	90.75
296.217	87.75
296.448	80.75
296.679	77.75
296.909	98.75
297.14	85.75
297.37	70.75
297.601	83.75
297.831	82.75
298.062	89.75
298.292	94.75
298.523	78.75
298.753	88.75
298.984	75.75
299.214	91.75
299.445	74.75
299.675	76.75
299.905	87.75
300.136	72.75
300.366	95.75
300.597	88.75
300.827	86.75
301.057	93.75
301.288	81.75
301.518	90.75
301.748	74.75
301.979	70.75
302.209	88.75
302.439	81.75
302.669	79.75
302.9	83.75
303.13	92.75
303.36	74.75
303.59	79.75
303.82	71.75
304.051	85.75
304.281	94.75
304.511	74.75
304.741	75.75
304.971	73.75
305.201	84.75
305.431	74.75
305.661	90.75
305.891	83.75
306.121	83.75
306.352	86.75
306.582	81.75
306.812	94.75
307.042	67.75
307.272	80.75
307.502	78.75
307.731	87.75
307.961	79.75
308.191	74.75
308.421	74.75
308.651	84.75
308.881	88.75
309.111	91.75
309.341	86.75
309.571	92.75
309.8	81.75
310.03	80.75
310.26	85.75
310.49	73.75
310.72	87.75
310.949	74.75
311.179	81.75
311.409	83.75
311.639	93.75
311.868	73.75
312.098	84.75
312.328	89.75
312.557	89.75
312.787	84.75
313.017	73.75
313.246	84.75
313.476	97.75
313.706	75.75
313.935	78.75
314.165	93.75
314.394	65.75
314.624	79.75
314.853	78.75
315.083	104.75
315.312	79.75
315.542	81.75
315.771	87.75
316.001	71.75
316.23	96.75
316.46	88.75
316.689	95.75
316.919	80.75
317.148	86.75
317.377	92.75
317.607	94.75
317.836	79.75
318.065	81.75
318.295	84.75
318.524	89.75
318.753	73.75
318.983	85.75
319.212	93.75
319.441	98.75
319.67	84.75
319.9	73.75
320.129	89.75
320.358	86.75
320.587	97.75
320.816	76.75
321.046	95.75
321.275	74.75
321.504	83.75
321.733	85.75
321.962	90.75
322.191	87.75
322.42	74.75
322.649	77.75
322.878	70.75
323.108	72.75
323.337	84.75
323.566	77.75
323.795	70.75
324.024	77.75
324.253	68.75
324.482	85.75
324.71	84.75
324.939	79.75
325.168	96.75
325.397	69.75
325.626	76.75
325.855	78.75
326.084	92.75
326.313	98.75
326.542	83.75
326.77	84.75
326.999	92.75
327.228	82.75
327.457	75.75
327.686	74.75
327.914	90.75
328.143	97.75
328.372	83.75
328.6	81.75
328.829	113.75
329.058	83.75
329.287	81.75
329.515	88.75
329.744	70.75
329.972	86.75
330.201	80.75
330.43	77.75
330.658	77.75
330.887	86.75
331.115	83.75
331.344	80.75
331.572	82.75
331.801	83.75
332.03	84.75
332.258	89.75
332.486	80.75
332.715	84.75
332.943	75.75
333.172	83.75
333.4	66.75
333.629	89.75
333.857	97.75
334.085	76.75
334.314	82.75
334.542	83.75
334.771	81.75
334.999	77.75
335.227	79.75
335.455	82.75
335.684	77.75
335.912	82.75
336.14	81.75
336.369	89.75
336.597	81.75
336.825	75.75
337.053	88.75
337.281	89.75
337.51	71.75
337.738	89.75
337.966	98.75
338.194	78.75
338.422	74.75
338.65	86.75
338.878	87.75
339.106	82.75
339.334	89.75
339.562	83.75
339.79	89.75
340.018	70.75
340.246	90.75
340.474	81.75
340.702	69.75
340.93	86.75
341.158	82.75
341.386	84.75
341.614	88.75
341.842	83.75
342.07	79.75
342.298	66.75
342.526	70.75
342.754	89.75
342.981	92.75
343.209	95.75
343.437	85.75
343.665	88.75
343.893	79.75
344.12	77.75
344.348	74.75
344.576	84.75
344.804	88.75
345.031	72.75
345.259	80.75
345.487	88.75
345.714	85.75
345.942	64.75
346.17	77.75
346.397	79.75
346.625	88.75
346.853	82.75
347.08	84.75
347.308	85.75
347.535	76.75
347.763	101.75
347.99	75.75
348.218	87.75
348.445	96.75
348.673	75.75
348.9	85.75
349.128	80.75
349.355	83.75
349.583	74.75
349.81	80.75
350.037	74.75
350.265	81.75
350.492	78.75
350.72	86.75
350.947	95.75
351.174	80.75
351.402	76.75
351.629	80.75
351.856	78.75
352.083	79.75
352.311	88.75
352.538	80.75
352.765	80.75
352.992	81.75
353.22	81.75
353.447	86.75
353.674	98.75
353.901	80.75
354.128	87.75
354.355	72.75
354.583	93.75
354.81	90.75
355.037	90.75
355.264	91.75
355.491	77.75
355.718	78.75
355.945	86.75
356.172	91.75
356.399	74.75
356.626	81.75
356.853	71.75
357.08	79.75
357.307	82.75
357.534	85.75
357.761	84.75
357.988	78.75
358.215	81.75
358.441	73.75
358.668	92.75
358.895	86.75
359.122	85.75
359.349	86.75
359.576	83.75
359.802	96.75
360.029	86.75
360.256	74.75
360.483	67.75
360.709	65.75
360.936	87.75
361.163	80.75
361.39	80.75
361.616	88.75
361.843	83.75
362.07	79.75
362.296	81.75
362.523	81.75
362.749	86.75
362.976	92.75
363.203	88.75
363.429	89.75
363.656	82.75
363.882	73.75
364.109	90.75
364.335	91.75
364.562	70.75
364.788	80.75
365.015	80.75
365.241	87.75
365.468	99.75
365.694	76.75
365.92	94.75
366.147	81.75
366.373	82.75
366.599	85.75
366.826	75.75
367.052	82.75
367.278	95.75
367.505	79.75
367.731	80.75
367.957	74.75
368.184	88.75
368.41	76.75
368.636	78.75
368.862	85.75
369.089	82.75
369.315	75.75
369.541	84.75
369.767	79.75
369.993	84.75
370.219	96.75
370.445	80.75
370.672	86.75
370.898	91.75
371.124	74.75
371.35	71.75
371.576	66.75
371.802	84.75
372.028	77.75
372.254	88.75
372.48	87.75
372.706	85.75
372.932	80.75
373.158	83.75
373.384	83.75
373.61	93.75
373.835	74.75
374.061	85.75
374.287	84.75
374.513	83.75
374.739	61.75
374.965	74.75
375.191	88.75
375.416	84.75
375.642	87.75
375.868	82.75
376.094	69.75
376.319	77.75
376.545	72.75
376.771	85.75
376.997	96.75
377.222	85.75
377.448	68.75
377.674	80.75
377.899	82.75
378.125	78.75
378.35	80.75
378.576	86.75
378.802	87.75
379.027	82.75
379.253	94.75
379.478	80.75
379.704	87.75
379.929	82.75
380.155	82.75
380.38	83.75
380.606	87.75
380.831	83.75
381.057	100.75
381.282	92.75
381.507	74.75
381.733	81.75
381.958	103.75
382.184	85.75
382.409	100.75
382.634	87.75
382.86	84.75
383.085	90.75
383.31	79.75
383.535	94.75
383.761	93.75
383.986	89.75
384.211	86.75
384.436	90.75
384.662	72.75
384.887	82.75
385.112	83.75
385.337	88.75
385.562	74.75
385.787	89.75
386.013	83.75
386.238	92.75
386.463	79.75
386.688	88.75
386.913	91.75
387.138	86.75
387.363	71.75
387.588	89.75
387.813	98.75
388.038	92.75
388.263	83.75
388.488	96.75
388.713	87.75
388.938	74.75
389.163	85.75
389.387	91.75
389.612	86.75
389.837	83.75
390.062	83.75
390.287	90.75
390.512	89.75
390.736	85.75
390.961	89.75
391.186	88.75
391.411	88.75
391.636	69.75
391.86	86.75
392.085	89.75
392.31	92.75
392.534	97.75
392.759	81.75
392.984	89.75
393.208	82.75
393.433	87.75
393.658	75.75
393.882	82.75
394.107	81.75
394.331	86.75
394.556	80.75
394.78	83.75
395.005	89.75
395.229	93.75
395.454	87.75
395.678	81.75
395.903	101.75
396.127	93.75
396.352	76.75
396.576	93.75
396.801	92.75
397.025	85.75
397.249	67.75
397.474	84.75
397.698	89.75
397.922	90.75
398.147	85.75
398.371	73.75
398.595	78.75
398.82	74.75
399.044	86.75
399.268	80.75
399.492	91.75
399.717	89.75
399.941	75.75
400.165	78.75
400.389	94.75
400.613	77.75
400.837	87.75
401.062	75.75
401.286	81.75
401.51	74.75
401.734	96.75
401.958	84.75
402.182	92.75
402.406	88.75
402.63	78.75
402.854	102.75
403.078	83.75
403.302	80.75
403.526	91.75
403.75	89.75
403.974	88.75
404.198	93.75
404.422	91.75
404.645	91.75
404.869	85.75
405.093	85.75
405.317	93.75
405.541	94.75
405.765	102.75
405.988	89.75
406.212	89.75
406.436	96.75
406.66	101.75
406.883	86.75
407.107	81.75
407.331	78.75
407.555	85.75
407.778	82.75
408.002	86.75
408.226	82.75
408.449	87.75
408.673	99.75
408.896	80.75
409.12	90.75
409.344	85.75
409.567	90.75
409.791	85.75
410.014	84.75
410.238	88.75
410.461	93.75
410.685	90.75
410.908	92.75
411.132	88.75
411.355	81.75
411.578	96.75
411.802	88.75
412.025	88.75
412.249	76.75
412.472	87.75
412.695	74.75
412.919	84.75
413.142	85.75
413.365	86.75
413.589	67.75
413.812	78.75
414.035	82.75
414.258	81.75
414.482	84.75
414.705	85.75
414.928	78.75
415.151	90.75
415.374	71.75
415.597	86.75
415.821	87.75
416.044	94.75
416.267	86.75
416.49	85.75
416.713	95.75
416.936	86.75
417.159	100.75
417.382	84.75
417.605	89.75
417.828	88.75
418.051	82.75
418.274	101.75
418.497	90.75
418.72	84.75
418.943	83.75
419.166	100.75
419.389	89.75
419.611	103.75
419.834	76.75
420.057	85.75
420.28	94.75
420.503	86.75
420.726	77.75
420.948	76.75
421.171	98.75
421.394	108.75
421.617	97.75
421.839	106.75
422.062	95.75
422.285	93.75
422.507	87.75
422.73	84.75
422.953	94.75
423.175	96.75
423.398	100.75
423.621	84.75
423.843	85.75
424.066	85.75
424.288	89.75
424.511	101.75
424.733	102.75
424.956	87.75
425.178	93.75
425.401	89.75
425.623	101.75
425.846	98.75
426.068	94.75
426.291	98.75
426.513	83.75
426.735	85.75
426.958	96.75
427.18	89.75
427.402	107.75
427.625	77.75
427.847	81.75
428.069	88.75
428.292	103.75
428.514	85.75
428.736	103.75
428.958	86.75
429.181	96.75
429.403	84.75
429.625	87.75
429.847	90.75
430.069	91.75
430.292	81.75
430.514	91.75
430.736	84.75
430.958	90.75
431.18	89.75
431.402	85.75
431.624	86.75
431.846	85.75
432.068	71.75
432.29	87.75
432.512	94.75
432.734	87.75
432.956	95.75
433.178	97.75
433.4	75.75
433.622	99.75
433.844	105.75
434.066	90.75
434.287	95.75
434.509	89.75
434.731	83.75
434.953	100.75
435.175	97.75
435.397	77.75
435.618	101.75
435.84	86.75
436.062	79.75
436.284	82.75
436.505	90.75
436.727	82.75
436.949	87.75
437.17	81.75
437.392	89.75
437.614	95.75
437.835	75.75
438.057	92.75
438.278	85.75
438.5	94.75
438.721	95.75
438.943	89.75
439.165	80.75
439.386	99.75
439.608	101.75
439.829	95.75
440.05	105.75
440.272	96.75
440.493	86.75
440.715	92.75
440.936	110.75
441.158	92.75
441.379	84.75
441.6	92.75
441.822	91.75
442.043	112.75
442.264	92.75
442.486	100.75
442.707	89.75
442.928	96.75
443.149	97.75
443.371	98.75
443.592	99.75
443.813	86.75
444.034	103.75
444.255	82.75
444.476	100.75
444.698	88.75
444.919	103.75
445.14	178.75
445.361	144.75
445.582	104.75
445.803	95.75
446.024	96.75
446.245	89.75
446.466	96.75
446.687	95.75
446.908	93.75
447.129	100.75
447.35	98.75
447.571	99.75
447.792	97.75
448.013	86.75
448.234	101.75
448.455	101.75
448.675	94.75
448.896	99.75
449.117	103.75
449.338	97.75
449.559	96.75
449.779	101.75
450	78.75
450.221	90.75
450.442	90.75
450.662	92.75
450.883	92.75
451.104	106.75
451.324	90.75
451.545	88.75
451.766	78.75
451.986	89.75
452.207	87.75
452.428	101.75
452.648	93.75
452.869	85.75
453.089	76.75
453.31	95.75
453.53	78.75
453.751	78.75
453.971	81.75
454.192	81.75
454.412	82.75
454.633	89.75
454.853	87.75
455.073	80.75
455.294	90.75
455.514	96.75
455.734	92.75
455.955	83.75
456.175	88.75
456.395	81.75
456.616	88.75
456.836	84.75
457.056	89.75
457.276	82.75
457.497	93.75
457.717	82.75
457.937	104.75
458.157	79.75
458.377	89.75
458.598	85.75
458.818	81.75
459.038	80.75
459.258	87.75
459.478	72.75
459.698	72.75
459.918	86.75
460.138	82.75
460.358	88.75
460.578	93.75
460.798	80.75
461.018	92.75
461.238	97.75
461.458	88.75
461.678	106.75
461.898	98.75
462.118	87.75
462.338	74.75
462.558	94.75
462.777	88.75
462.997	87.75
463.217	80.75
463.437	79.75
463.657	93.75
463.876	87.75
464.096	78.75
464.316	90.75
464.536	97.75
464.755	98.75
464.975	88.75
465.195	95.75
465.414	100.75
465.634	89.75
465.854	99.75
466.073	83.75
466.293	73.75
466.512	103.75
466.732	102.75
466.951	99.75
467.171	99.75
467.391	94.75
467.61	110.75
467.829	112.75
468.049	87.75
468.268	86.75
468.488	97.75
468.707	97.75
468.927	99.75
469.146	101.75
469.365	97.75
469.585	82.75
469.804	89.75
470.023	78.75
470.243	93.75
470.462	81.75
470.681	89.75
470.901	88.75
471.12	96.75
471.339	85.75
471.558	90.75
471.777	90.75
471.997	104.75
472.216	83.75
472.435	96.75
472.654	90.75
472.873	81.75
473.092	88.75
473.311	80.75
473.53	94.75
473.749	92.75
473.968	88.75
474.187	108.75
474.406	80.75
474.625	92.75
474.844	96.75
475.063	84.75
475.282	95.75
475.501	88.75
475.72	89.75
475.939	82.75
476.158	90.75
476.377	86.75
476.596	91.75
476.814	82.75
477.033	81.75
477.252	99.75
477.471	86.75
477.69	94.75
477.908	99.75
478.127	95.75
478.346	85.75
478.564	92.75
478.783	98.75
479.002	106.75
479.22	100.75
479.439	88.75
479.658	95.75
479.876	101.75
480.095	94.75
480.313	92.75
480.532	95.75
480.751	81.75
480.969	80.75
481.188	74.75
481.406	78.75
481.624	74.75
481.843	84.75
482.061	81.75
482.28	85.75
482.498	99.75
482.717	82.75
482.935	82.75
483.153	102.75
483.372	85.75
483.59	102.75
483.808	85.75
484.027	81.75
484.245	99.75
484.463	82.75
484.681	96.75
484.9	86.75
485.118	95.75
485.336	89.75
485.554	93.75
485.772	83.75
485.99	82.75
486.209	97.75
486.427	89.75
486.645	101.75
486.863	97.75
487.081	83.75
487.299	89.75
487.517	102.75
487.735	114.75
487.953	119.75
488.171	105.75
488.389	100.75
488.607	99.75
488.825	82.75
489.043	94.75
489.261	94.75
489.479	93.75
489.696	100.75
489.914	104.75
490.132	104.75
490.35	113.75
490.568	97.75
490.786	99.75
491.003	111.75
491.221	103.75
491.439	114.75
491.657	120.75
491.874	110.75
492.092	111.75
492.31	126.75
492.527	126.75
492.745	124.75
492.963	108.75
493.18	106.75
493.398	92.75
493.615	118.75
493.833	108.75
494.05	108.75
494.268	117.75
494.485	97.75
494.703	102.75
494.92	110.75
495.138	105.75
495.355	114.75
495.573	116.75
495.79	98.75
496.008	107.75
496.225	99.75
496.442	111.75
496.66	111.75
496.877	111.75
497.094	98.75
497.312	118.75
497.529	85.75
497.746	88.75
497.963	94.75
498.181	94.75
498.398	102.75
498.615	95.75
498.832	83.75
499.049	86.75
499.267	85.75
499.484	93.75
499.701	113.75
499.918	99.75
500.135	94.75
500.352	101.75
500.569	99.75
500.786	100.75
501.003	94.75
501.22	90.75
501.437	84.75
501.654	109.75
501.871	94.75
502.088	100.75
502.305	101.75
502.522	97.75
502.739	93.75
502.956	104.75
503.172	86.75
503.389	92.75
503.606	95.75
503.823	95.75
504.04	92.75
504.256	90.75
504.473	95.75
504.69	99.75
504.907	82.75
505.123	88.75
505.34	88.75
505.557	94.75
505.773	88.75
505.99	83.75
506.207	89.75
506.423	89.75
506.64	97.75
506.856	94.75
507.073	83.75
507.289	95.75
507.506	82.75
507.722	92.75
507.939	85.75
508.155	97.75
508.372	89.75
508.588	83.75
508.805	80.75
509.021	86.75
509.238	75.75
509.454	89.75
509.67	85.75
509.887	77.75
510.103	80.75
510.319	92.75
510.536	97.75
510.752	83.75
510.968	84.75
511.184	74.75
511.401	78.75
511.617	86.75
511.833	89.75
512.049	79.75
512.265	96.75
512.481	83.75
512.698	92.75
512.914	79.75
513.13	94.75
513.346	79.75
513.562	70.75
513.778	89.75
513.994	81.75
514.21	84.75
514.426	82.75
514.642	88.75
514.858	84.75
515.074	74.75
515.29	95.75
515.506	79.75
515.721	73.75
515.937	80.75
516.153	81.75
516.369	85.75
516.585	89.75
516.801	81.75
517.016	89.75
517.232	88.75
517.448	84.75
517.664	80.75
517.879	89.75
518.095	73.75
