Data from Location4.07152019.Energy5.Lamp.07192019.3%Agarose_HRD10591_15-25-09-577.txt Node
Date: Fri Jul 19 15:25:09 EDT 2019
User: cochatt
Spectrometer: HR+D1059
Trigger mode: 1
Integration Time (sec): 1.000000E-1
Scans to average: 1
Electric dark correction enabled: true
Nonlinearity correction enabled: false
Boxcar width: 0
XAxis mode: Wavelengths
Number of Pixels in Spectrum: 2048
>>>>>Begin Spectral Data<<<<<
223.165	-14.69
223.4	-14.69
223.635	-14.69
223.869	-20.69
224.104	-19.69
224.338	-7.69
224.573	-14.69
224.808	-10.69
225.042	-8.69
225.277	-14.69
225.511	1.31
225.746	-3.69
225.98	0.31
226.215	12.31
226.449	26.31
226.683	14.31
226.918	35.31
227.152	25.31
227.387	33.31
227.621	36.31
227.856	43.31
228.09	42.31
228.324	43.31
228.559	59.31
228.793	59.31
229.027	56.31
229.262	66.31
229.496	72.31
229.73	64.31
229.964	73.31
230.199	67.31
230.433	71.31
230.667	84.31
230.901	77.31
231.136	76.31
231.37	86.31
231.604	82.31
231.838	74.31
232.072	82.31
232.306	80.31
232.541	78.31
232.775	84.31
233.009	86.31
233.243	85.31
233.477	90.31
233.711	93.31
233.945	97.31
234.179	88.31
234.413	77.31
234.647	85.31
234.881	85.31
235.115	61.31
235.349	73.31
235.583	71.31
235.817	77.31
236.051	80.31
236.285	82.31
236.519	86.31
236.753	72.31
236.987	62.31
237.221	78.31
237.455	80.31
237.689	77.31
237.922	93.31
238.156	69.31
238.39	90.31
238.624	63.31
238.858	80.31
239.091	68.31
239.325	79.31
239.559	70.31
239.793	85.31
240.027	75.31
240.26	77.31
240.494	85.31
240.728	80.31
240.961	79.31
241.195	76.31
241.429	85.31
241.662	77.31
241.896	77.31
242.13	83.31
242.363	60.31
242.597	77.31
242.83	75.31
243.064	82.31
243.298	71.31
243.531	66.31
243.765	79.31
243.998	77.31
244.232	72.31
244.465	75.31
244.699	71.31
244.932	76.31
245.166	86.31
245.399	83.31
245.633	86.31
245.866	81.31
246.099	74.31
246.333	67.31
246.566	69.31
246.8	67.31
247.033	95.31
247.266	84.31
247.5	85.31
247.733	84.31
247.966	88.31
248.2	86.31
248.433	73.31
248.666	74.31
248.899	71.31
249.133	76.31
249.366	90.31
249.599	87.31
249.832	78.31
250.066	88.31
250.299	77.31
250.532	83.31
250.765	85.31
250.998	90.31
251.231	80.31
251.465	75.31
251.698	66.31
251.931	85.31
252.164	85.31
252.397	83.31
252.63	65.31
252.863	84.31
253.096	63.31
253.329	65.31
253.562	92.31
253.795	77.31
254.028	75.31
254.261	80.31
254.494	83.31
254.727	90.31
254.96	83.31
255.193	93.31
255.426	83.31
255.659	80.31
255.892	77.31
256.124	66.31
256.357	75.31
256.59	93.31
256.823	72.31
257.056	84.31
257.289	91.31
257.521	89.31
257.754	92.31
257.987	78.31
258.22	76.31
258.452	76.31
258.685	92.31
258.918	91.31
259.151	83.31
259.383	85.31
259.616	71.31
259.849	96.31
260.081	74.31
260.314	74.31
260.547	78.31
260.779	89.31
261.012	93.31
261.244	93.31
261.477	94.31
261.71	77.31
261.942	88.31
262.175	78.31
262.407	80.31
262.64	89.31
262.872	82.31
263.105	88.31
263.337	81.31
263.57	83.31
263.802	73.31
264.035	92.31
264.267	87.31
264.499	86.31
264.732	81.31
264.964	91.31
265.197	88.31
265.429	82.31
265.661	82.31
265.894	100.31
266.126	79.31
266.358	77.31
266.591	69.31
266.823	75.31
267.055	74.31
267.287	86.31
267.52	82.31
267.752	88.31
267.984	77.31
268.216	96.31
268.448	76.31
268.681	75.31
268.913	88.31
269.145	74.31
269.377	82.31
269.609	82.31
269.841	79.31
270.073	94.31
270.306	76.31
270.538	73.31
270.77	79.31
271.002	78.31
271.234	93.31
271.466	84.31
271.698	77.31
271.93	99.31
272.162	83.31
272.394	83.31
272.626	94.31
272.858	83.31
273.09	82.31
273.322	86.31
273.553	80.31
273.785	84.31
274.017	91.31
274.249	72.31
274.481	85.31
274.713	86.31
274.945	71.31
275.176	77.31
275.408	99.31
275.64	74.31
275.872	83.31
276.104	90.31
276.335	83.31
276.567	92.31
276.799	85.31
277.031	85.31
277.262	89.31
277.494	79.31
277.726	77.31
277.957	83.31
278.189	89.31
278.421	69.31
278.652	74.31
278.884	90.31
279.115	88.31
279.347	90.31
279.579	95.31
279.81	76.31
280.042	83.31
280.273	84.31
280.505	85.31
280.736	84.31
280.968	89.31
281.199	87.31
281.431	91.31
281.662	91.31
281.894	90.31
282.125	100.31
282.356	85.31
282.588	79.31
282.819	84.31
283.051	96.31
283.282	93.31
283.513	91.31
283.745	81.31
283.976	84.31
284.207	94.31
284.439	76.31
284.67	77.31
284.901	71.31
285.132	90.31
285.364	76.31
285.595	92.31
285.826	83.31
286.057	66.31
286.288	79.31
286.52	73.31
286.751	79.31
286.982	86.31
287.213	98.31
287.444	94.31
287.675	84.31
287.906	93.31
288.138	89.31
288.369	77.31
288.6	79.31
288.831	83.31
289.062	80.31
289.293	83.31
289.524	83.31
289.755	82.31
289.986	94.31
290.217	92.31
290.448	78.31
290.679	89.31
290.91	95.31
291.141	77.31
291.371	85.31
291.602	90.31
291.833	76.31
292.064	64.31
292.295	87.31
292.526	81.31
292.757	86.31
292.987	91.31
293.218	89.31
293.449	85.31
293.68	75.31
293.91	81.31
294.141	84.31
294.372	75.31
294.603	91.31
294.833	84.31
295.064	91.31
295.295	89.31
295.525	87.31
295.756	81.31
295.987	89.31
296.217	77.31
296.448	82.31
296.679	86.31
296.909	85.31
297.14	87.31
297.37	90.31
297.601	94.31
297.831	89.31
298.062	83.31
298.292	77.31
298.523	80.31
298.753	76.31
298.984	81.31
299.214	77.31
299.445	83.31
299.675	72.31
299.905	71.31
300.136	83.31
300.366	75.31
300.597	89.31
300.827	85.31
301.057	72.31
301.288	72.31
301.518	81.31
301.748	83.31
301.979	89.31
302.209	86.31
302.439	86.31
302.669	93.31
302.9	86.31
303.13	95.31
303.36	82.31
303.59	77.31
303.82	83.31
304.051	91.31
304.281	81.31
304.511	92.31
304.741	99.31
304.971	95.31
305.201	97.31
305.431	82.31
305.661	76.31
305.891	95.31
306.121	85.31
306.352	86.31
306.582	96.31
306.812	95.31
307.042	97.31
307.272	77.31
307.502	74.31
307.731	70.31
307.961	77.31
308.191	81.31
308.421	84.31
308.651	85.31
308.881	99.31
309.111	87.31
309.341	80.31
309.571	76.31
309.8	85.31
310.03	91.31
310.26	82.31
310.49	86.31
310.72	84.31
310.949	79.31
311.179	84.31
311.409	92.31
311.639	81.31
311.868	87.31
312.098	77.31
312.328	83.31
312.557	90.31
312.787	90.31
313.017	100.31
313.246	88.31
313.476	82.31
313.706	81.31
313.935	87.31
314.165	95.31
314.394	91.31
314.624	98.31
314.853	85.31
315.083	90.31
315.312	88.31
315.542	80.31
315.771	97.31
316.001	93.31
316.23	89.31
316.46	76.31
316.689	77.31
316.919	76.31
317.148	88.31
317.377	78.31
317.607	82.31
317.836	96.31
318.065	95.31
318.295	89.31
318.524	82.31
318.753	88.31
318.983	77.31
319.212	97.31
319.441	75.31
319.67	77.31
319.9	84.31
320.129	93.31
320.358	77.31
320.587	88.31
320.816	85.31
321.046	86.31
321.275	91.31
321.504	91.31
321.733	84.31
321.962	81.31
322.191	87.31
322.42	92.31
322.649	85.31
322.878	88.31
323.108	89.31
323.337	93.31
323.566	63.31
323.795	74.31
324.024	92.31
324.253	88.31
324.482	87.31
324.71	95.31
324.939	85.31
325.168	89.31
325.397	90.31
325.626	89.31
325.855	85.31
326.084	98.31
326.313	80.31
326.542	82.31
326.77	95.31
326.999	87.31
327.228	86.31
327.457	82.31
327.686	93.31
327.914	93.31
328.143	85.31
328.372	90.31
328.6	85.31
328.829	87.31
329.058	94.31
329.287	84.31
329.515	83.31
329.744	87.31
329.972	91.31
330.201	91.31
330.43	66.31
330.658	78.31
330.887	83.31
331.115	76.31
331.344	67.31
331.572	89.31
331.801	93.31
332.03	94.31
332.258	93.31
332.486	91.31
332.715	73.31
332.943	83.31
333.172	81.31
333.4	85.31
333.629	85.31
333.857	84.31
334.085	84.31
334.314	84.31
334.542	93.31
334.771	89.31
334.999	97.31
335.227	63.31
335.455	91.31
335.684	80.31
335.912	84.31
336.14	83.31
336.369	99.31
336.597	74.31
336.825	107.31
337.053	77.31
337.281	76.31
337.51	103.31
337.738	82.31
337.966	90.31
338.194	89.31
338.422	76.31
338.65	74.31
338.878	96.31
339.106	76.31
339.334	85.31
339.562	82.31
339.79	71.31
340.018	91.31
340.246	97.31
340.474	81.31
340.702	87.31
340.93	93.31
341.158	81.31
341.386	95.31
341.614	93.31
341.842	86.31
342.07	78.31
342.298	81.31
342.526	80.31
342.754	95.31
342.981	89.31
343.209	105.31
343.437	90.31
343.665	91.31
343.893	96.31
344.12	77.31
344.348	86.31
344.576	81.31
344.804	88.31
345.031	83.31
345.259	77.31
345.487	87.31
345.714	99.31
345.942	80.31
346.17	92.31
346.397	93.31
346.625	89.31
346.853	86.31
347.08	98.31
347.308	93.31
347.535	84.31
347.763	85.31
347.99	88.31
348.218	88.31
348.445	87.31
348.673	88.31
348.9	91.31
349.128	82.31
349.355	80.31
349.583	89.31
349.81	101.31
350.037	68.31
350.265	92.31
350.492	67.31
350.72	85.31
350.947	73.31
351.174	82.31
351.402	86.31
351.629	92.31
351.856	89.31
352.083	85.31
352.311	95.31
352.538	87.31
352.765	94.31
352.992	86.31
353.22	80.31
353.447	75.31
353.674	73.31
353.901	82.31
354.128	87.31
354.355	97.31
354.583	92.31
354.81	77.31
355.037	98.31
355.264	91.31
355.491	97.31
355.718	76.31
355.945	85.31
356.172	75.31
356.399	87.31
356.626	84.31
356.853	95.31
357.08	91.31
357.307	98.31
357.534	73.31
357.761	89.31
357.988	82.31
358.215	84.31
358.441	77.31
358.668	74.31
358.895	80.31
359.122	89.31
359.349	82.31
359.576	99.31
359.802	83.31
360.029	81.31
360.256	92.31
360.483	73.31
360.709	86.31
360.936	92.31
361.163	91.31
361.39	74.31
361.616	92.31
361.843	76.31
362.07	93.31
362.296	74.31
362.523	74.31
362.749	82.31
362.976	86.31
363.203	82.31
363.429	87.31
363.656	89.31
363.882	74.31
364.109	95.31
364.335	92.31
364.562	92.31
364.788	78.31
365.015	78.31
365.241	92.31
365.468	86.31
365.694	94.31
365.92	85.31
366.147	88.31
366.373	96.31
366.599	87.31
366.826	87.31
367.052	97.31
367.278	84.31
367.505	90.31
367.731	99.31
367.957	76.31
368.184	84.31
368.41	90.31
368.636	98.31
368.862	89.31
369.089	88.31
369.315	86.31
369.541	99.31
369.767	89.31
369.993	75.31
370.219	88.31
370.445	73.31
370.672	82.31
370.898	92.31
371.124	77.31
371.35	76.31
371.576	76.31
371.802	78.31
372.028	92.31
372.254	77.31
372.48	88.31
372.706	93.31
372.932	89.31
373.158	87.31
373.384	69.31
373.61	80.31
373.835	82.31
374.061	88.31
374.287	85.31
374.513	76.31
374.739	91.31
374.965	86.31
375.191	75.31
375.416	82.31
375.642	71.31
375.868	98.31
376.094	83.31
376.319	79.31
376.545	78.31
376.771	100.31
376.997	79.31
377.222	83.31
377.448	75.31
377.674	86.31
377.899	102.31
378.125	95.31
378.35	84.31
378.576	83.31
378.802	98.31
379.027	86.31
379.253	84.31
379.478	79.31
379.704	88.31
379.929	101.31
380.155	83.31
380.38	89.31
380.606	87.31
380.831	71.31
381.057	85.31
381.282	98.31
381.507	98.31
381.733	92.31
381.958	88.31
382.184	68.31
382.409	85.31
382.634	87.31
382.86	92.31
383.085	91.31
383.31	79.31
383.535	93.31
383.761	76.31
383.986	83.31
384.211	84.31
384.436	83.31
384.662	87.31
384.887	79.31
385.112	73.31
385.337	89.31
385.562	87.31
385.787	77.31
386.013	81.31
386.238	92.31
386.463	90.31
386.688	76.31
386.913	92.31
387.138	79.31
387.363	96.31
387.588	95.31
387.813	88.31
388.038	91.31
388.263	90.31
388.488	83.31
388.713	83.31
388.938	80.31
389.163	91.31
389.387	99.31
389.612	88.31
389.837	77.31
390.062	83.31
390.287	78.31
390.512	92.31
390.736	91.31
390.961	85.31
391.186	85.31
391.411	82.31
391.636	94.31
391.86	99.31
392.085	89.31
392.31	87.31
392.534	87.31
392.759	77.31
392.984	90.31
393.208	90.31
393.433	109.31
393.658	96.31
393.882	84.31
394.107	88.31
394.331	75.31
394.556	92.31
394.78	90.31
395.005	78.31
395.229	85.31
395.454	86.31
395.678	69.31
395.903	83.31
396.127	92.31
396.352	94.31
396.576	92.31
396.801	85.31
397.025	94.31
397.249	92.31
397.474	91.31
397.698	85.31
397.922	87.31
398.147	98.31
398.371	87.31
398.595	88.31
398.82	82.31
399.044	77.31
399.268	89.31
399.492	75.31
399.717	83.31
399.941	95.31
400.165	71.31
400.389	85.31
400.613	98.31
400.837	107.31
401.062	100.31
401.286	93.31
401.51	86.31
401.734	96.31
401.958	92.31
402.182	90.31
402.406	99.31
402.63	77.31
402.854	94.31
403.078	96.31
403.302	99.31
403.526	82.31
403.75	86.31
403.974	88.31
404.198	91.31
404.422	98.31
404.645	98.31
404.869	98.31
405.093	91.31
405.317	94.31
405.541	101.31
405.765	91.31
405.988	83.31
406.212	91.31
406.436	95.31
406.66	94.31
406.883	94.31
407.107	82.31
407.331	102.31
407.555	94.31
407.778	94.31
408.002	85.31
408.226	86.31
408.449	88.31
408.673	90.31
408.896	96.31
409.12	84.31
409.344	95.31
409.567	82.31
409.791	85.31
410.014	98.31
410.238	89.31
410.461	97.31
410.685	96.31
410.908	93.31
411.132	93.31
411.355	89.31
411.578	92.31
411.802	93.31
412.025	97.31
412.249	95.31
412.472	92.31
412.695	85.31
412.919	93.31
413.142	88.31
413.365	83.31
413.589	90.31
413.812	87.31
414.035	101.31
414.258	81.31
414.482	86.31
414.705	76.31
414.928	104.31
415.151	84.31
415.374	94.31
415.597	83.31
415.821	96.31
416.044	102.31
416.267	95.31
416.49	86.31
416.713	95.31
416.936	92.31
417.159	93.31
417.382	103.31
417.605	90.31
417.828	108.31
418.051	101.31
418.274	108.31
418.497	99.31
418.72	108.31
418.943	108.31
419.166	100.31
419.389	96.31
419.611	86.31
419.834	97.31
420.057	93.31
420.28	93.31
420.503	97.31
420.726	90.31
420.948	96.31
421.171	98.31
421.394	100.31
421.617	97.31
421.839	96.31
422.062	94.31
422.285	101.31
422.507	102.31
422.73	97.31
422.953	95.31
423.175	85.31
423.398	84.31
423.621	112.31
423.843	88.31
424.066	100.31
424.288	111.31
424.511	107.31
424.733	86.31
424.956	95.31
425.178	107.31
425.401	89.31
425.623	111.31
425.846	94.31
426.068	93.31
426.291	94.31
426.513	86.31
426.735	88.31
426.958	91.31
427.18	101.31
427.402	106.31
427.625	88.31
427.847	94.31
428.069	116.31
428.292	85.31
428.514	75.31
428.736	88.31
428.958	87.31
429.181	95.31
429.403	96.31
429.625	94.31
429.847	100.31
430.069	103.31
430.292	91.31
430.514	103.31
430.736	95.31
430.958	74.31
431.18	88.31
431.402	86.31
431.624	92.31
431.846	77.31
432.068	92.31
432.29	83.31
432.512	95.31
432.734	95.31
432.956	96.31
433.178	95.31
433.4	81.31
433.622	103.31
433.844	100.31
434.066	96.31
434.287	93.31
434.509	100.31
434.731	90.31
434.953	83.31
435.175	88.31
435.397	93.31
435.618	73.31
435.84	81.31
436.062	90.31
436.284	96.31
436.505	87.31
436.727	84.31
436.949	95.31
437.17	97.31
437.392	98.31
437.614	96.31
437.835	95.31
438.057	108.31
438.278	88.31
438.5	89.31
438.721	96.31
438.943	95.31
439.165	97.31
439.386	103.31
439.608	106.31
439.829	104.31
440.05	96.31
440.272	107.31
440.493	92.31
440.715	101.31
440.936	105.31
441.158	111.31
441.379	106.31
441.6	93.31
441.822	108.31
442.043	106.31
442.264	98.31
442.486	97.31
442.707	103.31
442.928	113.31
443.149	96.31
443.371	100.31
443.592	104.31
443.813	101.31
444.034	81.31
444.255	85.31
444.476	87.31
444.698	94.31
444.919	92.31
445.14	240.31
445.361	169.31
445.582	102.31
445.803	104.31
446.024	97.31
446.245	105.31
446.466	99.31
446.687	103.31
446.908	107.31
447.129	92.31
447.35	102.31
447.571	107.31
447.792	95.31
448.013	95.31
448.234	95.31
448.455	99.31
448.675	101.31
448.896	94.31
449.117	101.31
449.338	109.31
449.559	79.31
449.779	87.31
450	83.31
450.221	106.31
450.442	97.31
450.662	98.31
450.883	89.31
451.104	99.31
451.324	106.31
451.545	84.31
451.766	82.31
451.986	90.31
452.207	85.31
452.428	89.31
452.648	87.31
452.869	97.31
453.089	80.31
453.31	92.31
453.53	103.31
453.751	96.31
453.971	101.31
454.192	95.31
454.412	89.31
454.633	103.31
454.853	96.31
455.073	89.31
455.294	103.31
455.514	108.31
455.734	84.31
455.955	101.31
456.175	97.31
456.395	91.31
456.616	87.31
456.836	85.31
457.056	75.31
457.276	70.31
457.497	81.31
457.717	83.31
457.937	78.31
458.157	99.31
458.377	99.31
458.598	80.31
458.818	88.31
459.038	96.31
459.258	86.31
459.478	91.31
459.698	81.31
459.918	83.31
460.138	91.31
460.358	96.31
460.578	93.31
460.798	99.31
461.018	100.31
461.238	96.31
461.458	92.31
461.678	95.31
461.898	87.31
462.118	88.31
462.338	97.31
462.558	91.31
462.777	99.31
462.997	90.31
463.217	90.31
463.437	98.31
463.657	90.31
463.876	77.31
464.096	95.31
464.316	83.31
464.536	90.31
464.755	87.31
464.975	94.31
465.195	104.31
465.414	86.31
465.634	92.31
465.854	97.31
466.073	95.31
466.293	93.31
466.512	97.31
466.732	90.31
466.951	91.31
467.171	90.31
467.391	109.31
467.61	104.31
467.829	91.31
468.049	91.31
468.268	109.31
468.488	97.31
468.707	101.31
468.927	109.31
469.146	96.31
469.365	96.31
469.585	96.31
469.804	108.31
470.023	102.31
470.243	88.31
470.462	88.31
470.681	115.31
470.901	112.31
471.12	93.31
471.339	103.31
471.558	90.31
471.777	107.31
471.997	95.31
472.216	91.31
472.435	97.31
472.654	80.31
472.873	102.31
473.092	95.31
473.311	101.31
473.53	96.31
473.749	88.31
473.968	104.31
474.187	92.31
474.406	91.31
474.625	84.31
474.844	90.31
475.063	98.31
475.282	104.31
475.501	86.31
475.72	102.31
475.939	100.31
476.158	88.31
476.377	87.31
476.596	97.31
476.814	82.31
477.033	81.31
477.252	85.31
477.471	99.31
477.69	83.31
477.908	102.31
478.127	105.31
478.346	116.31
478.564	91.31
478.783	89.31
479.002	96.31
479.22	97.31
479.439	90.31
479.658	91.31
479.876	88.31
480.095	91.31
480.313	90.31
480.532	86.31
480.751	99.31
480.969	83.31
481.188	79.31
481.406	92.31
481.624	86.31
481.843	94.31
482.061	96.31
482.28	94.31
482.498	95.31
482.717	90.31
482.935	87.31
483.153	100.31
483.372	115.31
483.59	111.31
483.808	89.31
484.027	90.31
484.245	80.31
484.463	96.31
484.681	109.31
484.9	109.31
485.118	102.31
485.336	102.31
485.554	89.31
485.772	96.31
485.99	84.31
486.209	93.31
486.427	83.31
486.645	98.31
486.863	92.31
487.081	93.31
487.299	97.31
487.517	92.31
487.735	125.31
487.953	107.31
488.171	107.31
488.389	115.31
488.607	100.31
488.825	96.31
489.043	96.31
489.261	90.31
489.479	97.31
489.696	103.31
489.914	95.31
490.132	103.31
490.35	108.31
490.568	111.31
490.786	105.31
491.003	102.31
491.221	111.31
491.439	108.31
491.657	113.31
491.874	111.31
492.092	127.31
492.31	125.31
492.527	131.31
492.745	116.31
492.963	119.31
493.18	118.31
493.398	97.31
493.615	99.31
493.833	113.31
494.05	115.31
494.268	117.31
494.485	121.31
494.703	118.31
494.92	111.31
495.138	105.31
495.355	108.31
495.573	114.31
495.79	108.31
496.008	117.31
496.225	100.31
496.442	109.31
496.66	103.31
496.877	92.31
497.094	118.31
497.312	98.31
497.529	96.31
497.746	115.31
497.963	111.31
498.181	88.31
498.398	90.31
498.615	102.31
498.832	92.31
499.049	85.31
499.267	79.31
499.484	94.31
499.701	95.31
499.918	93.31
500.135	95.31
500.352	120.31
500.569	97.31
500.786	115.31
501.003	99.31
501.22	97.31
501.437	98.31
501.654	92.31
501.871	95.31
502.088	103.31
502.305	101.31
502.522	95.31
502.739	96.31
502.956	114.31
503.172	95.31
503.389	91.31
503.606	113.31
503.823	103.31
504.04	100.31
504.256	91.31
504.473	86.31
504.69	96.31
504.907	99.31
505.123	87.31
505.34	89.31
505.557	104.31
505.773	105.31
505.99	90.31
506.207	96.31
506.423	92.31
506.64	91.31
506.856	95.31
507.073	91.31
507.289	96.31
507.506	107.31
507.722	79.31
507.939	93.31
508.155	90.31
508.372	89.31
508.588	83.31
508.805	97.31
509.021	76.31
509.238	75.31
509.454	85.31
509.67	78.31
509.887	90.31
510.103	74.31
510.319	98.31
510.536	101.31
510.752	88.31
510.968	79.31
511.184	87.31
511.401	81.31
511.617	80.31
511.833	69.31
512.049	84.31
512.265	90.31
512.481	93.31
512.698	92.31
512.914	81.31
513.13	95.31
513.346	83.31
513.562	80.31
513.778	83.31
513.994	91.31
514.21	87.31
514.426	76.31
514.642	91.31
514.858	87.31
515.074	73.31
515.29	92.31
515.506	91.31
515.721	91.31
515.937	87.31
516.153	83.31
516.369	92.31
516.585	85.31
516.801	93.31
517.016	99.31
517.232	74.31
