Data from Location4.07152019.Energy5.Lamp.07192019.3%Agarose_HRD10591_15-25-50-579.txt Node
Date: Fri Jul 19 15:25:50 EDT 2019
User: cochatt
Spectrometer: HR+D1059
Trigger mode: 1
Integration Time (sec): 1.000000E-1
Scans to average: 1
Electric dark correction enabled: true
Nonlinearity correction enabled: false
Boxcar width: 0
XAxis mode: Wavelengths
Number of Pixels in Spectrum: 2048
>>>>>Begin Spectral Data<<<<<
223.165	-18.5
223.4	-18.5
223.635	-18.5
223.869	-7.5
224.104	-14.5
224.338	-16.5
224.573	-17.5
224.808	-18.5
225.042	-29.5
225.277	-13.5
225.511	-0.5
225.746	3.5
225.98	3.5
226.215	7.5
226.449	18.5
226.683	29.5
226.918	35.5
227.152	38.5
227.387	33.5
227.621	33.5
227.856	45.5
228.09	31.5
228.324	39.5
228.559	57.5
228.793	61.5
229.027	52.5
229.262	49.5
229.496	69.5
229.73	61.5
229.964	78.5
230.199	78.5
230.433	72.5
230.667	69.5
230.901	88.5
231.136	69.5
231.37	78.5
231.604	76.5
231.838	78.5
232.072	67.5
232.306	76.5
232.541	79.5
232.775	81.5
233.009	77.5
233.243	78.5
233.477	60.5
233.711	79.5
233.945	76.5
234.179	99.5
234.413	76.5
234.647	64.5
234.881	74.5
235.115	76.5
235.349	60.5
235.583	64.5
235.817	75.5
236.051	70.5
236.285	69.5
236.519	77.5
236.753	79.5
236.987	83.5
237.221	78.5
237.455	79.5
237.689	69.5
237.922	89.5
238.156	69.5
238.39	70.5
238.624	70.5
238.858	81.5
239.091	71.5
239.325	69.5
239.559	76.5
239.793	71.5
240.027	82.5
240.26	70.5
240.494	57.5
240.728	79.5
240.961	78.5
241.195	75.5
241.429	74.5
241.662	68.5
241.896	57.5
242.13	75.5
242.363	81.5
242.597	70.5
242.83	84.5
243.064	68.5
243.298	87.5
243.531	71.5
243.765	56.5
243.998	62.5
244.232	69.5
244.465	66.5
244.699	65.5
244.932	83.5
245.166	70.5
245.399	83.5
245.633	71.5
245.866	66.5
246.099	66.5
246.333	73.5
246.566	71.5
246.8	83.5
247.033	71.5
247.266	79.5
247.5	86.5
247.733	75.5
247.966	77.5
248.2	71.5
248.433	75.5
248.666	77.5
248.899	79.5
249.133	72.5
249.366	75.5
249.599	75.5
249.832	70.5
250.066	74.5
250.299	70.5
250.532	84.5
250.765	67.5
250.998	86.5
251.231	69.5
251.465	73.5
251.698	71.5
251.931	81.5
252.164	80.5
252.397	66.5
252.63	73.5
252.863	80.5
253.096	75.5
253.329	75.5
253.562	76.5
253.795	71.5
254.028	73.5
254.261	86.5
254.494	71.5
254.727	64.5
254.96	67.5
255.193	69.5
255.426	70.5
255.659	76.5
255.892	70.5
256.124	78.5
256.357	72.5
256.59	91.5
256.823	87.5
257.056	66.5
257.289	65.5
257.521	76.5
257.754	72.5
257.987	62.5
258.22	67.5
258.452	70.5
258.685	83.5
258.918	65.5
259.151	69.5
259.383	83.5
259.616	80.5
259.849	82.5
260.081	93.5
260.314	89.5
260.547	84.5
260.779	91.5
261.012	80.5
261.244	79.5
261.477	71.5
261.71	89.5
261.942	87.5
262.175	93.5
262.407	71.5
262.64	75.5
262.872	68.5
263.105	78.5
263.337	77.5
263.57	84.5
263.802	81.5
264.035	82.5
264.267	76.5
264.499	73.5
264.732	63.5
264.964	78.5
265.197	76.5
265.429	89.5
265.661	78.5
265.894	76.5
266.126	70.5
266.358	77.5
266.591	67.5
266.823	79.5
267.055	73.5
267.287	76.5
267.52	65.5
267.752	76.5
267.984	85.5
268.216	76.5
268.448	73.5
268.681	72.5
268.913	76.5
269.145	76.5
269.377	60.5
269.609	79.5
269.841	91.5
270.073	72.5
270.306	71.5
270.538	73.5
270.77	71.5
271.002	69.5
271.234	79.5
271.466	86.5
271.698	80.5
271.93	79.5
272.162	81.5
272.394	91.5
272.626	74.5
272.858	78.5
273.09	83.5
273.322	78.5
273.553	76.5
273.785	83.5
274.017	71.5
274.249	93.5
274.481	77.5
274.713	88.5
274.945	82.5
275.176	75.5
275.408	80.5
275.64	69.5
275.872	71.5
276.104	76.5
276.335	66.5
276.567	85.5
276.799	75.5
277.031	82.5
277.262	75.5
277.494	81.5
277.726	89.5
277.957	82.5
278.189	74.5
278.421	79.5
278.652	75.5
278.884	94.5
279.115	86.5
279.347	78.5
279.579	86.5
279.81	84.5
280.042	91.5
280.273	77.5
280.505	78.5
280.736	81.5
280.968	64.5
281.199	86.5
281.431	79.5
281.662	83.5
281.894	75.5
282.125	68.5
282.356	83.5
282.588	67.5
282.819	79.5
283.051	81.5
283.282	77.5
283.513	69.5
283.745	67.5
283.976	82.5
284.207	84.5
284.439	79.5
284.67	92.5
284.901	98.5
285.132	84.5
285.364	93.5
285.595	73.5
285.826	74.5
286.057	79.5
286.288	70.5
286.52	72.5
286.751	69.5
286.982	84.5
287.213	90.5
287.444	93.5
287.675	77.5
287.906	79.5
288.138	78.5
288.369	86.5
288.6	80.5
288.831	83.5
289.062	83.5
289.293	99.5
289.524	78.5
289.755	87.5
289.986	75.5
290.217	96.5
290.448	87.5
290.679	68.5
290.91	68.5
291.141	70.5
291.371	78.5
291.602	72.5
291.833	83.5
292.064	70.5
292.295	85.5
292.526	72.5
292.757	77.5
292.987	73.5
293.218	84.5
293.449	71.5
293.68	77.5
293.91	80.5
294.141	87.5
294.372	78.5
294.603	83.5
294.833	74.5
295.064	67.5
295.295	99.5
295.525	71.5
295.756	78.5
295.987	84.5
296.217	80.5
296.448	79.5
296.679	83.5
296.909	81.5
297.14	84.5
297.37	65.5
297.601	77.5
297.831	91.5
298.062	82.5
298.292	89.5
298.523	96.5
298.753	91.5
298.984	92.5
299.214	89.5
299.445	81.5
299.675	80.5
299.905	86.5
300.136	91.5
300.366	84.5
300.597	85.5
300.827	96.5
301.057	86.5
301.288	67.5
301.518	69.5
301.748	81.5
301.979	89.5
302.209	92.5
302.439	77.5
302.669	79.5
302.9	75.5
303.13	74.5
303.36	79.5
303.59	89.5
303.82	73.5
304.051	95.5
304.281	71.5
304.511	75.5
304.741	83.5
304.971	70.5
305.201	84.5
305.431	86.5
305.661	75.5
305.891	77.5
306.121	89.5
306.352	76.5
306.582	89.5
306.812	82.5
307.042	83.5
307.272	87.5
307.502	73.5
307.731	84.5
307.961	87.5
308.191	85.5
308.421	74.5
308.651	76.5
308.881	81.5
309.111	81.5
309.341	87.5
309.571	77.5
309.8	64.5
310.03	76.5
310.26	77.5
310.49	79.5
310.72	80.5
310.949	90.5
311.179	72.5
311.409	80.5
311.639	63.5
311.868	79.5
312.098	79.5
312.328	84.5
312.557	83.5
312.787	74.5
313.017	79.5
313.246	95.5
313.476	89.5
313.706	76.5
313.935	75.5
314.165	80.5
314.394	66.5
314.624	80.5
314.853	84.5
315.083	81.5
315.312	81.5
315.542	80.5
315.771	79.5
316.001	77.5
316.23	69.5
316.46	80.5
316.689	80.5
316.919	79.5
317.148	89.5
317.377	83.5
317.607	83.5
317.836	82.5
318.065	77.5
318.295	81.5
318.524	101.5
318.753	77.5
318.983	94.5
319.212	75.5
319.441	84.5
319.67	78.5
319.9	84.5
320.129	83.5
320.358	72.5
320.587	83.5
320.816	78.5
321.046	73.5
321.275	75.5
321.504	78.5
321.733	85.5
321.962	72.5
322.191	85.5
322.42	86.5
322.649	72.5
322.878	82.5
323.108	84.5
323.337	85.5
323.566	83.5
323.795	76.5
324.024	85.5
324.253	70.5
324.482	81.5
324.71	85.5
324.939	78.5
325.168	91.5
325.397	73.5
325.626	76.5
325.855	65.5
326.084	70.5
326.313	79.5
326.542	78.5
326.77	76.5
326.999	70.5
327.228	87.5
327.457	82.5
327.686	86.5
327.914	78.5
328.143	75.5
328.372	76.5
328.6	76.5
328.829	71.5
329.058	96.5
329.287	86.5
329.515	70.5
329.744	85.5
329.972	82.5
330.201	70.5
330.43	69.5
330.658	77.5
330.887	72.5
331.115	74.5
331.344	82.5
331.572	78.5
331.801	89.5
332.03	78.5
332.258	77.5
332.486	77.5
332.715	78.5
332.943	71.5
333.172	73.5
333.4	85.5
333.629	71.5
333.857	83.5
334.085	72.5
334.314	73.5
334.542	83.5
334.771	71.5
334.999	71.5
335.227	86.5
335.455	77.5
335.684	105.5
335.912	90.5
336.14	73.5
336.369	99.5
336.597	77.5
336.825	77.5
337.053	83.5
337.281	79.5
337.51	78.5
337.738	79.5
337.966	70.5
338.194	82.5
338.422	77.5
338.65	84.5
338.878	79.5
339.106	83.5
339.334	82.5
339.562	79.5
339.79	75.5
340.018	52.5
340.246	80.5
340.474	76.5
340.702	70.5
340.93	69.5
341.158	74.5
341.386	66.5
341.614	88.5
341.842	77.5
342.07	80.5
342.298	72.5
342.526	77.5
342.754	71.5
342.981	81.5
343.209	84.5
343.437	81.5
343.665	78.5
343.893	85.5
344.12	78.5
344.348	80.5
344.576	65.5
344.804	83.5
345.031	73.5
345.259	81.5
345.487	87.5
345.714	98.5
345.942	69.5
346.17	74.5
346.397	85.5
346.625	75.5
346.853	76.5
347.08	85.5
347.308	86.5
347.535	80.5
347.763	82.5
347.99	70.5
348.218	82.5
348.445	70.5
348.673	86.5
348.9	90.5
349.128	82.5
349.355	77.5
349.583	71.5
349.81	81.5
350.037	86.5
350.265	70.5
350.492	78.5
350.72	68.5
350.947	75.5
351.174	83.5
351.402	86.5
351.629	72.5
351.856	67.5
352.083	78.5
352.311	85.5
352.538	85.5
352.765	66.5
352.992	77.5
353.22	74.5
353.447	84.5
353.674	79.5
353.901	77.5
354.128	87.5
354.355	78.5
354.583	89.5
354.81	77.5
355.037	69.5
355.264	82.5
355.491	78.5
355.718	62.5
355.945	72.5
356.172	92.5
356.399	65.5
356.626	98.5
356.853	83.5
357.08	77.5
357.307	81.5
357.534	82.5
357.761	74.5
357.988	80.5
358.215	74.5
358.441	74.5
358.668	66.5
358.895	85.5
359.122	81.5
359.349	66.5
359.576	75.5
359.802	86.5
360.029	85.5
360.256	81.5
360.483	73.5
360.709	75.5
360.936	93.5
361.163	92.5
361.39	81.5
361.616	81.5
361.843	61.5
362.07	80.5
362.296	66.5
362.523	76.5
362.749	84.5
362.976	79.5
363.203	80.5
363.429	88.5
363.656	83.5
363.882	81.5
364.109	84.5
364.335	65.5
364.562	69.5
364.788	80.5
365.015	76.5
365.241	84.5
365.468	81.5
365.694	78.5
365.92	67.5
366.147	87.5
366.373	80.5
366.599	93.5
366.826	85.5
367.052	66.5
367.278	92.5
367.505	70.5
367.731	78.5
367.957	77.5
368.184	64.5
368.41	71.5
368.636	70.5
368.862	89.5
369.089	59.5
369.315	87.5
369.541	93.5
369.767	79.5
369.993	59.5
370.219	84.5
370.445	85.5
370.672	75.5
370.898	80.5
371.124	73.5
371.35	70.5
371.576	67.5
371.802	78.5
372.028	70.5
372.254	70.5
372.48	87.5
372.706	68.5
372.932	82.5
373.158	83.5
373.384	76.5
373.61	82.5
373.835	77.5
374.061	78.5
374.287	86.5
374.513	70.5
374.739	75.5
374.965	83.5
375.191	75.5
375.416	65.5
375.642	83.5
375.868	86.5
376.094	78.5
376.319	78.5
376.545	81.5
376.771	84.5
376.997	70.5
377.222	77.5
377.448	69.5
377.674	78.5
377.899	71.5
378.125	79.5
378.35	86.5
378.576	75.5
378.802	78.5
379.027	82.5
379.253	85.5
379.478	90.5
379.704	69.5
379.929	71.5
380.155	70.5
380.38	78.5
380.606	73.5
380.831	74.5
381.057	87.5
381.282	78.5
381.507	78.5
381.733	89.5
381.958	88.5
382.184	90.5
382.409	83.5
382.634	87.5
382.86	77.5
383.085	70.5
383.31	89.5
383.535	77.5
383.761	73.5
383.986	81.5
384.211	63.5
384.436	94.5
384.662	75.5
384.887	61.5
385.112	85.5
385.337	88.5
385.562	65.5
385.787	79.5
386.013	92.5
386.238	95.5
386.463	97.5
386.688	85.5
386.913	64.5
387.138	71.5
387.363	75.5
387.588	73.5
387.813	91.5
388.038	84.5
388.263	83.5
388.488	86.5
388.713	74.5
388.938	79.5
389.163	89.5
389.387	97.5
389.612	64.5
389.837	77.5
390.062	78.5
390.287	78.5
390.512	78.5
390.736	76.5
390.961	82.5
391.186	84.5
391.411	70.5
391.636	84.5
391.86	77.5
392.085	88.5
392.31	81.5
392.534	84.5
392.759	94.5
392.984	83.5
393.208	78.5
393.433	81.5
393.658	99.5
393.882	91.5
394.107	72.5
394.331	75.5
394.556	68.5
394.78	79.5
395.005	77.5
395.229	83.5
395.454	84.5
395.678	73.5
395.903	79.5
396.127	71.5
396.352	85.5
396.576	74.5
396.801	79.5
397.025	69.5
397.249	74.5
397.474	79.5
397.698	89.5
397.922	78.5
398.147	91.5
398.371	77.5
398.595	85.5
398.82	83.5
399.044	90.5
399.268	82.5
399.492	84.5
399.717	77.5
399.941	80.5
400.165	71.5
400.389	71.5
400.613	80.5
400.837	84.5
401.062	90.5
401.286	77.5
401.51	76.5
401.734	79.5
401.958	84.5
402.182	71.5
402.406	70.5
402.63	75.5
402.854	71.5
403.078	88.5
403.302	83.5
403.526	83.5
403.75	66.5
403.974	82.5
404.198	80.5
404.422	79.5
404.645	68.5
404.869	88.5
405.093	89.5
405.317	78.5
405.541	83.5
405.765	91.5
405.988	82.5
406.212	69.5
406.436	89.5
406.66	90.5
406.883	79.5
407.107	86.5
407.331	85.5
407.555	86.5
407.778	94.5
408.002	86.5
408.226	90.5
408.449	85.5
408.673	77.5
408.896	87.5
409.12	82.5
409.344	93.5
409.567	73.5
409.791	84.5
410.014	90.5
410.238	90.5
410.461	91.5
410.685	90.5
410.908	80.5
411.132	78.5
411.355	67.5
411.578	85.5
411.802	86.5
412.025	101.5
412.249	90.5
412.472	77.5
412.695	66.5
412.919	84.5
413.142	86.5
413.365	81.5
413.589	77.5
413.812	88.5
414.035	79.5
414.258	87.5
414.482	90.5
414.705	85.5
414.928	90.5
415.151	84.5
415.374	93.5
415.597	88.5
415.821	81.5
416.044	82.5
416.267	81.5
416.49	88.5
416.713	79.5
416.936	82.5
417.159	99.5
417.382	83.5
417.605	85.5
417.828	87.5
418.051	90.5
418.274	89.5
418.497	84.5
418.72	74.5
418.943	90.5
419.166	95.5
419.389	101.5
419.611	89.5
419.834	94.5
420.057	92.5
420.28	76.5
420.503	83.5
420.726	91.5
420.948	88.5
421.171	81.5
421.394	79.5
421.617	85.5
421.839	83.5
422.062	87.5
422.285	76.5
422.507	72.5
422.73	93.5
422.953	86.5
423.175	98.5
423.398	87.5
423.621	91.5
423.843	103.5
424.066	99.5
424.288	82.5
424.511	91.5
424.733	90.5
424.956	86.5
425.178	84.5
425.401	76.5
425.623	94.5
425.846	85.5
426.068	86.5
426.291	82.5
426.513	78.5
426.735	96.5
426.958	96.5
427.18	102.5
427.402	87.5
427.625	90.5
427.847	80.5
428.069	86.5
428.292	91.5
428.514	96.5
428.736	98.5
428.958	92.5
429.181	92.5
429.403	82.5
429.625	71.5
429.847	82.5
430.069	89.5
430.292	87.5
430.514	85.5
430.736	75.5
430.958	97.5
431.18	77.5
431.402	94.5
431.624	85.5
431.846	95.5
432.068	69.5
432.29	84.5
432.512	91.5
432.734	83.5
432.956	87.5
433.178	96.5
433.4	86.5
433.622	95.5
433.844	83.5
434.066	87.5
434.287	84.5
434.509	67.5
434.731	74.5
434.953	79.5
435.175	86.5
435.397	100.5
435.618	69.5
435.84	95.5
436.062	87.5
436.284	71.5
436.505	73.5
436.727	74.5
436.949	90.5
437.17	83.5
437.392	77.5
437.614	78.5
437.835	73.5
438.057	73.5
438.278	78.5
438.5	78.5
438.721	98.5
438.943	92.5
439.165	97.5
439.386	96.5
439.608	94.5
439.829	94.5
440.05	89.5
440.272	82.5
440.493	97.5
440.715	80.5
440.936	86.5
441.158	95.5
441.379	98.5
441.6	87.5
441.822	96.5
442.043	88.5
442.264	90.5
442.486	80.5
442.707	76.5
442.928	98.5
443.149	88.5
443.371	87.5
443.592	78.5
443.813	91.5
444.034	101.5
444.255	93.5
444.476	102.5
444.698	85.5
444.919	92.5
445.14	217.5
445.361	153.5
445.582	89.5
445.803	85.5
446.024	103.5
446.245	85.5
446.466	88.5
446.687	86.5
446.908	76.5
447.129	91.5
447.35	86.5
447.571	95.5
447.792	107.5
448.013	81.5
448.234	97.5
448.455	86.5
448.675	75.5
448.896	96.5
449.117	83.5
449.338	84.5
449.559	96.5
449.779	101.5
450	98.5
450.221	89.5
450.442	81.5
450.662	88.5
450.883	77.5
451.104	101.5
451.324	91.5
451.545	85.5
451.766	86.5
451.986	82.5
452.207	80.5
452.428	87.5
452.648	87.5
452.869	81.5
453.089	81.5
453.31	81.5
453.53	85.5
453.751	85.5
453.971	80.5
454.192	77.5
454.412	77.5
454.633	72.5
454.853	90.5
455.073	101.5
455.294	85.5
455.514	97.5
455.734	92.5
455.955	92.5
456.175	99.5
456.395	80.5
456.616	85.5
456.836	71.5
457.056	91.5
457.276	78.5
457.497	87.5
457.717	80.5
457.937	92.5
458.157	85.5
458.377	73.5
458.598	66.5
458.818	74.5
459.038	82.5
459.258	84.5
459.478	72.5
459.698	64.5
459.918	86.5
460.138	82.5
460.358	100.5
460.578	89.5
460.798	97.5
461.018	90.5
461.238	93.5
461.458	93.5
461.678	77.5
461.898	90.5
462.118	82.5
462.338	83.5
462.558	100.5
462.777	86.5
462.997	86.5
463.217	84.5
463.437	67.5
463.657	85.5
463.876	84.5
464.096	72.5
464.316	94.5
464.536	79.5
464.755	81.5
464.975	85.5
465.195	87.5
465.414	86.5
465.634	84.5
465.854	84.5
466.073	62.5
466.293	91.5
466.512	81.5
466.732	94.5
466.951	90.5
467.171	86.5
467.391	82.5
467.61	105.5
467.829	79.5
468.049	81.5
468.268	93.5
468.488	83.5
468.707	82.5
468.927	84.5
469.146	87.5
469.365	85.5
469.585	89.5
469.804	82.5
470.023	78.5
470.243	91.5
470.462	87.5
470.681	98.5
470.901	88.5
471.12	85.5
471.339	85.5
471.558	86.5
471.777	90.5
471.997	81.5
472.216	92.5
472.435	81.5
472.654	77.5
472.873	84.5
473.092	81.5
473.311	86.5
473.53	99.5
473.749	79.5
473.968	92.5
474.187	77.5
474.406	69.5
474.625	87.5
474.844	72.5
475.063	83.5
475.282	76.5
475.501	95.5
475.72	79.5
475.939	92.5
476.158	85.5
476.377	78.5
476.596	87.5
476.814	91.5
477.033	87.5
477.252	98.5
477.471	82.5
477.69	104.5
477.908	86.5
478.127	99.5
478.346	92.5
478.564	83.5
478.783	87.5
479.002	105.5
479.22	107.5
479.439	92.5
479.658	79.5
479.876	85.5
480.095	82.5
480.313	92.5
480.532	87.5
480.751	90.5
480.969	73.5
481.188	81.5
481.406	88.5
481.624	82.5
481.843	82.5
482.061	96.5
482.28	90.5
482.498	73.5
482.717	88.5
482.935	77.5
483.153	90.5
483.372	97.5
483.59	99.5
483.808	82.5
484.027	96.5
484.245	91.5
484.463	85.5
484.681	93.5
484.9	109.5
485.118	94.5
485.336	82.5
485.554	79.5
485.772	96.5
485.99	80.5
486.209	89.5
486.427	87.5
486.645	87.5
486.863	105.5
487.081	89.5
487.299	84.5
487.517	79.5
487.735	112.5
487.953	105.5
488.171	93.5
488.389	92.5
488.607	92.5
488.825	105.5
489.043	94.5
489.261	98.5
489.479	92.5
489.696	87.5
489.914	74.5
490.132	84.5
490.35	102.5
490.568	96.5
490.786	93.5
491.003	84.5
491.221	107.5
491.439	107.5
491.657	96.5
491.874	111.5
492.092	126.5
492.31	136.5
492.527	123.5
492.745	112.5
492.963	109.5
493.18	118.5
493.398	115.5
493.615	102.5
493.833	89.5
494.05	97.5
494.268	105.5
494.485	104.5
494.703	102.5
494.92	91.5
495.138	94.5
495.355	101.5
495.573	106.5
495.79	86.5
496.008	95.5
496.225	89.5
496.442	92.5
496.66	116.5
496.877	100.5
497.094	90.5
497.312	93.5
497.529	95.5
497.746	110.5
497.963	110.5
498.181	96.5
498.398	101.5
498.615	87.5
498.832	105.5
499.049	88.5
499.267	87.5
499.484	96.5
499.701	88.5
499.918	97.5
500.135	95.5
500.352	98.5
500.569	100.5
500.786	101.5
501.003	105.5
501.22	89.5
501.437	101.5
501.654	98.5
501.871	87.5
502.088	106.5
502.305	97.5
502.522	101.5
502.739	92.5
502.956	98.5
503.172	99.5
503.389	98.5
503.606	94.5
503.823	90.5
504.04	84.5
504.256	100.5
504.473	98.5
504.69	87.5
504.907	81.5
505.123	86.5
505.34	106.5
505.557	91.5
505.773	106.5
505.99	97.5
506.207	92.5
506.423	94.5
506.64	87.5
506.856	80.5
507.073	77.5
507.289	95.5
507.506	86.5
507.722	66.5
507.939	85.5
508.155	79.5
508.372	84.5
508.588	87.5
508.805	77.5
509.021	90.5
509.238	88.5
509.454	91.5
509.67	77.5
509.887	75.5
510.103	92.5
510.319	78.5
510.536	78.5
510.752	91.5
510.968	84.5
511.184	76.5
511.401	66.5
511.617	86.5
511.833	70.5
512.049	77.5
512.265	81.5
512.481	83.5
512.698	71.5
512.914	55.5
513.13	79.5
513.346	76.5
513.562	85.5
513.778	79.5
513.994	86.5
514.21	84.5
514.426	87.5
514.642	87.5
514.858	74.5
515.074	85.5
515.29	85.5
515.506	74.5
515.721	76.5
515.937	87.5
516.153	85.5
516.369	79.5
516.585	78.5
516.801	79.5
517.016	100.5
517.232	73.5
517.448	98.5
517.664	107.5
517.879	81.5
518.095	86.5
518.311	94.5
518.527	86.5
518.742	79.5
518.958	89.5
519.173	90.5
519.389	78.5
519.605	70.5
519.82	67.5
520.036	81.5
520.251	88.5
520.467	82.5
520.682	66.5
520.898	93.5
521.113	73.5
521.329	85.5
521.544	89.5
521.76	85.5
521.975	83.5
522.19	81.5
522.406	87.5
522.621	74.5
522.836	89.5
523.052	81.5
523.267	74.5
523.482	87.5
523.698	82.5
523.913	92.5
524.128	100.5
524.343	82.5
524.559	98.5
524.774	87.5
524.989	94.5
525.204	84.5
525.419	85.5
525.634	89.5
525.849	92.5
526.064	86.5
526.28	87.5
526.495	74.5
526.71	79.5
526.925	76.5
527.14	83.5
527.355	81.5
527.57	81.5
527.785	87.5
527.999	92.5
528.214	91.5
528.429	78.5
528.644	77.5
528.859	90.5
529.074	99.5
529.289	110.5
529.503	114.5
529.718	87.5
529.933	93.5
530.148	69.5
530.363	71.5
530.577	75.5
530.792	85.5
531.007	79.5
531.221	81.5
531.436	81.5
531.651	91.5
531.865	83.5
532.08	75.5
532.295	85.5
532.509	75.5
532.724	91.5
532.938	86.5
533.153	83.5
533.367	83.5
533.582	83.5
533.796	94.5
534.011	92.5
534.225	85.5
534.44	81.5
534.654	76.5
534.868	82.5
535.083	97.5
535.297	86.5
535.511	84.5
535.726	98.5
535.94	72.5
536.154	86.5
536.369	80.5
536.583	77.5
536.797	87.5
537.011	83.5
537.225	83.5
537.44	80.5
537.654	88.5
537.868	91.5
538.082	92.5
538.296	81.5
538.51	80.5
538.724	90.5
538.938	85.5
