Data from Location4.07152019.Energy5.Lamp.07192019.3%Agarose_HRD10591_15-25-00-577.txt Node
Date: Fri Jul 19 15:25:00 EDT 2019
User: cochatt
Spectrometer: HR+D1059
Trigger mode: 1
Integration Time (sec): 1.000000E-1
Scans to average: 1
Electric dark correction enabled: true
Nonlinearity correction enabled: false
Boxcar width: 0
XAxis mode: Wavelengths
Number of Pixels in Spectrum: 2048
>>>>>Begin Spectral Data<<<<<
223.165	-10.06
223.4	-10.06
223.635	-10.06
223.869	-7.06
224.104	-27.06
224.338	-12.06
224.573	-10.06
224.808	-11.06
225.042	11.94
225.277	-0.06
225.511	-14.06
225.746	-11.06
225.98	2.94
226.215	18.94
226.449	16.94
226.683	18.94
226.918	6.94
227.152	25.94
227.387	29.94
227.621	43.94
227.856	43.94
228.09	40.94
228.324	56.94
228.559	61.94
228.793	67.94
229.027	56.94
229.262	64.94
229.496	68.94
229.73	68.94
229.964	68.94
230.199	68.94
230.433	90.94
230.667	88.94
230.901	85.94
231.136	83.94
231.37	80.94
231.604	72.94
231.838	78.94
232.072	84.94
232.306	60.94
232.541	73.94
232.775	89.94
233.009	87.94
233.243	82.94
233.477	75.94
233.711	85.94
233.945	83.94
234.179	93.94
234.413	87.94
234.647	81.94
234.881	73.94
235.115	65.94
235.349	87.94
235.583	76.94
235.817	71.94
236.051	85.94
236.285	95.94
236.519	75.94
236.753	76.94
236.987	73.94
237.221	74.94
237.455	67.94
237.689	84.94
237.922	82.94
238.156	75.94
238.39	82.94
238.624	87.94
238.858	82.94
239.091	76.94
239.325	79.94
239.559	68.94
239.793	81.94
240.027	75.94
240.26	77.94
240.494	71.94
240.728	64.94
240.961	85.94
241.195	68.94
241.429	81.94
241.662	63.94
241.896	77.94
242.13	74.94
242.363	80.94
242.597	76.94
242.83	82.94
243.064	81.94
243.298	80.94
243.531	76.94
243.765	80.94
243.998	73.94
244.232	75.94
244.465	79.94
244.699	86.94
244.932	79.94
245.166	75.94
245.399	87.94
245.633	75.94
245.866	66.94
246.099	80.94
246.333	84.94
246.566	73.94
246.8	78.94
247.033	79.94
247.266	69.94
247.5	86.94
247.733	82.94
247.966	77.94
248.2	87.94
248.433	63.94
248.666	77.94
248.899	83.94
249.133	80.94
249.366	90.94
249.599	86.94
249.832	81.94
250.066	75.94
250.299	82.94
250.532	80.94
250.765	76.94
250.998	70.94
251.231	80.94
251.465	86.94
251.698	80.94
251.931	91.94
252.164	84.94
252.397	75.94
252.63	67.94
252.863	72.94
253.096	76.94
253.329	74.94
253.562	78.94
253.795	80.94
254.028	82.94
254.261	76.94
254.494	96.94
254.727	78.94
254.96	79.94
255.193	75.94
255.426	63.94
255.659	76.94
255.892	81.94
256.124	95.94
256.357	69.94
256.59	80.94
256.823	85.94
257.056	81.94
257.289	86.94
257.521	84.94
257.754	85.94
257.987	89.94
258.22	83.94
258.452	83.94
258.685	81.94
258.918	86.94
259.151	69.94
259.383	100.94
259.616	92.94
259.849	79.94
260.081	72.94
260.314	74.94
260.547	73.94
260.779	98.94
261.012	73.94
261.244	90.94
261.477	78.94
261.71	75.94
261.942	81.94
262.175	82.94
262.407	88.94
262.64	75.94
262.872	82.94
263.105	83.94
263.337	91.94
263.57	87.94
263.802	82.94
264.035	77.94
264.267	80.94
264.499	80.94
264.732	82.94
264.964	98.94
265.197	92.94
265.429	91.94
265.661	79.94
265.894	74.94
266.126	82.94
266.358	73.94
266.591	81.94
266.823	79.94
267.055	77.94
267.287	85.94
267.52	80.94
267.752	97.94
267.984	91.94
268.216	73.94
268.448	87.94
268.681	88.94
268.913	91.94
269.145	68.94
269.377	86.94
269.609	76.94
269.841	87.94
270.073	81.94
270.306	89.94
270.538	73.94
270.77	76.94
271.002	86.94
271.234	87.94
271.466	84.94
271.698	79.94
271.93	92.94
272.162	88.94
272.394	85.94
272.626	71.94
272.858	91.94
273.09	87.94
273.322	82.94
273.553	97.94
273.785	84.94
274.017	95.94
274.249	80.94
274.481	87.94
274.713	81.94
274.945	79.94
275.176	73.94
275.408	90.94
275.64	84.94
275.872	74.94
276.104	95.94
276.335	71.94
276.567	79.94
276.799	90.94
277.031	82.94
277.262	82.94
277.494	84.94
277.726	88.94
277.957	70.94
278.189	81.94
278.421	92.94
278.652	90.94
278.884	73.94
279.115	84.94
279.347	77.94
279.579	77.94
279.81	99.94
280.042	79.94
280.273	83.94
280.505	71.94
280.736	89.94
280.968	72.94
281.199	82.94
281.431	88.94
281.662	84.94
281.894	93.94
282.125	85.94
282.356	99.94
282.588	90.94
282.819	96.94
283.051	88.94
283.282	80.94
283.513	85.94
283.745	75.94
283.976	82.94
284.207	82.94
284.439	75.94
284.67	80.94
284.901	90.94
285.132	69.94
285.364	86.94
285.595	92.94
285.826	86.94
286.057	81.94
286.288	78.94
286.52	102.94
286.751	84.94
286.982	72.94
287.213	92.94
287.444	93.94
287.675	95.94
287.906	90.94
288.138	88.94
288.369	82.94
288.6	84.94
288.831	83.94
289.062	96.94
289.293	74.94
289.524	93.94
289.755	83.94
289.986	83.94
290.217	74.94
290.448	85.94
290.679	106.94
290.91	81.94
291.141	70.94
291.371	84.94
291.602	95.94
291.833	96.94
292.064	98.94
292.295	89.94
292.526	80.94
292.757	70.94
292.987	75.94
293.218	93.94
293.449	82.94
293.68	86.94
293.91	76.94
294.141	86.94
294.372	76.94
294.603	81.94
294.833	97.94
295.064	75.94
295.295	73.94
295.525	77.94
295.756	85.94
295.987	78.94
296.217	95.94
296.448	75.94
296.679	83.94
296.909	93.94
297.14	72.94
297.37	95.94
297.601	78.94
297.831	98.94
298.062	92.94
298.292	91.94
298.523	72.94
298.753	93.94
298.984	77.94
299.214	83.94
299.445	96.94
299.675	87.94
299.905	91.94
300.136	82.94
300.366	78.94
300.597	85.94
300.827	97.94
301.057	92.94
301.288	82.94
301.518	83.94
301.748	83.94
301.979	93.94
302.209	83.94
302.439	77.94
302.669	82.94
302.9	74.94
303.13	88.94
303.36	89.94
303.59	83.94
303.82	73.94
304.051	94.94
304.281	78.94
304.511	87.94
304.741	90.94
304.971	91.94
305.201	83.94
305.431	89.94
305.661	83.94
305.891	78.94
306.121	76.94
306.352	82.94
306.582	79.94
306.812	86.94
307.042	92.94
307.272	95.94
307.502	82.94
307.731	87.94
307.961	90.94
308.191	90.94
308.421	80.94
308.651	87.94
308.881	92.94
309.111	92.94
309.341	89.94
309.571	97.94
309.8	97.94
310.03	89.94
310.26	96.94
310.49	81.94
310.72	80.94
310.949	83.94
311.179	84.94
311.409	85.94
311.639	98.94
311.868	99.94
312.098	82.94
312.328	77.94
312.557	89.94
312.787	84.94
313.017	88.94
313.246	88.94
313.476	91.94
313.706	81.94
313.935	86.94
314.165	103.94
314.394	89.94
314.624	93.94
314.853	100.94
315.083	92.94
315.312	89.94
315.542	96.94
315.771	97.94
316.001	79.94
316.23	90.94
316.46	90.94
316.689	87.94
316.919	87.94
317.148	82.94
317.377	81.94
317.607	86.94
317.836	99.94
318.065	97.94
318.295	80.94
318.524	80.94
318.753	76.94
318.983	76.94
319.212	69.94
319.441	73.94
319.67	82.94
319.9	87.94
320.129	91.94
320.358	97.94
320.587	86.94
320.816	96.94
321.046	82.94
321.275	94.94
321.504	74.94
321.733	94.94
321.962	88.94
322.191	107.94
322.42	81.94
322.649	100.94
322.878	80.94
323.108	76.94
323.337	83.94
323.566	89.94
323.795	101.94
324.024	89.94
324.253	89.94
324.482	83.94
324.71	93.94
324.939	89.94
325.168	84.94
325.397	87.94
325.626	96.94
325.855	91.94
326.084	79.94
326.313	93.94
326.542	84.94
326.77	66.94
326.999	68.94
327.228	85.94
327.457	88.94
327.686	84.94
327.914	83.94
328.143	76.94
328.372	102.94
328.6	82.94
328.829	87.94
329.058	96.94
329.287	76.94
329.515	84.94
329.744	78.94
329.972	89.94
330.201	92.94
330.43	83.94
330.658	95.94
330.887	80.94
331.115	76.94
331.344	92.94
331.572	86.94
331.801	92.94
332.03	71.94
332.258	85.94
332.486	86.94
332.715	80.94
332.943	82.94
333.172	85.94
333.4	83.94
333.629	98.94
333.857	82.94
334.085	90.94
334.314	92.94
334.542	69.94
334.771	86.94
334.999	86.94
335.227	84.94
335.455	79.94
335.684	73.94
335.912	81.94
336.14	83.94
336.369	96.94
336.597	85.94
336.825	79.94
337.053	81.94
337.281	69.94
337.51	73.94
337.738	104.94
337.966	93.94
338.194	80.94
338.422	76.94
338.65	85.94
338.878	88.94
339.106	88.94
339.334	82.94
339.562	94.94
339.79	73.94
340.018	87.94
340.246	83.94
340.474	87.94
340.702	90.94
340.93	74.94
341.158	81.94
341.386	88.94
341.614	83.94
341.842	71.94
342.07	86.94
342.298	86.94
342.526	93.94
342.754	87.94
342.981	87.94
343.209	80.94
343.437	69.94
343.665	90.94
343.893	75.94
344.12	96.94
344.348	87.94
344.576	86.94
344.804	95.94
345.031	82.94
345.259	104.94
345.487	83.94
345.714	94.94
345.942	83.94
346.17	93.94
346.397	73.94
346.625	99.94
346.853	85.94
347.08	79.94
347.308	91.94
347.535	75.94
347.763	87.94
347.99	78.94
348.218	83.94
348.445	85.94
348.673	87.94
348.9	92.94
349.128	91.94
349.355	89.94
349.583	83.94
349.81	76.94
350.037	84.94
350.265	91.94
350.492	79.94
350.72	90.94
350.947	88.94
351.174	86.94
351.402	87.94
351.629	92.94
351.856	81.94
352.083	89.94
352.311	82.94
352.538	81.94
352.765	82.94
352.992	87.94
353.22	77.94
353.447	84.94
353.674	78.94
353.901	89.94
354.128	83.94
354.355	85.94
354.583	87.94
354.81	101.94
355.037	77.94
355.264	74.94
355.491	78.94
355.718	83.94
355.945	81.94
356.172	96.94
356.399	87.94
356.626	86.94
356.853	87.94
357.08	83.94
357.307	93.94
357.534	79.94
357.761	99.94
357.988	84.94
358.215	97.94
358.441	87.94
358.668	87.94
358.895	80.94
359.122	89.94
359.349	84.94
359.576	91.94
359.802	87.94
360.029	88.94
360.256	77.94
360.483	85.94
360.709	73.94
360.936	87.94
361.163	84.94
361.39	88.94
361.616	89.94
361.843	91.94
362.07	82.94
362.296	84.94
362.523	83.94
362.749	82.94
362.976	78.94
363.203	101.94
363.429	79.94
363.656	81.94
363.882	89.94
364.109	87.94
364.335	77.94
364.562	82.94
364.788	87.94
365.015	94.94
365.241	91.94
365.468	87.94
365.694	83.94
365.92	106.94
366.147	86.94
366.373	82.94
366.599	84.94
366.826	85.94
367.052	87.94
367.278	90.94
367.505	84.94
367.731	83.94
367.957	93.94
368.184	73.94
368.41	81.94
368.636	88.94
368.862	87.94
369.089	78.94
369.315	107.94
369.541	96.94
369.767	89.94
369.993	81.94
370.219	92.94
370.445	96.94
370.672	86.94
370.898	87.94
371.124	84.94
371.35	81.94
371.576	77.94
371.802	98.94
372.028	79.94
372.254	88.94
372.48	89.94
372.706	77.94
372.932	97.94
373.158	82.94
373.384	91.94
373.61	84.94
373.835	91.94
374.061	99.94
374.287	81.94
374.513	79.94
374.739	95.94
374.965	80.94
375.191	75.94
375.416	83.94
375.642	86.94
375.868	104.94
376.094	105.94
376.319	91.94
376.545	76.94
376.771	95.94
376.997	74.94
377.222	77.94
377.448	81.94
377.674	82.94
377.899	89.94
378.125	89.94
378.35	81.94
378.576	93.94
378.802	100.94
379.027	103.94
379.253	77.94
379.478	87.94
379.704	75.94
379.929	96.94
380.155	92.94
380.38	79.94
380.606	100.94
380.831	88.94
381.057	93.94
381.282	91.94
381.507	84.94
381.733	93.94
381.958	76.94
382.184	89.94
382.409	88.94
382.634	85.94
382.86	86.94
383.085	82.94
383.31	97.94
383.535	87.94
383.761	88.94
383.986	86.94
384.211	80.94
384.436	92.94
384.662	78.94
384.887	87.94
385.112	103.94
385.337	93.94
385.562	88.94
385.787	97.94
386.013	85.94
386.238	93.94
386.463	102.94
386.688	93.94
386.913	81.94
387.138	80.94
387.363	87.94
387.588	88.94
387.813	104.94
388.038	88.94
388.263	83.94
388.488	90.94
388.713	84.94
388.938	87.94
389.163	89.94
389.387	83.94
389.612	81.94
389.837	87.94
390.062	94.94
390.287	90.94
390.512	84.94
390.736	99.94
390.961	95.94
391.186	93.94
391.411	84.94
391.636	82.94
391.86	92.94
392.085	85.94
392.31	85.94
392.534	94.94
392.759	100.94
392.984	100.94
393.208	80.94
393.433	79.94
393.658	79.94
393.882	78.94
394.107	88.94
394.331	97.94
394.556	102.94
394.78	100.94
395.005	86.94
395.229	90.94
395.454	106.94
395.678	87.94
395.903	89.94
396.127	110.94
396.352	101.94
396.576	86.94
396.801	90.94
397.025	81.94
397.249	87.94
397.474	96.94
397.698	82.94
397.922	104.94
398.147	101.94
398.371	85.94
398.595	91.94
398.82	97.94
399.044	88.94
399.268	94.94
399.492	98.94
399.717	89.94
399.941	89.94
400.165	86.94
400.389	97.94
400.613	102.94
400.837	97.94
401.062	89.94
401.286	95.94
401.51	102.94
401.734	88.94
401.958	90.94
402.182	104.94
402.406	91.94
402.63	84.94
402.854	97.94
403.078	85.94
403.302	91.94
403.526	95.94
403.75	99.94
403.974	101.94
404.198	102.94
404.422	96.94
404.645	94.94
404.869	98.94
405.093	98.94
405.317	86.94
405.541	90.94
405.765	87.94
405.988	82.94
406.212	88.94
406.436	88.94
406.66	95.94
406.883	97.94
407.107	88.94
407.331	88.94
407.555	90.94
407.778	87.94
408.002	95.94
408.226	88.94
408.449	95.94
408.673	74.94
408.896	85.94
409.12	100.94
409.344	87.94
409.567	90.94
409.791	91.94
410.014	93.94
410.238	86.94
410.461	89.94
410.685	86.94
410.908	97.94
411.132	98.94
411.355	93.94
411.578	106.94
411.802	89.94
412.025	88.94
412.249	104.94
412.472	95.94
412.695	91.94
412.919	83.94
413.142	78.94
413.365	90.94
413.589	89.94
413.812	96.94
414.035	88.94
414.258	96.94
414.482	87.94
414.705	93.94
414.928	91.94
415.151	86.94
415.374	91.94
415.597	82.94
415.821	94.94
416.044	89.94
416.267	98.94
416.49	112.94
416.713	99.94
416.936	93.94
417.159	97.94
417.382	96.94
417.605	86.94
417.828	105.94
418.051	85.94
418.274	87.94
418.497	89.94
418.72	105.94
418.943	87.94
419.166	95.94
419.389	96.94
419.611	93.94
419.834	95.94
420.057	86.94
420.28	89.94
420.503	119.94
420.726	101.94
420.948	91.94
421.171	104.94
421.394	97.94
421.617	90.94
421.839	95.94
422.062	97.94
422.285	100.94
422.507	102.94
422.73	75.94
422.953	90.94
423.175	96.94
423.398	96.94
423.621	101.94
423.843	88.94
424.066	81.94
424.288	94.94
424.511	92.94
424.733	89.94
424.956	100.94
425.178	104.94
425.401	85.94
425.623	82.94
425.846	95.94
426.068	93.94
426.291	100.94
426.513	97.94
426.735	112.94
426.958	92.94
427.18	102.94
427.402	120.94
427.625	98.94
427.847	88.94
428.069	101.94
428.292	83.94
428.514	96.94
428.736	86.94
428.958	103.94
429.181	86.94
429.403	88.94
429.625	83.94
429.847	100.94
430.069	98.94
430.292	99.94
430.514	84.94
430.736	103.94
430.958	97.94
431.18	102.94
431.402	89.94
431.624	86.94
431.846	82.94
432.068	93.94
432.29	81.94
432.512	87.94
432.734	93.94
432.956	88.94
433.178	103.94
433.4	95.94
433.622	100.94
433.844	98.94
434.066	88.94
434.287	97.94
434.509	90.94
434.731	87.94
434.953	99.94
435.175	98.94
435.397	109.94
435.618	84.94
435.84	100.94
436.062	95.94
436.284	96.94
436.505	90.94
436.727	91.94
436.949	77.94
437.17	86.94
437.392	97.94
437.614	99.94
437.835	95.94
438.057	83.94
438.278	92.94
438.5	98.94
438.721	100.94
438.943	105.94
439.165	115.94
439.386	96.94
439.608	101.94
439.829	101.94
440.05	101.94
440.272	102.94
440.493	92.94
440.715	97.94
440.936	89.94
441.158	94.94
441.379	91.94
441.6	104.94
441.822	93.94
442.043	96.94
442.264	109.94
442.486	100.94
442.707	99.94
442.928	97.94
443.149	99.94
443.371	95.94
443.592	95.94
443.813	101.94
444.034	96.94
444.255	108.94
444.476	115.94
444.698	106.94
444.919	102.94
445.14	220.94
445.361	144.94
445.582	105.94
445.803	99.94
446.024	99.94
446.245	106.94
446.466	105.94
446.687	95.94
446.908	108.94
447.129	93.94
447.35	113.94
447.571	96.94
447.792	101.94
448.013	89.94
448.234	68.94
448.455	103.94
448.675	100.94
448.896	95.94
449.117	96.94
449.338	76.94
449.559	88.94
449.779	95.94
450	93.94
450.221	95.94
450.442	105.94
450.662	81.94
450.883	87.94
451.104	95.94
451.324	95.94
451.545	101.94
451.766	94.94
451.986	88.94
452.207	92.94
452.428	93.94
452.648	106.94
452.869	88.94
453.089	101.94
453.31	88.94
453.53	86.94
453.751	97.94
453.971	79.94
454.192	81.94
454.412	88.94
454.633	82.94
454.853	98.94
455.073	95.94
455.294	96.94
455.514	98.94
455.734	99.94
455.955	93.94
456.175	96.94
456.395	71.94
456.616	106.94
456.836	93.94
457.056	85.94
457.276	96.94
457.497	85.94
457.717	80.94
457.937	87.94
458.157	81.94
458.377	78.94
458.598	77.94
458.818	86.94
459.038	97.94
459.258	93.94
459.478	99.94
459.698	75.94
459.918	94.94
460.138	81.94
460.358	98.94
460.578	83.94
460.798	83.94
461.018	92.94
461.238	102.94
461.458	95.94
461.678	84.94
461.898	90.94
462.118	82.94
462.338	95.94
462.558	85.94
462.777	98.94
462.997	81.94
463.217	87.94
463.437	70.94
463.657	85.94
463.876	93.94
464.096	89.94
464.316	88.94
464.536	95.94
464.755	93.94
464.975	82.94
465.195	107.94
465.414	98.94
465.634	91.94
465.854	101.94
466.073	97.94
466.293	91.94
466.512	93.94
466.732	95.94
466.951	98.94
467.171	100.94
467.391	98.94
467.61	76.94
467.829	96.94
468.049	99.94
468.268	101.94
468.488	85.94
468.707	97.94
468.927	109.94
469.146	100.94
469.365	107.94
469.585	112.94
469.804	86.94
470.023	107.94
470.243	98.94
470.462	116.94
470.681	105.94
470.901	99.94
471.12	94.94
471.339	93.94
471.558	93.94
471.777	103.94
471.997	97.94
472.216	91.94
472.435	91.94
472.654	81.94
472.873	88.94
473.092	83.94
473.311	109.94
473.53	98.94
473.749	99.94
473.968	107.94
474.187	105.94
474.406	104.94
474.625	94.94
474.844	105.94
475.063	98.94
475.282	103.94
475.501	92.94
475.72	92.94
475.939	86.94
476.158	82.94
476.377	103.94
476.596	99.94
476.814	87.94
477.033	86.94
477.252	83.94
477.471	87.94
477.69	88.94
477.908	99.94
478.127	100.94
478.346	93.94
478.564	98.94
478.783	92.94
479.002	104.94
479.22	93.94
479.439	97.94
479.658	91.94
479.876	96.94
480.095	80.94
480.313	95.94
480.532	97.94
480.751	90.94
480.969	77.94
481.188	73.94
481.406	74.94
481.624	76.94
481.843	91.94
482.061	98.94
482.28	90.94
482.498	83.94
482.717	95.94
482.935	92.94
483.153	108.94
483.372	100.94
483.59	103.94
483.808	98.94
484.027	81.94
484.245	101.94
484.463	87.94
484.681	98.94
484.9	100.94
485.118	96.94
485.336	88.94
485.554	107.94
485.772	92.94
485.99	89.94
486.209	106.94
486.427	90.94
486.645	95.94
486.863	89.94
487.081	95.94
487.299	79.94
487.517	90.94
487.735	101.94
487.953	121.94
488.171	120.94
488.389	116.94
488.607	103.94
488.825	94.94
489.043	104.94
489.261	87.94
489.479	93.94
489.696	111.94
489.914	104.94
490.132	90.94
490.35	99.94
490.568	100.94
490.786	105.94
491.003	111.94
491.221	114.94
491.439	111.94
491.657	116.94
491.874	116.94
492.092	135.94
492.31	118.94
492.527	134.94
492.745	129.94
492.963	127.94
493.18	122.94
493.398	114.94
493.615	118.94
493.833	113.94
494.05	92.94
494.268	91.94
494.485	116.94
494.703	95.94
494.92	106.94
495.138	108.94
495.355	101.94
495.573	107.94
495.79	100.94
496.008	90.94
496.225	101.94
496.442	101.94
496.66	119.94
496.877	104.94
497.094	109.94
497.312	105.94
497.529	102.94
497.746	99.94
497.963	101.94
498.181	93.94
498.398	97.94
498.615	103.94
498.832	111.94
499.049	90.94
499.267	96.94
499.484	109.94
499.701	99.94
499.918	101.94
500.135	106.94
500.352	106.94
500.569	92.94
500.786	106.94
501.003	94.94
501.22	98.94
501.437	108.94
501.654	88.94
501.871	101.94
502.088	100.94
502.305	83.94
502.522	99.94
502.739	94.94
502.956	99.94
503.172	93.94
503.389	104.94
503.606	85.94
503.823	95.94
504.04	96.94
504.256	91.94
504.473	95.94
504.69	97.94
504.907	107.94
505.123	98.94
505.34	99.94
505.557	99.94
505.773	83.94
505.99	90.94
506.207	100.94
506.423	92.94
506.64	98.94
506.856	93.94
507.073	99.94
507.289	84.94
507.506	84.94
507.722	90.94
507.939	89.94
508.155	96.94
508.372	91.94
508.588	101.94
508.805	95.94
509.021	92.94
509.238	98.94
509.454	90.94
509.67	88.94
509.887	94.94
510.103	94.94
510.319	72.94
510.536	100.94
510.752	75.94
510.968	68.94
511.184	92.94
511.401	85.94
511.617	83.94
511.833	91.94
512.049	83.94
512.265	88.94
512.481	92.94
512.698	88.94
512.914	105.94
513.13	84.94
513.346	75.94
513.562	80.94
513.778	90.94
513.994	84.94
514.21	99.94
514.426	100.94
514.642	111.94
514.858	75.94
515.074	95.94
515.29	78.94
515.506	89.94
515.721	80.94
515.937	89.94
516.153	93.94
516.369	86.94
516.585	81.94
516.801	82.94
517.016	71.94
