Data from Location4.07152019.Energy5.Lamp.07192019.3%Agarose_HRD10591_15-23-52-576.txt Node
Date: Fri Jul 19 15:23:52 EDT 2019
User: cochatt
Spectrometer: HR+D1059
Trigger mode: 1
Integration Time (sec): 1.000000E-1
Scans to average: 1
Electric dark correction enabled: true
Nonlinearity correction enabled: false
Boxcar width: 0
XAxis mode: Wavelengths
Number of Pixels in Spectrum: 2048
>>>>>Begin Spectral Data<<<<<
223.165	-14.56
223.4	-14.56
223.635	-14.56
223.869	-24.56
224.104	-15.56
224.338	-6.56
224.573	-30.56
224.808	-16.56
225.042	-0.56
225.277	-4.56
225.511	-8.56
225.746	10.44
225.98	12.44
226.215	15.44
226.449	18.44
226.683	19.44
226.918	20.44
227.152	25.44
227.387	39.44
227.621	40.44
227.856	43.44
228.09	50.44
228.324	40.44
228.559	62.44
228.793	61.44
229.027	50.44
229.262	67.44
229.496	47.44
229.73	65.44
229.964	65.44
230.199	76.44
230.433	79.44
230.667	79.44
230.901	82.44
231.136	72.44
231.37	72.44
231.604	85.44
231.838	88.44
232.072	70.44
232.306	67.44
232.541	75.44
232.775	74.44
233.009	94.44
233.243	74.44
233.477	78.44
233.711	66.44
233.945	91.44
234.179	88.44
234.413	93.44
234.647	77.44
234.881	68.44
235.115	87.44
235.349	79.44
235.583	81.44
235.817	74.44
236.051	75.44
236.285	65.44
236.519	87.44
236.753	82.44
236.987	71.44
237.221	81.44
237.455	73.44
237.689	73.44
237.922	71.44
238.156	88.44
238.39	88.44
238.624	83.44
238.858	74.44
239.091	71.44
239.325	81.44
239.559	74.44
239.793	76.44
240.027	76.44
240.26	72.44
240.494	79.44
240.728	68.44
240.961	73.44
241.195	86.44
241.429	76.44
241.662	73.44
241.896	83.44
242.13	91.44
242.363	67.44
242.597	79.44
242.83	70.44
243.064	74.44
243.298	78.44
243.531	74.44
243.765	71.44
243.998	75.44
244.232	62.44
244.465	85.44
244.699	82.44
244.932	82.44
245.166	84.44
245.399	82.44
245.633	69.44
245.866	69.44
246.099	90.44
246.333	81.44
246.566	73.44
246.8	71.44
247.033	84.44
247.266	87.44
247.5	75.44
247.733	91.44
247.966	96.44
248.2	66.44
248.433	91.44
248.666	62.44
248.899	79.44
249.133	80.44
249.366	77.44
249.599	66.44
249.832	84.44
250.066	87.44
250.299	77.44
250.532	78.44
250.765	80.44
250.998	66.44
251.231	82.44
251.465	84.44
251.698	81.44
251.931	74.44
252.164	74.44
252.397	84.44
252.63	74.44
252.863	71.44
253.096	78.44
253.329	93.44
253.562	90.44
253.795	87.44
254.028	73.44
254.261	83.44
254.494	101.44
254.727	73.44
254.96	73.44
255.193	94.44
255.426	80.44
255.659	68.44
255.892	78.44
256.124	91.44
256.357	65.44
256.59	86.44
256.823	76.44
257.056	88.44
257.289	70.44
257.521	83.44
257.754	78.44
257.987	84.44
258.22	83.44
258.452	81.44
258.685	85.44
258.918	68.44
259.151	78.44
259.383	85.44
259.616	88.44
259.849	81.44
260.081	85.44
260.314	73.44
260.547	82.44
260.779	75.44
261.012	75.44
261.244	79.44
261.477	98.44
261.71	76.44
261.942	80.44
262.175	82.44
262.407	92.44
262.64	93.44
262.872	64.44
263.105	79.44
263.337	85.44
263.57	83.44
263.802	89.44
264.035	102.44
264.267	76.44
264.499	79.44
264.732	68.44
264.964	83.44
265.197	93.44
265.429	86.44
265.661	82.44
265.894	93.44
266.126	70.44
266.358	66.44
266.591	81.44
266.823	81.44
267.055	67.44
267.287	60.44
267.52	80.44
267.752	84.44
267.984	72.44
268.216	85.44
268.448	81.44
268.681	81.44
268.913	66.44
269.145	77.44
269.377	87.44
269.609	86.44
269.841	99.44
270.073	86.44
270.306	84.44
270.538	88.44
270.77	69.44
271.002	76.44
271.234	69.44
271.466	78.44
271.698	88.44
271.93	75.44
272.162	79.44
272.394	67.44
272.626	82.44
272.858	82.44
273.09	86.44
273.322	78.44
273.553	77.44
273.785	86.44
274.017	82.44
274.249	83.44
274.481	86.44
274.713	86.44
274.945	90.44
275.176	87.44
275.408	79.44
275.64	82.44
275.872	79.44
276.104	80.44
276.335	59.44
276.567	84.44
276.799	75.44
277.031	89.44
277.262	85.44
277.494	86.44
277.726	75.44
277.957	78.44
278.189	86.44
278.421	83.44
278.652	87.44
278.884	90.44
279.115	94.44
279.347	90.44
279.579	98.44
279.81	87.44
280.042	82.44
280.273	76.44
280.505	73.44
280.736	93.44
280.968	80.44
281.199	82.44
281.431	87.44
281.662	80.44
281.894	75.44
282.125	79.44
282.356	77.44
282.588	64.44
282.819	78.44
283.051	64.44
283.282	72.44
283.513	67.44
283.745	84.44
283.976	78.44
284.207	85.44
284.439	94.44
284.67	90.44
284.901	76.44
285.132	83.44
285.364	82.44
285.595	87.44
285.826	71.44
286.057	88.44
286.288	90.44
286.52	94.44
286.751	90.44
286.982	84.44
287.213	66.44
287.444	92.44
287.675	79.44
287.906	85.44
288.138	79.44
288.369	70.44
288.6	87.44
288.831	84.44
289.062	98.44
289.293	82.44
289.524	78.44
289.755	103.44
289.986	88.44
290.217	87.44
290.448	73.44
290.679	85.44
290.91	76.44
291.141	72.44
291.371	83.44
291.602	77.44
291.833	85.44
292.064	87.44
292.295	77.44
292.526	83.44
292.757	86.44
292.987	92.44
293.218	63.44
293.449	83.44
293.68	65.44
293.91	76.44
294.141	84.44
294.372	75.44
294.603	70.44
294.833	80.44
295.064	87.44
295.295	75.44
295.525	83.44
295.756	70.44
295.987	78.44
296.217	82.44
296.448	79.44
296.679	89.44
296.909	90.44
297.14	81.44
297.37	69.44
297.601	61.44
297.831	73.44
298.062	76.44
298.292	85.44
298.523	84.44
298.753	89.44
298.984	90.44
299.214	85.44
299.445	81.44
299.675	79.44
299.905	83.44
300.136	93.44
300.366	71.44
300.597	86.44
300.827	82.44
301.057	84.44
301.288	87.44
301.518	87.44
301.748	93.44
301.979	81.44
302.209	84.44
302.439	89.44
302.669	83.44
302.9	88.44
303.13	84.44
303.36	87.44
303.59	79.44
303.82	91.44
304.051	95.44
304.281	101.44
304.511	88.44
304.741	82.44
304.971	99.44
305.201	93.44
305.431	84.44
305.661	77.44
305.891	93.44
306.121	68.44
306.352	86.44
306.582	82.44
306.812	80.44
307.042	75.44
307.272	75.44
307.502	106.44
307.731	76.44
307.961	79.44
308.191	93.44
308.421	93.44
308.651	80.44
308.881	85.44
309.111	88.44
309.341	93.44
309.571	71.44
309.8	81.44
310.03	82.44
310.26	65.44
310.49	99.44
310.72	81.44
310.949	86.44
311.179	92.44
311.409	90.44
311.639	93.44
311.868	97.44
312.098	84.44
312.328	93.44
312.557	77.44
312.787	71.44
313.017	78.44
313.246	90.44
313.476	81.44
313.706	84.44
313.935	87.44
314.165	76.44
314.394	103.44
314.624	81.44
314.853	77.44
315.083	81.44
315.312	82.44
315.542	88.44
315.771	87.44
316.001	81.44
316.23	97.44
316.46	75.44
316.689	82.44
316.919	73.44
317.148	91.44
317.377	79.44
317.607	87.44
317.836	75.44
318.065	82.44
318.295	92.44
318.524	87.44
318.753	86.44
318.983	76.44
319.212	80.44
319.441	81.44
319.67	86.44
319.9	85.44
320.129	67.44
320.358	87.44
320.587	86.44
320.816	78.44
321.046	77.44
321.275	83.44
321.504	83.44
321.733	84.44
321.962	74.44
322.191	93.44
322.42	94.44
322.649	76.44
322.878	73.44
323.108	91.44
323.337	92.44
323.566	74.44
323.795	106.44
324.024	64.44
324.253	85.44
324.482	71.44
324.71	83.44
324.939	83.44
325.168	74.44
325.397	85.44
325.626	86.44
325.855	87.44
326.084	82.44
326.313	88.44
326.542	83.44
326.77	78.44
326.999	84.44
327.228	85.44
327.457	77.44
327.686	84.44
327.914	81.44
328.143	93.44
328.372	81.44
328.6	79.44
328.829	86.44
329.058	77.44
329.287	94.44
329.515	85.44
329.744	89.44
329.972	86.44
330.201	88.44
330.43	80.44
330.658	76.44
330.887	84.44
331.115	64.44
331.344	83.44
331.572	75.44
331.801	86.44
332.03	81.44
332.258	78.44
332.486	65.44
332.715	81.44
332.943	75.44
333.172	77.44
333.4	69.44
333.629	89.44
333.857	81.44
334.085	84.44
334.314	91.44
334.542	85.44
334.771	78.44
334.999	74.44
335.227	76.44
335.455	67.44
335.684	76.44
335.912	86.44
336.14	79.44
336.369	92.44
336.597	78.44
336.825	88.44
337.053	75.44
337.281	83.44
337.51	77.44
337.738	85.44
337.966	75.44
338.194	81.44
338.422	85.44
338.65	88.44
338.878	80.44
339.106	81.44
339.334	77.44
339.562	88.44
339.79	79.44
340.018	91.44
340.246	87.44
340.474	91.44
340.702	90.44
340.93	80.44
341.158	83.44
341.386	91.44
341.614	79.44
341.842	82.44
342.07	77.44
342.298	74.44
342.526	90.44
342.754	86.44
342.981	85.44
343.209	90.44
343.437	78.44
343.665	77.44
343.893	85.44
344.12	78.44
344.348	84.44
344.576	79.44
344.804	78.44
345.031	82.44
345.259	75.44
345.487	90.44
345.714	104.44
345.942	87.44
346.17	82.44
346.397	75.44
346.625	73.44
346.853	68.44
347.08	87.44
347.308	88.44
347.535	80.44
347.763	85.44
347.99	88.44
348.218	88.44
348.445	76.44
348.673	87.44
348.9	83.44
349.128	84.44
349.355	82.44
349.583	78.44
349.81	88.44
350.037	86.44
350.265	86.44
350.492	91.44
350.72	92.44
350.947	80.44
351.174	87.44
351.402	78.44
351.629	88.44
351.856	84.44
352.083	80.44
352.311	84.44
352.538	82.44
352.765	92.44
352.992	86.44
353.22	73.44
353.447	69.44
353.674	83.44
353.901	87.44
354.128	94.44
354.355	66.44
354.583	57.44
354.81	77.44
355.037	80.44
355.264	85.44
355.491	84.44
355.718	77.44
355.945	82.44
356.172	89.44
356.399	90.44
356.626	89.44
356.853	66.44
357.08	73.44
357.307	79.44
357.534	87.44
357.761	79.44
357.988	86.44
358.215	85.44
358.441	71.44
358.668	88.44
358.895	82.44
359.122	92.44
359.349	73.44
359.576	82.44
359.802	72.44
360.029	80.44
360.256	80.44
360.483	75.44
360.709	75.44
360.936	89.44
361.163	85.44
361.39	75.44
361.616	89.44
361.843	77.44
362.07	82.44
362.296	73.44
362.523	82.44
362.749	84.44
362.976	79.44
363.203	83.44
363.429	75.44
363.656	77.44
363.882	80.44
364.109	73.44
364.335	69.44
364.562	81.44
364.788	79.44
365.015	83.44
365.241	82.44
365.468	75.44
365.694	94.44
365.92	86.44
366.147	82.44
366.373	85.44
366.599	71.44
366.826	86.44
367.052	79.44
367.278	81.44
367.505	85.44
367.731	86.44
367.957	69.44
368.184	90.44
368.41	74.44
368.636	92.44
368.862	89.44
369.089	87.44
369.315	73.44
369.541	96.44
369.767	81.44
369.993	67.44
370.219	91.44
370.445	91.44
370.672	75.44
370.898	80.44
371.124	85.44
371.35	78.44
371.576	77.44
371.802	86.44
372.028	93.44
372.254	88.44
372.48	77.44
372.706	79.44
372.932	73.44
373.158	85.44
373.384	96.44
373.61	70.44
373.835	72.44
374.061	72.44
374.287	92.44
374.513	95.44
374.739	79.44
374.965	91.44
375.191	74.44
375.416	79.44
375.642	78.44
375.868	78.44
376.094	84.44
376.319	91.44
376.545	81.44
376.771	84.44
376.997	83.44
377.222	87.44
377.448	85.44
377.674	91.44
377.899	85.44
378.125	75.44
378.35	92.44
378.576	72.44
378.802	89.44
379.027	77.44
379.253	74.44
379.478	71.44
379.704	88.44
379.929	82.44
380.155	78.44
380.38	78.44
380.606	92.44
380.831	91.44
381.057	95.44
381.282	79.44
381.507	75.44
381.733	84.44
381.958	79.44
382.184	78.44
382.409	84.44
382.634	71.44
382.86	75.44
383.085	81.44
383.31	87.44
383.535	85.44
383.761	94.44
383.986	81.44
384.211	77.44
384.436	82.44
384.662	85.44
384.887	85.44
385.112	89.44
385.337	82.44
385.562	102.44
385.787	87.44
386.013	96.44
386.238	89.44
386.463	64.44
386.688	79.44
386.913	74.44
387.138	70.44
387.363	74.44
387.588	90.44
387.813	78.44
388.038	77.44
388.263	88.44
388.488	102.44
388.713	89.44
388.938	91.44
389.163	97.44
389.387	90.44
389.612	91.44
389.837	87.44
390.062	87.44
390.287	75.44
390.512	76.44
390.736	86.44
390.961	69.44
391.186	79.44
391.411	88.44
391.636	96.44
391.86	88.44
392.085	90.44
392.31	88.44
392.534	88.44
392.759	85.44
392.984	78.44
393.208	79.44
393.433	93.44
393.658	91.44
393.882	90.44
394.107	82.44
394.331	92.44
394.556	86.44
394.78	93.44
395.005	98.44
395.229	85.44
395.454	84.44
395.678	86.44
395.903	89.44
396.127	79.44
396.352	93.44
396.576	86.44
396.801	92.44
397.025	76.44
397.249	79.44
397.474	81.44
397.698	104.44
397.922	76.44
398.147	85.44
398.371	85.44
398.595	80.44
398.82	90.44
399.044	99.44
399.268	91.44
399.492	84.44
399.717	75.44
399.941	94.44
400.165	83.44
400.389	79.44
400.613	91.44
400.837	82.44
401.062	99.44
401.286	85.44
401.51	95.44
401.734	103.44
401.958	91.44
402.182	84.44
402.406	92.44
402.63	86.44
402.854	80.44
403.078	71.44
403.302	77.44
403.526	94.44
403.75	94.44
403.974	90.44
404.198	86.44
404.422	90.44
404.645	89.44
404.869	84.44
405.093	106.44
405.317	90.44
405.541	80.44
405.765	97.44
405.988	70.44
406.212	93.44
406.436	94.44
406.66	84.44
406.883	86.44
407.107	99.44
407.331	99.44
407.555	85.44
407.778	97.44
408.002	87.44
408.226	86.44
408.449	84.44
408.673	85.44
408.896	95.44
409.12	80.44
409.344	90.44
409.567	92.44
409.791	75.44
410.014	81.44
410.238	92.44
410.461	96.44
410.685	97.44
410.908	97.44
411.132	93.44
411.355	99.44
411.578	89.44
411.802	81.44
412.025	89.44
412.249	101.44
412.472	85.44
412.695	92.44
412.919	96.44
413.142	82.44
413.365	93.44
413.589	91.44
413.812	93.44
414.035	94.44
414.258	84.44
414.482	96.44
414.705	81.44
414.928	75.44
415.151	94.44
415.374	95.44
415.597	96.44
415.821	83.44
416.044	81.44
416.267	86.44
416.49	86.44
416.713	82.44
416.936	89.44
417.159	82.44
417.382	105.44
417.605	88.44
417.828	87.44
418.051	86.44
418.274	111.44
418.497	107.44
418.72	99.44
418.943	112.44
419.166	96.44
419.389	80.44
419.611	94.44
419.834	114.44
420.057	106.44
420.28	75.44
420.503	96.44
420.726	98.44
420.948	89.44
421.171	95.44
421.394	101.44
421.617	105.44
421.839	93.44
422.062	95.44
422.285	96.44
422.507	81.44
422.73	92.44
422.953	97.44
423.175	98.44
423.398	105.44
423.621	106.44
423.843	95.44
424.066	72.44
424.288	89.44
424.511	91.44
424.733	88.44
424.956	89.44
425.178	98.44
425.401	102.44
425.623	89.44
425.846	91.44
426.068	103.44
426.291	95.44
426.513	81.44
426.735	91.44
426.958	102.44
427.18	97.44
427.402	101.44
427.625	90.44
427.847	107.44
428.069	116.44
428.292	80.44
428.514	100.44
428.736	92.44
428.958	84.44
429.181	99.44
429.403	82.44
429.625	88.44
429.847	99.44
430.069	87.44
430.292	91.44
430.514	95.44
430.736	97.44
430.958	99.44
431.18	94.44
431.402	82.44
431.624	96.44
431.846	84.44
432.068	68.44
432.29	89.44
432.512	94.44
432.734	80.44
432.956	88.44
433.178	102.44
433.4	86.44
433.622	95.44
433.844	85.44
434.066	96.44
434.287	81.44
434.509	82.44
434.731	80.44
434.953	84.44
435.175	79.44
435.397	90.44
435.618	103.44
435.84	86.44
436.062	89.44
436.284	91.44
436.505	86.44
436.727	98.44
436.949	112.44
437.17	93.44
437.392	92.44
437.614	89.44
437.835	101.44
438.057	85.44
438.278	82.44
438.5	108.44
438.721	105.44
438.943	93.44
439.165	84.44
439.386	95.44
439.608	102.44
439.829	95.44
440.05	99.44
440.272	107.44
440.493	103.44
440.715	98.44
440.936	97.44
441.158	92.44
441.379	82.44
441.6	88.44
441.822	88.44
442.043	95.44
442.264	86.44
442.486	89.44
442.707	100.44
442.928	90.44
443.149	100.44
443.371	111.44
443.592	102.44
443.813	96.44
444.034	95.44
444.255	95.44
444.476	94.44
444.698	92.44
444.919	113.44
445.14	185.44
445.361	134.44
445.582	92.44
445.803	105.44
446.024	106.44
446.245	91.44
446.466	102.44
446.687	114.44
446.908	97.44
447.129	88.44
447.35	88.44
447.571	85.44
447.792	100.44
448.013	88.44
448.234	96.44
448.455	94.44
448.675	109.44
448.896	83.44
449.117	88.44
449.338	95.44
449.559	98.44
449.779	97.44
450	92.44
450.221	93.44
450.442	89.44
450.662	89.44
450.883	85.44
451.104	92.44
451.324	86.44
451.545	81.44
451.766	86.44
451.986	88.44
452.207	86.44
452.428	96.44
452.648	87.44
452.869	78.44
453.089	76.44
453.31	91.44
453.53	97.44
453.751	75.44
453.971	89.44
454.192	84.44
454.412	98.44
454.633	104.44
454.853	81.44
455.073	93.44
455.294	100.44
455.514	102.44
455.734	81.44
455.955	94.44
456.175	85.44
456.395	90.44
456.616	83.44
456.836	84.44
457.056	95.44
457.276	92.44
457.497	79.44
457.717	81.44
457.937	91.44
458.157	89.44
458.377	91.44
458.598	97.44
458.818	83.44
459.038	101.44
459.258	79.44
459.478	75.44
459.698	78.44
459.918	88.44
460.138	94.44
460.358	82.44
460.578	89.44
460.798	83.44
461.018	75.44
461.238	91.44
461.458	75.44
461.678	90.44
461.898	83.44
462.118	90.44
462.338	104.44
462.558	77.44
462.777	99.44
462.997	81.44
463.217	83.44
463.437	79.44
463.657	79.44
463.876	83.44
464.096	82.44
464.316	71.44
464.536	92.44
464.755	100.44
464.975	92.44
465.195	95.44
465.414	99.44
465.634	101.44
465.854	94.44
466.073	89.44
466.293	91.44
466.512	89.44
466.732	93.44
466.951	93.44
467.171	89.44
467.391	94.44
467.61	94.44
467.829	80.44
468.049	83.44
468.268	97.44
468.488	101.44
468.707	80.44
468.927	79.44
469.146	94.44
469.365	114.44
469.585	101.44
469.804	97.44
470.023	105.44
470.243	97.44
470.462	85.44
470.681	94.44
470.901	102.44
471.12	96.44
471.339	94.44
471.558	87.44
471.777	87.44
471.997	87.44
472.216	104.44
472.435	87.44
472.654	96.44
472.873	91.44
473.092	94.44
473.311	104.44
473.53	85.44
473.749	77.44
473.968	102.44
474.187	89.44
474.406	84.44
474.625	86.44
474.844	87.44
475.063	100.44
475.282	94.44
475.501	90.44
475.72	96.44
475.939	98.44
476.158	93.44
476.377	99.44
476.596	84.44
476.814	84.44
477.033	84.44
477.252	86.44
477.471	87.44
477.69	82.44
477.908	90.44
478.127	105.44
478.346	105.44
478.564	102.44
478.783	104.44
479.002	97.44
479.22	103.44
479.439	94.44
479.658	104.44
479.876	90.44
480.095	99.44
480.313	85.44
480.532	101.44
480.751	85.44
480.969	58.44
481.188	72.44
481.406	87.44
481.624	87.44
481.843	80.44
482.061	85.44
482.28	76.44
482.498	96.44
482.717	79.44
482.935	86.44
483.153	97.44
483.372	99.44
483.59	98.44
483.808	99.44
484.027	86.44
484.245	87.44
484.463	100.44
484.681	114.44
484.9	97.44
485.118	113.44
485.336	101.44
485.554	87.44
485.772	102.44
485.99	77.44
486.209	84.44
486.427	88.44
486.645	94.44
486.863	98.44
487.081	93.44
487.299	90.44
487.517	90.44
487.735	115.44
487.953	106.44
488.171	111.44
488.389	121.44
488.607	110.44
488.825	97.44
489.043	95.44
489.261	87.44
489.479	97.44
489.696	90.44
489.914	99.44
490.132	77.44
490.35	103.44
490.568	107.44
490.786	106.44
491.003	98.44
491.221	97.44
491.439	132.44
491.657	118.44
491.874	112.44
492.092	115.44
492.31	125.44
492.527	131.44
492.745	115.44
492.963	110.44
493.18	114.44
493.398	110.44
493.615	102.44
493.833	114.44
494.05	90.44
494.268	119.44
494.485	104.44
494.703	113.44
494.92	100.44
495.138	111.44
495.355	115.44
495.573	110.44
495.79	93.44
496.008	114.44
496.225	112.44
496.442	106.44
496.66	109.44
496.877	92.44
497.094	94.44
497.312	101.44
497.529	103.44
497.746	116.44
497.963	92.44
498.181	88.44
498.398	88.44
498.615	106.44
498.832	94.44
499.049	105.44
499.267	101.44
499.484	101.44
499.701	100.44
499.918	92.44
500.135	89.44
500.352	100.44
500.569	107.44
500.786	103.44
501.003	115.44
501.22	105.44
501.437	101.44
501.654	106.44
501.871	98.44
502.088	93.44
502.305	86.44
502.522	87.44
502.739	101.44
502.956	103.44
503.172	101.44
503.389	87.44
503.606	73.44
503.823	94.44
504.04	98.44
504.256	89.44
504.473	98.44
504.69	82.44
504.907	98.44
505.123	97.44
505.34	102.44
505.557	97.44
505.773	97.44
505.99	95.44
506.207	95.44
506.423	87.44
506.64	89.44
506.856	115.44
507.073	95.44
507.289	101.44
507.506	96.44
507.722	85.44
507.939	98.44
508.155	89.44
508.372	82.44
508.588	81.44
508.805	86.44
509.021	81.44
509.238	97.44
509.454	89.44
509.67	80.44
509.887	83.44
510.103	89.44
510.319	100.44
510.536	83.44
510.752	88.44
510.968	80.44
511.184	74.44
511.401	83.44
511.617	88.44
511.833	81.44
512.049	87.44
512.265	72.44
512.481	82.44
512.698	100.44
512.914	87.44
513.13	77.44
513.346	83.44
513.562	78.44
513.778	69.44
513.994	79.44
514.21	83.44
514.426	90.44
514.642	64.44
514.858	79.44
515.074	98.44
515.29	76.44
515.506	89.44
515.721	86.44
515.937	89.44
516.153	73.44
516.369	82.44
516.585	81.44
516.801	80.44
517.016	81.44
517.232	79.44
517.448	83.44
517.664	78.44
