Data from Location4.07152019.Energy5.Lamp.07192019.3%Agarose_HRD10591_15-24-10-577.txt Node
Date: Fri Jul 19 15:24:10 EDT 2019
User: cochatt
Spectrometer: HR+D1059
Trigger mode: 1
Integration Time (sec): 1.000000E-1
Scans to average: 1
Electric dark correction enabled: true
Nonlinearity correction enabled: false
Boxcar width: 0
XAxis mode: Wavelengths
Number of Pixels in Spectrum: 2048
>>>>>Begin Spectral Data<<<<<
223.165	-20.31
223.4	-20.31
223.635	-20.31
223.869	-0.31
224.104	-19.31
224.338	-15.31
224.573	-22.31
224.808	-18.31
225.042	0.69
225.277	0.69
225.511	3.69
225.746	6.69
225.98	4.69
226.215	3.69
226.449	14.69
226.683	12.69
226.918	7.69
227.152	40.69
227.387	35.69
227.621	53.69
227.856	41.69
228.09	56.69
228.324	42.69
228.559	63.69
228.793	61.69
229.027	48.69
229.262	81.69
229.496	61.69
229.73	66.69
229.964	82.69
230.199	73.69
230.433	77.69
230.667	80.69
230.901	76.69
231.136	88.69
231.37	85.69
231.604	85.69
231.838	78.69
232.072	92.69
232.306	76.69
232.541	95.69
232.775	91.69
233.009	85.69
233.243	87.69
233.477	92.69
233.711	78.69
233.945	78.69
234.179	96.69
234.413	95.69
234.647	85.69
234.881	82.69
235.115	80.69
235.349	68.69
235.583	95.69
235.817	77.69
236.051	65.69
236.285	64.69
236.519	85.69
236.753	80.69
236.987	75.69
237.221	73.69
237.455	84.69
237.689	61.69
237.922	78.69
238.156	83.69
238.39	84.69
238.624	73.69
238.858	81.69
239.091	83.69
239.325	74.69
239.559	76.69
239.793	89.69
240.027	86.69
240.26	75.69
240.494	81.69
240.728	82.69
240.961	70.69
241.195	82.69
241.429	90.69
241.662	83.69
241.896	77.69
242.13	79.69
242.363	78.69
242.597	86.69
242.83	97.69
243.064	62.69
243.298	80.69
243.531	78.69
243.765	88.69
243.998	82.69
244.232	90.69
244.465	83.69
244.699	59.69
244.932	84.69
245.166	88.69
245.399	81.69
245.633	60.69
245.866	71.69
246.099	74.69
246.333	82.69
246.566	77.69
246.8	86.69
247.033	69.69
247.266	91.69
247.5	78.69
247.733	83.69
247.966	78.69
248.2	76.69
248.433	77.69
248.666	73.69
248.899	75.69
249.133	77.69
249.366	78.69
249.599	68.69
249.832	79.69
250.066	84.69
250.299	80.69
250.532	68.69
250.765	77.69
250.998	81.69
251.231	64.69
251.465	82.69
251.698	77.69
251.931	83.69
252.164	85.69
252.397	84.69
252.63	88.69
252.863	96.69
253.096	81.69
253.329	76.69
253.562	78.69
253.795	92.69
254.028	85.69
254.261	72.69
254.494	82.69
254.727	78.69
254.96	77.69
255.193	96.69
255.426	96.69
255.659	65.69
255.892	78.69
256.124	90.69
256.357	83.69
256.59	82.69
256.823	87.69
257.056	73.69
257.289	89.69
257.521	78.69
257.754	79.69
257.987	79.69
258.22	72.69
258.452	76.69
258.685	77.69
258.918	81.69
259.151	74.69
259.383	85.69
259.616	72.69
259.849	74.69
260.081	84.69
260.314	66.69
260.547	84.69
260.779	67.69
261.012	73.69
261.244	78.69
261.477	85.69
261.71	67.69
261.942	83.69
262.175	79.69
262.407	81.69
262.64	82.69
262.872	84.69
263.105	92.69
263.337	84.69
263.57	71.69
263.802	81.69
264.035	97.69
264.267	89.69
264.499	79.69
264.732	82.69
264.964	86.69
265.197	73.69
265.429	76.69
265.661	86.69
265.894	83.69
266.126	86.69
266.358	97.69
266.591	83.69
266.823	81.69
267.055	84.69
267.287	78.69
267.52	84.69
267.752	89.69
267.984	88.69
268.216	81.69
268.448	85.69
268.681	91.69
268.913	99.69
269.145	82.69
269.377	100.69
269.609	84.69
269.841	85.69
270.073	77.69
270.306	76.69
270.538	82.69
270.77	77.69
271.002	86.69
271.234	81.69
271.466	82.69
271.698	84.69
271.93	102.69
272.162	85.69
272.394	86.69
272.626	105.69
272.858	92.69
273.09	75.69
273.322	88.69
273.553	88.69
273.785	88.69
274.017	77.69
274.249	91.69
274.481	91.69
274.713	92.69
274.945	84.69
275.176	90.69
275.408	89.69
275.64	106.69
275.872	86.69
276.104	74.69
276.335	82.69
276.567	77.69
276.799	79.69
277.031	82.69
277.262	84.69
277.494	85.69
277.726	83.69
277.957	85.69
278.189	89.69
278.421	95.69
278.652	82.69
278.884	88.69
279.115	88.69
279.347	92.69
279.579	93.69
279.81	86.69
280.042	93.69
280.273	79.69
280.505	64.69
280.736	86.69
280.968	78.69
281.199	95.69
281.431	93.69
281.662	91.69
281.894	81.69
282.125	87.69
282.356	91.69
282.588	91.69
282.819	69.69
283.051	87.69
283.282	87.69
283.513	89.69
283.745	89.69
283.976	73.69
284.207	83.69
284.439	74.69
284.67	84.69
284.901	104.69
285.132	105.69
285.364	88.69
285.595	87.69
285.826	89.69
286.057	102.69
286.288	86.69
286.52	95.69
286.751	73.69
286.982	88.69
287.213	90.69
287.444	78.69
287.675	83.69
287.906	78.69
288.138	79.69
288.369	85.69
288.6	78.69
288.831	85.69
289.062	78.69
289.293	85.69
289.524	79.69
289.755	86.69
289.986	89.69
290.217	77.69
290.448	75.69
290.679	85.69
290.91	87.69
291.141	97.69
291.371	86.69
291.602	71.69
291.833	94.69
292.064	80.69
292.295	93.69
292.526	94.69
292.757	95.69
292.987	90.69
293.218	88.69
293.449	93.69
293.68	102.69
293.91	89.69
294.141	76.69
294.372	89.69
294.603	85.69
294.833	89.69
295.064	94.69
295.295	94.69
295.525	99.69
295.756	86.69
295.987	97.69
296.217	74.69
296.448	96.69
296.679	86.69
296.909	92.69
297.14	89.69
297.37	92.69
297.601	82.69
297.831	92.69
298.062	84.69
298.292	77.69
298.523	91.69
298.753	92.69
298.984	89.69
299.214	89.69
299.445	99.69
299.675	97.69
299.905	85.69
300.136	80.69
300.366	87.69
300.597	84.69
300.827	79.69
301.057	85.69
301.288	81.69
301.518	82.69
301.748	82.69
301.979	84.69
302.209	81.69
302.439	98.69
302.669	84.69
302.9	98.69
303.13	97.69
303.36	98.69
303.59	71.69
303.82	86.69
304.051	101.69
304.281	94.69
304.511	91.69
304.741	76.69
304.971	104.69
305.201	82.69
305.431	78.69
305.661	77.69
305.891	83.69
306.121	82.69
306.352	88.69
306.582	91.69
306.812	85.69
307.042	86.69
307.272	92.69
307.502	87.69
307.731	81.69
307.961	101.69
308.191	93.69
308.421	80.69
308.651	85.69
308.881	93.69
309.111	86.69
309.341	83.69
309.571	70.69
309.8	82.69
310.03	94.69
310.26	75.69
310.49	85.69
310.72	81.69
310.949	95.69
311.179	90.69
311.409	85.69
311.639	93.69
311.868	91.69
312.098	85.69
312.328	92.69
312.557	84.69
312.787	87.69
313.017	92.69
313.246	89.69
313.476	92.69
313.706	82.69
313.935	86.69
314.165	86.69
314.394	93.69
314.624	71.69
314.853	82.69
315.083	73.69
315.312	84.69
315.542	93.69
315.771	101.69
316.001	73.69
316.23	69.69
316.46	88.69
316.689	81.69
316.919	94.69
317.148	81.69
317.377	87.69
317.607	97.69
317.836	100.69
318.065	84.69
318.295	87.69
318.524	87.69
318.753	92.69
318.983	75.69
319.212	81.69
319.441	92.69
319.67	87.69
319.9	88.69
320.129	85.69
320.358	90.69
320.587	81.69
320.816	89.69
321.046	76.69
321.275	84.69
321.504	85.69
321.733	91.69
321.962	97.69
322.191	85.69
322.42	78.69
322.649	92.69
322.878	89.69
323.108	87.69
323.337	74.69
323.566	90.69
323.795	79.69
324.024	94.69
324.253	73.69
324.482	87.69
324.71	88.69
324.939	76.69
325.168	79.69
325.397	80.69
325.626	79.69
325.855	100.69
326.084	87.69
326.313	85.69
326.542	93.69
326.77	79.69
326.999	82.69
327.228	90.69
327.457	88.69
327.686	85.69
327.914	70.69
328.143	98.69
328.372	74.69
328.6	87.69
328.829	86.69
329.058	90.69
329.287	85.69
329.515	95.69
329.744	103.69
329.972	79.69
330.201	104.69
330.43	83.69
330.658	79.69
330.887	94.69
331.115	92.69
331.344	90.69
331.572	100.69
331.801	81.69
332.03	88.69
332.258	89.69
332.486	93.69
332.715	98.69
332.943	100.69
333.172	82.69
333.4	84.69
333.629	81.69
333.857	84.69
334.085	99.69
334.314	89.69
334.542	97.69
334.771	84.69
334.999	91.69
335.227	82.69
335.455	86.69
335.684	92.69
335.912	79.69
336.14	86.69
336.369	88.69
336.597	86.69
336.825	86.69
337.053	91.69
337.281	86.69
337.51	68.69
337.738	83.69
337.966	83.69
338.194	84.69
338.422	81.69
338.65	91.69
338.878	88.69
339.106	75.69
339.334	99.69
339.562	83.69
339.79	93.69
340.018	89.69
340.246	77.69
340.474	87.69
340.702	86.69
340.93	89.69
341.158	76.69
341.386	81.69
341.614	94.69
341.842	84.69
342.07	82.69
342.298	92.69
342.526	79.69
342.754	81.69
342.981	87.69
343.209	84.69
343.437	84.69
343.665	83.69
343.893	80.69
344.12	85.69
344.348	86.69
344.576	79.69
344.804	88.69
345.031	78.69
345.259	66.69
345.487	74.69
345.714	88.69
345.942	86.69
346.17	83.69
346.397	94.69
346.625	89.69
346.853	86.69
347.08	84.69
347.308	78.69
347.535	88.69
347.763	84.69
347.99	85.69
348.218	84.69
348.445	73.69
348.673	84.69
348.9	92.69
349.128	95.69
349.355	93.69
349.583	90.69
349.81	89.69
350.037	89.69
350.265	89.69
350.492	104.69
350.72	94.69
350.947	88.69
351.174	77.69
351.402	83.69
351.629	70.69
351.856	82.69
352.083	91.69
352.311	79.69
352.538	79.69
352.765	76.69
352.992	85.69
353.22	91.69
353.447	93.69
353.674	94.69
353.901	90.69
354.128	80.69
354.355	98.69
354.583	83.69
354.81	78.69
355.037	90.69
355.264	87.69
355.491	84.69
355.718	89.69
355.945	84.69
356.172	85.69
356.399	98.69
356.626	94.69
356.853	81.69
357.08	99.69
357.307	83.69
357.534	85.69
357.761	105.69
357.988	85.69
358.215	92.69
358.441	107.69
358.668	82.69
358.895	91.69
359.122	84.69
359.349	94.69
359.576	93.69
359.802	77.69
360.029	86.69
360.256	86.69
360.483	78.69
360.709	84.69
360.936	96.69
361.163	93.69
361.39	73.69
361.616	79.69
361.843	86.69
362.07	87.69
362.296	101.69
362.523	80.69
362.749	94.69
362.976	89.69
363.203	102.69
363.429	89.69
363.656	88.69
363.882	85.69
364.109	76.69
364.335	84.69
364.562	79.69
364.788	88.69
365.015	90.69
365.241	91.69
365.468	99.69
365.694	73.69
365.92	70.69
366.147	83.69
366.373	92.69
366.599	77.69
366.826	97.69
367.052	92.69
367.278	76.69
367.505	83.69
367.731	88.69
367.957	91.69
368.184	79.69
368.41	76.69
368.636	76.69
368.862	72.69
369.089	78.69
369.315	83.69
369.541	78.69
369.767	80.69
369.993	80.69
370.219	93.69
370.445	88.69
370.672	85.69
370.898	86.69
371.124	76.69
371.35	91.69
371.576	88.69
371.802	85.69
372.028	89.69
372.254	72.69
372.48	88.69
372.706	97.69
372.932	88.69
373.158	92.69
373.384	90.69
373.61	72.69
373.835	87.69
374.061	89.69
374.287	80.69
374.513	75.69
374.739	88.69
374.965	91.69
375.191	89.69
375.416	76.69
375.642	98.69
375.868	90.69
376.094	76.69
376.319	85.69
376.545	84.69
376.771	94.69
376.997	70.69
377.222	85.69
377.448	91.69
377.674	86.69
377.899	93.69
378.125	88.69
378.35	94.69
378.576	85.69
378.802	82.69
379.027	86.69
379.253	86.69
379.478	79.69
379.704	95.69
379.929	87.69
380.155	86.69
380.38	98.69
380.606	84.69
380.831	93.69
381.057	88.69
381.282	84.69
381.507	96.69
381.733	77.69
381.958	92.69
382.184	90.69
382.409	96.69
382.634	94.69
382.86	100.69
383.085	87.69
383.31	89.69
383.535	93.69
383.761	87.69
383.986	67.69
384.211	91.69
384.436	86.69
384.662	82.69
384.887	82.69
385.112	91.69
385.337	77.69
385.562	74.69
385.787	96.69
386.013	93.69
386.238	84.69
386.463	87.69
386.688	84.69
386.913	91.69
387.138	82.69
387.363	83.69
387.588	95.69
387.813	77.69
388.038	96.69
388.263	85.69
388.488	84.69
388.713	82.69
388.938	93.69
389.163	73.69
389.387	85.69
389.612	86.69
389.837	86.69
390.062	107.69
390.287	77.69
390.512	102.69
390.736	101.69
390.961	75.69
391.186	85.69
391.411	93.69
391.636	97.69
391.86	83.69
392.085	90.69
392.31	90.69
392.534	83.69
392.759	91.69
392.984	79.69
393.208	91.69
393.433	88.69
393.658	82.69
393.882	85.69
394.107	83.69
394.331	93.69
394.556	77.69
394.78	86.69
395.005	84.69
395.229	97.69
395.454	93.69
395.678	82.69
395.903	104.69
396.127	78.69
396.352	97.69
396.576	100.69
396.801	88.69
397.025	78.69
397.249	99.69
397.474	96.69
397.698	100.69
397.922	89.69
398.147	90.69
398.371	89.69
398.595	77.69
398.82	91.69
399.044	99.69
399.268	101.69
399.492	84.69
399.717	86.69
399.941	96.69
400.165	81.69
400.389	88.69
400.613	85.69
400.837	88.69
401.062	93.69
401.286	83.69
401.51	83.69
401.734	99.69
401.958	85.69
402.182	95.69
402.406	86.69
402.63	89.69
402.854	94.69
403.078	105.69
403.302	84.69
403.526	89.69
403.75	81.69
403.974	84.69
404.198	100.69
404.422	90.69
404.645	96.69
404.869	94.69
405.093	95.69
405.317	100.69
405.541	92.69
405.765	83.69
405.988	92.69
406.212	84.69
406.436	81.69
406.66	100.69
406.883	96.69
407.107	99.69
407.331	93.69
407.555	92.69
407.778	94.69
408.002	102.69
408.226	108.69
408.449	85.69
408.673	90.69
408.896	99.69
409.12	100.69
409.344	104.69
409.567	95.69
409.791	100.69
410.014	99.69
410.238	106.69
410.461	80.69
410.685	85.69
410.908	91.69
411.132	94.69
411.355	97.69
411.578	100.69
411.802	97.69
412.025	84.69
412.249	85.69
412.472	97.69
412.695	108.69
412.919	98.69
413.142	94.69
413.365	103.69
413.589	99.69
413.812	104.69
414.035	95.69
414.258	90.69
414.482	78.69
414.705	106.69
414.928	90.69
415.151	79.69
415.374	90.69
415.597	102.69
415.821	89.69
416.044	85.69
416.267	88.69
416.49	90.69
416.713	100.69
416.936	89.69
417.159	96.69
417.382	98.69
417.605	99.69
417.828	92.69
418.051	92.69
418.274	87.69
418.497	88.69
418.72	96.69
418.943	99.69
419.166	102.69
419.389	90.69
419.611	92.69
419.834	90.69
420.057	98.69
420.28	100.69
420.503	101.69
420.726	90.69
420.948	102.69
421.171	104.69
421.394	100.69
421.617	89.69
421.839	108.69
422.062	88.69
422.285	97.69
422.507	79.69
422.73	92.69
422.953	91.69
423.175	90.69
423.398	88.69
423.621	98.69
423.843	99.69
424.066	101.69
424.288	89.69
424.511	101.69
424.733	102.69
424.956	88.69
425.178	103.69
425.401	100.69
425.623	97.69
425.846	108.69
426.068	110.69
426.291	91.69
426.513	88.69
426.735	83.69
426.958	93.69
427.18	89.69
427.402	101.69
427.625	88.69
427.847	92.69
428.069	90.69
428.292	93.69
428.514	92.69
428.736	97.69
428.958	96.69
429.181	81.69
429.403	94.69
429.625	88.69
429.847	100.69
430.069	92.69
430.292	89.69
430.514	89.69
430.736	98.69
430.958	91.69
431.18	89.69
431.402	85.69
431.624	103.69
431.846	89.69
432.068	84.69
432.29	77.69
432.512	108.69
432.734	75.69
432.956	97.69
433.178	98.69
433.4	96.69
433.622	106.69
433.844	104.69
434.066	88.69
434.287	101.69
434.509	73.69
434.731	92.69
434.953	105.69
435.175	97.69
435.397	72.69
435.618	83.69
435.84	96.69
436.062	88.69
436.284	87.69
436.505	98.69
436.727	103.69
436.949	98.69
437.17	100.69
437.392	99.69
437.614	96.69
437.835	91.69
438.057	84.69
438.278	89.69
438.5	96.69
438.721	94.69
438.943	96.69
439.165	105.69
439.386	103.69
439.608	100.69
439.829	98.69
440.05	91.69
440.272	114.69
440.493	103.69
440.715	110.69
440.936	101.69
441.158	107.69
441.379	112.69
441.6	96.69
441.822	104.69
442.043	95.69
442.264	98.69
442.486	94.69
442.707	104.69
442.928	109.69
443.149	112.69
443.371	96.69
443.592	94.69
443.813	105.69
444.034	94.69
444.255	99.69
444.476	111.69
444.698	115.69
444.919	96.69
445.14	171.69
445.361	137.69
445.582	109.69
445.803	105.69
446.024	88.69
446.245	99.69
446.466	92.69
446.687	101.69
446.908	108.69
447.129	106.69
447.35	101.69
447.571	103.69
447.792	105.69
448.013	80.69
448.234	108.69
448.455	111.69
448.675	101.69
448.896	106.69
449.117	118.69
449.338	104.69
449.559	98.69
449.779	87.69
450	122.69
450.221	110.69
450.442	94.69
450.662	101.69
450.883	100.69
451.104	100.69
451.324	94.69
451.545	102.69
451.766	97.69
451.986	99.69
452.207	95.69
452.428	97.69
452.648	99.69
452.869	97.69
453.089	83.69
453.31	93.69
453.53	100.69
453.751	99.69
453.971	78.69
454.192	97.69
454.412	96.69
454.633	100.69
454.853	100.69
455.073	97.69
455.294	92.69
455.514	101.69
455.734	93.69
455.955	86.69
456.175	97.69
456.395	87.69
456.616	93.69
456.836	80.69
457.056	75.69
457.276	85.69
457.497	96.69
457.717	95.69
457.937	88.69
458.157	84.69
458.377	94.69
458.598	89.69
458.818	81.69
459.038	88.69
459.258	91.69
459.478	88.69
459.698	88.69
459.918	79.69
460.138	83.69
460.358	87.69
460.578	85.69
460.798	106.69
461.018	87.69
461.238	89.69
461.458	93.69
461.678	94.69
461.898	97.69
462.118	95.69
462.338	76.69
462.558	78.69
462.777	94.69
462.997	100.69
463.217	81.69
463.437	78.69
463.657	98.69
463.876	85.69
464.096	86.69
464.316	84.69
464.536	88.69
464.755	97.69
464.975	108.69
465.195	96.69
465.414	90.69
465.634	103.69
465.854	96.69
466.073	100.69
466.293	104.69
466.512	99.69
466.732	96.69
466.951	102.69
467.171	89.69
467.391	99.69
467.61	91.69
467.829	98.69
468.049	92.69
468.268	93.69
468.488	108.69
468.707	98.69
468.927	112.69
469.146	81.69
469.365	95.69
469.585	105.69
469.804	108.69
470.023	94.69
470.243	108.69
470.462	114.69
470.681	116.69
470.901	91.69
471.12	101.69
471.339	102.69
471.558	106.69
471.777	101.69
471.997	89.69
472.216	86.69
472.435	96.69
472.654	104.69
472.873	90.69
473.092	98.69
473.311	95.69
473.53	113.69
473.749	93.69
473.968	97.69
474.187	89.69
474.406	90.69
474.625	84.69
474.844	104.69
475.063	103.69
475.282	100.69
475.501	104.69
475.72	97.69
475.939	105.69
476.158	96.69
476.377	78.69
476.596	94.69
476.814	91.69
477.033	95.69
477.252	97.69
477.471	93.69
477.69	100.69
477.908	99.69
478.127	99.69
478.346	96.69
478.564	97.69
478.783	101.69
479.002	102.69
479.22	91.69
479.439	84.69
479.658	86.69
479.876	95.69
480.095	75.69
480.313	108.69
480.532	100.69
480.751	92.69
480.969	102.69
481.188	92.69
481.406	95.69
481.624	94.69
481.843	88.69
482.061	85.69
482.28	93.69
482.498	105.69
482.717	97.69
482.935	106.69
483.153	101.69
483.372	100.69
483.59	109.69
483.808	107.69
484.027	90.69
484.245	96.69
484.463	103.69
484.681	92.69
484.9	108.69
485.118	100.69
485.336	89.69
485.554	82.69
485.772	75.69
485.99	91.69
486.209	97.69
486.427	99.69
486.645	88.69
486.863	103.69
487.081	112.69
487.299	82.69
487.517	97.69
487.735	128.69
487.953	120.69
488.171	125.69
488.389	119.69
488.607	116.69
488.825	99.69
489.043	96.69
489.261	115.69
489.479	90.69
489.696	97.69
489.914	97.69
490.132	117.69
490.35	99.69
490.568	104.69
490.786	104.69
491.003	100.69
491.221	109.69
491.439	103.69
491.657	124.69
491.874	130.69
492.092	114.69
492.31	122.69
492.527	115.69
492.745	110.69
492.963	136.69
493.18	118.69
493.398	118.69
493.615	93.69
493.833	109.69
494.05	116.69
494.268	111.69
494.485	118.69
494.703	124.69
494.92	108.69
495.138	111.69
495.355	102.69
495.573	108.69
495.79	104.69
496.008	125.69
496.225	116.69
496.442	109.69
496.66	128.69
496.877	125.69
497.094	117.69
497.312	114.69
497.529	114.69
497.746	108.69
497.963	97.69
498.181	103.69
498.398	90.69
498.615	93.69
498.832	94.69
499.049	93.69
499.267	87.69
499.484	94.69
499.701	112.69
499.918	102.69
500.135	95.69
500.352	102.69
500.569	112.69
500.786	91.69
501.003	77.69
501.22	89.69
501.437	109.69
501.654	100.69
501.871	98.69
502.088	104.69
502.305	94.69
502.522	102.69
502.739	105.69
502.956	108.69
503.172	96.69
503.389	103.69
503.606	96.69
503.823	115.69
504.04	108.69
504.256	93.69
504.473	101.69
504.69	110.69
504.907	88.69
505.123	98.69
505.34	98.69
505.557	102.69
505.773	102.69
505.99	115.69
506.207	100.69
506.423	82.69
506.64	101.69
506.856	104.69
507.073	109.69
507.289	112.69
507.506	88.69
507.722	96.69
507.939	101.69
508.155	93.69
508.372	83.69
508.588	89.69
508.805	91.69
509.021	89.69
509.238	90.69
509.454	103.69
509.67	84.69
509.887	83.69
510.103	104.69
510.319	93.69
510.536	96.69
510.752	100.69
510.968	88.69
511.184	79.69
511.401	94.69
511.617	90.69
511.833	85.69
512.049	84.69
512.265	100.69
512.481	80.69
512.698	73.69
512.914	81.69
513.13	84.69
513.346	87.69
513.562	84.69
513.778	84.69
513.994	93.69
514.21	90.69
514.426	87.69
514.642	89.69
514.858	82.69
515.074	83.69
515.29	99.69
515.506	86.69
515.721	89.69
515.937	89.69
516.153	105.69
516.369	88.69
