Data from Location4.07152019.Energy5.Lamp.07192019.3%Agarose_HRD10591_15-25-14-577.txt Node
Date: Fri Jul 19 15:25:14 EDT 2019
User: cochatt
Spectrometer: HR+D1059
Trigger mode: 1
Integration Time (sec): 1.000000E-1
Scans to average: 1
Electric dark correction enabled: true
Nonlinearity correction enabled: false
Boxcar width: 0
XAxis mode: Wavelengths
Number of Pixels in Spectrum: 2048
>>>>>Begin Spectral Data<<<<<
223.165	-16.88
223.4	-16.88
223.635	-16.88
223.869	-23.88
224.104	-24.88
224.338	-25.88
224.573	-3.88
224.808	-5.88
225.042	-4.88
225.277	-14.88
225.511	-2.88
225.746	6.12
225.98	6.12
226.215	7.12
226.449	16.12
226.683	28.12
226.918	24.12
227.152	36.12
227.387	36.12
227.621	42.12
227.856	48.12
228.09	50.12
228.324	53.12
228.559	61.12
228.793	62.12
229.027	80.12
229.262	76.12
229.496	63.12
229.73	83.12
229.964	89.12
230.199	68.12
230.433	77.12
230.667	95.12
230.901	79.12
231.136	75.12
231.37	81.12
231.604	76.12
231.838	78.12
232.072	88.12
232.306	91.12
232.541	87.12
232.775	91.12
233.009	87.12
233.243	85.12
233.477	76.12
233.711	86.12
233.945	77.12
234.179	84.12
234.413	76.12
234.647	82.12
234.881	95.12
235.115	90.12
235.349	74.12
235.583	80.12
235.817	78.12
236.051	73.12
236.285	79.12
236.519	77.12
236.753	89.12
236.987	81.12
237.221	85.12
237.455	76.12
237.689	91.12
237.922	94.12
238.156	80.12
238.39	74.12
238.624	86.12
238.858	79.12
239.091	83.12
239.325	82.12
239.559	72.12
239.793	84.12
240.027	76.12
240.26	76.12
240.494	93.12
240.728	89.12
240.961	85.12
241.195	75.12
241.429	84.12
241.662	89.12
241.896	87.12
242.13	71.12
242.363	73.12
242.597	81.12
242.83	64.12
243.064	70.12
243.298	70.12
243.531	70.12
243.765	78.12
243.998	80.12
244.232	78.12
244.465	68.12
244.699	90.12
244.932	76.12
245.166	80.12
245.399	90.12
245.633	85.12
245.866	85.12
246.099	69.12
246.333	75.12
246.566	85.12
246.8	93.12
247.033	80.12
247.266	73.12
247.5	83.12
247.733	87.12
247.966	76.12
248.2	89.12
248.433	70.12
248.666	86.12
248.899	83.12
249.133	77.12
249.366	81.12
249.599	77.12
249.832	84.12
250.066	69.12
250.299	70.12
250.532	88.12
250.765	82.12
250.998	81.12
251.231	64.12
251.465	90.12
251.698	73.12
251.931	80.12
252.164	82.12
252.397	82.12
252.63	88.12
252.863	81.12
253.096	80.12
253.329	93.12
253.562	77.12
253.795	87.12
254.028	98.12
254.261	76.12
254.494	89.12
254.727	79.12
254.96	88.12
255.193	79.12
255.426	80.12
255.659	75.12
255.892	54.12
256.124	74.12
256.357	87.12
256.59	92.12
256.823	80.12
257.056	79.12
257.289	93.12
257.521	75.12
257.754	68.12
257.987	89.12
258.22	68.12
258.452	83.12
258.685	69.12
258.918	96.12
259.151	69.12
259.383	97.12
259.616	84.12
259.849	81.12
260.081	96.12
260.314	90.12
260.547	93.12
260.779	94.12
261.012	92.12
261.244	92.12
261.477	82.12
261.71	94.12
261.942	92.12
262.175	82.12
262.407	85.12
262.64	89.12
262.872	79.12
263.105	80.12
263.337	80.12
263.57	102.12
263.802	81.12
264.035	86.12
264.267	78.12
264.499	92.12
264.732	84.12
264.964	95.12
265.197	86.12
265.429	75.12
265.661	90.12
265.894	81.12
266.126	101.12
266.358	84.12
266.591	75.12
266.823	84.12
267.055	87.12
267.287	86.12
267.52	78.12
267.752	81.12
267.984	83.12
268.216	89.12
268.448	84.12
268.681	83.12
268.913	78.12
269.145	97.12
269.377	80.12
269.609	72.12
269.841	94.12
270.073	91.12
270.306	78.12
270.538	88.12
270.77	86.12
271.002	81.12
271.234	86.12
271.466	80.12
271.698	84.12
271.93	84.12
272.162	89.12
272.394	89.12
272.626	81.12
272.858	82.12
273.09	85.12
273.322	98.12
273.553	88.12
273.785	80.12
274.017	88.12
274.249	75.12
274.481	87.12
274.713	83.12
274.945	90.12
275.176	92.12
275.408	80.12
275.64	77.12
275.872	92.12
276.104	96.12
276.335	88.12
276.567	69.12
276.799	82.12
277.031	95.12
277.262	82.12
277.494	89.12
277.726	94.12
277.957	73.12
278.189	83.12
278.421	77.12
278.652	92.12
278.884	81.12
279.115	92.12
279.347	97.12
279.579	84.12
279.81	81.12
280.042	85.12
280.273	64.12
280.505	87.12
280.736	87.12
280.968	81.12
281.199	87.12
281.431	97.12
281.662	78.12
281.894	94.12
282.125	88.12
282.356	88.12
282.588	86.12
282.819	88.12
283.051	92.12
283.282	92.12
283.513	88.12
283.745	90.12
283.976	90.12
284.207	95.12
284.439	91.12
284.67	79.12
284.901	104.12
285.132	81.12
285.364	86.12
285.595	91.12
285.826	76.12
286.057	83.12
286.288	96.12
286.52	89.12
286.751	90.12
286.982	94.12
287.213	97.12
287.444	72.12
287.675	76.12
287.906	96.12
288.138	85.12
288.369	102.12
288.6	76.12
288.831	84.12
289.062	85.12
289.293	80.12
289.524	91.12
289.755	99.12
289.986	79.12
290.217	93.12
290.448	84.12
290.679	94.12
290.91	91.12
291.141	81.12
291.371	87.12
291.602	79.12
291.833	103.12
292.064	78.12
292.295	91.12
292.526	99.12
292.757	86.12
292.987	89.12
293.218	87.12
293.449	82.12
293.68	81.12
293.91	95.12
294.141	84.12
294.372	97.12
294.603	92.12
294.833	91.12
295.064	92.12
295.295	96.12
295.525	95.12
295.756	96.12
295.987	89.12
296.217	83.12
296.448	82.12
296.679	90.12
296.909	80.12
297.14	88.12
297.37	95.12
297.601	79.12
297.831	92.12
298.062	79.12
298.292	84.12
298.523	94.12
298.753	95.12
298.984	93.12
299.214	94.12
299.445	95.12
299.675	88.12
299.905	95.12
300.136	90.12
300.366	84.12
300.597	91.12
300.827	93.12
301.057	84.12
301.288	79.12
301.518	73.12
301.748	75.12
301.979	84.12
302.209	93.12
302.439	73.12
302.669	95.12
302.9	79.12
303.13	98.12
303.36	92.12
303.59	67.12
303.82	81.12
304.051	89.12
304.281	80.12
304.511	96.12
304.741	82.12
304.971	87.12
305.201	91.12
305.431	90.12
305.661	91.12
305.891	95.12
306.121	76.12
306.352	102.12
306.582	96.12
306.812	94.12
307.042	80.12
307.272	96.12
307.502	91.12
307.731	99.12
307.961	90.12
308.191	65.12
308.421	94.12
308.651	80.12
308.881	71.12
309.111	85.12
309.341	79.12
309.571	87.12
309.8	86.12
310.03	79.12
310.26	77.12
310.49	92.12
310.72	74.12
310.949	84.12
311.179	78.12
311.409	94.12
311.639	88.12
311.868	88.12
312.098	94.12
312.328	89.12
312.557	90.12
312.787	72.12
313.017	91.12
313.246	86.12
313.476	92.12
313.706	95.12
313.935	87.12
314.165	81.12
314.394	85.12
314.624	79.12
314.853	84.12
315.083	84.12
315.312	88.12
315.542	87.12
315.771	101.12
316.001	90.12
316.23	92.12
316.46	93.12
316.689	94.12
316.919	90.12
317.148	92.12
317.377	83.12
317.607	96.12
317.836	77.12
318.065	85.12
318.295	74.12
318.524	85.12
318.753	79.12
318.983	80.12
319.212	93.12
319.441	78.12
319.67	93.12
319.9	99.12
320.129	94.12
320.358	95.12
320.587	96.12
320.816	84.12
321.046	98.12
321.275	104.12
321.504	90.12
321.733	86.12
321.962	96.12
322.191	93.12
322.42	96.12
322.649	86.12
322.878	91.12
323.108	106.12
323.337	92.12
323.566	91.12
323.795	88.12
324.024	83.12
324.253	91.12
324.482	96.12
324.71	95.12
324.939	81.12
325.168	86.12
325.397	87.12
325.626	103.12
325.855	101.12
326.084	92.12
326.313	84.12
326.542	89.12
326.77	97.12
326.999	86.12
327.228	90.12
327.457	97.12
327.686	75.12
327.914	94.12
328.143	96.12
328.372	88.12
328.6	95.12
328.829	88.12
329.058	88.12
329.287	82.12
329.515	99.12
329.744	71.12
329.972	87.12
330.201	85.12
330.43	81.12
330.658	82.12
330.887	86.12
331.115	86.12
331.344	105.12
331.572	91.12
331.801	101.12
332.03	107.12
332.258	91.12
332.486	75.12
332.715	84.12
332.943	85.12
333.172	77.12
333.4	75.12
333.629	92.12
333.857	96.12
334.085	83.12
334.314	89.12
334.542	83.12
334.771	82.12
334.999	89.12
335.227	81.12
335.455	79.12
335.684	84.12
335.912	86.12
336.14	97.12
336.369	89.12
336.597	87.12
336.825	90.12
337.053	84.12
337.281	89.12
337.51	90.12
337.738	90.12
337.966	93.12
338.194	92.12
338.422	104.12
338.65	99.12
338.878	92.12
339.106	79.12
339.334	82.12
339.562	84.12
339.79	88.12
340.018	82.12
340.246	81.12
340.474	88.12
340.702	88.12
340.93	96.12
341.158	102.12
341.386	107.12
341.614	78.12
341.842	92.12
342.07	77.12
342.298	74.12
342.526	81.12
342.754	87.12
342.981	90.12
343.209	78.12
343.437	101.12
343.665	90.12
343.893	105.12
344.12	94.12
344.348	99.12
344.576	82.12
344.804	77.12
345.031	78.12
345.259	80.12
345.487	85.12
345.714	85.12
345.942	86.12
346.17	101.12
346.397	88.12
346.625	91.12
346.853	81.12
347.08	85.12
347.308	92.12
347.535	85.12
347.763	79.12
347.99	99.12
348.218	89.12
348.445	86.12
348.673	91.12
348.9	92.12
349.128	97.12
349.355	91.12
349.583	88.12
349.81	77.12
350.037	89.12
350.265	89.12
350.492	82.12
350.72	88.12
350.947	93.12
351.174	77.12
351.402	87.12
351.629	82.12
351.856	95.12
352.083	58.12
352.311	95.12
352.538	85.12
352.765	98.12
352.992	98.12
353.22	99.12
353.447	92.12
353.674	94.12
353.901	79.12
354.128	80.12
354.355	91.12
354.583	80.12
354.81	81.12
355.037	79.12
355.264	92.12
355.491	66.12
355.718	87.12
355.945	84.12
356.172	81.12
356.399	103.12
356.626	81.12
356.853	86.12
357.08	88.12
357.307	68.12
357.534	85.12
357.761	89.12
357.988	84.12
358.215	81.12
358.441	79.12
358.668	80.12
358.895	78.12
359.122	83.12
359.349	85.12
359.576	86.12
359.802	83.12
360.029	81.12
360.256	87.12
360.483	83.12
360.709	78.12
360.936	97.12
361.163	87.12
361.39	87.12
361.616	96.12
361.843	96.12
362.07	92.12
362.296	95.12
362.523	100.12
362.749	85.12
362.976	89.12
363.203	94.12
363.429	94.12
363.656	103.12
363.882	77.12
364.109	88.12
364.335	93.12
364.562	82.12
364.788	91.12
365.015	99.12
365.241	106.12
365.468	77.12
365.694	97.12
365.92	93.12
366.147	91.12
366.373	96.12
366.599	88.12
366.826	92.12
367.052	89.12
367.278	87.12
367.505	91.12
367.731	97.12
367.957	92.12
368.184	84.12
368.41	80.12
368.636	81.12
368.862	93.12
369.089	89.12
369.315	91.12
369.541	94.12
369.767	93.12
369.993	99.12
370.219	84.12
370.445	80.12
370.672	92.12
370.898	73.12
371.124	71.12
371.35	86.12
371.576	88.12
371.802	79.12
372.028	99.12
372.254	103.12
372.48	107.12
372.706	85.12
372.932	82.12
373.158	88.12
373.384	92.12
373.61	87.12
373.835	80.12
374.061	80.12
374.287	91.12
374.513	78.12
374.739	91.12
374.965	81.12
375.191	77.12
375.416	95.12
375.642	99.12
375.868	95.12
376.094	103.12
376.319	91.12
376.545	76.12
376.771	92.12
376.997	88.12
377.222	87.12
377.448	90.12
377.674	102.12
377.899	89.12
378.125	101.12
378.35	93.12
378.576	94.12
378.802	96.12
379.027	74.12
379.253	90.12
379.478	88.12
379.704	98.12
379.929	78.12
380.155	89.12
380.38	95.12
380.606	94.12
380.831	88.12
381.057	96.12
381.282	86.12
381.507	81.12
381.733	94.12
381.958	90.12
382.184	93.12
382.409	100.12
382.634	91.12
382.86	99.12
383.085	100.12
383.31	91.12
383.535	103.12
383.761	93.12
383.986	89.12
384.211	98.12
384.436	87.12
384.662	97.12
384.887	94.12
385.112	94.12
385.337	94.12
385.562	97.12
385.787	95.12
386.013	97.12
386.238	96.12
386.463	82.12
386.688	88.12
386.913	95.12
387.138	87.12
387.363	79.12
387.588	99.12
387.813	92.12
388.038	101.12
388.263	103.12
388.488	89.12
388.713	81.12
388.938	93.12
389.163	95.12
389.387	98.12
389.612	94.12
389.837	98.12
390.062	96.12
390.287	92.12
390.512	86.12
390.736	88.12
390.961	79.12
391.186	77.12
391.411	85.12
391.636	100.12
391.86	100.12
392.085	95.12
392.31	92.12
392.534	105.12
392.759	93.12
392.984	95.12
393.208	85.12
393.433	88.12
393.658	96.12
393.882	95.12
394.107	88.12
394.331	96.12
394.556	94.12
394.78	99.12
395.005	86.12
395.229	92.12
395.454	90.12
395.678	91.12
395.903	100.12
396.127	96.12
396.352	79.12
396.576	94.12
396.801	97.12
397.025	100.12
397.249	100.12
397.474	96.12
397.698	77.12
397.922	93.12
398.147	95.12
398.371	94.12
398.595	102.12
398.82	86.12
399.044	95.12
399.268	91.12
399.492	85.12
399.717	90.12
399.941	92.12
400.165	91.12
400.389	94.12
400.613	103.12
400.837	82.12
401.062	89.12
401.286	92.12
401.51	102.12
401.734	93.12
401.958	91.12
402.182	72.12
402.406	89.12
402.63	95.12
402.854	86.12
403.078	98.12
403.302	109.12
403.526	90.12
403.75	89.12
403.974	80.12
404.198	92.12
404.422	96.12
404.645	94.12
404.869	95.12
405.093	90.12
405.317	89.12
405.541	89.12
405.765	92.12
405.988	82.12
406.212	95.12
406.436	92.12
406.66	81.12
406.883	92.12
407.107	88.12
407.331	88.12
407.555	103.12
407.778	99.12
408.002	89.12
408.226	89.12
408.449	82.12
408.673	107.12
408.896	84.12
409.12	99.12
409.344	91.12
409.567	101.12
409.791	96.12
410.014	90.12
410.238	102.12
410.461	77.12
410.685	96.12
410.908	91.12
411.132	91.12
411.355	97.12
411.578	82.12
411.802	108.12
412.025	96.12
412.249	98.12
412.472	109.12
412.695	93.12
412.919	96.12
413.142	99.12
413.365	102.12
413.589	93.12
413.812	91.12
414.035	97.12
414.258	89.12
414.482	84.12
414.705	87.12
414.928	95.12
415.151	100.12
415.374	88.12
415.597	104.12
415.821	89.12
416.044	99.12
416.267	96.12
416.49	105.12
416.713	90.12
416.936	89.12
417.159	86.12
417.382	94.12
417.605	98.12
417.828	101.12
418.051	95.12
418.274	100.12
418.497	105.12
418.72	80.12
418.943	98.12
419.166	103.12
419.389	95.12
419.611	103.12
419.834	97.12
420.057	107.12
420.28	88.12
420.503	100.12
420.726	102.12
420.948	88.12
421.171	99.12
421.394	94.12
421.617	91.12
421.839	92.12
422.062	87.12
422.285	91.12
422.507	96.12
422.73	104.12
422.953	107.12
423.175	106.12
423.398	97.12
423.621	98.12
423.843	88.12
424.066	88.12
424.288	95.12
424.511	96.12
424.733	94.12
424.956	112.12
425.178	101.12
425.401	112.12
425.623	103.12
425.846	108.12
426.068	85.12
426.291	95.12
426.513	101.12
426.735	97.12
426.958	94.12
427.18	100.12
427.402	107.12
427.625	109.12
427.847	107.12
428.069	92.12
428.292	80.12
428.514	83.12
428.736	87.12
428.958	103.12
429.181	94.12
429.403	99.12
429.625	86.12
429.847	106.12
430.069	110.12
430.292	90.12
430.514	92.12
430.736	107.12
430.958	105.12
431.18	108.12
431.402	101.12
431.624	92.12
431.846	102.12
432.068	92.12
432.29	99.12
432.512	91.12
432.734	93.12
432.956	92.12
433.178	87.12
433.4	93.12
433.622	106.12
433.844	100.12
434.066	94.12
434.287	81.12
434.509	86.12
434.731	104.12
434.953	84.12
435.175	85.12
435.397	83.12
435.618	98.12
435.84	86.12
436.062	86.12
436.284	93.12
436.505	99.12
436.727	98.12
436.949	95.12
437.17	96.12
437.392	77.12
437.614	99.12
437.835	81.12
438.057	91.12
438.278	93.12
438.5	98.12
438.721	96.12
438.943	94.12
439.165	102.12
439.386	107.12
439.608	107.12
439.829	98.12
440.05	102.12
440.272	105.12
440.493	96.12
440.715	104.12
440.936	108.12
441.158	110.12
441.379	103.12
441.6	102.12
441.822	103.12
442.043	92.12
442.264	113.12
442.486	105.12
442.707	106.12
442.928	97.12
443.149	99.12
443.371	119.12
443.592	96.12
443.813	99.12
444.034	98.12
444.255	102.12
444.476	105.12
444.698	103.12
444.919	100.12
445.14	225.12
445.361	160.12
445.582	125.12
445.803	102.12
446.024	100.12
446.245	116.12
446.466	102.12
446.687	112.12
446.908	103.12
447.129	117.12
447.35	106.12
447.571	102.12
447.792	100.12
448.013	118.12
448.234	108.12
448.455	97.12
448.675	92.12
448.896	91.12
449.117	112.12
449.338	109.12
449.559	102.12
449.779	102.12
450	109.12
450.221	96.12
450.442	91.12
450.662	108.12
450.883	105.12
451.104	92.12
451.324	107.12
451.545	99.12
451.766	103.12
451.986	88.12
452.207	81.12
452.428	111.12
452.648	88.12
452.869	98.12
453.089	88.12
453.31	84.12
453.53	77.12
453.751	95.12
453.971	103.12
454.192	78.12
454.412	94.12
454.633	89.12
454.853	94.12
455.073	88.12
455.294	92.12
455.514	99.12
455.734	103.12
455.955	96.12
456.175	78.12
456.395	89.12
456.616	92.12
456.836	95.12
457.056	94.12
457.276	92.12
457.497	77.12
457.717	97.12
457.937	95.12
458.157	99.12
458.377	107.12
458.598	75.12
458.818	96.12
459.038	85.12
459.258	92.12
459.478	77.12
459.698	85.12
459.918	94.12
460.138	100.12
460.358	102.12
460.578	103.12
460.798	86.12
461.018	93.12
461.238	102.12
461.458	93.12
461.678	92.12
461.898	102.12
462.118	93.12
462.338	96.12
462.558	103.12
462.777	99.12
462.997	104.12
463.217	107.12
463.437	85.12
463.657	81.12
463.876	119.12
464.096	91.12
464.316	95.12
464.536	89.12
464.755	101.12
464.975	96.12
465.195	85.12
465.414	94.12
465.634	92.12
465.854	99.12
466.073	95.12
466.293	90.12
466.512	102.12
466.732	106.12
466.951	79.12
467.171	105.12
467.391	95.12
467.61	100.12
467.829	97.12
468.049	104.12
468.268	110.12
468.488	97.12
468.707	87.12
468.927	93.12
469.146	98.12
469.365	95.12
469.585	101.12
469.804	102.12
470.023	110.12
470.243	103.12
470.462	101.12
470.681	98.12
470.901	102.12
471.12	99.12
471.339	94.12
471.558	92.12
471.777	89.12
471.997	98.12
472.216	102.12
472.435	90.12
472.654	94.12
472.873	96.12
473.092	102.12
473.311	88.12
473.53	97.12
473.749	93.12
473.968	102.12
474.187	93.12
474.406	99.12
474.625	105.12
474.844	115.12
475.063	98.12
475.282	95.12
475.501	87.12
475.72	87.12
475.939	98.12
476.158	104.12
476.377	116.12
476.596	93.12
476.814	94.12
477.033	100.12
477.252	85.12
477.471	94.12
477.69	105.12
477.908	87.12
478.127	105.12
478.346	89.12
478.564	112.12
478.783	94.12
479.002	108.12
479.22	106.12
479.439	100.12
479.658	99.12
479.876	89.12
480.095	110.12
480.313	87.12
480.532	88.12
480.751	77.12
480.969	91.12
481.188	96.12
481.406	90.12
481.624	72.12
481.843	99.12
482.061	83.12
482.28	87.12
482.498	86.12
482.717	94.12
482.935	85.12
483.153	98.12
483.372	101.12
483.59	93.12
483.808	115.12
484.027	108.12
484.245	99.12
484.463	104.12
484.681	116.12
484.9	109.12
485.118	96.12
485.336	92.12
485.554	104.12
485.772	91.12
485.99	85.12
486.209	90.12
486.427	104.12
486.645	113.12
486.863	100.12
487.081	89.12
487.299	97.12
487.517	96.12
487.735	104.12
487.953	115.12
488.171	112.12
488.389	104.12
488.607	112.12
488.825	116.12
489.043	96.12
489.261	107.12
489.479	90.12
489.696	97.12
489.914	107.12
490.132	113.12
490.35	106.12
490.568	118.12
490.786	105.12
491.003	109.12
491.221	119.12
491.439	131.12
491.657	125.12
491.874	127.12
492.092	124.12
492.31	108.12
492.527	135.12
492.745	133.12
492.963	128.12
493.18	126.12
493.398	135.12
493.615	105.12
493.833	121.12
494.05	110.12
494.268	107.12
494.485	103.12
494.703	126.12
494.92	114.12
495.138	108.12
495.355	97.12
495.573	107.12
495.79	126.12
496.008	121.12
496.225	104.12
496.442	109.12
496.66	115.12
496.877	117.12
497.094	123.12
497.312	108.12
497.529	88.12
497.746	108.12
497.963	99.12
498.181	106.12
498.398	80.12
498.615	96.12
498.832	91.12
499.049	110.12
499.267	87.12
499.484	92.12
499.701	90.12
499.918	100.12
500.135	103.12
500.352	87.12
500.569	99.12
500.786	99.12
501.003	112.12
501.22	117.12
501.437	107.12
501.654	95.12
501.871	113.12
502.088	94.12
502.305	94.12
502.522	91.12
502.739	101.12
502.956	105.12
503.172	95.12
503.389	94.12
503.606	93.12
503.823	91.12
504.04	107.12
504.256	88.12
504.473	96.12
504.69	105.12
504.907	103.12
505.123	89.12
505.34	98.12
505.557	107.12
505.773	98.12
505.99	85.12
506.207	76.12
506.423	101.12
506.64	104.12
506.856	95.12
507.073	103.12
507.289	81.12
507.506	86.12
507.722	90.12
507.939	97.12
508.155	112.12
508.372	86.12
508.588	98.12
508.805	106.12
509.021	94.12
509.238	81.12
509.454	82.12
509.67	79.12
509.887	80.12
510.103	96.12
510.319	105.12
510.536	86.12
510.752	85.12
510.968	87.12
511.184	89.12
511.401	89.12
511.617	92.12
511.833	97.12
512.049	87.12
512.265	92.12
512.481	89.12
512.698	94.12
512.914	93.12
513.13	91.12
513.346	96.12
513.562	93.12
513.778	84.12
513.994	90.12
514.21	79.12
514.426	89.12
514.642	84.12
514.858	94.12
515.074	87.12
515.29	96.12
515.506	99.12
515.721	100.12
515.937	89.12
516.153	95.12
