Data from Location4.07152019.Energy5.Lamp.07192019.3%Agarose_HRD10591_15-24-30-576.txt Node
Date: Fri Jul 19 15:24:30 EDT 2019
User: cochatt
Spectrometer: HR+D1059
Trigger mode: 1
Integration Time (sec): 1.000000E-1
Scans to average: 1
Electric dark correction enabled: true
Nonlinearity correction enabled: false
Boxcar width: 0
XAxis mode: Wavelengths
Number of Pixels in Spectrum: 2048
>>>>>Begin Spectral Data<<<<<
223.165	-20.56
223.4	-20.56
223.635	-20.56
223.869	-8.56
224.104	-20.56
224.338	-20.56
224.573	-13.56
224.808	-19.56
225.042	-5.56
225.277	1.44
225.511	-0.56
225.746	10.44
225.98	4.44
226.215	6.44
226.449	13.44
226.683	14.44
226.918	16.44
227.152	42.44
227.387	39.44
227.621	43.44
227.856	59.44
228.09	49.44
228.324	56.44
228.559	56.44
228.793	56.44
229.027	65.44
229.262	61.44
229.496	64.44
229.73	87.44
229.964	71.44
230.199	76.44
230.433	73.44
230.667	74.44
230.901	73.44
231.136	69.44
231.37	81.44
231.604	64.44
231.838	74.44
232.072	90.44
232.306	71.44
232.541	83.44
232.775	83.44
233.009	79.44
233.243	74.44
233.477	71.44
233.711	77.44
233.945	77.44
234.179	74.44
234.413	74.44
234.647	78.44
234.881	82.44
235.115	94.44
235.349	90.44
235.583	66.44
235.817	82.44
236.051	87.44
236.285	73.44
236.519	73.44
236.753	85.44
236.987	72.44
237.221	63.44
237.455	74.44
237.689	89.44
237.922	62.44
238.156	68.44
238.39	68.44
238.624	68.44
238.858	75.44
239.091	68.44
239.325	76.44
239.559	73.44
239.793	73.44
240.027	73.44
240.26	77.44
240.494	75.44
240.728	77.44
240.961	77.44
241.195	83.44
241.429	83.44
241.662	74.44
241.896	79.44
242.13	65.44
242.363	84.44
242.597	80.44
242.83	70.44
243.064	77.44
243.298	84.44
243.531	87.44
243.765	81.44
243.998	84.44
244.232	80.44
244.465	77.44
244.699	83.44
244.932	73.44
245.166	69.44
245.399	84.44
245.633	72.44
245.866	84.44
246.099	84.44
246.333	74.44
246.566	82.44
246.8	79.44
247.033	71.44
247.266	84.44
247.5	77.44
247.733	67.44
247.966	84.44
248.2	89.44
248.433	89.44
248.666	91.44
248.899	74.44
249.133	75.44
249.366	78.44
249.599	77.44
249.832	80.44
250.066	88.44
250.299	77.44
250.532	70.44
250.765	82.44
250.998	79.44
251.231	100.44
251.465	84.44
251.698	89.44
251.931	79.44
252.164	80.44
252.397	75.44
252.63	85.44
252.863	73.44
253.096	83.44
253.329	77.44
253.562	72.44
253.795	88.44
254.028	90.44
254.261	83.44
254.494	67.44
254.727	75.44
254.96	74.44
255.193	76.44
255.426	73.44
255.659	78.44
255.892	74.44
256.124	84.44
256.357	97.44
256.59	72.44
256.823	86.44
257.056	76.44
257.289	72.44
257.521	73.44
257.754	77.44
257.987	95.44
258.22	87.44
258.452	92.44
258.685	88.44
258.918	86.44
259.151	83.44
259.383	91.44
259.616	76.44
259.849	78.44
260.081	84.44
260.314	89.44
260.547	92.44
260.779	73.44
261.012	74.44
261.244	75.44
261.477	82.44
261.71	80.44
261.942	78.44
262.175	93.44
262.407	91.44
262.64	65.44
262.872	86.44
263.105	77.44
263.337	70.44
263.57	76.44
263.802	77.44
264.035	95.44
264.267	59.44
264.499	65.44
264.732	106.44
264.964	95.44
265.197	83.44
265.429	89.44
265.661	75.44
265.894	92.44
266.126	73.44
266.358	78.44
266.591	78.44
266.823	71.44
267.055	67.44
267.287	81.44
267.52	85.44
267.752	87.44
267.984	94.44
268.216	87.44
268.448	113.44
268.681	89.44
268.913	87.44
269.145	83.44
269.377	90.44
269.609	87.44
269.841	91.44
270.073	77.44
270.306	87.44
270.538	71.44
270.77	80.44
271.002	76.44
271.234	88.44
271.466	94.44
271.698	85.44
271.93	105.44
272.162	88.44
272.394	85.44
272.626	92.44
272.858	68.44
273.09	72.44
273.322	96.44
273.553	78.44
273.785	79.44
274.017	83.44
274.249	76.44
274.481	84.44
274.713	96.44
274.945	87.44
275.176	86.44
275.408	88.44
275.64	91.44
275.872	88.44
276.104	92.44
276.335	93.44
276.567	85.44
276.799	71.44
277.031	76.44
277.262	80.44
277.494	80.44
277.726	93.44
277.957	77.44
278.189	89.44
278.421	79.44
278.652	74.44
278.884	91.44
279.115	71.44
279.347	74.44
279.579	82.44
279.81	81.44
280.042	84.44
280.273	80.44
280.505	88.44
280.736	89.44
280.968	71.44
281.199	93.44
281.431	89.44
281.662	87.44
281.894	89.44
282.125	85.44
282.356	74.44
282.588	72.44
282.819	74.44
283.051	74.44
283.282	71.44
283.513	86.44
283.745	90.44
283.976	88.44
284.207	84.44
284.439	91.44
284.67	87.44
284.901	95.44
285.132	77.44
285.364	82.44
285.595	76.44
285.826	83.44
286.057	83.44
286.288	84.44
286.52	68.44
286.751	96.44
286.982	82.44
287.213	77.44
287.444	90.44
287.675	78.44
287.906	102.44
288.138	76.44
288.369	80.44
288.6	81.44
288.831	86.44
289.062	76.44
289.293	86.44
289.524	81.44
289.755	74.44
289.986	93.44
290.217	79.44
290.448	75.44
290.679	89.44
290.91	86.44
291.141	77.44
291.371	82.44
291.602	83.44
291.833	98.44
292.064	90.44
292.295	90.44
292.526	79.44
292.757	81.44
292.987	78.44
293.218	88.44
293.449	87.44
293.68	87.44
293.91	83.44
294.141	92.44
294.372	95.44
294.603	83.44
294.833	86.44
295.064	84.44
295.295	90.44
295.525	95.44
295.756	81.44
295.987	67.44
296.217	80.44
296.448	92.44
296.679	88.44
296.909	77.44
297.14	90.44
297.37	84.44
297.601	84.44
297.831	86.44
298.062	86.44
298.292	83.44
298.523	83.44
298.753	83.44
298.984	84.44
299.214	87.44
299.445	88.44
299.675	76.44
299.905	81.44
300.136	80.44
300.366	79.44
300.597	110.44
300.827	84.44
301.057	83.44
301.288	71.44
301.518	91.44
301.748	90.44
301.979	101.44
302.209	88.44
302.439	76.44
302.669	94.44
302.9	80.44
303.13	88.44
303.36	97.44
303.59	76.44
303.82	91.44
304.051	81.44
304.281	83.44
304.511	95.44
304.741	89.44
304.971	68.44
305.201	84.44
305.431	88.44
305.661	78.44
305.891	78.44
306.121	84.44
306.352	89.44
306.582	88.44
306.812	83.44
307.042	76.44
307.272	89.44
307.502	83.44
307.731	89.44
307.961	90.44
308.191	69.44
308.421	95.44
308.651	75.44
308.881	84.44
309.111	89.44
309.341	83.44
309.571	83.44
309.8	84.44
310.03	95.44
310.26	82.44
310.49	91.44
310.72	82.44
310.949	81.44
311.179	78.44
311.409	75.44
311.639	83.44
311.868	82.44
312.098	80.44
312.328	101.44
312.557	90.44
312.787	83.44
313.017	98.44
313.246	89.44
313.476	79.44
313.706	76.44
313.935	90.44
314.165	93.44
314.394	92.44
314.624	91.44
314.853	87.44
315.083	95.44
315.312	87.44
315.542	84.44
315.771	85.44
316.001	84.44
316.23	82.44
316.46	90.44
316.689	88.44
316.919	84.44
317.148	86.44
317.377	98.44
317.607	92.44
317.836	94.44
318.065	81.44
318.295	86.44
318.524	86.44
318.753	76.44
318.983	90.44
319.212	80.44
319.441	93.44
319.67	83.44
319.9	92.44
320.129	88.44
320.358	83.44
320.587	86.44
320.816	72.44
321.046	91.44
321.275	86.44
321.504	91.44
321.733	88.44
321.962	91.44
322.191	80.44
322.42	96.44
322.649	97.44
322.878	74.44
323.108	99.44
323.337	84.44
323.566	76.44
323.795	82.44
324.024	93.44
324.253	70.44
324.482	83.44
324.71	75.44
324.939	99.44
325.168	101.44
325.397	88.44
325.626	72.44
325.855	88.44
326.084	84.44
326.313	85.44
326.542	83.44
326.77	81.44
326.999	103.44
327.228	73.44
327.457	84.44
327.686	82.44
327.914	91.44
328.143	81.44
328.372	81.44
328.6	80.44
328.829	82.44
329.058	87.44
329.287	72.44
329.515	86.44
329.744	95.44
329.972	79.44
330.201	71.44
330.43	90.44
330.658	88.44
330.887	86.44
331.115	100.44
331.344	91.44
331.572	91.44
331.801	76.44
332.03	92.44
332.258	86.44
332.486	96.44
332.715	90.44
332.943	92.44
333.172	78.44
333.4	94.44
333.629	82.44
333.857	84.44
334.085	89.44
334.314	84.44
334.542	85.44
334.771	85.44
334.999	69.44
335.227	80.44
335.455	81.44
335.684	90.44
335.912	87.44
336.14	80.44
336.369	76.44
336.597	72.44
336.825	80.44
337.053	67.44
337.281	84.44
337.51	81.44
337.738	77.44
337.966	87.44
338.194	87.44
338.422	87.44
338.65	71.44
338.878	89.44
339.106	86.44
339.334	87.44
339.562	93.44
339.79	82.44
340.018	86.44
340.246	82.44
340.474	89.44
340.702	98.44
340.93	82.44
341.158	85.44
341.386	77.44
341.614	90.44
341.842	84.44
342.07	92.44
342.298	83.44
342.526	88.44
342.754	90.44
342.981	97.44
343.209	87.44
343.437	85.44
343.665	89.44
343.893	67.44
344.12	83.44
344.348	76.44
344.576	76.44
344.804	88.44
345.031	92.44
345.259	84.44
345.487	83.44
345.714	86.44
345.942	81.44
346.17	85.44
346.397	90.44
346.625	71.44
346.853	88.44
347.08	80.44
347.308	72.44
347.535	82.44
347.763	93.44
347.99	87.44
348.218	96.44
348.445	93.44
348.673	91.44
348.9	83.44
349.128	90.44
349.355	80.44
349.583	79.44
349.81	79.44
350.037	75.44
350.265	81.44
350.492	73.44
350.72	74.44
350.947	80.44
351.174	76.44
351.402	76.44
351.629	78.44
351.856	84.44
352.083	95.44
352.311	84.44
352.538	83.44
352.765	84.44
352.992	75.44
353.22	84.44
353.447	89.44
353.674	91.44
353.901	82.44
354.128	82.44
354.355	90.44
354.583	76.44
354.81	77.44
355.037	81.44
355.264	91.44
355.491	94.44
355.718	97.44
355.945	80.44
356.172	90.44
356.399	88.44
356.626	86.44
356.853	88.44
357.08	83.44
357.307	88.44
357.534	87.44
357.761	77.44
357.988	74.44
358.215	85.44
358.441	95.44
358.668	82.44
358.895	85.44
359.122	78.44
359.349	95.44
359.576	77.44
359.802	92.44
360.029	91.44
360.256	84.44
360.483	79.44
360.709	90.44
360.936	98.44
361.163	71.44
361.39	87.44
361.616	86.44
361.843	84.44
362.07	81.44
362.296	82.44
362.523	90.44
362.749	79.44
362.976	90.44
363.203	84.44
363.429	95.44
363.656	76.44
363.882	98.44
364.109	92.44
364.335	73.44
364.562	82.44
364.788	82.44
365.015	74.44
365.241	83.44
365.468	88.44
365.694	76.44
365.92	89.44
366.147	86.44
366.373	92.44
366.599	73.44
366.826	90.44
367.052	83.44
367.278	88.44
367.505	90.44
367.731	82.44
367.957	85.44
368.184	78.44
368.41	70.44
368.636	82.44
368.862	86.44
369.089	84.44
369.315	87.44
369.541	97.44
369.767	92.44
369.993	67.44
370.219	78.44
370.445	77.44
370.672	104.44
370.898	83.44
371.124	93.44
371.35	99.44
371.576	76.44
371.802	74.44
372.028	76.44
372.254	90.44
372.48	74.44
372.706	78.44
372.932	74.44
373.158	92.44
373.384	92.44
373.61	93.44
373.835	71.44
374.061	75.44
374.287	86.44
374.513	76.44
374.739	83.44
374.965	91.44
375.191	98.44
375.416	72.44
375.642	95.44
375.868	77.44
376.094	85.44
376.319	77.44
376.545	84.44
376.771	88.44
376.997	83.44
377.222	87.44
377.448	90.44
377.674	79.44
377.899	81.44
378.125	86.44
378.35	82.44
378.576	82.44
378.802	92.44
379.027	84.44
379.253	81.44
379.478	92.44
379.704	87.44
379.929	66.44
380.155	76.44
380.38	87.44
380.606	81.44
380.831	89.44
381.057	102.44
381.282	91.44
381.507	88.44
381.733	92.44
381.958	93.44
382.184	90.44
382.409	82.44
382.634	84.44
382.86	102.44
383.085	87.44
383.31	82.44
383.535	76.44
383.761	77.44
383.986	90.44
384.211	75.44
384.436	105.44
384.662	75.44
384.887	80.44
385.112	90.44
385.337	74.44
385.562	77.44
385.787	80.44
386.013	94.44
386.238	83.44
386.463	92.44
386.688	106.44
386.913	95.44
387.138	104.44
387.363	90.44
387.588	90.44
387.813	96.44
388.038	88.44
388.263	90.44
388.488	75.44
388.713	98.44
388.938	96.44
389.163	89.44
389.387	85.44
389.612	75.44
389.837	79.44
390.062	78.44
390.287	92.44
390.512	90.44
390.736	87.44
390.961	89.44
391.186	89.44
391.411	84.44
391.636	86.44
391.86	91.44
392.085	91.44
392.31	83.44
392.534	79.44
392.759	94.44
392.984	83.44
393.208	96.44
393.433	104.44
393.658	86.44
393.882	97.44
394.107	96.44
394.331	87.44
394.556	83.44
394.78	87.44
395.005	79.44
395.229	91.44
395.454	87.44
395.678	92.44
395.903	91.44
396.127	105.44
396.352	90.44
396.576	85.44
396.801	83.44
397.025	83.44
397.249	88.44
397.474	95.44
397.698	103.44
397.922	91.44
398.147	71.44
398.371	102.44
398.595	96.44
398.82	81.44
399.044	81.44
399.268	82.44
399.492	80.44
399.717	77.44
399.941	83.44
400.165	87.44
400.389	91.44
400.613	77.44
400.837	97.44
401.062	87.44
401.286	83.44
401.51	95.44
401.734	78.44
401.958	83.44
402.182	95.44
402.406	93.44
402.63	97.44
402.854	89.44
403.078	79.44
403.302	77.44
403.526	93.44
403.75	99.44
403.974	88.44
404.198	81.44
404.422	99.44
404.645	88.44
404.869	99.44
405.093	79.44
405.317	82.44
405.541	98.44
405.765	78.44
405.988	84.44
406.212	89.44
406.436	90.44
406.66	88.44
406.883	96.44
407.107	100.44
407.331	99.44
407.555	98.44
407.778	96.44
408.002	93.44
408.226	92.44
408.449	85.44
408.673	97.44
408.896	77.44
409.12	85.44
409.344	77.44
409.567	84.44
409.791	87.44
410.014	95.44
410.238	97.44
410.461	94.44
410.685	82.44
410.908	102.44
411.132	92.44
411.355	95.44
411.578	83.44
411.802	90.44
412.025	93.44
412.249	84.44
412.472	92.44
412.695	86.44
412.919	95.44
413.142	78.44
413.365	97.44
413.589	93.44
413.812	100.44
414.035	92.44
414.258	85.44
414.482	90.44
414.705	94.44
414.928	93.44
415.151	98.44
415.374	85.44
415.597	80.44
415.821	80.44
416.044	84.44
416.267	94.44
416.49	96.44
416.713	101.44
416.936	94.44
417.159	92.44
417.382	94.44
417.605	99.44
417.828	88.44
418.051	85.44
418.274	104.44
418.497	99.44
418.72	95.44
418.943	112.44
419.166	84.44
419.389	94.44
419.611	83.44
419.834	81.44
420.057	91.44
420.28	104.44
420.503	99.44
420.726	106.44
420.948	103.44
421.171	82.44
421.394	86.44
421.617	100.44
421.839	104.44
422.062	86.44
422.285	99.44
422.507	87.44
422.73	85.44
422.953	100.44
423.175	97.44
423.398	73.44
423.621	96.44
423.843	88.44
424.066	90.44
424.288	106.44
424.511	96.44
424.733	97.44
424.956	88.44
425.178	104.44
425.401	81.44
425.623	104.44
425.846	103.44
426.068	81.44
426.291	111.44
426.513	93.44
426.735	93.44
426.958	100.44
427.18	91.44
427.402	92.44
427.625	102.44
427.847	90.44
428.069	95.44
428.292	107.44
428.514	91.44
428.736	87.44
428.958	93.44
429.181	99.44
429.403	100.44
429.625	95.44
429.847	91.44
430.069	85.44
430.292	103.44
430.514	86.44
430.736	102.44
430.958	99.44
431.18	84.44
431.402	94.44
431.624	95.44
431.846	91.44
432.068	94.44
432.29	76.44
432.512	85.44
432.734	88.44
432.956	88.44
433.178	104.44
433.4	98.44
433.622	93.44
433.844	106.44
434.066	89.44
434.287	83.44
434.509	70.44
434.731	89.44
434.953	92.44
435.175	88.44
435.397	83.44
435.618	86.44
435.84	73.44
436.062	83.44
436.284	70.44
436.505	98.44
436.727	107.44
436.949	96.44
437.17	95.44
437.392	101.44
437.614	94.44
437.835	89.44
438.057	96.44
438.278	90.44
438.5	98.44
438.721	87.44
438.943	94.44
439.165	105.44
439.386	100.44
439.608	97.44
439.829	95.44
440.05	94.44
440.272	101.44
440.493	93.44
440.715	98.44
440.936	97.44
441.158	85.44
441.379	98.44
441.6	101.44
441.822	104.44
442.043	95.44
442.264	94.44
442.486	100.44
442.707	96.44
442.928	107.44
443.149	84.44
443.371	104.44
443.592	85.44
443.813	95.44
444.034	103.44
444.255	114.44
444.476	96.44
444.698	102.44
444.919	88.44
445.14	225.44
445.361	163.44
445.582	103.44
445.803	99.44
446.024	102.44
446.245	100.44
446.466	106.44
446.687	94.44
446.908	96.44
447.129	102.44
447.35	100.44
447.571	88.44
447.792	87.44
448.013	93.44
448.234	103.44
448.455	103.44
448.675	99.44
448.896	88.44
449.117	98.44
449.338	102.44
449.559	104.44
449.779	100.44
450	104.44
450.221	100.44
450.442	92.44
450.662	99.44
450.883	101.44
451.104	95.44
451.324	80.44
451.545	88.44
451.766	90.44
451.986	107.44
452.207	102.44
452.428	100.44
452.648	107.44
452.869	77.44
453.089	90.44
453.31	82.44
453.53	93.44
453.751	84.44
453.971	89.44
454.192	87.44
454.412	81.44
454.633	82.44
454.853	93.44
455.073	95.44
455.294	87.44
455.514	88.44
455.734	92.44
455.955	91.44
456.175	87.44
456.395	90.44
456.616	79.44
456.836	84.44
457.056	100.44
457.276	94.44
457.497	92.44
457.717	82.44
457.937	95.44
458.157	98.44
458.377	90.44
458.598	91.44
458.818	81.44
459.038	86.44
459.258	81.44
459.478	67.44
459.698	83.44
459.918	88.44
460.138	84.44
460.358	92.44
460.578	88.44
460.798	84.44
461.018	79.44
461.238	81.44
461.458	91.44
461.678	108.44
461.898	110.44
462.118	87.44
462.338	97.44
462.558	81.44
462.777	91.44
462.997	88.44
463.217	97.44
463.437	81.44
463.657	86.44
463.876	75.44
464.096	86.44
464.316	97.44
464.536	91.44
464.755	104.44
464.975	95.44
465.195	89.44
465.414	85.44
465.634	85.44
465.854	88.44
466.073	93.44
466.293	98.44
466.512	92.44
466.732	89.44
466.951	104.44
467.171	85.44
467.391	102.44
467.61	97.44
467.829	94.44
468.049	112.44
468.268	93.44
468.488	98.44
468.707	103.44
468.927	90.44
469.146	109.44
469.365	109.44
469.585	93.44
469.804	97.44
470.023	95.44
470.243	104.44
470.462	103.44
470.681	87.44
470.901	89.44
471.12	93.44
471.339	99.44
471.558	85.44
471.777	88.44
471.997	97.44
472.216	96.44
472.435	87.44
472.654	98.44
472.873	86.44
473.092	93.44
473.311	92.44
473.53	103.44
473.749	95.44
473.968	95.44
474.187	103.44
474.406	95.44
474.625	96.44
474.844	93.44
475.063	106.44
475.282	93.44
475.501	88.44
475.72	75.44
475.939	91.44
476.158	100.44
476.377	102.44
476.596	88.44
476.814	97.44
477.033	94.44
477.252	102.44
477.471	92.44
477.69	92.44
477.908	96.44
478.127	91.44
478.346	109.44
478.564	97.44
478.783	91.44
479.002	106.44
479.22	88.44
479.439	92.44
479.658	101.44
479.876	87.44
480.095	87.44
480.313	90.44
480.532	91.44
480.751	97.44
480.969	85.44
481.188	86.44
481.406	81.44
481.624	99.44
481.843	92.44
482.061	84.44
482.28	91.44
482.498	92.44
482.717	97.44
482.935	82.44
483.153	110.44
483.372	108.44
483.59	89.44
483.808	89.44
484.027	86.44
484.245	93.44
484.463	110.44
484.681	99.44
484.9	95.44
485.118	105.44
485.336	98.44
485.554	97.44
485.772	93.44
485.99	90.44
486.209	74.44
486.427	91.44
486.645	80.44
486.863	98.44
487.081	92.44
487.299	89.44
487.517	108.44
487.735	109.44
487.953	102.44
488.171	119.44
488.389	105.44
488.607	109.44
488.825	90.44
489.043	90.44
489.261	102.44
489.479	86.44
489.696	94.44
489.914	95.44
490.132	99.44
490.35	93.44
490.568	106.44
490.786	108.44
491.003	104.44
491.221	103.44
491.439	114.44
491.657	119.44
491.874	115.44
492.092	112.44
492.31	129.44
492.527	127.44
492.745	125.44
492.963	113.44
493.18	107.44
493.398	113.44
493.615	105.44
493.833	121.44
494.05	113.44
494.268	105.44
494.485	113.44
494.703	102.44
494.92	112.44
495.138	113.44
495.355	104.44
495.573	114.44
495.79	103.44
496.008	103.44
496.225	109.44
496.442	104.44
496.66	115.44
496.877	110.44
497.094	105.44
497.312	101.44
497.529	107.44
497.746	115.44
497.963	91.44
498.181	96.44
498.398	100.44
498.615	93.44
498.832	85.44
499.049	77.44
499.267	108.44
499.484	100.44
499.701	111.44
499.918	108.44
500.135	99.44
500.352	82.44
500.569	95.44
500.786	117.44
501.003	106.44
501.22	97.44
501.437	92.44
501.654	94.44
501.871	94.44
502.088	84.44
502.305	101.44
502.522	101.44
502.739	92.44
502.956	99.44
503.172	89.44
503.389	92.44
503.606	82.44
503.823	96.44
504.04	95.44
504.256	88.44
504.473	81.44
504.69	85.44
504.907	102.44
505.123	104.44
505.34	96.44
505.557	97.44
505.773	92.44
505.99	91.44
506.207	89.44
506.423	104.44
506.64	94.44
506.856	92.44
507.073	82.44
507.289	101.44
507.506	89.44
507.722	99.44
507.939	97.44
508.155	101.44
508.372	85.44
508.588	81.44
508.805	92.44
509.021	101.44
509.238	77.44
509.454	88.44
509.67	100.44
509.887	100.44
510.103	99.44
510.319	77.44
510.536	84.44
510.752	91.44
510.968	91.44
511.184	82.44
511.401	98.44
511.617	91.44
511.833	91.44
512.049	89.44
512.265	94.44
512.481	91.44
512.698	99.44
512.914	82.44
513.13	91.44
513.346	85.44
513.562	87.44
513.778	81.44
513.994	70.44
514.21	81.44
514.426	97.44
514.642	91.44
514.858	83.44
515.074	88.44
515.29	87.44
515.506	79.44
515.721	89.44
515.937	92.44
516.153	92.44
516.369	71.44
516.585	81.44
516.801	80.44
517.016	87.44
517.232	84.44
