Data from Location4.07152019.Energy5.Lamp.07192019.3%Agarose_HRD10591_15-26-05-578.txt Node
Date: Fri Jul 19 15:26:05 EDT 2019
User: cochatt
Spectrometer: HR+D1059
Trigger mode: 1
Integration Time (sec): 1.000000E-1
Scans to average: 1
Electric dark correction enabled: true
Nonlinearity correction enabled: false
Boxcar width: 0
XAxis mode: Wavelengths
Number of Pixels in Spectrum: 2048
>>>>>Begin Spectral Data<<<<<
223.165	-17.88
223.4	-17.88
223.635	-17.88
223.869	-16.88
224.104	-28.88
224.338	-26.88
224.573	-12.88
224.808	1.12
225.042	-8.88
225.277	-0.88
225.511	0.12
225.746	0.12
225.98	12.12
226.215	12.12
226.449	6.12
226.683	17.12
226.918	35.12
227.152	29.12
227.387	31.12
227.621	27.12
227.856	45.12
228.09	59.12
228.324	54.12
228.559	57.12
228.793	67.12
229.027	69.12
229.262	54.12
229.496	62.12
229.73	66.12
229.964	84.12
230.199	69.12
230.433	81.12
230.667	74.12
230.901	78.12
231.136	80.12
231.37	83.12
231.604	78.12
231.838	91.12
232.072	69.12
232.306	89.12
232.541	86.12
232.775	84.12
233.009	91.12
233.243	71.12
233.477	88.12
233.711	70.12
233.945	83.12
234.179	84.12
234.413	81.12
234.647	77.12
234.881	69.12
235.115	76.12
235.349	70.12
235.583	80.12
235.817	66.12
236.051	90.12
236.285	79.12
236.519	80.12
236.753	79.12
236.987	84.12
237.221	69.12
237.455	75.12
237.689	85.12
237.922	80.12
238.156	79.12
238.39	82.12
238.624	83.12
238.858	79.12
239.091	80.12
239.325	84.12
239.559	86.12
239.793	85.12
240.027	90.12
240.26	77.12
240.494	68.12
240.728	78.12
240.961	76.12
241.195	78.12
241.429	70.12
241.662	58.12
241.896	74.12
242.13	63.12
242.363	78.12
242.597	85.12
242.83	75.12
243.064	79.12
243.298	79.12
243.531	81.12
243.765	55.12
243.998	87.12
244.232	78.12
244.465	70.12
244.699	79.12
244.932	83.12
245.166	82.12
245.399	79.12
245.633	78.12
245.866	78.12
246.099	62.12
246.333	79.12
246.566	88.12
246.8	73.12
247.033	74.12
247.266	79.12
247.5	71.12
247.733	81.12
247.966	90.12
248.2	89.12
248.433	64.12
248.666	71.12
248.899	73.12
249.133	67.12
249.366	95.12
249.599	77.12
249.832	88.12
250.066	69.12
250.299	75.12
250.532	83.12
250.765	77.12
250.998	84.12
251.231	81.12
251.465	79.12
251.698	85.12
251.931	79.12
252.164	73.12
252.397	67.12
252.63	90.12
252.863	87.12
253.096	73.12
253.329	92.12
253.562	75.12
253.795	83.12
254.028	80.12
254.261	66.12
254.494	73.12
254.727	86.12
254.96	74.12
255.193	82.12
255.426	67.12
255.659	92.12
255.892	73.12
256.124	89.12
256.357	81.12
256.59	84.12
256.823	83.12
257.056	79.12
257.289	94.12
257.521	86.12
257.754	75.12
257.987	70.12
258.22	79.12
258.452	79.12
258.685	75.12
258.918	88.12
259.151	73.12
259.383	82.12
259.616	79.12
259.849	77.12
260.081	88.12
260.314	78.12
260.547	100.12
260.779	74.12
261.012	81.12
261.244	77.12
261.477	64.12
261.71	80.12
261.942	94.12
262.175	92.12
262.407	96.12
262.64	85.12
262.872	86.12
263.105	89.12
263.337	82.12
263.57	87.12
263.802	72.12
264.035	93.12
264.267	87.12
264.499	81.12
264.732	79.12
264.964	85.12
265.197	70.12
265.429	100.12
265.661	70.12
265.894	72.12
266.126	83.12
266.358	84.12
266.591	86.12
266.823	78.12
267.055	83.12
267.287	82.12
267.52	81.12
267.752	79.12
267.984	80.12
268.216	83.12
268.448	71.12
268.681	70.12
268.913	77.12
269.145	76.12
269.377	92.12
269.609	86.12
269.841	90.12
270.073	90.12
270.306	95.12
270.538	100.12
270.77	86.12
271.002	99.12
271.234	89.12
271.466	82.12
271.698	83.12
271.93	82.12
272.162	93.12
272.394	73.12
272.626	76.12
272.858	78.12
273.09	83.12
273.322	89.12
273.553	91.12
273.785	70.12
274.017	83.12
274.249	87.12
274.481	77.12
274.713	88.12
274.945	95.12
275.176	88.12
275.408	94.12
275.64	89.12
275.872	73.12
276.104	84.12
276.335	75.12
276.567	85.12
276.799	91.12
277.031	92.12
277.262	84.12
277.494	87.12
277.726	88.12
277.957	70.12
278.189	79.12
278.421	88.12
278.652	67.12
278.884	87.12
279.115	84.12
279.347	90.12
279.579	89.12
279.81	70.12
280.042	82.12
280.273	99.12
280.505	61.12
280.736	78.12
280.968	75.12
281.199	100.12
281.431	95.12
281.662	89.12
281.894	91.12
282.125	94.12
282.356	90.12
282.588	86.12
282.819	78.12
283.051	79.12
283.282	88.12
283.513	73.12
283.745	85.12
283.976	91.12
284.207	86.12
284.439	75.12
284.67	83.12
284.901	76.12
285.132	92.12
285.364	94.12
285.595	97.12
285.826	93.12
286.057	105.12
286.288	85.12
286.52	87.12
286.751	86.12
286.982	88.12
287.213	76.12
287.444	91.12
287.675	87.12
287.906	93.12
288.138	92.12
288.369	89.12
288.6	78.12
288.831	79.12
289.062	89.12
289.293	88.12
289.524	79.12
289.755	83.12
289.986	83.12
290.217	83.12
290.448	86.12
290.679	92.12
290.91	94.12
291.141	78.12
291.371	97.12
291.602	92.12
291.833	90.12
292.064	87.12
292.295	87.12
292.526	80.12
292.757	86.12
292.987	98.12
293.218	85.12
293.449	69.12
293.68	86.12
293.91	86.12
294.141	77.12
294.372	78.12
294.603	98.12
294.833	101.12
295.064	105.12
295.295	81.12
295.525	89.12
295.756	78.12
295.987	87.12
296.217	80.12
296.448	81.12
296.679	86.12
296.909	84.12
297.14	95.12
297.37	93.12
297.601	71.12
297.831	83.12
298.062	78.12
298.292	79.12
298.523	88.12
298.753	92.12
298.984	95.12
299.214	85.12
299.445	98.12
299.675	88.12
299.905	89.12
300.136	84.12
300.366	85.12
300.597	79.12
300.827	103.12
301.057	92.12
301.288	86.12
301.518	92.12
301.748	74.12
301.979	85.12
302.209	72.12
302.439	77.12
302.669	78.12
302.9	74.12
303.13	85.12
303.36	104.12
303.59	86.12
303.82	83.12
304.051	90.12
304.281	90.12
304.511	83.12
304.741	96.12
304.971	79.12
305.201	97.12
305.431	86.12
305.661	69.12
305.891	80.12
306.121	101.12
306.352	86.12
306.582	93.12
306.812	84.12
307.042	74.12
307.272	98.12
307.502	82.12
307.731	95.12
307.961	89.12
308.191	85.12
308.421	76.12
308.651	90.12
308.881	90.12
309.111	79.12
309.341	86.12
309.571	76.12
309.8	93.12
310.03	90.12
310.26	94.12
310.49	87.12
310.72	83.12
310.949	77.12
311.179	94.12
311.409	79.12
311.639	85.12
311.868	84.12
312.098	107.12
312.328	89.12
312.557	94.12
312.787	80.12
313.017	92.12
313.246	92.12
313.476	90.12
313.706	84.12
313.935	94.12
314.165	79.12
314.394	92.12
314.624	89.12
314.853	89.12
315.083	96.12
315.312	99.12
315.542	79.12
315.771	91.12
316.001	102.12
316.23	86.12
316.46	71.12
316.689	96.12
316.919	101.12
317.148	84.12
317.377	93.12
317.607	80.12
317.836	95.12
318.065	92.12
318.295	92.12
318.524	82.12
318.753	83.12
318.983	69.12
319.212	84.12
319.441	84.12
319.67	73.12
319.9	89.12
320.129	102.12
320.358	82.12
320.587	84.12
320.816	89.12
321.046	75.12
321.275	95.12
321.504	82.12
321.733	89.12
321.962	80.12
322.191	91.12
322.42	91.12
322.649	94.12
322.878	79.12
323.108	93.12
323.337	96.12
323.566	90.12
323.795	80.12
324.024	80.12
324.253	75.12
324.482	84.12
324.71	94.12
324.939	92.12
325.168	86.12
325.397	88.12
325.626	93.12
325.855	81.12
326.084	83.12
326.313	84.12
326.542	86.12
326.77	77.12
326.999	89.12
327.228	99.12
327.457	101.12
327.686	82.12
327.914	75.12
328.143	94.12
328.372	81.12
328.6	74.12
328.829	87.12
329.058	97.12
329.287	90.12
329.515	75.12
329.744	84.12
329.972	86.12
330.201	79.12
330.43	94.12
330.658	76.12
330.887	106.12
331.115	86.12
331.344	84.12
331.572	85.12
331.801	88.12
332.03	87.12
332.258	70.12
332.486	77.12
332.715	80.12
332.943	90.12
333.172	87.12
333.4	73.12
333.629	89.12
333.857	91.12
334.085	83.12
334.314	97.12
334.542	77.12
334.771	79.12
334.999	91.12
335.227	84.12
335.455	97.12
335.684	102.12
335.912	83.12
336.14	90.12
336.369	102.12
336.597	84.12
336.825	100.12
337.053	81.12
337.281	78.12
337.51	82.12
337.738	94.12
337.966	92.12
338.194	77.12
338.422	97.12
338.65	82.12
338.878	88.12
339.106	83.12
339.334	77.12
339.562	106.12
339.79	103.12
340.018	83.12
340.246	81.12
340.474	99.12
340.702	83.12
340.93	76.12
341.158	85.12
341.386	90.12
341.614	95.12
341.842	78.12
342.07	89.12
342.298	88.12
342.526	94.12
342.754	99.12
342.981	98.12
343.209	79.12
343.437	88.12
343.665	77.12
343.893	83.12
344.12	93.12
344.348	73.12
344.576	97.12
344.804	86.12
345.031	93.12
345.259	86.12
345.487	81.12
345.714	88.12
345.942	92.12
346.17	89.12
346.397	87.12
346.625	79.12
346.853	102.12
347.08	79.12
347.308	89.12
347.535	66.12
347.763	90.12
347.99	81.12
348.218	103.12
348.445	92.12
348.673	93.12
348.9	98.12
349.128	83.12
349.355	92.12
349.583	88.12
349.81	89.12
350.037	79.12
350.265	79.12
350.492	81.12
350.72	70.12
350.947	82.12
351.174	78.12
351.402	92.12
351.629	94.12
351.856	83.12
352.083	84.12
352.311	89.12
352.538	91.12
352.765	95.12
352.992	82.12
353.22	83.12
353.447	92.12
353.674	84.12
353.901	91.12
354.128	85.12
354.355	86.12
354.583	85.12
354.81	87.12
355.037	90.12
355.264	87.12
355.491	79.12
355.718	76.12
355.945	83.12
356.172	85.12
356.399	73.12
356.626	93.12
356.853	77.12
357.08	87.12
357.307	94.12
357.534	76.12
357.761	95.12
357.988	96.12
358.215	85.12
358.441	85.12
358.668	83.12
358.895	69.12
359.122	89.12
359.349	76.12
359.576	96.12
359.802	78.12
360.029	83.12
360.256	89.12
360.483	82.12
360.709	93.12
360.936	82.12
361.163	89.12
361.39	88.12
361.616	84.12
361.843	84.12
362.07	79.12
362.296	79.12
362.523	78.12
362.749	79.12
362.976	77.12
363.203	77.12
363.429	84.12
363.656	100.12
363.882	92.12
364.109	78.12
364.335	79.12
364.562	91.12
364.788	91.12
365.015	86.12
365.241	82.12
365.468	86.12
365.694	97.12
365.92	81.12
366.147	86.12
366.373	78.12
366.599	89.12
366.826	90.12
367.052	83.12
367.278	86.12
367.505	88.12
367.731	92.12
367.957	79.12
368.184	102.12
368.41	86.12
368.636	84.12
368.862	86.12
369.089	78.12
369.315	82.12
369.541	94.12
369.767	83.12
369.993	89.12
370.219	79.12
370.445	93.12
370.672	78.12
370.898	92.12
371.124	81.12
371.35	79.12
371.576	85.12
371.802	88.12
372.028	81.12
372.254	94.12
372.48	70.12
372.706	100.12
372.932	107.12
373.158	73.12
373.384	84.12
373.61	81.12
373.835	100.12
374.061	92.12
374.287	82.12
374.513	81.12
374.739	83.12
374.965	87.12
375.191	85.12
375.416	85.12
375.642	90.12
375.868	89.12
376.094	85.12
376.319	75.12
376.545	85.12
376.771	89.12
376.997	86.12
377.222	90.12
377.448	88.12
377.674	84.12
377.899	76.12
378.125	78.12
378.35	97.12
378.576	91.12
378.802	85.12
379.027	78.12
379.253	86.12
379.478	88.12
379.704	83.12
379.929	98.12
380.155	83.12
380.38	82.12
380.606	87.12
380.831	87.12
381.057	80.12
381.282	92.12
381.507	81.12
381.733	80.12
381.958	88.12
382.184	94.12
382.409	92.12
382.634	92.12
382.86	87.12
383.085	95.12
383.31	86.12
383.535	90.12
383.761	78.12
383.986	82.12
384.211	79.12
384.436	84.12
384.662	84.12
384.887	90.12
385.112	79.12
385.337	86.12
385.562	87.12
385.787	84.12
386.013	85.12
386.238	91.12
386.463	82.12
386.688	80.12
386.913	87.12
387.138	94.12
387.363	87.12
387.588	92.12
387.813	83.12
388.038	95.12
388.263	84.12
388.488	74.12
388.713	92.12
388.938	95.12
389.163	85.12
389.387	104.12
389.612	79.12
389.837	91.12
390.062	85.12
390.287	90.12
390.512	91.12
390.736	88.12
390.961	106.12
391.186	89.12
391.411	92.12
391.636	92.12
391.86	85.12
392.085	86.12
392.31	91.12
392.534	98.12
392.759	90.12
392.984	109.12
393.208	84.12
393.433	87.12
393.658	75.12
393.882	84.12
394.107	89.12
394.331	83.12
394.556	100.12
394.78	75.12
395.005	90.12
395.229	89.12
395.454	82.12
395.678	74.12
395.903	83.12
396.127	102.12
396.352	83.12
396.576	82.12
396.801	104.12
397.025	83.12
397.249	93.12
397.474	101.12
397.698	97.12
397.922	104.12
398.147	78.12
398.371	93.12
398.595	81.12
398.82	89.12
399.044	86.12
399.268	77.12
399.492	84.12
399.717	90.12
399.941	89.12
400.165	85.12
400.389	92.12
400.613	103.12
400.837	98.12
401.062	74.12
401.286	84.12
401.51	86.12
401.734	97.12
401.958	90.12
402.182	89.12
402.406	82.12
402.63	80.12
402.854	94.12
403.078	108.12
403.302	86.12
403.526	94.12
403.75	78.12
403.974	89.12
404.198	88.12
404.422	88.12
404.645	97.12
404.869	92.12
405.093	77.12
405.317	77.12
405.541	95.12
405.765	86.12
405.988	84.12
406.212	79.12
406.436	92.12
406.66	83.12
406.883	101.12
407.107	88.12
407.331	89.12
407.555	80.12
407.778	95.12
408.002	105.12
408.226	75.12
408.449	89.12
408.673	90.12
408.896	92.12
409.12	90.12
409.344	96.12
409.567	85.12
409.791	86.12
410.014	85.12
410.238	94.12
410.461	101.12
410.685	87.12
410.908	102.12
411.132	90.12
411.355	94.12
411.578	84.12
411.802	81.12
412.025	96.12
412.249	99.12
412.472	85.12
412.695	102.12
412.919	101.12
413.142	98.12
413.365	86.12
413.589	95.12
413.812	77.12
414.035	92.12
414.258	107.12
414.482	112.12
414.705	102.12
414.928	89.12
415.151	80.12
415.374	79.12
415.597	98.12
415.821	90.12
416.044	98.12
416.267	80.12
416.49	95.12
416.713	94.12
416.936	103.12
417.159	101.12
417.382	99.12
417.605	101.12
417.828	89.12
418.051	95.12
418.274	101.12
418.497	97.12
418.72	92.12
418.943	95.12
419.166	93.12
419.389	112.12
419.611	97.12
419.834	94.12
420.057	111.12
420.28	103.12
420.503	93.12
420.726	122.12
420.948	108.12
421.171	120.12
421.394	86.12
421.617	91.12
421.839	104.12
422.062	101.12
422.285	101.12
422.507	96.12
422.73	91.12
422.953	93.12
423.175	89.12
423.398	89.12
423.621	93.12
423.843	76.12
424.066	84.12
424.288	101.12
424.511	94.12
424.733	91.12
424.956	90.12
425.178	91.12
425.401	87.12
425.623	107.12
425.846	99.12
426.068	93.12
426.291	103.12
426.513	93.12
426.735	88.12
426.958	88.12
427.18	87.12
427.402	108.12
427.625	97.12
427.847	116.12
428.069	89.12
428.292	92.12
428.514	92.12
428.736	99.12
428.958	100.12
429.181	70.12
429.403	84.12
429.625	104.12
429.847	110.12
430.069	102.12
430.292	97.12
430.514	94.12
430.736	103.12
430.958	105.12
431.18	94.12
431.402	85.12
431.624	92.12
431.846	82.12
432.068	90.12
432.29	88.12
432.512	100.12
432.734	89.12
432.956	97.12
433.178	83.12
433.4	87.12
433.622	99.12
433.844	107.12
434.066	93.12
434.287	90.12
434.509	82.12
434.731	82.12
434.953	90.12
435.175	100.12
435.397	98.12
435.618	98.12
435.84	98.12
436.062	95.12
436.284	84.12
436.505	102.12
436.727	93.12
436.949	93.12
437.17	101.12
437.392	95.12
437.614	91.12
437.835	99.12
438.057	79.12
438.278	83.12
438.5	94.12
438.721	95.12
438.943	98.12
439.165	94.12
439.386	87.12
439.608	111.12
439.829	97.12
440.05	100.12
440.272	108.12
440.493	91.12
440.715	90.12
440.936	115.12
441.158	79.12
441.379	101.12
441.6	107.12
441.822	85.12
442.043	90.12
442.264	97.12
442.486	93.12
442.707	99.12
442.928	106.12
443.149	103.12
443.371	91.12
443.592	108.12
443.813	87.12
444.034	85.12
444.255	86.12
444.476	95.12
444.698	114.12
444.919	105.12
445.14	218.12
445.361	157.12
445.582	129.12
445.803	105.12
446.024	90.12
446.245	109.12
446.466	101.12
446.687	114.12
446.908	108.12
447.129	99.12
447.35	87.12
447.571	99.12
447.792	91.12
448.013	94.12
448.234	98.12
448.455	90.12
448.675	92.12
448.896	94.12
449.117	101.12
449.338	101.12
449.559	83.12
449.779	97.12
450	97.12
450.221	93.12
450.442	91.12
450.662	93.12
450.883	106.12
451.104	113.12
451.324	104.12
451.545	104.12
451.766	92.12
451.986	86.12
452.207	93.12
452.428	98.12
452.648	93.12
452.869	101.12
453.089	94.12
453.31	86.12
453.53	103.12
453.751	85.12
453.971	84.12
454.192	90.12
454.412	93.12
454.633	91.12
454.853	95.12
455.073	90.12
455.294	93.12
455.514	101.12
455.734	93.12
455.955	97.12
456.175	83.12
456.395	94.12
456.616	85.12
456.836	89.12
457.056	88.12
457.276	87.12
457.497	90.12
457.717	85.12
457.937	95.12
458.157	90.12
458.377	69.12
458.598	92.12
458.818	79.12
459.038	96.12
459.258	90.12
459.478	96.12
459.698	85.12
459.918	74.12
460.138	96.12
460.358	85.12
460.578	91.12
460.798	98.12
461.018	95.12
461.238	106.12
461.458	106.12
461.678	104.12
461.898	93.12
462.118	106.12
462.338	96.12
462.558	90.12
462.777	98.12
462.997	96.12
463.217	96.12
463.437	92.12
463.657	92.12
463.876	97.12
464.096	81.12
464.316	80.12
464.536	104.12
464.755	95.12
464.975	101.12
465.195	105.12
465.414	89.12
465.634	92.12
465.854	103.12
466.073	93.12
466.293	103.12
466.512	92.12
466.732	109.12
466.951	106.12
467.171	90.12
467.391	87.12
467.61	108.12
467.829	91.12
468.049	109.12
468.268	87.12
468.488	87.12
468.707	92.12
468.927	104.12
469.146	93.12
469.365	90.12
469.585	102.12
469.804	97.12
470.023	106.12
470.243	92.12
470.462	108.12
470.681	101.12
470.901	99.12
471.12	99.12
471.339	109.12
471.558	87.12
471.777	98.12
471.997	86.12
472.216	86.12
472.435	89.12
472.654	79.12
472.873	102.12
473.092	96.12
473.311	106.12
473.53	87.12
473.749	108.12
473.968	92.12
474.187	97.12
474.406	106.12
474.625	90.12
474.844	98.12
475.063	90.12
475.282	99.12
475.501	91.12
475.72	92.12
475.939	102.12
476.158	91.12
476.377	84.12
476.596	87.12
476.814	88.12
477.033	91.12
477.252	94.12
477.471	94.12
477.69	92.12
477.908	102.12
478.127	97.12
478.346	96.12
478.564	95.12
478.783	97.12
479.002	106.12
479.22	97.12
479.439	93.12
479.658	91.12
479.876	91.12
480.095	91.12
480.313	92.12
480.532	97.12
480.751	94.12
480.969	99.12
481.188	97.12
481.406	92.12
481.624	94.12
481.843	85.12
482.061	86.12
482.28	101.12
482.498	88.12
482.717	83.12
482.935	94.12
483.153	96.12
483.372	107.12
483.59	123.12
483.808	94.12
484.027	93.12
484.245	88.12
484.463	91.12
484.681	99.12
484.9	85.12
485.118	98.12
485.336	92.12
485.554	80.12
485.772	84.12
485.99	95.12
486.209	93.12
486.427	72.12
486.645	91.12
486.863	104.12
487.081	97.12
487.299	109.12
487.517	98.12
487.735	108.12
487.953	109.12
488.171	109.12
488.389	106.12
488.607	102.12
488.825	102.12
489.043	83.12
489.261	96.12
489.479	97.12
489.696	94.12
489.914	101.12
490.132	103.12
490.35	93.12
490.568	102.12
490.786	103.12
491.003	105.12
491.221	122.12
491.439	119.12
491.657	114.12
491.874	128.12
492.092	126.12
492.31	133.12
492.527	115.12
492.745	109.12
492.963	106.12
493.18	103.12
493.398	110.12
493.615	110.12
493.833	106.12
494.05	103.12
494.268	102.12
494.485	102.12
494.703	103.12
494.92	110.12
495.138	117.12
495.355	115.12
495.573	110.12
495.79	118.12
496.008	117.12
496.225	106.12
496.442	113.12
496.66	118.12
496.877	99.12
497.094	114.12
497.312	110.12
497.529	104.12
497.746	114.12
497.963	102.12
498.181	90.12
498.398	91.12
498.615	77.12
498.832	94.12
499.049	98.12
499.267	111.12
499.484	102.12
499.701	90.12
499.918	91.12
500.135	106.12
500.352	109.12
500.569	102.12
500.786	102.12
501.003	116.12
501.22	108.12
501.437	83.12
501.654	95.12
501.871	106.12
502.088	107.12
502.305	106.12
502.522	95.12
502.739	97.12
502.956	109.12
503.172	106.12
503.389	93.12
503.606	104.12
503.823	103.12
504.04	102.12
504.256	102.12
504.473	97.12
504.69	92.12
504.907	93.12
505.123	79.12
505.34	98.12
505.557	108.12
505.773	107.12
505.99	88.12
506.207	92.12
506.423	85.12
506.64	78.12
506.856	98.12
507.073	100.12
507.289	78.12
507.506	86.12
507.722	90.12
507.939	99.12
508.155	99.12
508.372	97.12
508.588	83.12
508.805	91.12
509.021	87.12
509.238	92.12
509.454	85.12
509.67	92.12
509.887	79.12
510.103	95.12
510.319	98.12
510.536	86.12
510.752	102.12
510.968	97.12
511.184	80.12
511.401	93.12
511.617	91.12
511.833	103.12
512.049	69.12
512.265	81.12
512.481	102.12
512.698	101.12
512.914	79.12
513.13	97.12
513.346	80.12
513.562	90.12
513.778	79.12
513.994	87.12
514.21	89.12
514.426	81.12
514.642	95.12
514.858	84.12
515.074	85.12
515.29	92.12
515.506	89.12
515.721	100.12
515.937	78.12
516.153	90.12
516.369	93.12
516.585	82.12
