Data from Location4.07152019.Energy5.Lamp.07192019.3%Agarose_HRD10591_15-26-16-578.txt Node
Date: Fri Jul 19 15:26:16 EDT 2019
User: cochatt
Spectrometer: HR+D1059
Trigger mode: 1
Integration Time (sec): 1.000000E-1
Scans to average: 1
Electric dark correction enabled: true
Nonlinearity correction enabled: false
Boxcar width: 0
XAxis mode: Wavelengths
Number of Pixels in Spectrum: 2048
>>>>>Begin Spectral Data<<<<<
223.165	-13.06
223.4	-13.06
223.635	-13.06
223.869	-7.06
224.104	-25.06
224.338	-9.06
224.573	-28.06
224.808	-22.06
225.042	-9.06
225.277	-12.06
225.511	-8.06
225.746	5.94
225.98	10.94
226.215	15.94
226.449	25.94
226.683	24.94
226.918	23.94
227.152	25.94
227.387	47.94
227.621	28.94
227.856	43.94
228.09	52.94
228.324	36.94
228.559	60.94
228.793	56.94
229.027	59.94
229.262	77.94
229.496	59.94
229.73	73.94
229.964	51.94
230.199	69.94
230.433	73.94
230.667	80.94
230.901	88.94
231.136	77.94
231.37	71.94
231.604	72.94
231.838	81.94
232.072	81.94
232.306	72.94
232.541	91.94
232.775	81.94
233.009	91.94
233.243	72.94
233.477	89.94
233.711	89.94
233.945	70.94
234.179	84.94
234.413	75.94
234.647	71.94
234.881	70.94
235.115	99.94
235.349	76.94
235.583	82.94
235.817	90.94
236.051	77.94
236.285	71.94
236.519	75.94
236.753	72.94
236.987	75.94
237.221	71.94
237.455	81.94
237.689	73.94
237.922	85.94
238.156	67.94
238.39	73.94
238.624	59.94
238.858	76.94
239.091	70.94
239.325	82.94
239.559	69.94
239.793	71.94
240.027	78.94
240.26	71.94
240.494	75.94
240.728	81.94
240.961	78.94
241.195	73.94
241.429	79.94
241.662	70.94
241.896	86.94
242.13	69.94
242.363	78.94
242.597	62.94
242.83	70.94
243.064	75.94
243.298	80.94
243.531	79.94
243.765	82.94
243.998	80.94
244.232	90.94
244.465	74.94
244.699	83.94
244.932	69.94
245.166	86.94
245.399	85.94
245.633	77.94
245.866	71.94
246.099	75.94
246.333	82.94
246.566	87.94
246.8	77.94
247.033	85.94
247.266	79.94
247.5	76.94
247.733	75.94
247.966	87.94
248.2	65.94
248.433	84.94
248.666	83.94
248.899	78.94
249.133	70.94
249.366	77.94
249.599	86.94
249.832	72.94
250.066	81.94
250.299	78.94
250.532	79.94
250.765	90.94
250.998	75.94
251.231	83.94
251.465	90.94
251.698	81.94
251.931	86.94
252.164	78.94
252.397	71.94
252.63	74.94
252.863	68.94
253.096	79.94
253.329	74.94
253.562	73.94
253.795	93.94
254.028	75.94
254.261	80.94
254.494	63.94
254.727	71.94
254.96	79.94
255.193	83.94
255.426	73.94
255.659	76.94
255.892	79.94
256.124	72.94
256.357	89.94
256.59	84.94
256.823	94.94
257.056	78.94
257.289	72.94
257.521	77.94
257.754	79.94
257.987	76.94
258.22	96.94
258.452	75.94
258.685	84.94
258.918	72.94
259.151	87.94
259.383	66.94
259.616	68.94
259.849	78.94
260.081	68.94
260.314	78.94
260.547	73.94
260.779	76.94
261.012	87.94
261.244	69.94
261.477	76.94
261.71	73.94
261.942	73.94
262.175	84.94
262.407	86.94
262.64	73.94
262.872	85.94
263.105	65.94
263.337	89.94
263.57	72.94
263.802	66.94
264.035	72.94
264.267	86.94
264.499	87.94
264.732	78.94
264.964	87.94
265.197	78.94
265.429	74.94
265.661	79.94
265.894	67.94
266.126	81.94
266.358	74.94
266.591	70.94
266.823	79.94
267.055	89.94
267.287	71.94
267.52	80.94
267.752	97.94
267.984	81.94
268.216	72.94
268.448	88.94
268.681	70.94
268.913	88.94
269.145	71.94
269.377	76.94
269.609	91.94
269.841	93.94
270.073	76.94
270.306	78.94
270.538	67.94
270.77	80.94
271.002	91.94
271.234	76.94
271.466	75.94
271.698	82.94
271.93	82.94
272.162	90.94
272.394	86.94
272.626	95.94
272.858	94.94
273.09	80.94
273.322	80.94
273.553	65.94
273.785	81.94
274.017	88.94
274.249	86.94
274.481	70.94
274.713	90.94
274.945	83.94
275.176	83.94
275.408	74.94
275.64	94.94
275.872	88.94
276.104	85.94
276.335	74.94
276.567	84.94
276.799	78.94
277.031	76.94
277.262	79.94
277.494	60.94
277.726	68.94
277.957	84.94
278.189	83.94
278.421	75.94
278.652	89.94
278.884	86.94
279.115	84.94
279.347	80.94
279.579	73.94
279.81	85.94
280.042	84.94
280.273	84.94
280.505	83.94
280.736	85.94
280.968	81.94
281.199	76.94
281.431	87.94
281.662	75.94
281.894	88.94
282.125	82.94
282.356	78.94
282.588	82.94
282.819	73.94
283.051	75.94
283.282	89.94
283.513	79.94
283.745	81.94
283.976	77.94
284.207	84.94
284.439	72.94
284.67	102.94
284.901	95.94
285.132	74.94
285.364	78.94
285.595	80.94
285.826	81.94
286.057	80.94
286.288	94.94
286.52	87.94
286.751	79.94
286.982	76.94
287.213	92.94
287.444	97.94
287.675	91.94
287.906	84.94
288.138	84.94
288.369	86.94
288.6	66.94
288.831	86.94
289.062	80.94
289.293	81.94
289.524	91.94
289.755	91.94
289.986	75.94
290.217	83.94
290.448	85.94
290.679	85.94
290.91	99.94
291.141	87.94
291.371	76.94
291.602	95.94
291.833	81.94
292.064	82.94
292.295	72.94
292.526	74.94
292.757	76.94
292.987	75.94
293.218	94.94
293.449	91.94
293.68	87.94
293.91	80.94
294.141	79.94
294.372	72.94
294.603	78.94
294.833	79.94
295.064	76.94
295.295	82.94
295.525	81.94
295.756	75.94
295.987	91.94
296.217	84.94
296.448	85.94
296.679	87.94
296.909	95.94
297.14	84.94
297.37	80.94
297.601	90.94
297.831	82.94
298.062	91.94
298.292	82.94
298.523	78.94
298.753	83.94
298.984	83.94
299.214	80.94
299.445	89.94
299.675	85.94
299.905	80.94
300.136	83.94
300.366	71.94
300.597	81.94
300.827	77.94
301.057	85.94
301.288	74.94
301.518	90.94
301.748	94.94
301.979	94.94
302.209	82.94
302.439	81.94
302.669	87.94
302.9	76.94
303.13	79.94
303.36	80.94
303.59	89.94
303.82	79.94
304.051	85.94
304.281	96.94
304.511	91.94
304.741	78.94
304.971	84.94
305.201	81.94
305.431	78.94
305.661	90.94
305.891	82.94
306.121	84.94
306.352	81.94
306.582	82.94
306.812	80.94
307.042	83.94
307.272	90.94
307.502	87.94
307.731	64.94
307.961	81.94
308.191	69.94
308.421	82.94
308.651	89.94
308.881	84.94
309.111	91.94
309.341	97.94
309.571	88.94
309.8	88.94
310.03	97.94
310.26	82.94
310.49	72.94
310.72	86.94
310.949	91.94
311.179	74.94
311.409	69.94
311.639	58.94
311.868	91.94
312.098	83.94
312.328	78.94
312.557	89.94
312.787	90.94
313.017	73.94
313.246	99.94
313.476	86.94
313.706	65.94
313.935	82.94
314.165	88.94
314.394	84.94
314.624	86.94
314.853	79.94
315.083	85.94
315.312	92.94
315.542	74.94
315.771	66.94
316.001	79.94
316.23	80.94
316.46	84.94
316.689	83.94
316.919	91.94
317.148	89.94
317.377	95.94
317.607	89.94
317.836	88.94
318.065	93.94
318.295	83.94
318.524	72.94
318.753	83.94
318.983	92.94
319.212	68.94
319.441	92.94
319.67	71.94
319.9	85.94
320.129	92.94
320.358	95.94
320.587	81.94
320.816	76.94
321.046	86.94
321.275	94.94
321.504	82.94
321.733	83.94
321.962	77.94
322.191	77.94
322.42	76.94
322.649	75.94
322.878	81.94
323.108	85.94
323.337	71.94
323.566	76.94
323.795	82.94
324.024	100.94
324.253	82.94
324.482	92.94
324.71	79.94
324.939	86.94
325.168	86.94
325.397	91.94
325.626	97.94
325.855	89.94
326.084	73.94
326.313	88.94
326.542	77.94
326.77	95.94
326.999	80.94
327.228	94.94
327.457	80.94
327.686	84.94
327.914	80.94
328.143	74.94
328.372	83.94
328.6	74.94
328.829	60.94
329.058	90.94
329.287	97.94
329.515	81.94
329.744	91.94
329.972	92.94
330.201	88.94
330.43	76.94
330.658	91.94
330.887	89.94
331.115	86.94
331.344	66.94
331.572	84.94
331.801	69.94
332.03	83.94
332.258	88.94
332.486	76.94
332.715	86.94
332.943	97.94
333.172	94.94
333.4	81.94
333.629	85.94
333.857	84.94
334.085	82.94
334.314	94.94
334.542	88.94
334.771	83.94
334.999	85.94
335.227	81.94
335.455	77.94
335.684	76.94
335.912	88.94
336.14	89.94
336.369	81.94
336.597	88.94
336.825	89.94
337.053	79.94
337.281	75.94
337.51	84.94
337.738	90.94
337.966	86.94
338.194	82.94
338.422	93.94
338.65	83.94
338.878	80.94
339.106	75.94
339.334	86.94
339.562	86.94
339.79	79.94
340.018	72.94
340.246	89.94
340.474	80.94
340.702	82.94
340.93	81.94
341.158	85.94
341.386	75.94
341.614	70.94
341.842	73.94
342.07	82.94
342.298	69.94
342.526	79.94
342.754	85.94
342.981	85.94
343.209	70.94
343.437	88.94
343.665	68.94
343.893	95.94
344.12	98.94
344.348	83.94
344.576	88.94
344.804	79.94
345.031	74.94
345.259	90.94
345.487	93.94
345.714	85.94
345.942	86.94
346.17	87.94
346.397	84.94
346.625	83.94
346.853	76.94
347.08	82.94
347.308	88.94
347.535	86.94
347.763	89.94
347.99	81.94
348.218	70.94
348.445	80.94
348.673	81.94
348.9	86.94
349.128	89.94
349.355	86.94
349.583	85.94
349.81	88.94
350.037	85.94
350.265	84.94
350.492	89.94
350.72	73.94
350.947	87.94
351.174	86.94
351.402	90.94
351.629	72.94
351.856	91.94
352.083	83.94
352.311	87.94
352.538	79.94
352.765	90.94
352.992	94.94
353.22	76.94
353.447	91.94
353.674	86.94
353.901	73.94
354.128	88.94
354.355	81.94
354.583	80.94
354.81	79.94
355.037	92.94
355.264	97.94
355.491	75.94
355.718	91.94
355.945	97.94
356.172	69.94
356.399	80.94
356.626	78.94
356.853	70.94
357.08	94.94
357.307	81.94
357.534	93.94
357.761	91.94
357.988	65.94
358.215	80.94
358.441	76.94
358.668	76.94
358.895	81.94
359.122	91.94
359.349	80.94
359.576	77.94
359.802	83.94
360.029	98.94
360.256	85.94
360.483	84.94
360.709	89.94
360.936	81.94
361.163	89.94
361.39	86.94
361.616	72.94
361.843	83.94
362.07	83.94
362.296	89.94
362.523	75.94
362.749	83.94
362.976	93.94
363.203	84.94
363.429	86.94
363.656	77.94
363.882	83.94
364.109	87.94
364.335	85.94
364.562	79.94
364.788	83.94
365.015	72.94
365.241	69.94
365.468	80.94
365.694	88.94
365.92	89.94
366.147	83.94
366.373	84.94
366.599	78.94
366.826	92.94
367.052	94.94
367.278	88.94
367.505	85.94
367.731	82.94
367.957	90.94
368.184	98.94
368.41	83.94
368.636	81.94
368.862	84.94
369.089	80.94
369.315	72.94
369.541	85.94
369.767	90.94
369.993	94.94
370.219	85.94
370.445	83.94
370.672	73.94
370.898	78.94
371.124	91.94
371.35	80.94
371.576	84.94
371.802	66.94
372.028	91.94
372.254	77.94
372.48	93.94
372.706	73.94
372.932	70.94
373.158	80.94
373.384	83.94
373.61	85.94
373.835	82.94
374.061	83.94
374.287	74.94
374.513	83.94
374.739	75.94
374.965	86.94
375.191	82.94
375.416	81.94
375.642	86.94
375.868	82.94
376.094	80.94
376.319	82.94
376.545	78.94
376.771	87.94
376.997	67.94
377.222	78.94
377.448	96.94
377.674	70.94
377.899	79.94
378.125	75.94
378.35	79.94
378.576	90.94
378.802	87.94
379.027	83.94
379.253	98.94
379.478	84.94
379.704	73.94
379.929	76.94
380.155	84.94
380.38	83.94
380.606	83.94
380.831	85.94
381.057	81.94
381.282	84.94
381.507	71.94
381.733	89.94
381.958	82.94
382.184	78.94
382.409	89.94
382.634	85.94
382.86	75.94
383.085	91.94
383.31	80.94
383.535	74.94
383.761	74.94
383.986	97.94
384.211	79.94
384.436	83.94
384.662	69.94
384.887	90.94
385.112	80.94
385.337	76.94
385.562	96.94
385.787	89.94
386.013	85.94
386.238	81.94
386.463	71.94
386.688	80.94
386.913	82.94
387.138	79.94
387.363	74.94
387.588	92.94
387.813	85.94
388.038	80.94
388.263	90.94
388.488	78.94
388.713	73.94
388.938	83.94
389.163	81.94
389.387	70.94
389.612	94.94
389.837	81.94
390.062	88.94
390.287	89.94
390.512	86.94
390.736	90.94
390.961	88.94
391.186	89.94
391.411	80.94
391.636	86.94
391.86	84.94
392.085	98.94
392.31	95.94
392.534	68.94
392.759	72.94
392.984	81.94
393.208	84.94
393.433	86.94
393.658	90.94
393.882	81.94
394.107	90.94
394.331	90.94
394.556	85.94
394.78	88.94
395.005	83.94
395.229	86.94
395.454	85.94
395.678	88.94
395.903	76.94
396.127	89.94
396.352	90.94
396.576	86.94
396.801	76.94
397.025	90.94
397.249	82.94
397.474	81.94
397.698	90.94
397.922	76.94
398.147	81.94
398.371	92.94
398.595	79.94
398.82	100.94
399.044	70.94
399.268	86.94
399.492	96.94
399.717	97.94
399.941	95.94
400.165	95.94
400.389	96.94
400.613	97.94
400.837	91.94
401.062	78.94
401.286	92.94
401.51	86.94
401.734	87.94
401.958	82.94
402.182	90.94
402.406	106.94
402.63	89.94
402.854	82.94
403.078	83.94
403.302	83.94
403.526	87.94
403.75	100.94
403.974	93.94
404.198	95.94
404.422	95.94
404.645	91.94
404.869	90.94
405.093	99.94
405.317	93.94
405.541	99.94
405.765	90.94
405.988	82.94
406.212	82.94
406.436	87.94
406.66	90.94
406.883	87.94
407.107	87.94
407.331	92.94
407.555	94.94
407.778	101.94
408.002	89.94
408.226	90.94
408.449	87.94
408.673	91.94
408.896	92.94
409.12	91.94
409.344	94.94
409.567	88.94
409.791	103.94
410.014	100.94
410.238	93.94
410.461	87.94
410.685	93.94
410.908	89.94
411.132	85.94
411.355	99.94
411.578	89.94
411.802	86.94
412.025	82.94
412.249	101.94
412.472	83.94
412.695	92.94
412.919	99.94
413.142	88.94
413.365	93.94
413.589	82.94
413.812	88.94
414.035	103.94
414.258	85.94
414.482	77.94
414.705	73.94
414.928	89.94
415.151	81.94
415.374	100.94
415.597	79.94
415.821	83.94
416.044	79.94
416.267	87.94
416.49	85.94
416.713	97.94
416.936	83.94
417.159	90.94
417.382	93.94
417.605	100.94
417.828	84.94
418.051	89.94
418.274	96.94
418.497	103.94
418.72	86.94
418.943	98.94
419.166	98.94
419.389	93.94
419.611	100.94
419.834	102.94
420.057	102.94
420.28	90.94
420.503	101.94
420.726	86.94
420.948	100.94
421.171	97.94
421.394	89.94
421.617	88.94
421.839	89.94
422.062	95.94
422.285	104.94
422.507	92.94
422.73	86.94
422.953	80.94
423.175	91.94
423.398	89.94
423.621	94.94
423.843	91.94
424.066	91.94
424.288	81.94
424.511	89.94
424.733	89.94
424.956	97.94
425.178	86.94
425.401	88.94
425.623	99.94
425.846	79.94
426.068	91.94
426.291	89.94
426.513	95.94
426.735	94.94
426.958	108.94
427.18	103.94
427.402	91.94
427.625	96.94
427.847	90.94
428.069	87.94
428.292	96.94
428.514	94.94
428.736	82.94
428.958	99.94
429.181	96.94
429.403	99.94
429.625	87.94
429.847	97.94
430.069	93.94
430.292	97.94
430.514	89.94
430.736	88.94
430.958	94.94
431.18	81.94
431.402	88.94
431.624	96.94
431.846	82.94
432.068	92.94
432.29	87.94
432.512	97.94
432.734	82.94
432.956	89.94
433.178	105.94
433.4	105.94
433.622	101.94
433.844	91.94
434.066	90.94
434.287	88.94
434.509	76.94
434.731	77.94
434.953	77.94
435.175	94.94
435.397	102.94
435.618	86.94
435.84	80.94
436.062	99.94
436.284	84.94
436.505	81.94
436.727	83.94
436.949	91.94
437.17	96.94
437.392	82.94
437.614	94.94
437.835	101.94
438.057	80.94
438.278	94.94
438.5	105.94
438.721	92.94
438.943	98.94
439.165	94.94
439.386	94.94
439.608	98.94
439.829	92.94
440.05	95.94
440.272	95.94
440.493	101.94
440.715	94.94
440.936	85.94
441.158	81.94
441.379	98.94
441.6	102.94
441.822	88.94
442.043	91.94
442.264	110.94
442.486	91.94
442.707	86.94
442.928	103.94
443.149	90.94
443.371	89.94
443.592	91.94
443.813	95.94
444.034	103.94
444.255	85.94
444.476	103.94
444.698	98.94
444.919	88.94
445.14	223.94
445.361	148.94
445.582	101.94
445.803	93.94
446.024	94.94
446.245	91.94
446.466	104.94
446.687	105.94
446.908	102.94
447.129	85.94
447.35	105.94
447.571	94.94
447.792	94.94
448.013	106.94
448.234	109.94
448.455	89.94
448.675	92.94
448.896	91.94
449.117	98.94
449.338	92.94
449.559	107.94
449.779	97.94
450	103.94
450.221	94.94
450.442	93.94
450.662	89.94
450.883	100.94
451.104	97.94
451.324	98.94
451.545	86.94
451.766	88.94
451.986	81.94
452.207	92.94
452.428	102.94
452.648	81.94
452.869	94.94
453.089	92.94
453.31	69.94
453.53	89.94
453.751	78.94
453.971	101.94
454.192	96.94
454.412	85.94
454.633	99.94
454.853	107.94
455.073	107.94
455.294	95.94
455.514	104.94
455.734	96.94
455.955	92.94
456.175	72.94
456.395	91.94
456.616	90.94
456.836	76.94
457.056	78.94
457.276	83.94
457.497	98.94
457.717	87.94
457.937	90.94
458.157	91.94
458.377	87.94
458.598	96.94
458.818	92.94
459.038	90.94
459.258	88.94
459.478	92.94
459.698	82.94
459.918	86.94
460.138	76.94
460.358	78.94
460.578	80.94
460.798	82.94
461.018	84.94
461.238	91.94
461.458	77.94
461.678	80.94
461.898	84.94
462.118	72.94
462.338	80.94
462.558	94.94
462.777	86.94
462.997	83.94
463.217	99.94
463.437	84.94
463.657	83.94
463.876	92.94
464.096	84.94
464.316	90.94
464.536	90.94
464.755	85.94
464.975	103.94
465.195	86.94
465.414	92.94
465.634	81.94
465.854	92.94
466.073	86.94
466.293	98.94
466.512	90.94
466.732	99.94
466.951	95.94
467.171	93.94
467.391	97.94
467.61	101.94
467.829	92.94
468.049	105.94
468.268	102.94
468.488	99.94
468.707	92.94
468.927	91.94
469.146	107.94
469.365	100.94
469.585	94.94
469.804	91.94
470.023	84.94
470.243	99.94
470.462	100.94
470.681	91.94
470.901	110.94
471.12	96.94
471.339	98.94
471.558	95.94
471.777	91.94
471.997	93.94
472.216	92.94
472.435	90.94
472.654	84.94
472.873	80.94
473.092	88.94
473.311	87.94
473.53	91.94
473.749	98.94
473.968	112.94
474.187	104.94
474.406	95.94
474.625	103.94
474.844	86.94
475.063	96.94
475.282	91.94
475.501	74.94
475.72	88.94
475.939	87.94
476.158	103.94
476.377	95.94
476.596	87.94
476.814	97.94
477.033	91.94
477.252	89.94
477.471	89.94
477.69	100.94
477.908	90.94
478.127	103.94
478.346	97.94
478.564	88.94
478.783	86.94
479.002	80.94
479.22	106.94
479.439	98.94
479.658	104.94
479.876	100.94
480.095	83.94
480.313	87.94
480.532	84.94
480.751	105.94
480.969	87.94
481.188	94.94
481.406	98.94
481.624	90.94
481.843	67.94
482.061	85.94
482.28	86.94
482.498	83.94
482.717	98.94
482.935	96.94
483.153	85.94
483.372	102.94
483.59	114.94
483.808	95.94
484.027	82.94
484.245	94.94
484.463	100.94
484.681	95.94
484.9	98.94
485.118	95.94
485.336	98.94
485.554	82.94
485.772	100.94
485.99	92.94
486.209	98.94
486.427	105.94
486.645	103.94
486.863	89.94
487.081	90.94
487.299	92.94
487.517	91.94
487.735	114.94
487.953	111.94
488.171	117.94
488.389	92.94
488.607	94.94
488.825	95.94
489.043	85.94
489.261	88.94
489.479	100.94
489.696	96.94
489.914	100.94
490.132	91.94
490.35	103.94
490.568	94.94
490.786	100.94
491.003	96.94
491.221	121.94
491.439	105.94
491.657	119.94
491.874	121.94
492.092	126.94
492.31	132.94
492.527	138.94
492.745	114.94
492.963	106.94
493.18	115.94
493.398	116.94
493.615	115.94
493.833	115.94
494.05	113.94
494.268	103.94
494.485	117.94
494.703	102.94
494.92	112.94
495.138	107.94
495.355	114.94
495.573	122.94
495.79	110.94
496.008	95.94
496.225	112.94
496.442	118.94
496.66	107.94
496.877	98.94
497.094	117.94
497.312	115.94
497.529	119.94
497.746	98.94
497.963	94.94
498.181	88.94
498.398	97.94
498.615	87.94
498.832	104.94
499.049	99.94
499.267	73.94
499.484	102.94
499.701	102.94
499.918	87.94
500.135	102.94
500.352	105.94
500.569	92.94
500.786	113.94
501.003	91.94
501.22	94.94
501.437	105.94
501.654	94.94
501.871	99.94
502.088	92.94
502.305	90.94
502.522	103.94
502.739	105.94
502.956	90.94
503.172	94.94
503.389	96.94
503.606	90.94
503.823	112.94
504.04	89.94
504.256	89.94
504.473	88.94
504.69	90.94
504.907	90.94
505.123	91.94
505.34	96.94
505.557	100.94
505.773	96.94
505.99	94.94
506.207	97.94
506.423	108.94
506.64	95.94
506.856	82.94
507.073	96.94
507.289	90.94
507.506	91.94
507.722	94.94
507.939	87.94
508.155	99.94
508.372	91.94
508.588	100.94
508.805	98.94
509.021	102.94
509.238	102.94
509.454	102.94
509.67	91.94
509.887	83.94
510.103	88.94
510.319	82.94
510.536	81.94
510.752	91.94
510.968	80.94
511.184	76.94
511.401	89.94
511.617	92.94
511.833	86.94
512.049	70.94
512.265	81.94
512.481	93.94
512.698	84.94
512.914	81.94
513.13	74.94
513.346	80.94
513.562	77.94
513.778	86.94
513.994	97.94
514.21	72.94
514.426	81.94
514.642	78.94
514.858	100.94
515.074	84.94
515.29	90.94
515.506	96.94
515.721	79.94
515.937	73.94
516.153	76.94
516.369	90.94
516.585	77.94
516.801	85.94
517.016	100.94
517.232	92.94
517.448	94.94
517.664	82.94
