Data from Location4.07152019.Energy5.Lamp.07192019.3%Agarose_HRD10591_15-24-44-579.txt Node
Date: Fri Jul 19 15:24:44 EDT 2019
User: cochatt
Spectrometer: HR+D1059
Trigger mode: 1
Integration Time (sec): 1.000000E-1
Scans to average: 1
Electric dark correction enabled: true
Nonlinearity correction enabled: false
Boxcar width: 0
XAxis mode: Wavelengths
Number of Pixels in Spectrum: 2048
>>>>>Begin Spectral Data<<<<<
223.165	-7.81
223.4	-7.81
223.635	-7.81
223.869	-27.81
224.104	-15.81
224.338	-11.81
224.573	-22.81
224.808	-21.81
225.042	-16.81
225.277	10.19
225.511	4.19
225.746	16.19
225.98	3.19
226.215	11.19
226.449	21.19
226.683	19.19
226.918	12.19
227.152	27.19
227.387	31.19
227.621	40.19
227.856	37.19
228.09	59.19
228.324	43.19
228.559	52.19
228.793	47.19
229.027	57.19
229.262	76.19
229.496	63.19
229.73	64.19
229.964	78.19
230.199	65.19
230.433	79.19
230.667	76.19
230.901	65.19
231.136	69.19
231.37	77.19
231.604	86.19
231.838	83.19
232.072	86.19
232.306	81.19
232.541	76.19
232.775	92.19
233.009	80.19
233.243	83.19
233.477	84.19
233.711	83.19
233.945	80.19
234.179	71.19
234.413	70.19
234.647	83.19
234.881	82.19
235.115	77.19
235.349	71.19
235.583	75.19
235.817	67.19
236.051	80.19
236.285	73.19
236.519	69.19
236.753	82.19
236.987	73.19
237.221	68.19
237.455	80.19
237.689	81.19
237.922	77.19
238.156	69.19
238.39	74.19
238.624	67.19
238.858	80.19
239.091	72.19
239.325	76.19
239.559	73.19
239.793	79.19
240.027	78.19
240.26	71.19
240.494	77.19
240.728	67.19
240.961	77.19
241.195	89.19
241.429	71.19
241.662	77.19
241.896	81.19
242.13	74.19
242.363	76.19
242.597	86.19
242.83	71.19
243.064	72.19
243.298	64.19
243.531	65.19
243.765	78.19
243.998	90.19
244.232	82.19
244.465	69.19
244.699	71.19
244.932	64.19
245.166	78.19
245.399	89.19
245.633	77.19
245.866	81.19
246.099	80.19
246.333	83.19
246.566	69.19
246.8	85.19
247.033	81.19
247.266	80.19
247.5	85.19
247.733	76.19
247.966	91.19
248.2	79.19
248.433	86.19
248.666	81.19
248.899	87.19
249.133	85.19
249.366	96.19
249.599	88.19
249.832	65.19
250.066	74.19
250.299	87.19
250.532	89.19
250.765	88.19
250.998	78.19
251.231	79.19
251.465	81.19
251.698	80.19
251.931	87.19
252.164	84.19
252.397	80.19
252.63	72.19
252.863	75.19
253.096	82.19
253.329	84.19
253.562	83.19
253.795	79.19
254.028	87.19
254.261	75.19
254.494	81.19
254.727	85.19
254.96	77.19
255.193	92.19
255.426	73.19
255.659	82.19
255.892	83.19
256.124	98.19
256.357	83.19
256.59	80.19
256.823	82.19
257.056	89.19
257.289	76.19
257.521	78.19
257.754	75.19
257.987	81.19
258.22	75.19
258.452	91.19
258.685	75.19
258.918	79.19
259.151	89.19
259.383	79.19
259.616	84.19
259.849	89.19
260.081	70.19
260.314	86.19
260.547	71.19
260.779	83.19
261.012	88.19
261.244	91.19
261.477	89.19
261.71	83.19
261.942	79.19
262.175	87.19
262.407	79.19
262.64	81.19
262.872	96.19
263.105	93.19
263.337	75.19
263.57	84.19
263.802	88.19
264.035	81.19
264.267	80.19
264.499	84.19
264.732	83.19
264.964	90.19
265.197	86.19
265.429	86.19
265.661	75.19
265.894	85.19
266.126	91.19
266.358	96.19
266.591	85.19
266.823	91.19
267.055	95.19
267.287	81.19
267.52	90.19
267.752	87.19
267.984	95.19
268.216	84.19
268.448	81.19
268.681	84.19
268.913	85.19
269.145	81.19
269.377	80.19
269.609	69.19
269.841	80.19
270.073	74.19
270.306	83.19
270.538	81.19
270.77	80.19
271.002	77.19
271.234	88.19
271.466	95.19
271.698	82.19
271.93	85.19
272.162	87.19
272.394	86.19
272.626	78.19
272.858	82.19
273.09	70.19
273.322	85.19
273.553	83.19
273.785	81.19
274.017	95.19
274.249	95.19
274.481	68.19
274.713	96.19
274.945	77.19
275.176	74.19
275.408	88.19
275.64	86.19
275.872	93.19
276.104	84.19
276.335	76.19
276.567	66.19
276.799	74.19
277.031	90.19
277.262	82.19
277.494	95.19
277.726	75.19
277.957	77.19
278.189	73.19
278.421	75.19
278.652	84.19
278.884	94.19
279.115	87.19
279.347	87.19
279.579	100.19
279.81	82.19
280.042	86.19
280.273	90.19
280.505	85.19
280.736	75.19
280.968	77.19
281.199	78.19
281.431	81.19
281.662	94.19
281.894	86.19
282.125	84.19
282.356	83.19
282.588	81.19
282.819	86.19
283.051	83.19
283.282	88.19
283.513	89.19
283.745	72.19
283.976	88.19
284.207	78.19
284.439	87.19
284.67	86.19
284.901	72.19
285.132	84.19
285.364	96.19
285.595	81.19
285.826	81.19
286.057	87.19
286.288	89.19
286.52	76.19
286.751	73.19
286.982	79.19
287.213	80.19
287.444	99.19
287.675	78.19
287.906	91.19
288.138	101.19
288.369	93.19
288.6	80.19
288.831	91.19
289.062	80.19
289.293	85.19
289.524	75.19
289.755	69.19
289.986	88.19
290.217	83.19
290.448	95.19
290.679	89.19
290.91	91.19
291.141	89.19
291.371	88.19
291.602	82.19
291.833	96.19
292.064	75.19
292.295	89.19
292.526	83.19
292.757	88.19
292.987	76.19
293.218	82.19
293.449	94.19
293.68	87.19
293.91	80.19
294.141	93.19
294.372	105.19
294.603	85.19
294.833	94.19
295.064	97.19
295.295	86.19
295.525	79.19
295.756	74.19
295.987	73.19
296.217	82.19
296.448	60.19
296.679	86.19
296.909	81.19
297.14	79.19
297.37	88.19
297.601	70.19
297.831	84.19
298.062	76.19
298.292	83.19
298.523	101.19
298.753	83.19
298.984	80.19
299.214	81.19
299.445	93.19
299.675	85.19
299.905	83.19
300.136	90.19
300.366	90.19
300.597	82.19
300.827	72.19
301.057	102.19
301.288	81.19
301.518	89.19
301.748	78.19
301.979	81.19
302.209	95.19
302.439	84.19
302.669	76.19
302.9	90.19
303.13	76.19
303.36	85.19
303.59	84.19
303.82	68.19
304.051	96.19
304.281	87.19
304.511	83.19
304.741	79.19
304.971	86.19
305.201	75.19
305.431	75.19
305.661	82.19
305.891	77.19
306.121	76.19
306.352	82.19
306.582	79.19
306.812	84.19
307.042	94.19
307.272	85.19
307.502	81.19
307.731	81.19
307.961	99.19
308.191	98.19
308.421	84.19
308.651	93.19
308.881	91.19
309.111	84.19
309.341	85.19
309.571	68.19
309.8	96.19
310.03	85.19
310.26	83.19
310.49	95.19
310.72	85.19
310.949	89.19
311.179	84.19
311.409	80.19
311.639	83.19
311.868	84.19
312.098	89.19
312.328	97.19
312.557	72.19
312.787	78.19
313.017	84.19
313.246	94.19
313.476	84.19
313.706	95.19
313.935	80.19
314.165	94.19
314.394	96.19
314.624	93.19
314.853	97.19
315.083	100.19
315.312	74.19
315.542	78.19
315.771	80.19
316.001	89.19
316.23	83.19
316.46	95.19
316.689	85.19
316.919	81.19
317.148	85.19
317.377	72.19
317.607	74.19
317.836	95.19
318.065	84.19
318.295	69.19
318.524	89.19
318.753	76.19
318.983	80.19
319.212	69.19
319.441	96.19
319.67	74.19
319.9	92.19
320.129	89.19
320.358	88.19
320.587	98.19
320.816	92.19
321.046	87.19
321.275	100.19
321.504	81.19
321.733	95.19
321.962	85.19
322.191	86.19
322.42	85.19
322.649	76.19
322.878	88.19
323.108	81.19
323.337	82.19
323.566	81.19
323.795	86.19
324.024	91.19
324.253	91.19
324.482	91.19
324.71	77.19
324.939	88.19
325.168	72.19
325.397	91.19
325.626	85.19
325.855	87.19
326.084	77.19
326.313	105.19
326.542	84.19
326.77	81.19
326.999	96.19
327.228	96.19
327.457	80.19
327.686	80.19
327.914	96.19
328.143	73.19
328.372	78.19
328.6	71.19
328.829	73.19
329.058	80.19
329.287	79.19
329.515	84.19
329.744	93.19
329.972	87.19
330.201	82.19
330.43	90.19
330.658	92.19
330.887	87.19
331.115	90.19
331.344	98.19
331.572	88.19
331.801	90.19
332.03	84.19
332.258	80.19
332.486	80.19
332.715	85.19
332.943	81.19
333.172	83.19
333.4	77.19
333.629	87.19
333.857	84.19
334.085	83.19
334.314	84.19
334.542	88.19
334.771	86.19
334.999	89.19
335.227	83.19
335.455	77.19
335.684	88.19
335.912	83.19
336.14	81.19
336.369	91.19
336.597	91.19
336.825	77.19
337.053	94.19
337.281	85.19
337.51	83.19
337.738	92.19
337.966	85.19
338.194	88.19
338.422	75.19
338.65	81.19
338.878	81.19
339.106	91.19
339.334	93.19
339.562	93.19
339.79	84.19
340.018	90.19
340.246	99.19
340.474	90.19
340.702	85.19
340.93	77.19
341.158	92.19
341.386	80.19
341.614	83.19
341.842	91.19
342.07	86.19
342.298	70.19
342.526	84.19
342.754	88.19
342.981	89.19
343.209	76.19
343.437	91.19
343.665	86.19
343.893	91.19
344.12	81.19
344.348	82.19
344.576	85.19
344.804	92.19
345.031	88.19
345.259	85.19
345.487	97.19
345.714	88.19
345.942	99.19
346.17	87.19
346.397	80.19
346.625	87.19
346.853	81.19
347.08	86.19
347.308	81.19
347.535	70.19
347.763	83.19
347.99	100.19
348.218	89.19
348.445	72.19
348.673	83.19
348.9	82.19
349.128	80.19
349.355	90.19
349.583	83.19
349.81	75.19
350.037	74.19
350.265	85.19
350.492	82.19
350.72	76.19
350.947	88.19
351.174	82.19
351.402	81.19
351.629	99.19
351.856	87.19
352.083	85.19
352.311	84.19
352.538	79.19
352.765	79.19
352.992	82.19
353.22	72.19
353.447	96.19
353.674	99.19
353.901	75.19
354.128	105.19
354.355	80.19
354.583	84.19
354.81	80.19
355.037	71.19
355.264	82.19
355.491	83.19
355.718	82.19
355.945	94.19
356.172	82.19
356.399	85.19
356.626	79.19
356.853	86.19
357.08	78.19
357.307	83.19
357.534	83.19
357.761	93.19
357.988	82.19
358.215	88.19
358.441	100.19
358.668	98.19
358.895	75.19
359.122	75.19
359.349	89.19
359.576	70.19
359.802	74.19
360.029	89.19
360.256	87.19
360.483	100.19
360.709	76.19
360.936	91.19
361.163	94.19
361.39	85.19
361.616	86.19
361.843	102.19
362.07	92.19
362.296	91.19
362.523	82.19
362.749	87.19
362.976	86.19
363.203	88.19
363.429	88.19
363.656	69.19
363.882	83.19
364.109	77.19
364.335	80.19
364.562	89.19
364.788	74.19
365.015	76.19
365.241	85.19
365.468	75.19
365.694	89.19
365.92	87.19
366.147	87.19
366.373	80.19
366.599	81.19
366.826	83.19
367.052	82.19
367.278	77.19
367.505	67.19
367.731	93.19
367.957	74.19
368.184	83.19
368.41	81.19
368.636	79.19
368.862	78.19
369.089	93.19
369.315	83.19
369.541	76.19
369.767	94.19
369.993	72.19
370.219	88.19
370.445	82.19
370.672	83.19
370.898	66.19
371.124	84.19
371.35	89.19
371.576	84.19
371.802	103.19
372.028	85.19
372.254	82.19
372.48	81.19
372.706	89.19
372.932	80.19
373.158	84.19
373.384	97.19
373.61	70.19
373.835	80.19
374.061	87.19
374.287	71.19
374.513	91.19
374.739	83.19
374.965	85.19
375.191	73.19
375.416	97.19
375.642	101.19
375.868	85.19
376.094	88.19
376.319	80.19
376.545	76.19
376.771	77.19
376.997	72.19
377.222	92.19
377.448	83.19
377.674	90.19
377.899	78.19
378.125	74.19
378.35	81.19
378.576	101.19
378.802	94.19
379.027	89.19
379.253	91.19
379.478	95.19
379.704	85.19
379.929	84.19
380.155	80.19
380.38	87.19
380.606	88.19
380.831	85.19
381.057	106.19
381.282	83.19
381.507	83.19
381.733	92.19
381.958	99.19
382.184	94.19
382.409	87.19
382.634	89.19
382.86	81.19
383.085	75.19
383.31	80.19
383.535	87.19
383.761	86.19
383.986	95.19
384.211	77.19
384.436	83.19
384.662	91.19
384.887	78.19
385.112	80.19
385.337	92.19
385.562	85.19
385.787	75.19
386.013	76.19
386.238	87.19
386.463	90.19
386.688	93.19
386.913	85.19
387.138	96.19
387.363	71.19
387.588	89.19
387.813	91.19
388.038	77.19
388.263	81.19
388.488	95.19
388.713	93.19
388.938	94.19
389.163	73.19
389.387	65.19
389.612	88.19
389.837	81.19
390.062	93.19
390.287	93.19
390.512	84.19
390.736	72.19
390.961	83.19
391.186	70.19
391.411	98.19
391.636	91.19
391.86	89.19
392.085	82.19
392.31	91.19
392.534	100.19
392.759	89.19
392.984	94.19
393.208	94.19
393.433	76.19
393.658	83.19
393.882	91.19
394.107	77.19
394.331	88.19
394.556	85.19
394.78	96.19
395.005	83.19
395.229	101.19
395.454	89.19
395.678	91.19
395.903	88.19
396.127	83.19
396.352	82.19
396.576	93.19
396.801	79.19
397.025	83.19
397.249	82.19
397.474	87.19
397.698	82.19
397.922	86.19
398.147	93.19
398.371	79.19
398.595	96.19
398.82	86.19
399.044	86.19
399.268	89.19
399.492	82.19
399.717	90.19
399.941	88.19
400.165	82.19
400.389	78.19
400.613	100.19
400.837	88.19
401.062	83.19
401.286	78.19
401.51	90.19
401.734	88.19
401.958	96.19
402.182	75.19
402.406	82.19
402.63	94.19
402.854	87.19
403.078	89.19
403.302	98.19
403.526	73.19
403.75	93.19
403.974	80.19
404.198	90.19
404.422	81.19
404.645	93.19
404.869	98.19
405.093	82.19
405.317	82.19
405.541	91.19
405.765	70.19
405.988	98.19
406.212	95.19
406.436	76.19
406.66	94.19
406.883	88.19
407.107	95.19
407.331	87.19
407.555	79.19
407.778	92.19
408.002	78.19
408.226	98.19
408.449	86.19
408.673	80.19
408.896	86.19
409.12	95.19
409.344	89.19
409.567	88.19
409.791	91.19
410.014	79.19
410.238	89.19
410.461	100.19
410.685	72.19
410.908	98.19
411.132	92.19
411.355	84.19
411.578	99.19
411.802	96.19
412.025	88.19
412.249	108.19
412.472	99.19
412.695	83.19
412.919	104.19
413.142	84.19
413.365	99.19
413.589	89.19
413.812	73.19
414.035	81.19
414.258	95.19
414.482	98.19
414.705	80.19
414.928	85.19
415.151	93.19
415.374	86.19
415.597	99.19
415.821	91.19
416.044	91.19
416.267	99.19
416.49	92.19
416.713	91.19
416.936	97.19
417.159	99.19
417.382	87.19
417.605	96.19
417.828	97.19
418.051	93.19
418.274	94.19
418.497	104.19
418.72	101.19
418.943	91.19
419.166	81.19
419.389	83.19
419.611	106.19
419.834	97.19
420.057	101.19
420.28	88.19
420.503	90.19
420.726	91.19
420.948	103.19
421.171	92.19
421.394	97.19
421.617	92.19
421.839	99.19
422.062	93.19
422.285	83.19
422.507	92.19
422.73	93.19
422.953	111.19
423.175	97.19
423.398	100.19
423.621	94.19
423.843	88.19
424.066	96.19
424.288	91.19
424.511	85.19
424.733	81.19
424.956	101.19
425.178	96.19
425.401	99.19
425.623	85.19
425.846	93.19
426.068	91.19
426.291	106.19
426.513	75.19
426.735	100.19
426.958	91.19
427.18	105.19
427.402	89.19
427.625	103.19
427.847	81.19
428.069	99.19
428.292	94.19
428.514	98.19
428.736	96.19
428.958	88.19
429.181	95.19
429.403	87.19
429.625	97.19
429.847	80.19
430.069	100.19
430.292	99.19
430.514	91.19
430.736	105.19
430.958	89.19
431.18	91.19
431.402	93.19
431.624	95.19
431.846	81.19
432.068	84.19
432.29	91.19
432.512	85.19
432.734	86.19
432.956	93.19
433.178	95.19
433.4	99.19
433.622	96.19
433.844	83.19
434.066	91.19
434.287	87.19
434.509	87.19
434.731	89.19
434.953	95.19
435.175	96.19
435.397	104.19
435.618	68.19
435.84	77.19
436.062	94.19
436.284	99.19
436.505	90.19
436.727	83.19
436.949	94.19
437.17	99.19
437.392	79.19
437.614	86.19
437.835	83.19
438.057	84.19
438.278	81.19
438.5	101.19
438.721	103.19
438.943	104.19
439.165	103.19
439.386	100.19
439.608	101.19
439.829	119.19
440.05	91.19
440.272	98.19
440.493	92.19
440.715	106.19
440.936	106.19
441.158	91.19
441.379	89.19
441.6	95.19
441.822	97.19
442.043	100.19
442.264	104.19
442.486	101.19
442.707	89.19
442.928	92.19
443.149	97.19
443.371	99.19
443.592	80.19
443.813	92.19
444.034	90.19
444.255	104.19
444.476	92.19
444.698	104.19
444.919	106.19
445.14	228.19
445.361	162.19
445.582	100.19
445.803	103.19
446.024	105.19
446.245	112.19
446.466	103.19
446.687	95.19
446.908	90.19
447.129	93.19
447.35	98.19
447.571	115.19
447.792	105.19
448.013	92.19
448.234	90.19
448.455	106.19
448.675	97.19
448.896	87.19
449.117	105.19
449.338	110.19
449.559	99.19
449.779	95.19
450	100.19
450.221	85.19
450.442	101.19
450.662	108.19
450.883	100.19
451.104	96.19
451.324	91.19
451.545	95.19
451.766	97.19
451.986	100.19
452.207	86.19
452.428	95.19
452.648	104.19
452.869	91.19
453.089	83.19
453.31	67.19
453.53	80.19
453.751	97.19
453.971	76.19
454.192	84.19
454.412	89.19
454.633	82.19
454.853	89.19
455.073	86.19
455.294	84.19
455.514	97.19
455.734	89.19
455.955	91.19
456.175	99.19
456.395	87.19
456.616	90.19
456.836	96.19
457.056	90.19
457.276	88.19
457.497	88.19
457.717	76.19
457.937	108.19
458.157	101.19
458.377	80.19
458.598	90.19
458.818	74.19
459.038	86.19
459.258	80.19
459.478	103.19
459.698	91.19
459.918	89.19
460.138	87.19
460.358	84.19
460.578	98.19
460.798	91.19
461.018	90.19
461.238	84.19
461.458	91.19
461.678	93.19
461.898	87.19
462.118	90.19
462.338	91.19
462.558	81.19
462.777	78.19
462.997	100.19
463.217	82.19
463.437	90.19
463.657	90.19
463.876	75.19
464.096	88.19
464.316	90.19
464.536	95.19
464.755	97.19
464.975	100.19
465.195	79.19
465.414	92.19
465.634	100.19
465.854	97.19
466.073	98.19
466.293	89.19
466.512	97.19
466.732	89.19
466.951	94.19
467.171	90.19
467.391	88.19
467.61	103.19
467.829	95.19
468.049	107.19
468.268	103.19
468.488	91.19
468.707	96.19
468.927	100.19
469.146	96.19
469.365	117.19
469.585	107.19
469.804	101.19
470.023	100.19
470.243	94.19
470.462	87.19
470.681	97.19
470.901	93.19
471.12	90.19
471.339	97.19
471.558	99.19
471.777	97.19
471.997	88.19
472.216	94.19
472.435	95.19
472.654	107.19
472.873	90.19
473.092	87.19
473.311	101.19
473.53	102.19
473.749	98.19
473.968	105.19
474.187	109.19
474.406	89.19
474.625	88.19
474.844	97.19
475.063	99.19
475.282	108.19
475.501	82.19
475.72	93.19
475.939	96.19
476.158	101.19
476.377	103.19
476.596	93.19
476.814	97.19
477.033	91.19
477.252	87.19
477.471	85.19
477.69	91.19
477.908	107.19
478.127	103.19
478.346	80.19
478.564	97.19
478.783	105.19
479.002	103.19
479.22	91.19
479.439	95.19
479.658	91.19
479.876	88.19
480.095	87.19
480.313	86.19
480.532	99.19
480.751	100.19
480.969	92.19
481.188	81.19
481.406	81.19
481.624	77.19
481.843	88.19
482.061	87.19
482.28	86.19
482.498	92.19
482.717	87.19
482.935	99.19
483.153	102.19
483.372	108.19
483.59	99.19
483.808	77.19
484.027	92.19
484.245	86.19
484.463	101.19
484.681	101.19
484.9	105.19
485.118	90.19
485.336	95.19
485.554	99.19
485.772	87.19
485.99	78.19
486.209	91.19
486.427	76.19
486.645	86.19
486.863	91.19
487.081	88.19
487.299	88.19
487.517	86.19
487.735	105.19
487.953	117.19
488.171	105.19
488.389	114.19
488.607	88.19
488.825	92.19
489.043	120.19
489.261	107.19
489.479	101.19
489.696	104.19
489.914	104.19
490.132	95.19
490.35	96.19
490.568	95.19
490.786	104.19
491.003	92.19
491.221	106.19
491.439	108.19
491.657	130.19
491.874	123.19
492.092	120.19
492.31	122.19
492.527	120.19
492.745	113.19
492.963	104.19
493.18	133.19
493.398	125.19
493.615	115.19
493.833	105.19
494.05	105.19
494.268	101.19
494.485	114.19
494.703	94.19
494.92	114.19
495.138	115.19
495.355	120.19
495.573	115.19
495.79	114.19
496.008	113.19
496.225	103.19
496.442	107.19
496.66	106.19
496.877	111.19
497.094	119.19
497.312	91.19
497.529	104.19
497.746	98.19
497.963	91.19
498.181	99.19
498.398	95.19
498.615	97.19
498.832	104.19
499.049	99.19
499.267	98.19
499.484	95.19
499.701	103.19
499.918	97.19
500.135	113.19
500.352	99.19
500.569	106.19
500.786	95.19
501.003	103.19
501.22	103.19
501.437	107.19
501.654	100.19
501.871	99.19
502.088	95.19
502.305	98.19
502.522	100.19
502.739	88.19
502.956	94.19
503.172	96.19
503.389	96.19
503.606	93.19
503.823	92.19
504.04	94.19
504.256	97.19
504.473	97.19
504.69	87.19
504.907	97.19
505.123	94.19
505.34	90.19
505.557	108.19
505.773	106.19
505.99	96.19
506.207	105.19
506.423	100.19
506.64	88.19
506.856	85.19
507.073	81.19
507.289	77.19
507.506	85.19
507.722	90.19
507.939	85.19
508.155	98.19
508.372	99.19
508.588	88.19
508.805	86.19
509.021	93.19
509.238	89.19
509.454	96.19
509.67	88.19
509.887	87.19
510.103	80.19
510.319	95.19
510.536	84.19
510.752	80.19
510.968	82.19
511.184	94.19
511.401	86.19
511.617	85.19
511.833	73.19
512.049	72.19
512.265	83.19
512.481	80.19
512.698	80.19
512.914	94.19
513.13	96.19
513.346	96.19
513.562	81.19
513.778	82.19
513.994	87.19
514.21	100.19
514.426	95.19
514.642	100.19
514.858	90.19
515.074	75.19
515.29	100.19
515.506	88.19
515.721	79.19
515.937	79.19
516.153	86.19
516.369	81.19
516.585	88.19
516.801	100.19
517.016	91.19
517.232	80.19
