Data from Location4.07152019.Energy5.Lamp.07192019.3%Agarose_HRD10591_15-26-22-578.txt Node
Date: Fri Jul 19 15:26:22 EDT 2019
User: cochatt
Spectrometer: HR+D1059
Trigger mode: 1
Integration Time (sec): 1.000000E-1
Scans to average: 1
Electric dark correction enabled: true
Nonlinearity correction enabled: false
Boxcar width: 0
XAxis mode: Wavelengths
Number of Pixels in Spectrum: 2048
>>>>>Begin Spectral Data<<<<<
223.165	-7.81
223.4	-7.81
223.635	-7.81
223.869	-15.81
224.104	-21.81
224.338	-21.81
224.573	-3.81
224.808	-12.81
225.042	3.19
225.277	-2.81
225.511	1.19
225.746	-0.81
225.98	-2.81
226.215	5.19
226.449	10.19
226.683	19.19
226.918	23.19
227.152	28.19
227.387	26.19
227.621	28.19
227.856	33.19
228.09	51.19
228.324	64.19
228.559	62.19
228.793	51.19
229.027	62.19
229.262	67.19
229.496	59.19
229.73	65.19
229.964	77.19
230.199	72.19
230.433	65.19
230.667	88.19
230.901	63.19
231.136	87.19
231.37	91.19
231.604	78.19
231.838	73.19
232.072	67.19
232.306	85.19
232.541	87.19
232.775	77.19
233.009	91.19
233.243	73.19
233.477	86.19
233.711	87.19
233.945	69.19
234.179	81.19
234.413	84.19
234.647	79.19
234.881	81.19
235.115	70.19
235.349	99.19
235.583	76.19
235.817	74.19
236.051	71.19
236.285	84.19
236.519	76.19
236.753	77.19
236.987	77.19
237.221	75.19
237.455	80.19
237.689	67.19
237.922	79.19
238.156	83.19
238.39	73.19
238.624	74.19
238.858	92.19
239.091	82.19
239.325	76.19
239.559	78.19
239.793	79.19
240.027	91.19
240.26	74.19
240.494	78.19
240.728	83.19
240.961	62.19
241.195	83.19
241.429	67.19
241.662	77.19
241.896	92.19
242.13	89.19
242.363	56.19
242.597	76.19
242.83	82.19
243.064	70.19
243.298	84.19
243.531	70.19
243.765	72.19
243.998	80.19
244.232	84.19
244.465	72.19
244.699	71.19
244.932	75.19
245.166	73.19
245.399	98.19
245.633	87.19
245.866	89.19
246.099	81.19
246.333	68.19
246.566	76.19
246.8	81.19
247.033	72.19
247.266	75.19
247.5	88.19
247.733	73.19
247.966	82.19
248.2	88.19
248.433	79.19
248.666	70.19
248.899	85.19
249.133	68.19
249.366	78.19
249.599	77.19
249.832	73.19
250.066	81.19
250.299	81.19
250.532	78.19
250.765	85.19
250.998	79.19
251.231	81.19
251.465	88.19
251.698	81.19
251.931	81.19
252.164	73.19
252.397	68.19
252.63	79.19
252.863	85.19
253.096	82.19
253.329	89.19
253.562	72.19
253.795	74.19
254.028	85.19
254.261	85.19
254.494	80.19
254.727	89.19
254.96	92.19
255.193	85.19
255.426	80.19
255.659	80.19
255.892	87.19
256.124	81.19
256.357	61.19
256.59	93.19
256.823	80.19
257.056	65.19
257.289	85.19
257.521	84.19
257.754	90.19
257.987	86.19
258.22	84.19
258.452	93.19
258.685	66.19
258.918	95.19
259.151	89.19
259.383	92.19
259.616	73.19
259.849	67.19
260.081	83.19
260.314	96.19
260.547	92.19
260.779	87.19
261.012	75.19
261.244	78.19
261.477	89.19
261.71	84.19
261.942	84.19
262.175	87.19
262.407	80.19
262.64	88.19
262.872	89.19
263.105	85.19
263.337	93.19
263.57	100.19
263.802	83.19
264.035	92.19
264.267	98.19
264.499	85.19
264.732	86.19
264.964	83.19
265.197	73.19
265.429	80.19
265.661	106.19
265.894	90.19
266.126	74.19
266.358	74.19
266.591	69.19
266.823	79.19
267.055	87.19
267.287	97.19
267.52	97.19
267.752	71.19
267.984	77.19
268.216	84.19
268.448	88.19
268.681	83.19
268.913	78.19
269.145	76.19
269.377	91.19
269.609	75.19
269.841	75.19
270.073	92.19
270.306	73.19
270.538	85.19
270.77	81.19
271.002	84.19
271.234	71.19
271.466	88.19
271.698	86.19
271.93	75.19
272.162	81.19
272.394	83.19
272.626	96.19
272.858	77.19
273.09	88.19
273.322	93.19
273.553	93.19
273.785	102.19
274.017	96.19
274.249	93.19
274.481	72.19
274.713	86.19
274.945	83.19
275.176	78.19
275.408	84.19
275.64	93.19
275.872	85.19
276.104	91.19
276.335	85.19
276.567	96.19
276.799	80.19
277.031	83.19
277.262	93.19
277.494	95.19
277.726	82.19
277.957	82.19
278.189	84.19
278.421	86.19
278.652	91.19
278.884	83.19
279.115	84.19
279.347	72.19
279.579	92.19
279.81	94.19
280.042	99.19
280.273	88.19
280.505	80.19
280.736	78.19
280.968	84.19
281.199	82.19
281.431	86.19
281.662	83.19
281.894	78.19
282.125	88.19
282.356	90.19
282.588	69.19
282.819	85.19
283.051	85.19
283.282	84.19
283.513	97.19
283.745	79.19
283.976	68.19
284.207	81.19
284.439	81.19
284.67	91.19
284.901	100.19
285.132	77.19
285.364	88.19
285.595	91.19
285.826	100.19
286.057	89.19
286.288	80.19
286.52	82.19
286.751	92.19
286.982	94.19
287.213	86.19
287.444	87.19
287.675	81.19
287.906	80.19
288.138	84.19
288.369	93.19
288.6	80.19
288.831	91.19
289.062	83.19
289.293	91.19
289.524	76.19
289.755	96.19
289.986	83.19
290.217	85.19
290.448	87.19
290.679	83.19
290.91	88.19
291.141	81.19
291.371	89.19
291.602	87.19
291.833	91.19
292.064	76.19
292.295	88.19
292.526	98.19
292.757	88.19
292.987	86.19
293.218	88.19
293.449	83.19
293.68	81.19
293.91	80.19
294.141	87.19
294.372	99.19
294.603	88.19
294.833	83.19
295.064	82.19
295.295	85.19
295.525	103.19
295.756	85.19
295.987	89.19
296.217	80.19
296.448	88.19
296.679	90.19
296.909	83.19
297.14	90.19
297.37	73.19
297.601	92.19
297.831	84.19
298.062	98.19
298.292	84.19
298.523	88.19
298.753	95.19
298.984	76.19
299.214	92.19
299.445	93.19
299.675	96.19
299.905	91.19
300.136	97.19
300.366	73.19
300.597	93.19
300.827	91.19
301.057	82.19
301.288	81.19
301.518	81.19
301.748	94.19
301.979	87.19
302.209	96.19
302.439	68.19
302.669	83.19
302.9	82.19
303.13	87.19
303.36	97.19
303.59	99.19
303.82	82.19
304.051	75.19
304.281	78.19
304.511	87.19
304.741	75.19
304.971	94.19
305.201	84.19
305.431	96.19
305.661	68.19
305.891	91.19
306.121	80.19
306.352	84.19
306.582	85.19
306.812	87.19
307.042	97.19
307.272	93.19
307.502	90.19
307.731	77.19
307.961	92.19
308.191	77.19
308.421	87.19
308.651	96.19
308.881	73.19
309.111	74.19
309.341	86.19
309.571	81.19
309.8	81.19
310.03	86.19
310.26	100.19
310.49	75.19
310.72	80.19
310.949	83.19
311.179	89.19
311.409	88.19
311.639	71.19
311.868	99.19
312.098	80.19
312.328	96.19
312.557	83.19
312.787	80.19
313.017	84.19
313.246	82.19
313.476	101.19
313.706	84.19
313.935	84.19
314.165	85.19
314.394	83.19
314.624	84.19
314.853	82.19
315.083	83.19
315.312	85.19
315.542	76.19
315.771	94.19
316.001	77.19
316.23	87.19
316.46	84.19
316.689	89.19
316.919	88.19
317.148	75.19
317.377	85.19
317.607	78.19
317.836	82.19
318.065	89.19
318.295	88.19
318.524	92.19
318.753	82.19
318.983	88.19
319.212	87.19
319.441	88.19
319.67	86.19
319.9	84.19
320.129	85.19
320.358	82.19
320.587	83.19
320.816	89.19
321.046	81.19
321.275	96.19
321.504	65.19
321.733	70.19
321.962	79.19
322.191	78.19
322.42	84.19
322.649	96.19
322.878	78.19
323.108	95.19
323.337	86.19
323.566	83.19
323.795	96.19
324.024	85.19
324.253	87.19
324.482	90.19
324.71	78.19
324.939	83.19
325.168	73.19
325.397	78.19
325.626	84.19
325.855	88.19
326.084	83.19
326.313	90.19
326.542	89.19
326.77	84.19
326.999	90.19
327.228	73.19
327.457	73.19
327.686	108.19
327.914	81.19
328.143	80.19
328.372	85.19
328.6	83.19
328.829	77.19
329.058	87.19
329.287	85.19
329.515	91.19
329.744	88.19
329.972	92.19
330.201	98.19
330.43	77.19
330.658	78.19
330.887	81.19
331.115	84.19
331.344	90.19
331.572	96.19
331.801	94.19
332.03	80.19
332.258	73.19
332.486	81.19
332.715	84.19
332.943	87.19
333.172	91.19
333.4	89.19
333.629	84.19
333.857	80.19
334.085	93.19
334.314	89.19
334.542	98.19
334.771	89.19
334.999	93.19
335.227	81.19
335.455	77.19
335.684	88.19
335.912	84.19
336.14	92.19
336.369	93.19
336.597	75.19
336.825	81.19
337.053	71.19
337.281	88.19
337.51	87.19
337.738	96.19
337.966	88.19
338.194	68.19
338.422	73.19
338.65	88.19
338.878	92.19
339.106	103.19
339.334	94.19
339.562	89.19
339.79	93.19
340.018	83.19
340.246	72.19
340.474	69.19
340.702	74.19
340.93	91.19
341.158	82.19
341.386	79.19
341.614	87.19
341.842	82.19
342.07	85.19
342.298	79.19
342.526	80.19
342.754	91.19
342.981	77.19
343.209	89.19
343.437	101.19
343.665	100.19
343.893	86.19
344.12	93.19
344.348	69.19
344.576	101.19
344.804	88.19
345.031	83.19
345.259	95.19
345.487	93.19
345.714	91.19
345.942	99.19
346.17	104.19
346.397	90.19
346.625	73.19
346.853	96.19
347.08	76.19
347.308	84.19
347.535	84.19
347.763	83.19
347.99	99.19
348.218	80.19
348.445	78.19
348.673	90.19
348.9	90.19
349.128	107.19
349.355	80.19
349.583	84.19
349.81	91.19
350.037	89.19
350.265	81.19
350.492	91.19
350.72	75.19
350.947	76.19
351.174	87.19
351.402	90.19
351.629	95.19
351.856	84.19
352.083	87.19
352.311	91.19
352.538	93.19
352.765	85.19
352.992	92.19
353.22	93.19
353.447	74.19
353.674	86.19
353.901	86.19
354.128	87.19
354.355	83.19
354.583	93.19
354.81	84.19
355.037	92.19
355.264	90.19
355.491	83.19
355.718	79.19
355.945	86.19
356.172	77.19
356.399	80.19
356.626	87.19
356.853	79.19
357.08	91.19
357.307	91.19
357.534	87.19
357.761	83.19
357.988	88.19
358.215	72.19
358.441	90.19
358.668	83.19
358.895	88.19
359.122	82.19
359.349	74.19
359.576	89.19
359.802	89.19
360.029	73.19
360.256	82.19
360.483	79.19
360.709	72.19
360.936	88.19
361.163	84.19
361.39	79.19
361.616	80.19
361.843	76.19
362.07	89.19
362.296	87.19
362.523	77.19
362.749	83.19
362.976	83.19
363.203	82.19
363.429	82.19
363.656	83.19
363.882	77.19
364.109	76.19
364.335	84.19
364.562	98.19
364.788	77.19
365.015	73.19
365.241	73.19
365.468	83.19
365.694	76.19
365.92	91.19
366.147	83.19
366.373	80.19
366.599	78.19
366.826	90.19
367.052	97.19
367.278	71.19
367.505	101.19
367.731	86.19
367.957	71.19
368.184	101.19
368.41	95.19
368.636	104.19
368.862	80.19
369.089	78.19
369.315	64.19
369.541	80.19
369.767	84.19
369.993	83.19
370.219	78.19
370.445	82.19
370.672	78.19
370.898	91.19
371.124	90.19
371.35	75.19
371.576	86.19
371.802	65.19
372.028	87.19
372.254	79.19
372.48	81.19
372.706	90.19
372.932	83.19
373.158	76.19
373.384	96.19
373.61	104.19
373.835	83.19
374.061	98.19
374.287	89.19
374.513	81.19
374.739	84.19
374.965	93.19
375.191	91.19
375.416	89.19
375.642	102.19
375.868	94.19
376.094	95.19
376.319	72.19
376.545	87.19
376.771	80.19
376.997	85.19
377.222	80.19
377.448	93.19
377.674	86.19
377.899	90.19
378.125	113.19
378.35	99.19
378.576	92.19
378.802	86.19
379.027	82.19
379.253	83.19
379.478	90.19
379.704	93.19
379.929	83.19
380.155	88.19
380.38	77.19
380.606	75.19
380.831	74.19
381.057	84.19
381.282	89.19
381.507	89.19
381.733	96.19
381.958	94.19
382.184	93.19
382.409	94.19
382.634	85.19
382.86	82.19
383.085	91.19
383.31	92.19
383.535	85.19
383.761	103.19
383.986	85.19
384.211	88.19
384.436	83.19
384.662	77.19
384.887	93.19
385.112	77.19
385.337	75.19
385.562	82.19
385.787	90.19
386.013	114.19
386.238	88.19
386.463	85.19
386.688	89.19
386.913	77.19
387.138	88.19
387.363	73.19
387.588	79.19
387.813	82.19
388.038	78.19
388.263	93.19
388.488	87.19
388.713	74.19
388.938	87.19
389.163	85.19
389.387	93.19
389.612	81.19
389.837	82.19
390.062	74.19
390.287	77.19
390.512	94.19
390.736	96.19
390.961	92.19
391.186	79.19
391.411	89.19
391.636	95.19
391.86	96.19
392.085	89.19
392.31	82.19
392.534	89.19
392.759	80.19
392.984	90.19
393.208	95.19
393.433	90.19
393.658	99.19
393.882	89.19
394.107	100.19
394.331	88.19
394.556	84.19
394.78	96.19
395.005	83.19
395.229	74.19
395.454	92.19
395.678	85.19
395.903	88.19
396.127	87.19
396.352	81.19
396.576	82.19
396.801	90.19
397.025	82.19
397.249	99.19
397.474	83.19
397.698	97.19
397.922	110.19
398.147	90.19
398.371	81.19
398.595	82.19
398.82	83.19
399.044	92.19
399.268	96.19
399.492	98.19
399.717	89.19
399.941	99.19
400.165	87.19
400.389	90.19
400.613	90.19
400.837	90.19
401.062	79.19
401.286	90.19
401.51	98.19
401.734	88.19
401.958	86.19
402.182	93.19
402.406	89.19
402.63	81.19
402.854	98.19
403.078	84.19
403.302	75.19
403.526	83.19
403.75	80.19
403.974	98.19
404.198	87.19
404.422	96.19
404.645	109.19
404.869	94.19
405.093	71.19
405.317	93.19
405.541	81.19
405.765	79.19
405.988	85.19
406.212	82.19
406.436	88.19
406.66	93.19
406.883	95.19
407.107	97.19
407.331	92.19
407.555	93.19
407.778	92.19
408.002	99.19
408.226	84.19
408.449	92.19
408.673	92.19
408.896	96.19
409.12	90.19
409.344	95.19
409.567	96.19
409.791	97.19
410.014	85.19
410.238	94.19
410.461	101.19
410.685	94.19
410.908	79.19
411.132	95.19
411.355	84.19
411.578	89.19
411.802	70.19
412.025	89.19
412.249	89.19
412.472	103.19
412.695	97.19
412.919	90.19
413.142	87.19
413.365	90.19
413.589	88.19
413.812	87.19
414.035	88.19
414.258	78.19
414.482	76.19
414.705	95.19
414.928	97.19
415.151	89.19
415.374	96.19
415.597	109.19
415.821	90.19
416.044	91.19
416.267	104.19
416.49	91.19
416.713	106.19
416.936	94.19
417.159	88.19
417.382	87.19
417.605	97.19
417.828	87.19
418.051	84.19
418.274	94.19
418.497	85.19
418.72	101.19
418.943	77.19
419.166	96.19
419.389	101.19
419.611	104.19
419.834	88.19
420.057	90.19
420.28	92.19
420.503	91.19
420.726	99.19
420.948	115.19
421.171	100.19
421.394	97.19
421.617	87.19
421.839	98.19
422.062	99.19
422.285	92.19
422.507	93.19
422.73	101.19
422.953	87.19
423.175	109.19
423.398	80.19
423.621	100.19
423.843	89.19
424.066	107.19
424.288	92.19
424.511	90.19
424.733	95.19
424.956	100.19
425.178	86.19
425.401	95.19
425.623	95.19
425.846	102.19
426.068	86.19
426.291	100.19
426.513	96.19
426.735	95.19
426.958	92.19
427.18	97.19
427.402	98.19
427.625	103.19
427.847	93.19
428.069	93.19
428.292	95.19
428.514	73.19
428.736	108.19
428.958	99.19
429.181	88.19
429.403	103.19
429.625	100.19
429.847	91.19
430.069	95.19
430.292	102.19
430.514	95.19
430.736	80.19
430.958	82.19
431.18	75.19
431.402	91.19
431.624	101.19
431.846	90.19
432.068	100.19
432.29	89.19
432.512	80.19
432.734	93.19
432.956	95.19
433.178	94.19
433.4	97.19
433.622	106.19
433.844	83.19
434.066	97.19
434.287	97.19
434.509	93.19
434.731	82.19
434.953	96.19
435.175	80.19
435.397	90.19
435.618	109.19
435.84	83.19
436.062	77.19
436.284	92.19
436.505	98.19
436.727	98.19
436.949	97.19
437.17	85.19
437.392	103.19
437.614	76.19
437.835	88.19
438.057	90.19
438.278	96.19
438.5	93.19
438.721	88.19
438.943	103.19
439.165	98.19
439.386	83.19
439.608	97.19
439.829	106.19
440.05	91.19
440.272	91.19
440.493	94.19
440.715	106.19
440.936	108.19
441.158	87.19
441.379	92.19
441.6	95.19
441.822	89.19
442.043	96.19
442.264	98.19
442.486	83.19
442.707	92.19
442.928	84.19
443.149	99.19
443.371	99.19
443.592	97.19
443.813	98.19
444.034	97.19
444.255	95.19
444.476	94.19
444.698	97.19
444.919	97.19
445.14	200.19
445.361	154.19
445.582	102.19
445.803	95.19
446.024	103.19
446.245	99.19
446.466	99.19
446.687	94.19
446.908	96.19
447.129	97.19
447.35	86.19
447.571	83.19
447.792	96.19
448.013	105.19
448.234	94.19
448.455	87.19
448.675	97.19
448.896	84.19
449.117	101.19
449.338	109.19
449.559	96.19
449.779	94.19
450	82.19
450.221	93.19
450.442	97.19
450.662	85.19
450.883	104.19
451.104	97.19
451.324	93.19
451.545	94.19
451.766	88.19
451.986	82.19
452.207	99.19
452.428	103.19
452.648	83.19
452.869	80.19
453.089	81.19
453.31	94.19
453.53	85.19
453.751	81.19
453.971	92.19
454.192	73.19
454.412	83.19
454.633	96.19
454.853	96.19
455.073	91.19
455.294	98.19
455.514	97.19
455.734	93.19
455.955	80.19
456.175	85.19
456.395	90.19
456.616	82.19
456.836	81.19
457.056	97.19
457.276	73.19
457.497	76.19
457.717	79.19
457.937	88.19
458.157	92.19
458.377	75.19
458.598	88.19
458.818	86.19
459.038	84.19
459.258	84.19
459.478	85.19
459.698	76.19
459.918	79.19
460.138	95.19
460.358	88.19
460.578	82.19
460.798	94.19
461.018	84.19
461.238	92.19
461.458	87.19
461.678	81.19
461.898	99.19
462.118	92.19
462.338	95.19
462.558	93.19
462.777	95.19
462.997	103.19
463.217	84.19
463.437	94.19
463.657	85.19
463.876	89.19
464.096	88.19
464.316	84.19
464.536	96.19
464.755	100.19
464.975	87.19
465.195	83.19
465.414	96.19
465.634	80.19
465.854	86.19
466.073	91.19
466.293	94.19
466.512	96.19
466.732	95.19
466.951	88.19
467.171	96.19
467.391	102.19
467.61	112.19
467.829	77.19
468.049	106.19
468.268	108.19
468.488	90.19
468.707	102.19
468.927	95.19
469.146	102.19
469.365	96.19
469.585	81.19
469.804	97.19
470.023	98.19
470.243	94.19
470.462	89.19
470.681	98.19
470.901	93.19
471.12	108.19
471.339	103.19
471.558	112.19
471.777	99.19
471.997	107.19
472.216	101.19
472.435	100.19
472.654	95.19
472.873	85.19
473.092	83.19
473.311	100.19
473.53	104.19
473.749	96.19
473.968	100.19
474.187	94.19
474.406	96.19
474.625	99.19
474.844	97.19
475.063	100.19
475.282	81.19
475.501	77.19
475.72	80.19
475.939	91.19
476.158	96.19
476.377	100.19
476.596	87.19
476.814	83.19
477.033	90.19
477.252	96.19
477.471	92.19
477.69	90.19
477.908	88.19
478.127	94.19
478.346	95.19
478.564	104.19
478.783	97.19
479.002	91.19
479.22	90.19
479.439	95.19
479.658	89.19
479.876	88.19
480.095	92.19
480.313	89.19
480.532	102.19
480.751	91.19
480.969	74.19
481.188	82.19
481.406	98.19
481.624	85.19
481.843	83.19
482.061	94.19
482.28	101.19
482.498	91.19
482.717	95.19
482.935	93.19
483.153	96.19
483.372	93.19
483.59	101.19
483.808	89.19
484.027	107.19
484.245	103.19
484.463	111.19
484.681	113.19
484.9	100.19
485.118	102.19
485.336	76.19
485.554	68.19
485.772	82.19
485.99	96.19
486.209	85.19
486.427	97.19
486.645	82.19
486.863	93.19
487.081	89.19
487.299	90.19
487.517	108.19
487.735	100.19
487.953	116.19
488.171	114.19
488.389	104.19
488.607	111.19
488.825	99.19
489.043	94.19
489.261	101.19
489.479	96.19
489.696	86.19
489.914	99.19
490.132	108.19
490.35	101.19
490.568	115.19
490.786	115.19
491.003	117.19
491.221	106.19
491.439	106.19
491.657	111.19
491.874	137.19
492.092	114.19
492.31	127.19
492.527	115.19
492.745	113.19
492.963	98.19
493.18	104.19
493.398	102.19
493.615	112.19
493.833	117.19
494.05	107.19
494.268	97.19
494.485	113.19
494.703	104.19
494.92	119.19
495.138	111.19
495.355	108.19
495.573	112.19
495.79	103.19
496.008	103.19
496.225	109.19
496.442	109.19
496.66	94.19
496.877	104.19
497.094	113.19
497.312	103.19
497.529	101.19
497.746	101.19
497.963	78.19
498.181	97.19
498.398	90.19
498.615	84.19
498.832	96.19
499.049	79.19
499.267	101.19
499.484	105.19
499.701	91.19
499.918	99.19
500.135	106.19
500.352	98.19
500.569	97.19
500.786	111.19
501.003	88.19
501.22	113.19
501.437	99.19
501.654	103.19
501.871	97.19
502.088	102.19
502.305	99.19
502.522	85.19
502.739	96.19
502.956	96.19
503.172	83.19
503.389	72.19
503.606	92.19
503.823	102.19
504.04	104.19
504.256	88.19
504.473	88.19
504.69	96.19
504.907	101.19
505.123	80.19
505.34	97.19
505.557	100.19
505.773	89.19
505.99	113.19
506.207	89.19
506.423	96.19
506.64	96.19
506.856	99.19
507.073	99.19
507.289	88.19
507.506	89.19
507.722	87.19
507.939	75.19
508.155	96.19
508.372	99.19
508.588	88.19
508.805	90.19
509.021	88.19
509.238	85.19
509.454	93.19
509.67	99.19
509.887	87.19
510.103	95.19
510.319	79.19
510.536	83.19
510.752	76.19
510.968	82.19
511.184	82.19
511.401	92.19
511.617	88.19
511.833	76.19
512.049	82.19
512.265	79.19
512.481	95.19
512.698	75.19
512.914	79.19
513.13	84.19
513.346	90.19
513.562	90.19
513.778	85.19
513.994	86.19
514.21	67.19
514.426	81.19
514.642	104.19
514.858	90.19
515.074	80.19
515.29	74.19
515.506	77.19
515.721	77.19
515.937	73.19
516.153	89.19
516.369	87.19
516.585	87.19
516.801	80.19
517.016	78.19
517.232	87.19
517.448	94.19
