Data from Location4.07152019.Energy5.Lamp.07192019.3%Agarose_HRD10591_15-24-05-576.txt Node
Date: Fri Jul 19 15:24:05 EDT 2019
User: cochatt
Spectrometer: HR+D1059
Trigger mode: 1
Integration Time (sec): 1.000000E-1
Scans to average: 1
Electric dark correction enabled: true
Nonlinearity correction enabled: false
Boxcar width: 0
XAxis mode: Wavelengths
Number of Pixels in Spectrum: 2048
>>>>>Begin Spectral Data<<<<<
223.165	-1.88
223.4	-1.88
223.635	-1.88
223.869	-6.88
224.104	-7.88
224.338	-11.88
224.573	-11.88
224.808	-6.88
225.042	-8.88
225.277	-17.88
225.511	-8.88
225.746	12.12
225.98	6.12
226.215	5.12
226.449	-9.88
226.683	18.12
226.918	20.12
227.152	31.12
227.387	40.12
227.621	21.12
227.856	39.12
228.09	42.12
228.324	45.12
228.559	54.12
228.793	58.12
229.027	53.12
229.262	52.12
229.496	59.12
229.73	74.12
229.964	62.12
230.199	65.12
230.433	67.12
230.667	76.12
230.901	74.12
231.136	71.12
231.37	65.12
231.604	55.12
231.838	83.12
232.072	80.12
232.306	87.12
232.541	98.12
232.775	66.12
233.009	84.12
233.243	83.12
233.477	69.12
233.711	83.12
233.945	84.12
234.179	79.12
234.413	73.12
234.647	82.12
234.881	75.12
235.115	77.12
235.349	73.12
235.583	69.12
235.817	81.12
236.051	69.12
236.285	74.12
236.519	62.12
236.753	85.12
236.987	70.12
237.221	75.12
237.455	78.12
237.689	80.12
237.922	70.12
238.156	76.12
238.39	66.12
238.624	78.12
238.858	79.12
239.091	68.12
239.325	64.12
239.559	69.12
239.793	64.12
240.027	61.12
240.26	82.12
240.494	63.12
240.728	84.12
240.961	77.12
241.195	61.12
241.429	74.12
241.662	69.12
241.896	73.12
242.13	74.12
242.363	69.12
242.597	67.12
242.83	67.12
243.064	77.12
243.298	86.12
243.531	76.12
243.765	68.12
243.998	75.12
244.232	81.12
244.465	83.12
244.699	79.12
244.932	77.12
245.166	72.12
245.399	76.12
245.633	70.12
245.866	79.12
246.099	76.12
246.333	74.12
246.566	75.12
246.8	73.12
247.033	85.12
247.266	71.12
247.5	74.12
247.733	81.12
247.966	90.12
248.2	69.12
248.433	79.12
248.666	72.12
248.899	85.12
249.133	74.12
249.366	88.12
249.599	78.12
249.832	73.12
250.066	89.12
250.299	89.12
250.532	80.12
250.765	79.12
250.998	79.12
251.231	72.12
251.465	85.12
251.698	80.12
251.931	69.12
252.164	92.12
252.397	79.12
252.63	71.12
252.863	91.12
253.096	63.12
253.329	74.12
253.562	68.12
253.795	77.12
254.028	79.12
254.261	79.12
254.494	66.12
254.727	66.12
254.96	80.12
255.193	77.12
255.426	76.12
255.659	72.12
255.892	75.12
256.124	81.12
256.357	74.12
256.59	88.12
256.823	77.12
257.056	77.12
257.289	73.12
257.521	76.12
257.754	85.12
257.987	69.12
258.22	91.12
258.452	79.12
258.685	85.12
258.918	83.12
259.151	93.12
259.383	87.12
259.616	81.12
259.849	87.12
260.081	99.12
260.314	86.12
260.547	92.12
260.779	81.12
261.012	74.12
261.244	74.12
261.477	76.12
261.71	83.12
261.942	78.12
262.175	81.12
262.407	79.12
262.64	64.12
262.872	71.12
263.105	74.12
263.337	86.12
263.57	86.12
263.802	74.12
264.035	84.12
264.267	73.12
264.499	74.12
264.732	83.12
264.964	88.12
265.197	72.12
265.429	85.12
265.661	74.12
265.894	74.12
266.126	74.12
266.358	91.12
266.591	79.12
266.823	73.12
267.055	65.12
267.287	80.12
267.52	75.12
267.752	84.12
267.984	82.12
268.216	80.12
268.448	77.12
268.681	93.12
268.913	89.12
269.145	65.12
269.377	75.12
269.609	83.12
269.841	95.12
270.073	79.12
270.306	75.12
270.538	76.12
270.77	79.12
271.002	79.12
271.234	74.12
271.466	79.12
271.698	86.12
271.93	79.12
272.162	81.12
272.394	84.12
272.626	73.12
272.858	71.12
273.09	89.12
273.322	90.12
273.553	82.12
273.785	79.12
274.017	75.12
274.249	86.12
274.481	74.12
274.713	74.12
274.945	71.12
275.176	97.12
275.408	80.12
275.64	76.12
275.872	74.12
276.104	92.12
276.335	72.12
276.567	96.12
276.799	77.12
277.031	88.12
277.262	61.12
277.494	73.12
277.726	99.12
277.957	64.12
278.189	84.12
278.421	79.12
278.652	70.12
278.884	74.12
279.115	76.12
279.347	78.12
279.579	80.12
279.81	88.12
280.042	68.12
280.273	77.12
280.505	83.12
280.736	85.12
280.968	75.12
281.199	99.12
281.431	79.12
281.662	92.12
281.894	90.12
282.125	90.12
282.356	75.12
282.588	71.12
282.819	83.12
283.051	89.12
283.282	88.12
283.513	84.12
283.745	88.12
283.976	80.12
284.207	74.12
284.439	90.12
284.67	83.12
284.901	88.12
285.132	82.12
285.364	81.12
285.595	78.12
285.826	82.12
286.057	87.12
286.288	73.12
286.52	71.12
286.751	80.12
286.982	93.12
287.213	87.12
287.444	81.12
287.675	74.12
287.906	84.12
288.138	84.12
288.369	82.12
288.6	93.12
288.831	85.12
289.062	91.12
289.293	84.12
289.524	101.12
289.755	83.12
289.986	75.12
290.217	72.12
290.448	73.12
290.679	94.12
290.91	85.12
291.141	77.12
291.371	77.12
291.602	69.12
291.833	76.12
292.064	81.12
292.295	71.12
292.526	91.12
292.757	86.12
292.987	78.12
293.218	79.12
293.449	86.12
293.68	82.12
293.91	82.12
294.141	93.12
294.372	86.12
294.603	85.12
294.833	81.12
295.064	92.12
295.295	82.12
295.525	81.12
295.756	87.12
295.987	82.12
296.217	67.12
296.448	71.12
296.679	79.12
296.909	79.12
297.14	88.12
297.37	89.12
297.601	73.12
297.831	84.12
298.062	77.12
298.292	84.12
298.523	80.12
298.753	83.12
298.984	89.12
299.214	79.12
299.445	91.12
299.675	74.12
299.905	82.12
300.136	72.12
300.366	95.12
300.597	83.12
300.827	83.12
301.057	86.12
301.288	67.12
301.518	68.12
301.748	81.12
301.979	91.12
302.209	81.12
302.439	87.12
302.669	80.12
302.9	97.12
303.13	91.12
303.36	79.12
303.59	68.12
303.82	91.12
304.051	75.12
304.281	79.12
304.511	88.12
304.741	84.12
304.971	93.12
305.201	84.12
305.431	90.12
305.661	77.12
305.891	81.12
306.121	79.12
306.352	74.12
306.582	95.12
306.812	84.12
307.042	85.12
307.272	85.12
307.502	73.12
307.731	80.12
307.961	77.12
308.191	92.12
308.421	75.12
308.651	80.12
308.881	85.12
309.111	73.12
309.341	86.12
309.571	81.12
309.8	91.12
310.03	91.12
310.26	71.12
310.49	82.12
310.72	80.12
310.949	93.12
311.179	97.12
311.409	87.12
311.639	87.12
311.868	85.12
312.098	83.12
312.328	82.12
312.557	88.12
312.787	86.12
313.017	87.12
313.246	84.12
313.476	75.12
313.706	91.12
313.935	82.12
314.165	86.12
314.394	80.12
314.624	87.12
314.853	84.12
315.083	86.12
315.312	71.12
315.542	89.12
315.771	87.12
316.001	96.12
316.23	80.12
316.46	78.12
316.689	80.12
316.919	73.12
317.148	71.12
317.377	91.12
317.607	97.12
317.836	81.12
318.065	86.12
318.295	91.12
318.524	88.12
318.753	82.12
318.983	74.12
319.212	93.12
319.441	86.12
319.67	83.12
319.9	86.12
320.129	86.12
320.358	76.12
320.587	85.12
320.816	88.12
321.046	85.12
321.275	83.12
321.504	82.12
321.733	83.12
321.962	89.12
322.191	69.12
322.42	85.12
322.649	90.12
322.878	74.12
323.108	94.12
323.337	88.12
323.566	93.12
323.795	90.12
324.024	76.12
324.253	83.12
324.482	96.12
324.71	79.12
324.939	90.12
325.168	75.12
325.397	87.12
325.626	93.12
325.855	85.12
326.084	65.12
326.313	87.12
326.542	79.12
326.77	78.12
326.999	82.12
327.228	74.12
327.457	80.12
327.686	80.12
327.914	71.12
328.143	72.12
328.372	79.12
328.6	88.12
328.829	91.12
329.058	64.12
329.287	84.12
329.515	91.12
329.744	85.12
329.972	85.12
330.201	79.12
330.43	87.12
330.658	72.12
330.887	76.12
331.115	71.12
331.344	81.12
331.572	95.12
331.801	95.12
332.03	85.12
332.258	75.12
332.486	91.12
332.715	72.12
332.943	94.12
333.172	80.12
333.4	84.12
333.629	83.12
333.857	74.12
334.085	78.12
334.314	80.12
334.542	84.12
334.771	79.12
334.999	94.12
335.227	75.12
335.455	74.12
335.684	91.12
335.912	89.12
336.14	77.12
336.369	81.12
336.597	80.12
336.825	102.12
337.053	87.12
337.281	85.12
337.51	100.12
337.738	84.12
337.966	79.12
338.194	85.12
338.422	76.12
338.65	78.12
338.878	81.12
339.106	90.12
339.334	89.12
339.562	76.12
339.79	85.12
340.018	81.12
340.246	85.12
340.474	75.12
340.702	92.12
340.93	91.12
341.158	80.12
341.386	85.12
341.614	83.12
341.842	78.12
342.07	83.12
342.298	85.12
342.526	74.12
342.754	76.12
342.981	78.12
343.209	84.12
343.437	88.12
343.665	89.12
343.893	97.12
344.12	86.12
344.348	86.12
344.576	81.12
344.804	75.12
345.031	100.12
345.259	76.12
345.487	102.12
345.714	82.12
345.942	72.12
346.17	91.12
346.397	91.12
346.625	83.12
346.853	84.12
347.08	96.12
347.308	81.12
347.535	89.12
347.763	88.12
347.99	84.12
348.218	74.12
348.445	82.12
348.673	91.12
348.9	74.12
349.128	94.12
349.355	87.12
349.583	87.12
349.81	83.12
350.037	104.12
350.265	80.12
350.492	91.12
350.72	74.12
350.947	69.12
351.174	89.12
351.402	89.12
351.629	91.12
351.856	97.12
352.083	88.12
352.311	81.12
352.538	85.12
352.765	78.12
352.992	74.12
353.22	83.12
353.447	78.12
353.674	71.12
353.901	78.12
354.128	83.12
354.355	77.12
354.583	83.12
354.81	66.12
355.037	66.12
355.264	89.12
355.491	85.12
355.718	82.12
355.945	84.12
356.172	77.12
356.399	86.12
356.626	92.12
356.853	82.12
357.08	97.12
357.307	95.12
357.534	73.12
357.761	75.12
357.988	87.12
358.215	88.12
358.441	76.12
358.668	73.12
358.895	81.12
359.122	83.12
359.349	77.12
359.576	83.12
359.802	85.12
360.029	90.12
360.256	82.12
360.483	79.12
360.709	76.12
360.936	83.12
361.163	83.12
361.39	68.12
361.616	77.12
361.843	78.12
362.07	84.12
362.296	78.12
362.523	73.12
362.749	80.12
362.976	88.12
363.203	91.12
363.429	76.12
363.656	72.12
363.882	64.12
364.109	89.12
364.335	87.12
364.562	85.12
364.788	85.12
365.015	94.12
365.241	79.12
365.468	85.12
365.694	80.12
365.92	88.12
366.147	72.12
366.373	77.12
366.599	79.12
366.826	79.12
367.052	66.12
367.278	100.12
367.505	89.12
367.731	84.12
367.957	80.12
368.184	75.12
368.41	82.12
368.636	75.12
368.862	87.12
369.089	83.12
369.315	79.12
369.541	89.12
369.767	79.12
369.993	92.12
370.219	84.12
370.445	90.12
370.672	80.12
370.898	101.12
371.124	87.12
371.35	78.12
371.576	90.12
371.802	76.12
372.028	75.12
372.254	94.12
372.48	83.12
372.706	79.12
372.932	71.12
373.158	88.12
373.384	93.12
373.61	79.12
373.835	75.12
374.061	72.12
374.287	88.12
374.513	79.12
374.739	63.12
374.965	79.12
375.191	96.12
375.416	84.12
375.642	76.12
375.868	87.12
376.094	81.12
376.319	93.12
376.545	97.12
376.771	63.12
376.997	93.12
377.222	83.12
377.448	95.12
377.674	82.12
377.899	70.12
378.125	86.12
378.35	90.12
378.576	93.12
378.802	88.12
379.027	74.12
379.253	75.12
379.478	81.12
379.704	82.12
379.929	75.12
380.155	68.12
380.38	75.12
380.606	90.12
380.831	74.12
381.057	83.12
381.282	74.12
381.507	78.12
381.733	74.12
381.958	81.12
382.184	88.12
382.409	89.12
382.634	83.12
382.86	65.12
383.085	98.12
383.31	89.12
383.535	80.12
383.761	82.12
383.986	82.12
384.211	66.12
384.436	89.12
384.662	78.12
384.887	93.12
385.112	100.12
385.337	84.12
385.562	95.12
385.787	86.12
386.013	84.12
386.238	100.12
386.463	78.12
386.688	100.12
386.913	79.12
387.138	74.12
387.363	85.12
387.588	97.12
387.813	84.12
388.038	74.12
388.263	93.12
388.488	74.12
388.713	75.12
388.938	79.12
389.163	66.12
389.387	73.12
389.612	94.12
389.837	70.12
390.062	71.12
390.287	92.12
390.512	99.12
390.736	94.12
390.961	89.12
391.186	81.12
391.411	82.12
391.636	74.12
391.86	80.12
392.085	82.12
392.31	92.12
392.534	75.12
392.759	90.12
392.984	82.12
393.208	85.12
393.433	87.12
393.658	95.12
393.882	90.12
394.107	85.12
394.331	97.12
394.556	80.12
394.78	87.12
395.005	82.12
395.229	82.12
395.454	98.12
395.678	85.12
395.903	82.12
396.127	94.12
396.352	93.12
396.576	83.12
396.801	89.12
397.025	83.12
397.249	81.12
397.474	89.12
397.698	75.12
397.922	99.12
398.147	88.12
398.371	89.12
398.595	89.12
398.82	84.12
399.044	87.12
399.268	101.12
399.492	75.12
399.717	93.12
399.941	101.12
400.165	80.12
400.389	85.12
400.613	86.12
400.837	84.12
401.062	73.12
401.286	79.12
401.51	81.12
401.734	86.12
401.958	80.12
402.182	88.12
402.406	77.12
402.63	88.12
402.854	86.12
403.078	82.12
403.302	89.12
403.526	95.12
403.75	98.12
403.974	87.12
404.198	87.12
404.422	93.12
404.645	92.12
404.869	97.12
405.093	89.12
405.317	82.12
405.541	90.12
405.765	92.12
405.988	87.12
406.212	91.12
406.436	87.12
406.66	81.12
406.883	94.12
407.107	82.12
407.331	93.12
407.555	95.12
407.778	99.12
408.002	87.12
408.226	82.12
408.449	89.12
408.673	94.12
408.896	101.12
409.12	87.12
409.344	92.12
409.567	71.12
409.791	89.12
410.014	94.12
410.238	95.12
410.461	92.12
410.685	84.12
410.908	82.12
411.132	82.12
411.355	106.12
411.578	106.12
411.802	85.12
412.025	75.12
412.249	89.12
412.472	97.12
412.695	85.12
412.919	91.12
413.142	93.12
413.365	92.12
413.589	83.12
413.812	80.12
414.035	87.12
414.258	83.12
414.482	87.12
414.705	101.12
414.928	97.12
415.151	93.12
415.374	80.12
415.597	87.12
415.821	81.12
416.044	84.12
416.267	76.12
416.49	88.12
416.713	92.12
416.936	74.12
417.159	99.12
417.382	81.12
417.605	80.12
417.828	79.12
418.051	88.12
418.274	89.12
418.497	88.12
418.72	104.12
418.943	112.12
419.166	96.12
419.389	95.12
419.611	93.12
419.834	94.12
420.057	92.12
420.28	93.12
420.503	102.12
420.726	85.12
420.948	91.12
421.171	90.12
421.394	89.12
421.617	93.12
421.839	88.12
422.062	80.12
422.285	86.12
422.507	93.12
422.73	81.12
422.953	97.12
423.175	87.12
423.398	81.12
423.621	107.12
423.843	95.12
424.066	77.12
424.288	83.12
424.511	90.12
424.733	106.12
424.956	91.12
425.178	94.12
425.401	106.12
425.623	87.12
425.846	89.12
426.068	85.12
426.291	106.12
426.513	96.12
426.735	104.12
426.958	101.12
427.18	83.12
427.402	95.12
427.625	96.12
427.847	96.12
428.069	113.12
428.292	90.12
428.514	107.12
428.736	85.12
428.958	83.12
429.181	96.12
429.403	92.12
429.625	97.12
429.847	87.12
430.069	110.12
430.292	103.12
430.514	101.12
430.736	99.12
430.958	103.12
431.18	98.12
431.402	82.12
431.624	93.12
431.846	100.12
432.068	104.12
432.29	81.12
432.512	91.12
432.734	100.12
432.956	89.12
433.178	105.12
433.4	99.12
433.622	85.12
433.844	102.12
434.066	88.12
434.287	89.12
434.509	93.12
434.731	82.12
434.953	82.12
435.175	85.12
435.397	90.12
435.618	93.12
435.84	81.12
436.062	80.12
436.284	96.12
436.505	92.12
436.727	91.12
436.949	91.12
437.17	99.12
437.392	99.12
437.614	91.12
437.835	90.12
438.057	89.12
438.278	105.12
438.5	98.12
438.721	85.12
438.943	86.12
439.165	81.12
439.386	99.12
439.608	92.12
439.829	90.12
440.05	91.12
440.272	93.12
440.493	87.12
440.715	90.12
440.936	101.12
441.158	100.12
441.379	102.12
441.6	99.12
441.822	96.12
442.043	88.12
442.264	91.12
442.486	91.12
442.707	102.12
442.928	101.12
443.149	89.12
443.371	82.12
443.592	86.12
443.813	100.12
444.034	104.12
444.255	91.12
444.476	90.12
444.698	95.12
444.919	91.12
445.14	233.12
445.361	167.12
445.582	109.12
445.803	93.12
446.024	103.12
446.245	105.12
446.466	95.12
446.687	104.12
446.908	105.12
447.129	91.12
447.35	112.12
447.571	103.12
447.792	83.12
448.013	89.12
448.234	98.12
448.455	95.12
448.675	100.12
448.896	103.12
449.117	93.12
449.338	106.12
449.559	109.12
449.779	94.12
450	90.12
450.221	93.12
450.442	93.12
450.662	95.12
450.883	102.12
451.104	77.12
451.324	99.12
451.545	95.12
451.766	93.12
451.986	87.12
452.207	93.12
452.428	95.12
452.648	93.12
452.869	95.12
453.089	85.12
453.31	84.12
453.53	78.12
453.751	93.12
453.971	82.12
454.192	84.12
454.412	95.12
454.633	92.12
454.853	105.12
455.073	85.12
455.294	87.12
455.514	84.12
455.734	88.12
455.955	85.12
456.175	102.12
456.395	83.12
456.616	85.12
456.836	71.12
457.056	85.12
457.276	88.12
457.497	83.12
457.717	83.12
457.937	88.12
458.157	80.12
458.377	84.12
458.598	71.12
458.818	82.12
459.038	67.12
459.258	95.12
459.478	92.12
459.698	77.12
459.918	82.12
460.138	86.12
460.358	88.12
460.578	95.12
460.798	94.12
461.018	89.12
461.238	91.12
461.458	80.12
461.678	84.12
461.898	86.12
462.118	98.12
462.338	91.12
462.558	98.12
462.777	78.12
462.997	90.12
463.217	85.12
463.437	84.12
463.657	83.12
463.876	101.12
464.096	90.12
464.316	91.12
464.536	95.12
464.755	86.12
464.975	88.12
465.195	87.12
465.414	89.12
465.634	81.12
465.854	96.12
466.073	81.12
466.293	92.12
466.512	99.12
466.732	102.12
466.951	102.12
467.171	100.12
467.391	79.12
467.61	95.12
467.829	91.12
468.049	101.12
468.268	83.12
468.488	91.12
468.707	96.12
468.927	87.12
469.146	93.12
469.365	109.12
469.585	104.12
469.804	99.12
470.023	109.12
470.243	90.12
470.462	93.12
470.681	106.12
470.901	85.12
471.12	88.12
471.339	93.12
471.558	79.12
471.777	94.12
471.997	100.12
472.216	97.12
472.435	83.12
472.654	78.12
472.873	91.12
473.092	97.12
473.311	74.12
473.53	90.12
473.749	93.12
473.968	105.12
474.187	95.12
474.406	97.12
474.625	91.12
474.844	106.12
475.063	95.12
475.282	86.12
475.501	81.12
475.72	96.12
475.939	94.12
476.158	90.12
476.377	102.12
476.596	86.12
476.814	94.12
477.033	94.12
477.252	96.12
477.471	97.12
477.69	91.12
477.908	95.12
478.127	98.12
478.346	92.12
478.564	88.12
478.783	92.12
479.002	86.12
479.22	86.12
479.439	96.12
479.658	99.12
479.876	92.12
480.095	87.12
480.313	69.12
480.532	89.12
480.751	89.12
480.969	84.12
481.188	74.12
481.406	83.12
481.624	91.12
481.843	90.12
482.061	87.12
482.28	87.12
482.498	78.12
482.717	75.12
482.935	88.12
483.153	97.12
483.372	94.12
483.59	97.12
483.808	94.12
484.027	87.12
484.245	94.12
484.463	117.12
484.681	125.12
484.9	126.12
485.118	100.12
485.336	68.12
485.554	99.12
485.772	79.12
485.99	95.12
486.209	89.12
486.427	85.12
486.645	91.12
486.863	102.12
487.081	95.12
487.299	84.12
487.517	96.12
487.735	104.12
487.953	103.12
488.171	109.12
488.389	117.12
488.607	107.12
488.825	101.12
489.043	94.12
489.261	94.12
489.479	97.12
489.696	105.12
489.914	101.12
490.132	100.12
490.35	114.12
490.568	107.12
490.786	120.12
491.003	121.12
491.221	103.12
491.439	104.12
491.657	102.12
491.874	122.12
492.092	112.12
492.31	125.12
492.527	119.12
492.745	125.12
492.963	123.12
493.18	119.12
493.398	114.12
493.615	119.12
493.833	111.12
494.05	102.12
494.268	102.12
494.485	91.12
494.703	98.12
494.92	101.12
495.138	97.12
495.355	96.12
495.573	102.12
495.79	107.12
496.008	112.12
496.225	108.12
496.442	89.12
496.66	117.12
496.877	114.12
497.094	104.12
497.312	113.12
497.529	109.12
497.746	97.12
497.963	103.12
498.181	89.12
498.398	94.12
498.615	81.12
498.832	84.12
499.049	98.12
499.267	82.12
499.484	83.12
499.701	99.12
499.918	93.12
500.135	90.12
500.352	89.12
500.569	103.12
500.786	85.12
501.003	106.12
501.22	87.12
501.437	88.12
501.654	90.12
501.871	83.12
502.088	90.12
502.305	100.12
502.522	78.12
502.739	76.12
502.956	112.12
503.172	71.12
503.389	82.12
503.606	97.12
503.823	75.12
504.04	81.12
504.256	88.12
504.473	88.12
504.69	88.12
504.907	81.12
505.123	85.12
505.34	84.12
505.557	89.12
505.773	90.12
505.99	94.12
506.207	98.12
506.423	80.12
506.64	92.12
506.856	90.12
507.073	76.12
507.289	93.12
507.506	94.12
507.722	104.12
507.939	87.12
508.155	83.12
508.372	93.12
508.588	71.12
508.805	85.12
509.021	89.12
509.238	73.12
509.454	86.12
509.67	78.12
509.887	94.12
510.103	86.12
510.319	75.12
510.536	86.12
510.752	92.12
510.968	88.12
511.184	81.12
511.401	87.12
511.617	82.12
511.833	72.12
512.049	74.12
512.265	76.12
512.481	87.12
512.698	73.12
512.914	70.12
513.13	97.12
513.346	82.12
513.562	90.12
513.778	89.12
513.994	94.12
514.21	81.12
514.426	84.12
514.642	89.12
514.858	92.12
515.074	72.12
515.29	79.12
515.506	88.12
515.721	59.12
515.937	96.12
516.153	83.12
516.369	73.12
516.585	83.12
516.801	76.12
517.016	81.12
517.232	81.12
517.448	87.12
517.664	88.12
517.879	68.12
