Data from Location4.07152019.Energy5.Lamp.07192019.3%Agarose_HRD10591_15-24-25-577.txt Node
Date: Fri Jul 19 15:24:25 EDT 2019
User: cochatt
Spectrometer: HR+D1059
Trigger mode: 1
Integration Time (sec): 1.000000E-1
Scans to average: 1
Electric dark correction enabled: true
Nonlinearity correction enabled: false
Boxcar width: 0
XAxis mode: Wavelengths
Number of Pixels in Spectrum: 2048
>>>>>Begin Spectral Data<<<<<
223.165	-22.12
223.4	-22.12
223.635	-22.12
223.869	-14.12
224.104	-26.12
224.338	-23.12
224.573	-12.12
224.808	-19.12
225.042	-1.12
225.277	-20.12
225.511	-0.12
225.746	10.88
225.98	19.88
226.215	15.88
226.449	24.88
226.683	18.88
226.918	18.88
227.152	28.88
227.387	22.88
227.621	38.88
227.856	46.88
228.09	45.88
228.324	41.88
228.559	43.88
228.793	55.88
229.027	57.88
229.262	70.88
229.496	65.88
229.73	70.88
229.964	70.88
230.199	69.88
230.433	70.88
230.667	89.88
230.901	83.88
231.136	89.88
231.37	81.88
231.604	87.88
231.838	84.88
232.072	85.88
232.306	84.88
232.541	79.88
232.775	87.88
233.009	79.88
233.243	92.88
233.477	92.88
233.711	94.88
233.945	78.88
234.179	73.88
234.413	70.88
234.647	71.88
234.881	87.88
235.115	84.88
235.349	78.88
235.583	86.88
235.817	78.88
236.051	72.88
236.285	74.88
236.519	80.88
236.753	78.88
236.987	69.88
237.221	88.88
237.455	71.88
237.689	86.88
237.922	92.88
238.156	84.88
238.39	67.88
238.624	77.88
238.858	62.88
239.091	72.88
239.325	70.88
239.559	83.88
239.793	82.88
240.027	83.88
240.26	75.88
240.494	91.88
240.728	73.88
240.961	73.88
241.195	82.88
241.429	83.88
241.662	87.88
241.896	78.88
242.13	83.88
242.363	84.88
242.597	81.88
242.83	83.88
243.064	81.88
243.298	69.88
243.531	74.88
243.765	80.88
243.998	77.88
244.232	88.88
244.465	92.88
244.699	89.88
244.932	69.88
245.166	86.88
245.399	81.88
245.633	86.88
245.866	90.88
246.099	91.88
246.333	71.88
246.566	81.88
246.8	75.88
247.033	84.88
247.266	84.88
247.5	88.88
247.733	78.88
247.966	78.88
248.2	65.88
248.433	85.88
248.666	90.88
248.899	76.88
249.133	82.88
249.366	82.88
249.599	78.88
249.832	91.88
250.066	84.88
250.299	74.88
250.532	75.88
250.765	75.88
250.998	78.88
251.231	85.88
251.465	84.88
251.698	72.88
251.931	93.88
252.164	77.88
252.397	78.88
252.63	76.88
252.863	88.88
253.096	79.88
253.329	88.88
253.562	96.88
253.795	78.88
254.028	91.88
254.261	83.88
254.494	94.88
254.727	87.88
254.96	56.88
255.193	81.88
255.426	74.88
255.659	77.88
255.892	101.88
256.124	78.88
256.357	89.88
256.59	72.88
256.823	72.88
257.056	70.88
257.289	83.88
257.521	85.88
257.754	79.88
257.987	90.88
258.22	82.88
258.452	94.88
258.685	83.88
258.918	77.88
259.151	82.88
259.383	92.88
259.616	74.88
259.849	76.88
260.081	73.88
260.314	82.88
260.547	68.88
260.779	84.88
261.012	78.88
261.244	91.88
261.477	88.88
261.71	86.88
261.942	92.88
262.175	83.88
262.407	78.88
262.64	80.88
262.872	71.88
263.105	72.88
263.337	74.88
263.57	80.88
263.802	76.88
264.035	85.88
264.267	75.88
264.499	88.88
264.732	73.88
264.964	68.88
265.197	84.88
265.429	91.88
265.661	85.88
265.894	79.88
266.126	81.88
266.358	82.88
266.591	68.88
266.823	84.88
267.055	79.88
267.287	95.88
267.52	90.88
267.752	89.88
267.984	90.88
268.216	84.88
268.448	92.88
268.681	72.88
268.913	87.88
269.145	90.88
269.377	82.88
269.609	87.88
269.841	75.88
270.073	92.88
270.306	84.88
270.538	101.88
270.77	85.88
271.002	76.88
271.234	87.88
271.466	71.88
271.698	77.88
271.93	70.88
272.162	68.88
272.394	77.88
272.626	82.88
272.858	85.88
273.09	84.88
273.322	81.88
273.553	71.88
273.785	83.88
274.017	78.88
274.249	74.88
274.481	75.88
274.713	93.88
274.945	79.88
275.176	91.88
275.408	83.88
275.64	82.88
275.872	80.88
276.104	88.88
276.335	83.88
276.567	90.88
276.799	92.88
277.031	101.88
277.262	96.88
277.494	77.88
277.726	75.88
277.957	80.88
278.189	88.88
278.421	96.88
278.652	77.88
278.884	84.88
279.115	83.88
279.347	81.88
279.579	78.88
279.81	89.88
280.042	88.88
280.273	73.88
280.505	89.88
280.736	92.88
280.968	83.88
281.199	92.88
281.431	89.88
281.662	70.88
281.894	83.88
282.125	71.88
282.356	96.88
282.588	98.88
282.819	89.88
283.051	86.88
283.282	76.88
283.513	80.88
283.745	70.88
283.976	93.88
284.207	97.88
284.439	85.88
284.67	91.88
284.901	75.88
285.132	69.88
285.364	82.88
285.595	74.88
285.826	90.88
286.057	100.88
286.288	78.88
286.52	86.88
286.751	68.88
286.982	84.88
287.213	86.88
287.444	76.88
287.675	93.88
287.906	95.88
288.138	81.88
288.369	86.88
288.6	86.88
288.831	97.88
289.062	87.88
289.293	85.88
289.524	81.88
289.755	90.88
289.986	96.88
290.217	91.88
290.448	88.88
290.679	92.88
290.91	89.88
291.141	88.88
291.371	90.88
291.602	90.88
291.833	77.88
292.064	80.88
292.295	88.88
292.526	74.88
292.757	89.88
292.987	81.88
293.218	78.88
293.449	84.88
293.68	101.88
293.91	89.88
294.141	86.88
294.372	94.88
294.603	105.88
294.833	78.88
295.064	93.88
295.295	99.88
295.525	68.88
295.756	91.88
295.987	83.88
296.217	92.88
296.448	81.88
296.679	87.88
296.909	90.88
297.14	70.88
297.37	86.88
297.601	74.88
297.831	93.88
298.062	78.88
298.292	83.88
298.523	80.88
298.753	83.88
298.984	97.88
299.214	74.88
299.445	99.88
299.675	89.88
299.905	91.88
300.136	88.88
300.366	72.88
300.597	86.88
300.827	82.88
301.057	91.88
301.288	77.88
301.518	92.88
301.748	88.88
301.979	98.88
302.209	91.88
302.439	76.88
302.669	66.88
302.9	76.88
303.13	92.88
303.36	101.88
303.59	69.88
303.82	80.88
304.051	102.88
304.281	86.88
304.511	85.88
304.741	91.88
304.971	78.88
305.201	87.88
305.431	76.88
305.661	84.88
305.891	102.88
306.121	90.88
306.352	88.88
306.582	86.88
306.812	85.88
307.042	87.88
307.272	85.88
307.502	75.88
307.731	95.88
307.961	85.88
308.191	83.88
308.421	80.88
308.651	66.88
308.881	80.88
309.111	104.88
309.341	89.88
309.571	73.88
309.8	81.88
310.03	90.88
310.26	87.88
310.49	91.88
310.72	86.88
310.949	80.88
311.179	83.88
311.409	84.88
311.639	79.88
311.868	86.88
312.098	88.88
312.328	83.88
312.557	97.88
312.787	87.88
313.017	91.88
313.246	80.88
313.476	79.88
313.706	82.88
313.935	61.88
314.165	80.88
314.394	84.88
314.624	88.88
314.853	86.88
315.083	79.88
315.312	88.88
315.542	77.88
315.771	86.88
316.001	84.88
316.23	90.88
316.46	85.88
316.689	73.88
316.919	73.88
317.148	97.88
317.377	84.88
317.607	84.88
317.836	97.88
318.065	93.88
318.295	90.88
318.524	82.88
318.753	84.88
318.983	85.88
319.212	83.88
319.441	85.88
319.67	96.88
319.9	81.88
320.129	96.88
320.358	84.88
320.587	79.88
320.816	88.88
321.046	84.88
321.275	85.88
321.504	81.88
321.733	86.88
321.962	92.88
322.191	71.88
322.42	98.88
322.649	102.88
322.878	92.88
323.108	98.88
323.337	93.88
323.566	87.88
323.795	86.88
324.024	80.88
324.253	85.88
324.482	91.88
324.71	84.88
324.939	88.88
325.168	90.88
325.397	97.88
325.626	95.88
325.855	82.88
326.084	78.88
326.313	88.88
326.542	73.88
326.77	88.88
326.999	98.88
327.228	87.88
327.457	99.88
327.686	68.88
327.914	92.88
328.143	98.88
328.372	88.88
328.6	71.88
328.829	85.88
329.058	101.88
329.287	75.88
329.515	75.88
329.744	89.88
329.972	91.88
330.201	100.88
330.43	94.88
330.658	93.88
330.887	66.88
331.115	88.88
331.344	76.88
331.572	86.88
331.801	83.88
332.03	79.88
332.258	88.88
332.486	86.88
332.715	85.88
332.943	68.88
333.172	82.88
333.4	79.88
333.629	87.88
333.857	91.88
334.085	88.88
334.314	91.88
334.542	88.88
334.771	84.88
334.999	90.88
335.227	95.88
335.455	85.88
335.684	84.88
335.912	86.88
336.14	86.88
336.369	80.88
336.597	88.88
336.825	86.88
337.053	72.88
337.281	77.88
337.51	81.88
337.738	89.88
337.966	78.88
338.194	78.88
338.422	100.88
338.65	90.88
338.878	109.88
339.106	88.88
339.334	73.88
339.562	99.88
339.79	83.88
340.018	93.88
340.246	84.88
340.474	68.88
340.702	86.88
340.93	71.88
341.158	75.88
341.386	99.88
341.614	82.88
341.842	99.88
342.07	83.88
342.298	69.88
342.526	80.88
342.754	91.88
342.981	99.88
343.209	85.88
343.437	98.88
343.665	92.88
343.893	77.88
344.12	94.88
344.348	84.88
344.576	94.88
344.804	80.88
345.031	97.88
345.259	94.88
345.487	86.88
345.714	76.88
345.942	88.88
346.17	87.88
346.397	92.88
346.625	93.88
346.853	85.88
347.08	94.88
347.308	87.88
347.535	93.88
347.763	89.88
347.99	99.88
348.218	89.88
348.445	85.88
348.673	72.88
348.9	92.88
349.128	85.88
349.355	93.88
349.583	92.88
349.81	84.88
350.037	89.88
350.265	84.88
350.492	83.88
350.72	72.88
350.947	81.88
351.174	100.88
351.402	87.88
351.629	79.88
351.856	88.88
352.083	77.88
352.311	89.88
352.538	97.88
352.765	73.88
352.992	83.88
353.22	98.88
353.447	80.88
353.674	81.88
353.901	89.88
354.128	89.88
354.355	86.88
354.583	76.88
354.81	82.88
355.037	88.88
355.264	86.88
355.491	91.88
355.718	80.88
355.945	73.88
356.172	85.88
356.399	96.88
356.626	92.88
356.853	87.88
357.08	95.88
357.307	87.88
357.534	98.88
357.761	74.88
357.988	88.88
358.215	82.88
358.441	93.88
358.668	92.88
358.895	82.88
359.122	92.88
359.349	86.88
359.576	90.88
359.802	77.88
360.029	86.88
360.256	89.88
360.483	81.88
360.709	91.88
360.936	87.88
361.163	100.88
361.39	96.88
361.616	99.88
361.843	90.88
362.07	86.88
362.296	80.88
362.523	83.88
362.749	98.88
362.976	85.88
363.203	71.88
363.429	78.88
363.656	61.88
363.882	74.88
364.109	89.88
364.335	88.88
364.562	76.88
364.788	91.88
365.015	71.88
365.241	84.88
365.468	87.88
365.694	79.88
365.92	85.88
366.147	89.88
366.373	90.88
366.599	82.88
366.826	90.88
367.052	85.88
367.278	72.88
367.505	81.88
367.731	77.88
367.957	92.88
368.184	86.88
368.41	91.88
368.636	91.88
368.862	101.88
369.089	92.88
369.315	76.88
369.541	86.88
369.767	90.88
369.993	84.88
370.219	80.88
370.445	84.88
370.672	87.88
370.898	100.88
371.124	85.88
371.35	101.88
371.576	87.88
371.802	80.88
372.028	93.88
372.254	79.88
372.48	93.88
372.706	96.88
372.932	92.88
373.158	85.88
373.384	87.88
373.61	89.88
373.835	85.88
374.061	94.88
374.287	100.88
374.513	84.88
374.739	73.88
374.965	79.88
375.191	81.88
375.416	94.88
375.642	68.88
375.868	99.88
376.094	87.88
376.319	95.88
376.545	86.88
376.771	85.88
376.997	74.88
377.222	79.88
377.448	80.88
377.674	73.88
377.899	77.88
378.125	96.88
378.35	87.88
378.576	89.88
378.802	89.88
379.027	91.88
379.253	90.88
379.478	83.88
379.704	89.88
379.929	86.88
380.155	93.88
380.38	88.88
380.606	80.88
380.831	99.88
381.057	97.88
381.282	84.88
381.507	96.88
381.733	86.88
381.958	81.88
382.184	88.88
382.409	83.88
382.634	90.88
382.86	89.88
383.085	98.88
383.31	83.88
383.535	95.88
383.761	96.88
383.986	79.88
384.211	84.88
384.436	84.88
384.662	90.88
384.887	69.88
385.112	91.88
385.337	76.88
385.562	89.88
385.787	76.88
386.013	88.88
386.238	86.88
386.463	83.88
386.688	96.88
386.913	80.88
387.138	87.88
387.363	85.88
387.588	86.88
387.813	79.88
388.038	81.88
388.263	81.88
388.488	86.88
388.713	88.88
388.938	94.88
389.163	73.88
389.387	93.88
389.612	88.88
389.837	91.88
390.062	103.88
390.287	89.88
390.512	80.88
390.736	88.88
390.961	96.88
391.186	85.88
391.411	95.88
391.636	92.88
391.86	91.88
392.085	87.88
392.31	103.88
392.534	87.88
392.759	85.88
392.984	70.88
393.208	66.88
393.433	77.88
393.658	95.88
393.882	90.88
394.107	80.88
394.331	86.88
394.556	82.88
394.78	101.88
395.005	92.88
395.229	92.88
395.454	89.88
395.678	90.88
395.903	90.88
396.127	95.88
396.352	84.88
396.576	98.88
396.801	79.88
397.025	95.88
397.249	82.88
397.474	84.88
397.698	82.88
397.922	83.88
398.147	88.88
398.371	99.88
398.595	74.88
398.82	83.88
399.044	95.88
399.268	74.88
399.492	82.88
399.717	88.88
399.941	76.88
400.165	88.88
400.389	90.88
400.613	74.88
400.837	85.88
401.062	103.88
401.286	81.88
401.51	89.88
401.734	81.88
401.958	97.88
402.182	91.88
402.406	86.88
402.63	93.88
402.854	97.88
403.078	83.88
403.302	93.88
403.526	89.88
403.75	97.88
403.974	99.88
404.198	98.88
404.422	87.88
404.645	77.88
404.869	89.88
405.093	84.88
405.317	95.88
405.541	88.88
405.765	85.88
405.988	81.88
406.212	72.88
406.436	88.88
406.66	95.88
406.883	85.88
407.107	89.88
407.331	80.88
407.555	105.88
407.778	79.88
408.002	89.88
408.226	100.88
408.449	90.88
408.673	97.88
408.896	90.88
409.12	88.88
409.344	89.88
409.567	105.88
409.791	86.88
410.014	95.88
410.238	93.88
410.461	99.88
410.685	103.88
410.908	97.88
411.132	84.88
411.355	78.88
411.578	90.88
411.802	87.88
412.025	99.88
412.249	80.88
412.472	103.88
412.695	98.88
412.919	87.88
413.142	112.88
413.365	79.88
413.589	92.88
413.812	93.88
414.035	116.88
414.258	110.88
414.482	99.88
414.705	94.88
414.928	74.88
415.151	98.88
415.374	94.88
415.597	105.88
415.821	98.88
416.044	91.88
416.267	94.88
416.49	102.88
416.713	107.88
416.936	80.88
417.159	94.88
417.382	93.88
417.605	104.88
417.828	83.88
418.051	98.88
418.274	93.88
418.497	93.88
418.72	92.88
418.943	80.88
419.166	102.88
419.389	100.88
419.611	99.88
419.834	90.88
420.057	94.88
420.28	100.88
420.503	98.88
420.726	85.88
420.948	97.88
421.171	109.88
421.394	91.88
421.617	85.88
421.839	99.88
422.062	91.88
422.285	99.88
422.507	100.88
422.73	83.88
422.953	103.88
423.175	95.88
423.398	94.88
423.621	92.88
423.843	94.88
424.066	100.88
424.288	86.88
424.511	102.88
424.733	84.88
424.956	93.88
425.178	94.88
425.401	107.88
425.623	99.88
425.846	96.88
426.068	84.88
426.291	80.88
426.513	92.88
426.735	106.88
426.958	87.88
427.18	82.88
427.402	89.88
427.625	109.88
427.847	99.88
428.069	100.88
428.292	98.88
428.514	101.88
428.736	86.88
428.958	93.88
429.181	100.88
429.403	86.88
429.625	100.88
429.847	89.88
430.069	93.88
430.292	94.88
430.514	86.88
430.736	92.88
430.958	76.88
431.18	79.88
431.402	101.88
431.624	91.88
431.846	93.88
432.068	99.88
432.29	78.88
432.512	86.88
432.734	92.88
432.956	94.88
433.178	97.88
433.4	98.88
433.622	112.88
433.844	101.88
434.066	79.88
434.287	94.88
434.509	82.88
434.731	80.88
434.953	85.88
435.175	90.88
435.397	88.88
435.618	92.88
435.84	81.88
436.062	89.88
436.284	110.88
436.505	102.88
436.727	96.88
436.949	98.88
437.17	101.88
437.392	76.88
437.614	88.88
437.835	93.88
438.057	81.88
438.278	91.88
438.5	81.88
438.721	91.88
438.943	99.88
439.165	95.88
439.386	102.88
439.608	98.88
439.829	110.88
440.05	102.88
440.272	94.88
440.493	93.88
440.715	107.88
440.936	99.88
441.158	104.88
441.379	91.88
441.6	93.88
441.822	97.88
442.043	102.88
442.264	96.88
442.486	96.88
442.707	90.88
442.928	104.88
443.149	102.88
443.371	86.88
443.592	94.88
443.813	91.88
444.034	81.88
444.255	99.88
444.476	101.88
444.698	102.88
444.919	120.88
445.14	201.88
445.361	149.88
445.582	106.88
445.803	103.88
446.024	101.88
446.245	88.88
446.466	112.88
446.687	100.88
446.908	95.88
447.129	116.88
447.35	94.88
447.571	94.88
447.792	101.88
448.013	74.88
448.234	97.88
448.455	90.88
448.675	92.88
448.896	106.88
449.117	102.88
449.338	98.88
449.559	102.88
449.779	96.88
450	114.88
450.221	84.88
450.442	99.88
450.662	101.88
450.883	103.88
451.104	99.88
451.324	96.88
451.545	102.88
451.766	92.88
451.986	84.88
452.207	89.88
452.428	93.88
452.648	82.88
452.869	84.88
453.089	82.88
453.31	92.88
453.53	102.88
453.751	87.88
453.971	76.88
454.192	89.88
454.412	90.88
454.633	78.88
454.853	87.88
455.073	93.88
455.294	75.88
455.514	96.88
455.734	103.88
455.955	96.88
456.175	104.88
456.395	84.88
456.616	97.88
456.836	87.88
457.056	107.88
457.276	75.88
457.497	80.88
457.717	92.88
457.937	84.88
458.157	84.88
458.377	85.88
458.598	87.88
458.818	70.88
459.038	82.88
459.258	78.88
459.478	93.88
459.698	94.88
459.918	83.88
460.138	98.88
460.358	94.88
460.578	102.88
460.798	91.88
461.018	84.88
461.238	92.88
461.458	104.88
461.678	98.88
461.898	67.88
462.118	80.88
462.338	98.88
462.558	92.88
462.777	74.88
462.997	88.88
463.217	79.88
463.437	92.88
463.657	96.88
463.876	100.88
464.096	92.88
464.316	97.88
464.536	81.88
464.755	82.88
464.975	88.88
465.195	104.88
465.414	110.88
465.634	80.88
465.854	98.88
466.073	94.88
466.293	98.88
466.512	96.88
466.732	101.88
466.951	90.88
467.171	78.88
467.391	98.88
467.61	92.88
467.829	97.88
468.049	94.88
468.268	95.88
468.488	101.88
468.707	99.88
468.927	109.88
469.146	104.88
469.365	104.88
469.585	87.88
469.804	92.88
470.023	102.88
470.243	99.88
470.462	107.88
470.681	102.88
470.901	94.88
471.12	94.88
471.339	95.88
471.558	106.88
471.777	97.88
471.997	104.88
472.216	97.88
472.435	87.88
472.654	85.88
472.873	83.88
473.092	95.88
473.311	102.88
473.53	97.88
473.749	89.88
473.968	106.88
474.187	100.88
474.406	100.88
474.625	110.88
474.844	96.88
475.063	96.88
475.282	96.88
475.501	93.88
475.72	90.88
475.939	87.88
476.158	91.88
476.377	97.88
476.596	110.88
476.814	84.88
477.033	97.88
477.252	86.88
477.471	87.88
477.69	95.88
477.908	98.88
478.127	97.88
478.346	96.88
478.564	87.88
478.783	105.88
479.002	115.88
479.22	100.88
479.439	86.88
479.658	84.88
479.876	74.88
480.095	99.88
480.313	105.88
480.532	86.88
480.751	84.88
480.969	78.88
481.188	84.88
481.406	95.88
481.624	80.88
481.843	87.88
482.061	92.88
482.28	93.88
482.498	91.88
482.717	84.88
482.935	87.88
483.153	97.88
483.372	94.88
483.59	109.88
483.808	93.88
484.027	103.88
484.245	98.88
484.463	92.88
484.681	93.88
484.9	116.88
485.118	104.88
485.336	96.88
485.554	99.88
485.772	78.88
485.99	93.88
486.209	91.88
486.427	84.88
486.645	105.88
486.863	89.88
487.081	92.88
487.299	89.88
487.517	99.88
487.735	106.88
487.953	121.88
488.171	98.88
488.389	109.88
488.607	107.88
488.825	115.88
489.043	96.88
489.261	90.88
489.479	90.88
489.696	89.88
489.914	103.88
490.132	90.88
490.35	101.88
490.568	122.88
490.786	100.88
491.003	109.88
491.221	114.88
491.439	116.88
491.657	122.88
491.874	120.88
492.092	129.88
492.31	127.88
492.527	130.88
492.745	109.88
492.963	117.88
493.18	113.88
493.398	108.88
493.615	106.88
493.833	113.88
494.05	109.88
494.268	108.88
494.485	110.88
494.703	106.88
494.92	109.88
495.138	111.88
495.355	108.88
495.573	114.88
495.79	98.88
496.008	114.88
496.225	102.88
496.442	109.88
496.66	116.88
496.877	105.88
497.094	116.88
497.312	93.88
497.529	104.88
497.746	93.88
497.963	85.88
498.181	96.88
498.398	103.88
498.615	83.88
498.832	87.88
499.049	103.88
499.267	97.88
499.484	95.88
499.701	103.88
499.918	102.88
500.135	91.88
500.352	101.88
500.569	96.88
500.786	112.88
501.003	93.88
501.22	98.88
501.437	108.88
501.654	107.88
501.871	96.88
502.088	100.88
502.305	108.88
502.522	81.88
502.739	100.88
502.956	93.88
503.172	89.88
503.389	102.88
503.606	103.88
503.823	89.88
504.04	99.88
504.256	108.88
504.473	89.88
504.69	96.88
504.907	100.88
505.123	93.88
505.34	97.88
505.557	93.88
505.773	95.88
505.99	88.88
506.207	93.88
506.423	85.88
506.64	91.88
506.856	96.88
507.073	102.88
507.289	86.88
507.506	88.88
507.722	99.88
507.939	98.88
508.155	100.88
508.372	86.88
508.588	96.88
508.805	89.88
509.021	90.88
509.238	91.88
509.454	83.88
509.67	86.88
509.887	105.88
510.103	85.88
510.319	76.88
510.536	81.88
510.752	95.88
510.968	87.88
511.184	79.88
511.401	86.88
511.617	92.88
511.833	84.88
512.049	81.88
512.265	78.88
512.481	82.88
512.698	98.88
512.914	95.88
513.13	87.88
513.346	84.88
513.562	76.88
513.778	88.88
513.994	76.88
514.21	89.88
514.426	107.88
514.642	93.88
514.858	89.88
515.074	93.88
515.29	83.88
515.506	75.88
515.721	90.88
515.937	81.88
516.153	83.88
516.369	83.88
516.585	99.88
516.801	87.88
517.016	75.88
