Data from Location4.07152019.Energy5.Lamp.07192019.3%Agarose_HRD10591_15-25-34-578.txt Node
Date: Fri Jul 19 15:25:34 EDT 2019
User: cochatt
Spectrometer: HR+D1059
Trigger mode: 1
Integration Time (sec): 1.000000E-1
Scans to average: 1
Electric dark correction enabled: true
Nonlinearity correction enabled: false
Boxcar width: 0
XAxis mode: Wavelengths
Number of Pixels in Spectrum: 2048
>>>>>Begin Spectral Data<<<<<
223.165	-20.38
223.4	-20.38
223.635	-20.38
223.869	-16.38
224.104	-14.38
224.338	-13.38
224.573	-4.38
224.808	-6.38
225.042	-12.38
225.277	-7.38
225.511	-16.38
225.746	19.62
225.98	3.62
226.215	11.62
226.449	-0.38
226.683	22.62
226.918	23.62
227.152	30.62
227.387	25.62
227.621	33.62
227.856	47.62
228.09	64.62
228.324	46.62
228.559	53.62
228.793	45.62
229.027	56.62
229.262	67.62
229.496	73.62
229.73	88.62
229.964	74.62
230.199	52.62
230.433	65.62
230.667	74.62
230.901	90.62
231.136	85.62
231.37	82.62
231.604	80.62
231.838	82.62
232.072	83.62
232.306	83.62
232.541	82.62
232.775	84.62
233.009	85.62
233.243	72.62
233.477	82.62
233.711	88.62
233.945	81.62
234.179	73.62
234.413	85.62
234.647	90.62
234.881	79.62
235.115	85.62
235.349	90.62
235.583	77.62
235.817	71.62
236.051	60.62
236.285	75.62
236.519	91.62
236.753	71.62
236.987	70.62
237.221	81.62
237.455	69.62
237.689	77.62
237.922	90.62
238.156	81.62
238.39	72.62
238.624	67.62
238.858	87.62
239.091	65.62
239.325	79.62
239.559	61.62
239.793	64.62
240.027	65.62
240.26	72.62
240.494	71.62
240.728	63.62
240.961	73.62
241.195	76.62
241.429	82.62
241.662	73.62
241.896	90.62
242.13	81.62
242.363	71.62
242.597	65.62
242.83	79.62
243.064	73.62
243.298	77.62
243.531	75.62
243.765	71.62
243.998	85.62
244.232	73.62
244.465	75.62
244.699	81.62
244.932	76.62
245.166	75.62
245.399	92.62
245.633	92.62
245.866	67.62
246.099	71.62
246.333	54.62
246.566	71.62
246.8	69.62
247.033	90.62
247.266	71.62
247.5	72.62
247.733	85.62
247.966	83.62
248.2	63.62
248.433	81.62
248.666	82.62
248.899	71.62
249.133	80.62
249.366	94.62
249.599	83.62
249.832	72.62
250.066	69.62
250.299	77.62
250.532	78.62
250.765	77.62
250.998	79.62
251.231	83.62
251.465	75.62
251.698	76.62
251.931	72.62
252.164	94.62
252.397	84.62
252.63	86.62
252.863	66.62
253.096	69.62
253.329	74.62
253.562	78.62
253.795	87.62
254.028	75.62
254.261	67.62
254.494	75.62
254.727	75.62
254.96	76.62
255.193	87.62
255.426	73.62
255.659	74.62
255.892	81.62
256.124	69.62
256.357	81.62
256.59	86.62
256.823	88.62
257.056	74.62
257.289	90.62
257.521	86.62
257.754	77.62
257.987	82.62
258.22	88.62
258.452	71.62
258.685	73.62
258.918	64.62
259.151	81.62
259.383	77.62
259.616	87.62
259.849	77.62
260.081	81.62
260.314	90.62
260.547	71.62
260.779	74.62
261.012	78.62
261.244	73.62
261.477	72.62
261.71	74.62
261.942	77.62
262.175	69.62
262.407	65.62
262.64	77.62
262.872	83.62
263.105	77.62
263.337	94.62
263.57	77.62
263.802	88.62
264.035	82.62
264.267	83.62
264.499	73.62
264.732	71.62
264.964	91.62
265.197	80.62
265.429	93.62
265.661	84.62
265.894	84.62
266.126	84.62
266.358	72.62
266.591	75.62
266.823	80.62
267.055	78.62
267.287	72.62
267.52	74.62
267.752	87.62
267.984	71.62
268.216	79.62
268.448	81.62
268.681	75.62
268.913	86.62
269.145	59.62
269.377	71.62
269.609	68.62
269.841	74.62
270.073	72.62
270.306	88.62
270.538	78.62
270.77	77.62
271.002	73.62
271.234	84.62
271.466	86.62
271.698	74.62
271.93	79.62
272.162	81.62
272.394	95.62
272.626	84.62
272.858	83.62
273.09	64.62
273.322	89.62
273.553	84.62
273.785	83.62
274.017	89.62
274.249	89.62
274.481	73.62
274.713	80.62
274.945	81.62
275.176	70.62
275.408	90.62
275.64	85.62
275.872	92.62
276.104	81.62
276.335	82.62
276.567	67.62
276.799	73.62
277.031	72.62
277.262	82.62
277.494	98.62
277.726	99.62
277.957	95.62
278.189	82.62
278.421	77.62
278.652	89.62
278.884	74.62
279.115	75.62
279.347	82.62
279.579	78.62
279.81	79.62
280.042	82.62
280.273	89.62
280.505	80.62
280.736	79.62
280.968	81.62
281.199	73.62
281.431	84.62
281.662	92.62
281.894	92.62
282.125	80.62
282.356	88.62
282.588	78.62
282.819	110.62
283.051	72.62
283.282	92.62
283.513	86.62
283.745	87.62
283.976	77.62
284.207	85.62
284.439	84.62
284.67	86.62
284.901	85.62
285.132	65.62
285.364	86.62
285.595	89.62
285.826	83.62
286.057	104.62
286.288	74.62
286.52	76.62
286.751	98.62
286.982	75.62
287.213	82.62
287.444	84.62
287.675	80.62
287.906	73.62
288.138	78.62
288.369	82.62
288.6	81.62
288.831	86.62
289.062	73.62
289.293	94.62
289.524	70.62
289.755	79.62
289.986	79.62
290.217	78.62
290.448	85.62
290.679	83.62
290.91	77.62
291.141	87.62
291.371	76.62
291.602	81.62
291.833	72.62
292.064	77.62
292.295	81.62
292.526	80.62
292.757	72.62
292.987	88.62
293.218	81.62
293.449	83.62
293.68	86.62
293.91	88.62
294.141	75.62
294.372	79.62
294.603	75.62
294.833	86.62
295.064	75.62
295.295	87.62
295.525	85.62
295.756	77.62
295.987	72.62
296.217	83.62
296.448	86.62
296.679	85.62
296.909	78.62
297.14	73.62
297.37	76.62
297.601	93.62
297.831	75.62
298.062	86.62
298.292	87.62
298.523	92.62
298.753	83.62
298.984	102.62
299.214	82.62
299.445	89.62
299.675	95.62
299.905	80.62
300.136	65.62
300.366	76.62
300.597	88.62
300.827	80.62
301.057	98.62
301.288	79.62
301.518	83.62
301.748	91.62
301.979	85.62
302.209	91.62
302.439	83.62
302.669	73.62
302.9	89.62
303.13	63.62
303.36	75.62
303.59	78.62
303.82	79.62
304.051	89.62
304.281	92.62
304.511	89.62
304.741	81.62
304.971	91.62
305.201	83.62
305.431	75.62
305.661	63.62
305.891	91.62
306.121	91.62
306.352	81.62
306.582	99.62
306.812	87.62
307.042	81.62
307.272	86.62
307.502	86.62
307.731	83.62
307.961	82.62
308.191	71.62
308.421	84.62
308.651	74.62
308.881	77.62
309.111	86.62
309.341	80.62
309.571	81.62
309.8	94.62
310.03	90.62
310.26	94.62
310.49	94.62
310.72	76.62
310.949	92.62
311.179	80.62
311.409	82.62
311.639	75.62
311.868	96.62
312.098	98.62
312.328	83.62
312.557	83.62
312.787	78.62
313.017	79.62
313.246	74.62
313.476	83.62
313.706	81.62
313.935	86.62
314.165	90.62
314.394	77.62
314.624	82.62
314.853	85.62
315.083	83.62
315.312	77.62
315.542	77.62
315.771	85.62
316.001	84.62
316.23	92.62
316.46	89.62
316.689	91.62
316.919	77.62
317.148	81.62
317.377	81.62
317.607	93.62
317.836	96.62
318.065	85.62
318.295	77.62
318.524	91.62
318.753	98.62
318.983	78.62
319.212	70.62
319.441	80.62
319.67	88.62
319.9	96.62
320.129	86.62
320.358	79.62
320.587	92.62
320.816	90.62
321.046	89.62
321.275	83.62
321.504	84.62
321.733	80.62
321.962	86.62
322.191	85.62
322.42	69.62
322.649	91.62
322.878	83.62
323.108	93.62
323.337	89.62
323.566	84.62
323.795	90.62
324.024	93.62
324.253	82.62
324.482	68.62
324.71	81.62
324.939	81.62
325.168	91.62
325.397	80.62
325.626	83.62
325.855	69.62
326.084	77.62
326.313	93.62
326.542	86.62
326.77	73.62
326.999	75.62
327.228	81.62
327.457	72.62
327.686	83.62
327.914	83.62
328.143	75.62
328.372	86.62
328.6	71.62
328.829	82.62
329.058	84.62
329.287	87.62
329.515	88.62
329.744	93.62
329.972	82.62
330.201	74.62
330.43	88.62
330.658	78.62
330.887	86.62
331.115	87.62
331.344	77.62
331.572	90.62
331.801	81.62
332.03	74.62
332.258	85.62
332.486	74.62
332.715	80.62
332.943	75.62
333.172	89.62
333.4	83.62
333.629	71.62
333.857	93.62
334.085	79.62
334.314	65.62
334.542	92.62
334.771	89.62
334.999	89.62
335.227	84.62
335.455	83.62
335.684	90.62
335.912	86.62
336.14	89.62
336.369	94.62
336.597	80.62
336.825	92.62
337.053	90.62
337.281	93.62
337.51	77.62
337.738	80.62
337.966	89.62
338.194	81.62
338.422	79.62
338.65	80.62
338.878	87.62
339.106	93.62
339.334	74.62
339.562	80.62
339.79	85.62
340.018	85.62
340.246	90.62
340.474	84.62
340.702	87.62
340.93	83.62
341.158	98.62
341.386	93.62
341.614	99.62
341.842	72.62
342.07	87.62
342.298	58.62
342.526	88.62
342.754	76.62
342.981	78.62
343.209	83.62
343.437	92.62
343.665	97.62
343.893	82.62
344.12	80.62
344.348	83.62
344.576	79.62
344.804	81.62
345.031	78.62
345.259	93.62
345.487	76.62
345.714	90.62
345.942	93.62
346.17	78.62
346.397	92.62
346.625	85.62
346.853	88.62
347.08	73.62
347.308	83.62
347.535	88.62
347.763	93.62
347.99	94.62
348.218	84.62
348.445	76.62
348.673	77.62
348.9	80.62
349.128	74.62
349.355	80.62
349.583	81.62
349.81	78.62
350.037	87.62
350.265	82.62
350.492	76.62
350.72	65.62
350.947	71.62
351.174	81.62
351.402	82.62
351.629	75.62
351.856	91.62
352.083	84.62
352.311	73.62
352.538	76.62
352.765	84.62
352.992	85.62
353.22	78.62
353.447	71.62
353.674	82.62
353.901	75.62
354.128	82.62
354.355	90.62
354.583	97.62
354.81	90.62
355.037	82.62
355.264	87.62
355.491	74.62
355.718	85.62
355.945	79.62
356.172	86.62
356.399	86.62
356.626	89.62
356.853	90.62
357.08	80.62
357.307	90.62
357.534	77.62
357.761	77.62
357.988	76.62
358.215	88.62
358.441	82.62
358.668	79.62
358.895	76.62
359.122	84.62
359.349	67.62
359.576	83.62
359.802	69.62
360.029	75.62
360.256	92.62
360.483	81.62
360.709	84.62
360.936	80.62
361.163	81.62
361.39	82.62
361.616	87.62
361.843	81.62
362.07	83.62
362.296	79.62
362.523	75.62
362.749	98.62
362.976	94.62
363.203	80.62
363.429	86.62
363.656	84.62
363.882	86.62
364.109	85.62
364.335	73.62
364.562	81.62
364.788	89.62
365.015	68.62
365.241	91.62
365.468	86.62
365.694	85.62
365.92	73.62
366.147	70.62
366.373	79.62
366.599	85.62
366.826	74.62
367.052	74.62
367.278	77.62
367.505	78.62
367.731	77.62
367.957	94.62
368.184	84.62
368.41	83.62
368.636	76.62
368.862	81.62
369.089	95.62
369.315	83.62
369.541	88.62
369.767	82.62
369.993	90.62
370.219	91.62
370.445	74.62
370.672	78.62
370.898	87.62
371.124	84.62
371.35	81.62
371.576	80.62
371.802	60.62
372.028	83.62
372.254	94.62
372.48	83.62
372.706	97.62
372.932	93.62
373.158	84.62
373.384	80.62
373.61	82.62
373.835	86.62
374.061	85.62
374.287	75.62
374.513	83.62
374.739	73.62
374.965	69.62
375.191	96.62
375.416	95.62
375.642	85.62
375.868	85.62
376.094	80.62
376.319	76.62
376.545	89.62
376.771	70.62
376.997	83.62
377.222	75.62
377.448	95.62
377.674	89.62
377.899	94.62
378.125	82.62
378.35	83.62
378.576	103.62
378.802	72.62
379.027	73.62
379.253	92.62
379.478	101.62
379.704	90.62
379.929	81.62
380.155	72.62
380.38	86.62
380.606	89.62
380.831	97.62
381.057	85.62
381.282	88.62
381.507	99.62
381.733	90.62
381.958	85.62
382.184	83.62
382.409	85.62
382.634	82.62
382.86	91.62
383.085	83.62
383.31	75.62
383.535	90.62
383.761	81.62
383.986	74.62
384.211	70.62
384.436	89.62
384.662	73.62
384.887	85.62
385.112	85.62
385.337	88.62
385.562	82.62
385.787	82.62
386.013	97.62
386.238	76.62
386.463	70.62
386.688	82.62
386.913	91.62
387.138	83.62
387.363	103.62
387.588	90.62
387.813	94.62
388.038	84.62
388.263	83.62
388.488	85.62
388.713	86.62
388.938	84.62
389.163	80.62
389.387	92.62
389.612	85.62
389.837	96.62
390.062	74.62
390.287	69.62
390.512	83.62
390.736	83.62
390.961	97.62
391.186	90.62
391.411	88.62
391.636	95.62
391.86	90.62
392.085	90.62
392.31	90.62
392.534	86.62
392.759	96.62
392.984	90.62
393.208	78.62
393.433	82.62
393.658	94.62
393.882	94.62
394.107	93.62
394.331	81.62
394.556	93.62
394.78	90.62
395.005	87.62
395.229	87.62
395.454	86.62
395.678	87.62
395.903	93.62
396.127	85.62
396.352	92.62
396.576	94.62
396.801	90.62
397.025	88.62
397.249	81.62
397.474	83.62
397.698	86.62
397.922	94.62
398.147	94.62
398.371	83.62
398.595	87.62
398.82	102.62
399.044	91.62
399.268	86.62
399.492	80.62
399.717	94.62
399.941	95.62
400.165	90.62
400.389	88.62
400.613	74.62
400.837	84.62
401.062	89.62
401.286	76.62
401.51	73.62
401.734	80.62
401.958	91.62
402.182	88.62
402.406	109.62
402.63	79.62
402.854	87.62
403.078	89.62
403.302	105.62
403.526	97.62
403.75	106.62
403.974	70.62
404.198	77.62
404.422	80.62
404.645	79.62
404.869	82.62
405.093	74.62
405.317	74.62
405.541	96.62
405.765	77.62
405.988	91.62
406.212	74.62
406.436	95.62
406.66	87.62
406.883	106.62
407.107	92.62
407.331	81.62
407.555	88.62
407.778	93.62
408.002	90.62
408.226	84.62
408.449	103.62
408.673	103.62
408.896	91.62
409.12	83.62
409.344	92.62
409.567	89.62
409.791	87.62
410.014	94.62
410.238	93.62
410.461	79.62
410.685	91.62
410.908	95.62
411.132	103.62
411.355	98.62
411.578	86.62
411.802	101.62
412.025	84.62
412.249	82.62
412.472	86.62
412.695	92.62
412.919	86.62
413.142	81.62
413.365	100.62
413.589	83.62
413.812	91.62
414.035	77.62
414.258	95.62
414.482	87.62
414.705	94.62
414.928	77.62
415.151	87.62
415.374	82.62
415.597	93.62
415.821	85.62
416.044	86.62
416.267	105.62
416.49	87.62
416.713	85.62
416.936	70.62
417.159	87.62
417.382	80.62
417.605	88.62
417.828	71.62
418.051	95.62
418.274	87.62
418.497	90.62
418.72	91.62
418.943	88.62
419.166	93.62
419.389	88.62
419.611	97.62
419.834	93.62
420.057	91.62
420.28	97.62
420.503	95.62
420.726	93.62
420.948	81.62
421.171	79.62
421.394	83.62
421.617	90.62
421.839	104.62
422.062	99.62
422.285	94.62
422.507	86.62
422.73	83.62
422.953	97.62
423.175	94.62
423.398	100.62
423.621	104.62
423.843	86.62
424.066	85.62
424.288	95.62
424.511	95.62
424.733	94.62
424.956	106.62
425.178	96.62
425.401	101.62
425.623	106.62
425.846	105.62
426.068	99.62
426.291	96.62
426.513	85.62
426.735	102.62
426.958	102.62
427.18	85.62
427.402	94.62
427.625	94.62
427.847	99.62
428.069	94.62
428.292	100.62
428.514	79.62
428.736	97.62
428.958	94.62
429.181	96.62
429.403	86.62
429.625	84.62
429.847	88.62
430.069	100.62
430.292	83.62
430.514	90.62
430.736	105.62
430.958	100.62
431.18	81.62
431.402	92.62
431.624	97.62
431.846	106.62
432.068	80.62
432.29	79.62
432.512	86.62
432.734	103.62
432.956	97.62
433.178	95.62
433.4	87.62
433.622	104.62
433.844	91.62
434.066	95.62
434.287	89.62
434.509	89.62
434.731	73.62
434.953	97.62
435.175	79.62
435.397	94.62
435.618	90.62
435.84	80.62
436.062	87.62
436.284	85.62
436.505	95.62
436.727	101.62
436.949	95.62
437.17	96.62
437.392	75.62
437.614	95.62
437.835	80.62
438.057	98.62
438.278	86.62
438.5	83.62
438.721	94.62
438.943	112.62
439.165	89.62
439.386	95.62
439.608	87.62
439.829	92.62
440.05	104.62
440.272	103.62
440.493	96.62
440.715	96.62
440.936	99.62
441.158	100.62
441.379	97.62
441.6	105.62
441.822	94.62
442.043	84.62
442.264	95.62
442.486	98.62
442.707	96.62
442.928	103.62
443.149	111.62
443.371	102.62
443.592	95.62
443.813	90.62
444.034	85.62
444.255	103.62
444.476	91.62
444.698	96.62
444.919	87.62
445.14	221.62
445.361	154.62
445.582	93.62
445.803	91.62
446.024	89.62
446.245	95.62
446.466	91.62
446.687	91.62
446.908	94.62
447.129	104.62
447.35	92.62
447.571	104.62
447.792	106.62
448.013	103.62
448.234	115.62
448.455	103.62
448.675	106.62
448.896	89.62
449.117	116.62
449.338	96.62
449.559	102.62
449.779	101.62
450	92.62
450.221	86.62
450.442	96.62
450.662	98.62
450.883	89.62
451.104	98.62
451.324	88.62
451.545	79.62
451.766	96.62
451.986	93.62
452.207	94.62
452.428	82.62
452.648	77.62
452.869	89.62
453.089	89.62
453.31	89.62
453.53	87.62
453.751	80.62
453.971	78.62
454.192	90.62
454.412	72.62
454.633	71.62
454.853	77.62
455.073	81.62
455.294	82.62
455.514	93.62
455.734	102.62
455.955	98.62
456.175	84.62
456.395	83.62
456.616	71.62
456.836	87.62
457.056	85.62
457.276	94.62
457.497	95.62
457.717	81.62
457.937	96.62
458.157	88.62
458.377	93.62
458.598	95.62
458.818	86.62
459.038	84.62
459.258	84.62
459.478	86.62
459.698	78.62
459.918	90.62
460.138	92.62
460.358	93.62
460.578	98.62
460.798	90.62
461.018	92.62
461.238	71.62
461.458	84.62
461.678	89.62
461.898	83.62
462.118	92.62
462.338	85.62
462.558	90.62
462.777	81.62
462.997	88.62
463.217	81.62
463.437	97.62
463.657	87.62
463.876	95.62
464.096	87.62
464.316	89.62
464.536	82.62
464.755	80.62
464.975	100.62
465.195	95.62
465.414	87.62
465.634	78.62
465.854	89.62
466.073	89.62
466.293	95.62
466.512	93.62
466.732	95.62
466.951	98.62
467.171	89.62
467.391	90.62
467.61	101.62
467.829	101.62
468.049	98.62
468.268	88.62
468.488	94.62
468.707	98.62
468.927	99.62
469.146	100.62
469.365	104.62
469.585	89.62
469.804	88.62
470.023	93.62
470.243	103.62
470.462	87.62
470.681	104.62
470.901	114.62
471.12	97.62
471.339	92.62
471.558	85.62
471.777	96.62
471.997	91.62
472.216	102.62
472.435	91.62
472.654	96.62
472.873	79.62
473.092	99.62
473.311	89.62
473.53	81.62
473.749	89.62
473.968	112.62
474.187	97.62
474.406	99.62
474.625	80.62
474.844	105.62
475.063	93.62
475.282	95.62
475.501	77.62
475.72	95.62
475.939	91.62
476.158	81.62
476.377	89.62
476.596	92.62
476.814	87.62
477.033	81.62
477.252	67.62
477.471	97.62
477.69	85.62
477.908	92.62
478.127	114.62
478.346	94.62
478.564	97.62
478.783	103.62
479.002	98.62
479.22	95.62
479.439	97.62
479.658	94.62
479.876	85.62
480.095	93.62
480.313	97.62
480.532	112.62
480.751	94.62
480.969	88.62
481.188	99.62
481.406	81.62
481.624	90.62
481.843	87.62
482.061	74.62
482.28	91.62
482.498	82.62
482.717	78.62
482.935	80.62
483.153	95.62
483.372	91.62
483.59	104.62
483.808	81.62
484.027	89.62
484.245	99.62
484.463	102.62
484.681	116.62
484.9	96.62
485.118	111.62
485.336	81.62
485.554	79.62
485.772	85.62
485.99	89.62
486.209	85.62
486.427	85.62
486.645	93.62
486.863	93.62
487.081	101.62
487.299	97.62
487.517	101.62
487.735	105.62
487.953	83.62
488.171	101.62
488.389	97.62
488.607	106.62
488.825	86.62
489.043	87.62
489.261	103.62
489.479	110.62
489.696	91.62
489.914	101.62
490.132	104.62
490.35	110.62
490.568	98.62
490.786	100.62
491.003	118.62
491.221	111.62
491.439	99.62
491.657	103.62
491.874	110.62
492.092	102.62
492.31	125.62
492.527	104.62
492.745	115.62
492.963	103.62
493.18	121.62
493.398	102.62
493.615	99.62
493.833	109.62
494.05	101.62
494.268	105.62
494.485	115.62
494.703	117.62
494.92	119.62
495.138	104.62
495.355	106.62
495.573	117.62
495.79	120.62
496.008	102.62
496.225	109.62
496.442	104.62
496.66	113.62
496.877	106.62
497.094	109.62
497.312	94.62
497.529	105.62
497.746	103.62
497.963	93.62
498.181	100.62
498.398	88.62
498.615	78.62
498.832	88.62
499.049	87.62
499.267	85.62
499.484	91.62
499.701	109.62
499.918	95.62
500.135	95.62
500.352	90.62
500.569	99.62
500.786	100.62
501.003	99.62
501.22	105.62
501.437	102.62
501.654	106.62
501.871	99.62
502.088	113.62
502.305	89.62
502.522	102.62
502.739	98.62
502.956	86.62
503.172	98.62
503.389	96.62
503.606	85.62
503.823	106.62
504.04	81.62
504.256	80.62
504.473	97.62
504.69	96.62
504.907	103.62
505.123	84.62
505.34	77.62
505.557	79.62
505.773	83.62
505.99	95.62
506.207	104.62
506.423	91.62
506.64	73.62
506.856	93.62
507.073	81.62
507.289	86.62
507.506	97.62
507.722	100.62
507.939	94.62
508.155	91.62
508.372	83.62
508.588	90.62
508.805	89.62
509.021	91.62
509.238	77.62
509.454	91.62
509.67	106.62
509.887	80.62
510.103	80.62
510.319	92.62
510.536	85.62
510.752	83.62
510.968	85.62
511.184	77.62
511.401	91.62
511.617	91.62
511.833	92.62
512.049	70.62
512.265	109.62
512.481	80.62
512.698	71.62
512.914	87.62
513.13	79.62
513.346	68.62
513.562	82.62
513.778	85.62
513.994	94.62
514.21	80.62
514.426	75.62
514.642	80.62
514.858	79.62
515.074	77.62
515.29	75.62
515.506	87.62
515.721	86.62
515.937	96.62
516.153	75.62
516.369	81.62
516.585	83.62
516.801	104.62
517.016	93.62
517.232	80.62
517.448	87.62
517.664	93.62
