Data from Location4.07152019.Energy5.Lamp.07192019.3%Agarose_HRD10591_15-23-37-576.txt Node
Date: Fri Jul 19 15:23:37 EDT 2019
User: cochatt
Spectrometer: HR+D1059
Trigger mode: 1
Integration Time (sec): 1.000000E-1
Scans to average: 1
Electric dark correction enabled: true
Nonlinearity correction enabled: false
Boxcar width: 0
XAxis mode: Wavelengths
Number of Pixels in Spectrum: 2048
>>>>>Begin Spectral Data<<<<<
223.165	-26.75
223.4	-26.75
223.635	-26.75
223.869	-16.75
224.104	-13.75
224.338	-12.75
224.573	-9.75
224.808	-7.75
225.042	-17.75
225.277	-4.75
225.511	-4.75
225.746	7.25
225.98	10.25
226.215	12.25
226.449	10.25
226.683	22.25
226.918	25.25
227.152	27.25
227.387	27.25
227.621	42.25
227.856	52.25
228.09	42.25
228.324	42.25
228.559	49.25
228.793	56.25
229.027	51.25
229.262	65.25
229.496	76.25
229.73	79.25
229.964	62.25
230.199	87.25
230.433	75.25
230.667	65.25
230.901	66.25
231.136	78.25
231.37	73.25
231.604	78.25
231.838	74.25
232.072	80.25
232.306	82.25
232.541	91.25
232.775	90.25
233.009	90.25
233.243	87.25
233.477	81.25
233.711	88.25
233.945	78.25
234.179	79.25
234.413	72.25
234.647	86.25
234.881	69.25
235.115	79.25
235.349	83.25
235.583	78.25
235.817	94.25
236.051	80.25
236.285	87.25
236.519	78.25
236.753	76.25
236.987	78.25
237.221	70.25
237.455	70.25
237.689	73.25
237.922	80.25
238.156	69.25
238.39	63.25
238.624	72.25
238.858	89.25
239.091	79.25
239.325	71.25
239.559	78.25
239.793	78.25
240.027	79.25
240.26	63.25
240.494	70.25
240.728	65.25
240.961	84.25
241.195	77.25
241.429	73.25
241.662	60.25
241.896	69.25
242.13	71.25
242.363	80.25
242.597	91.25
242.83	77.25
243.064	69.25
243.298	70.25
243.531	80.25
243.765	80.25
243.998	79.25
244.232	88.25
244.465	64.25
244.699	79.25
244.932	58.25
245.166	67.25
245.399	79.25
245.633	84.25
245.866	73.25
246.099	75.25
246.333	82.25
246.566	86.25
246.8	72.25
247.033	90.25
247.266	85.25
247.5	77.25
247.733	76.25
247.966	63.25
248.2	71.25
248.433	60.25
248.666	80.25
248.899	75.25
249.133	73.25
249.366	86.25
249.599	78.25
249.832	82.25
250.066	89.25
250.299	84.25
250.532	75.25
250.765	78.25
250.998	81.25
251.231	77.25
251.465	71.25
251.698	65.25
251.931	88.25
252.164	67.25
252.397	74.25
252.63	62.25
252.863	68.25
253.096	79.25
253.329	83.25
253.562	70.25
253.795	75.25
254.028	88.25
254.261	87.25
254.494	89.25
254.727	93.25
254.96	80.25
255.193	82.25
255.426	94.25
255.659	81.25
255.892	89.25
256.124	79.25
256.357	73.25
256.59	89.25
256.823	64.25
257.056	84.25
257.289	67.25
257.521	84.25
257.754	89.25
257.987	75.25
258.22	83.25
258.452	73.25
258.685	91.25
258.918	88.25
259.151	69.25
259.383	72.25
259.616	85.25
259.849	86.25
260.081	78.25
260.314	69.25
260.547	81.25
260.779	80.25
261.012	75.25
261.244	86.25
261.477	81.25
261.71	76.25
261.942	71.25
262.175	79.25
262.407	67.25
262.64	73.25
262.872	91.25
263.105	80.25
263.337	82.25
263.57	85.25
263.802	81.25
264.035	78.25
264.267	76.25
264.499	78.25
264.732	87.25
264.964	99.25
265.197	91.25
265.429	83.25
265.661	88.25
265.894	79.25
266.126	81.25
266.358	91.25
266.591	76.25
266.823	83.25
267.055	84.25
267.287	79.25
267.52	84.25
267.752	91.25
267.984	83.25
268.216	83.25
268.448	92.25
268.681	74.25
268.913	78.25
269.145	97.25
269.377	89.25
269.609	83.25
269.841	87.25
270.073	81.25
270.306	86.25
270.538	103.25
270.77	84.25
271.002	84.25
271.234	75.25
271.466	89.25
271.698	82.25
271.93	91.25
272.162	88.25
272.394	90.25
272.626	86.25
272.858	76.25
273.09	82.25
273.322	81.25
273.553	89.25
273.785	83.25
274.017	87.25
274.249	82.25
274.481	84.25
274.713	80.25
274.945	74.25
275.176	66.25
275.408	82.25
275.64	95.25
275.872	83.25
276.104	88.25
276.335	78.25
276.567	93.25
276.799	83.25
277.031	71.25
277.262	87.25
277.494	74.25
277.726	91.25
277.957	73.25
278.189	71.25
278.421	79.25
278.652	90.25
278.884	99.25
279.115	79.25
279.347	86.25
279.579	92.25
279.81	83.25
280.042	92.25
280.273	82.25
280.505	78.25
280.736	88.25
280.968	98.25
281.199	73.25
281.431	80.25
281.662	73.25
281.894	74.25
282.125	83.25
282.356	84.25
282.588	98.25
282.819	86.25
283.051	98.25
283.282	113.25
283.513	92.25
283.745	87.25
283.976	93.25
284.207	88.25
284.439	93.25
284.67	78.25
284.901	94.25
285.132	70.25
285.364	72.25
285.595	91.25
285.826	91.25
286.057	81.25
286.288	92.25
286.52	83.25
286.751	86.25
286.982	84.25
287.213	84.25
287.444	93.25
287.675	82.25
287.906	81.25
288.138	83.25
288.369	75.25
288.6	84.25
288.831	80.25
289.062	89.25
289.293	71.25
289.524	66.25
289.755	68.25
289.986	93.25
290.217	90.25
290.448	73.25
290.679	72.25
290.91	96.25
291.141	72.25
291.371	64.25
291.602	83.25
291.833	84.25
292.064	84.25
292.295	71.25
292.526	70.25
292.757	93.25
292.987	90.25
293.218	89.25
293.449	90.25
293.68	87.25
293.91	79.25
294.141	83.25
294.372	78.25
294.603	84.25
294.833	73.25
295.064	74.25
295.295	68.25
295.525	84.25
295.756	89.25
295.987	94.25
296.217	92.25
296.448	82.25
296.679	98.25
296.909	84.25
297.14	86.25
297.37	82.25
297.601	76.25
297.831	86.25
298.062	83.25
298.292	90.25
298.523	71.25
298.753	92.25
298.984	86.25
299.214	79.25
299.445	99.25
299.675	81.25
299.905	88.25
300.136	98.25
300.366	82.25
300.597	78.25
300.827	87.25
301.057	67.25
301.288	95.25
301.518	82.25
301.748	82.25
301.979	80.25
302.209	94.25
302.439	87.25
302.669	94.25
302.9	81.25
303.13	85.25
303.36	75.25
303.59	86.25
303.82	88.25
304.051	87.25
304.281	92.25
304.511	73.25
304.741	96.25
304.971	75.25
305.201	86.25
305.431	84.25
305.661	88.25
305.891	90.25
306.121	96.25
306.352	90.25
306.582	95.25
306.812	85.25
307.042	78.25
307.272	83.25
307.502	79.25
307.731	74.25
307.961	90.25
308.191	66.25
308.421	83.25
308.651	71.25
308.881	87.25
309.111	80.25
309.341	90.25
309.571	80.25
309.8	70.25
310.03	96.25
310.26	91.25
310.49	69.25
310.72	90.25
310.949	94.25
311.179	92.25
311.409	91.25
311.639	81.25
311.868	84.25
312.098	102.25
312.328	88.25
312.557	83.25
312.787	82.25
313.017	85.25
313.246	86.25
313.476	84.25
313.706	81.25
313.935	72.25
314.165	83.25
314.394	76.25
314.624	76.25
314.853	81.25
315.083	87.25
315.312	83.25
315.542	86.25
315.771	91.25
316.001	78.25
316.23	88.25
316.46	85.25
316.689	80.25
316.919	71.25
317.148	88.25
317.377	91.25
317.607	94.25
317.836	83.25
318.065	80.25
318.295	79.25
318.524	71.25
318.753	76.25
318.983	77.25
319.212	77.25
319.441	79.25
319.67	88.25
319.9	95.25
320.129	76.25
320.358	77.25
320.587	105.25
320.816	91.25
321.046	80.25
321.275	88.25
321.504	73.25
321.733	94.25
321.962	89.25
322.191	76.25
322.42	81.25
322.649	93.25
322.878	81.25
323.108	82.25
323.337	82.25
323.566	85.25
323.795	80.25
324.024	81.25
324.253	81.25
324.482	89.25
324.71	86.25
324.939	87.25
325.168	73.25
325.397	79.25
325.626	74.25
325.855	80.25
326.084	102.25
326.313	81.25
326.542	87.25
326.77	81.25
326.999	76.25
327.228	86.25
327.457	95.25
327.686	74.25
327.914	94.25
328.143	83.25
328.372	88.25
328.6	82.25
328.829	84.25
329.058	89.25
329.287	78.25
329.515	80.25
329.744	87.25
329.972	86.25
330.201	78.25
330.43	73.25
330.658	90.25
330.887	71.25
331.115	72.25
331.344	84.25
331.572	84.25
331.801	97.25
332.03	75.25
332.258	93.25
332.486	84.25
332.715	84.25
332.943	98.25
333.172	94.25
333.4	89.25
333.629	84.25
333.857	85.25
334.085	80.25
334.314	84.25
334.542	84.25
334.771	83.25
334.999	77.25
335.227	88.25
335.455	82.25
335.684	83.25
335.912	82.25
336.14	88.25
336.369	71.25
336.597	83.25
336.825	71.25
337.053	82.25
337.281	89.25
337.51	89.25
337.738	87.25
337.966	95.25
338.194	88.25
338.422	90.25
338.65	89.25
338.878	96.25
339.106	76.25
339.334	97.25
339.562	87.25
339.79	82.25
340.018	95.25
340.246	88.25
340.474	107.25
340.702	81.25
340.93	68.25
341.158	83.25
341.386	78.25
341.614	81.25
341.842	82.25
342.07	80.25
342.298	91.25
342.526	75.25
342.754	85.25
342.981	96.25
343.209	87.25
343.437	82.25
343.665	92.25
343.893	89.25
344.12	90.25
344.348	73.25
344.576	83.25
344.804	107.25
345.031	92.25
345.259	83.25
345.487	82.25
345.714	68.25
345.942	86.25
346.17	87.25
346.397	92.25
346.625	74.25
346.853	86.25
347.08	70.25
347.308	88.25
347.535	85.25
347.763	88.25
347.99	81.25
348.218	100.25
348.445	74.25
348.673	87.25
348.9	87.25
349.128	94.25
349.355	82.25
349.583	87.25
349.81	92.25
350.037	89.25
350.265	98.25
350.492	84.25
350.72	68.25
350.947	78.25
351.174	82.25
351.402	77.25
351.629	84.25
351.856	85.25
352.083	75.25
352.311	99.25
352.538	76.25
352.765	85.25
352.992	82.25
353.22	84.25
353.447	90.25
353.674	90.25
353.901	85.25
354.128	95.25
354.355	81.25
354.583	91.25
354.81	91.25
355.037	95.25
355.264	90.25
355.491	83.25
355.718	86.25
355.945	102.25
356.172	87.25
356.399	83.25
356.626	85.25
356.853	79.25
357.08	77.25
357.307	91.25
357.534	83.25
357.761	83.25
357.988	87.25
358.215	72.25
358.441	84.25
358.668	80.25
358.895	76.25
359.122	86.25
359.349	84.25
359.576	94.25
359.802	90.25
360.029	72.25
360.256	82.25
360.483	89.25
360.709	81.25
360.936	94.25
361.163	76.25
361.39	90.25
361.616	77.25
361.843	89.25
362.07	84.25
362.296	82.25
362.523	75.25
362.749	88.25
362.976	78.25
363.203	95.25
363.429	90.25
363.656	81.25
363.882	81.25
364.109	69.25
364.335	90.25
364.562	89.25
364.788	76.25
365.015	86.25
365.241	76.25
365.468	87.25
365.694	87.25
365.92	88.25
366.147	82.25
366.373	65.25
366.599	94.25
366.826	81.25
367.052	72.25
367.278	74.25
367.505	69.25
367.731	84.25
367.957	85.25
368.184	72.25
368.41	91.25
368.636	91.25
368.862	74.25
369.089	72.25
369.315	67.25
369.541	87.25
369.767	72.25
369.993	87.25
370.219	84.25
370.445	93.25
370.672	78.25
370.898	95.25
371.124	64.25
371.35	83.25
371.576	78.25
371.802	90.25
372.028	83.25
372.254	80.25
372.48	90.25
372.706	69.25
372.932	92.25
373.158	89.25
373.384	99.25
373.61	82.25
373.835	80.25
374.061	80.25
374.287	94.25
374.513	82.25
374.739	83.25
374.965	84.25
375.191	85.25
375.416	78.25
375.642	100.25
375.868	82.25
376.094	69.25
376.319	93.25
376.545	84.25
376.771	81.25
376.997	71.25
377.222	86.25
377.448	93.25
377.674	81.25
377.899	71.25
378.125	80.25
378.35	94.25
378.576	87.25
378.802	93.25
379.027	97.25
379.253	90.25
379.478	84.25
379.704	90.25
379.929	74.25
380.155	78.25
380.38	75.25
380.606	80.25
380.831	84.25
381.057	100.25
381.282	79.25
381.507	83.25
381.733	100.25
381.958	86.25
382.184	87.25
382.409	84.25
382.634	79.25
382.86	81.25
383.085	78.25
383.31	82.25
383.535	95.25
383.761	86.25
383.986	82.25
384.211	86.25
384.436	77.25
384.662	81.25
384.887	74.25
385.112	81.25
385.337	93.25
385.562	80.25
385.787	87.25
386.013	87.25
386.238	88.25
386.463	87.25
386.688	92.25
386.913	89.25
387.138	86.25
387.363	84.25
387.588	86.25
387.813	75.25
388.038	86.25
388.263	86.25
388.488	85.25
388.713	103.25
388.938	89.25
389.163	86.25
389.387	88.25
389.612	79.25
389.837	76.25
390.062	81.25
390.287	88.25
390.512	90.25
390.736	83.25
390.961	96.25
391.186	82.25
391.411	83.25
391.636	73.25
391.86	90.25
392.085	84.25
392.31	92.25
392.534	73.25
392.759	88.25
392.984	89.25
393.208	96.25
393.433	75.25
393.658	95.25
393.882	97.25
394.107	86.25
394.331	103.25
394.556	92.25
394.78	82.25
395.005	88.25
395.229	87.25
395.454	85.25
395.678	89.25
395.903	93.25
396.127	86.25
396.352	92.25
396.576	77.25
396.801	77.25
397.025	84.25
397.249	87.25
397.474	79.25
397.698	76.25
397.922	102.25
398.147	88.25
398.371	91.25
398.595	85.25
398.82	81.25
399.044	90.25
399.268	87.25
399.492	91.25
399.717	92.25
399.941	80.25
400.165	93.25
400.389	80.25
400.613	88.25
400.837	86.25
401.062	81.25
401.286	86.25
401.51	84.25
401.734	86.25
401.958	94.25
402.182	93.25
402.406	100.25
402.63	98.25
402.854	99.25
403.078	83.25
403.302	95.25
403.526	72.25
403.75	88.25
403.974	80.25
404.198	93.25
404.422	95.25
404.645	82.25
404.869	74.25
405.093	79.25
405.317	82.25
405.541	86.25
405.765	81.25
405.988	97.25
406.212	78.25
406.436	84.25
406.66	76.25
406.883	83.25
407.107	90.25
407.331	96.25
407.555	84.25
407.778	95.25
408.002	92.25
408.226	82.25
408.449	102.25
408.673	89.25
408.896	66.25
409.12	86.25
409.344	97.25
409.567	91.25
409.791	110.25
410.014	116.25
410.238	87.25
410.461	84.25
410.685	101.25
410.908	104.25
411.132	88.25
411.355	83.25
411.578	82.25
411.802	80.25
412.025	97.25
412.249	93.25
412.472	99.25
412.695	68.25
412.919	95.25
413.142	73.25
413.365	78.25
413.589	91.25
413.812	87.25
414.035	89.25
414.258	87.25
414.482	103.25
414.705	81.25
414.928	84.25
415.151	90.25
415.374	82.25
415.597	83.25
415.821	87.25
416.044	87.25
416.267	97.25
416.49	94.25
416.713	86.25
416.936	100.25
417.159	97.25
417.382	85.25
417.605	98.25
417.828	90.25
418.051	92.25
418.274	99.25
418.497	90.25
418.72	88.25
418.943	102.25
419.166	80.25
419.389	98.25
419.611	107.25
419.834	99.25
420.057	96.25
420.28	98.25
420.503	101.25
420.726	80.25
420.948	89.25
421.171	97.25
421.394	89.25
421.617	82.25
421.839	91.25
422.062	108.25
422.285	89.25
422.507	99.25
422.73	102.25
422.953	73.25
423.175	82.25
423.398	91.25
423.621	80.25
423.843	100.25
424.066	94.25
424.288	101.25
424.511	89.25
424.733	94.25
424.956	96.25
425.178	95.25
425.401	96.25
425.623	88.25
425.846	92.25
426.068	97.25
426.291	96.25
426.513	104.25
426.735	95.25
426.958	95.25
427.18	92.25
427.402	94.25
427.625	71.25
427.847	86.25
428.069	87.25
428.292	87.25
428.514	73.25
428.736	99.25
428.958	87.25
429.181	101.25
429.403	100.25
429.625	88.25
429.847	97.25
430.069	97.25
430.292	87.25
430.514	90.25
430.736	87.25
430.958	101.25
431.18	103.25
431.402	93.25
431.624	98.25
431.846	83.25
432.068	82.25
432.29	88.25
432.512	94.25
432.734	84.25
432.956	89.25
433.178	94.25
433.4	89.25
433.622	90.25
433.844	93.25
434.066	105.25
434.287	93.25
434.509	83.25
434.731	83.25
434.953	86.25
435.175	78.25
435.397	91.25
435.618	100.25
435.84	114.25
436.062	94.25
436.284	88.25
436.505	82.25
436.727	104.25
436.949	90.25
437.17	98.25
437.392	90.25
437.614	78.25
437.835	86.25
438.057	68.25
438.278	72.25
438.5	90.25
438.721	92.25
438.943	91.25
439.165	105.25
439.386	95.25
439.608	106.25
439.829	87.25
440.05	110.25
440.272	102.25
440.493	91.25
440.715	78.25
440.936	86.25
441.158	108.25
441.379	115.25
441.6	106.25
441.822	98.25
442.043	111.25
442.264	87.25
442.486	99.25
442.707	99.25
442.928	117.25
443.149	108.25
443.371	93.25
443.592	97.25
443.813	97.25
444.034	90.25
444.255	102.25
444.476	104.25
444.698	90.25
444.919	98.25
445.14	184.25
445.361	126.25
445.582	106.25
445.803	93.25
446.024	98.25
446.245	97.25
446.466	103.25
446.687	87.25
446.908	91.25
447.129	99.25
447.35	110.25
447.571	102.25
447.792	96.25
448.013	96.25
448.234	94.25
448.455	96.25
448.675	90.25
448.896	94.25
449.117	94.25
449.338	98.25
449.559	96.25
449.779	107.25
450	102.25
450.221	98.25
450.442	101.25
450.662	89.25
450.883	88.25
451.104	92.25
451.324	89.25
451.545	94.25
451.766	96.25
451.986	99.25
452.207	94.25
452.428	94.25
452.648	81.25
452.869	91.25
453.089	88.25
453.31	105.25
453.53	100.25
453.751	74.25
453.971	82.25
454.192	75.25
454.412	102.25
454.633	91.25
454.853	76.25
455.073	88.25
455.294	89.25
455.514	97.25
455.734	108.25
455.955	90.25
456.175	71.25
456.395	82.25
456.616	97.25
456.836	87.25
457.056	89.25
457.276	77.25
457.497	95.25
457.717	84.25
457.937	80.25
458.157	99.25
458.377	93.25
458.598	86.25
458.818	86.25
459.038	76.25
459.258	94.25
459.478	98.25
459.698	74.25
459.918	86.25
460.138	81.25
460.358	91.25
460.578	84.25
460.798	89.25
461.018	98.25
461.238	89.25
461.458	87.25
461.678	95.25
461.898	97.25
462.118	94.25
462.338	76.25
462.558	86.25
462.777	84.25
462.997	92.25
463.217	81.25
463.437	94.25
463.657	106.25
463.876	84.25
464.096	86.25
464.316	94.25
464.536	84.25
464.755	88.25
464.975	86.25
465.195	81.25
465.414	100.25
465.634	102.25
465.854	93.25
466.073	98.25
466.293	95.25
466.512	96.25
466.732	104.25
466.951	92.25
467.171	78.25
467.391	81.25
467.61	87.25
467.829	91.25
468.049	106.25
468.268	104.25
468.488	88.25
468.707	91.25
468.927	111.25
469.146	82.25
469.365	95.25
469.585	99.25
469.804	93.25
470.023	102.25
470.243	104.25
470.462	109.25
470.681	110.25
470.901	96.25
471.12	94.25
471.339	106.25
471.558	100.25
471.777	95.25
471.997	89.25
472.216	102.25
472.435	90.25
472.654	93.25
472.873	95.25
473.092	90.25
473.311	91.25
473.53	84.25
473.749	94.25
473.968	104.25
474.187	88.25
474.406	86.25
474.625	100.25
474.844	86.25
475.063	97.25
475.282	103.25
475.501	97.25
475.72	95.25
475.939	90.25
476.158	91.25
476.377	80.25
476.596	104.25
476.814	88.25
477.033	86.25
477.252	82.25
477.471	76.25
477.69	90.25
477.908	91.25
478.127	105.25
478.346	87.25
478.564	91.25
478.783	102.25
479.002	76.25
479.22	97.25
479.439	83.25
479.658	98.25
479.876	93.25
480.095	102.25
480.313	93.25
480.532	93.25
480.751	95.25
480.969	85.25
481.188	84.25
481.406	92.25
481.624	79.25
481.843	78.25
482.061	75.25
482.28	90.25
482.498	85.25
482.717	94.25
482.935	100.25
483.153	91.25
483.372	107.25
483.59	106.25
483.808	90.25
484.027	99.25
484.245	106.25
484.463	99.25
484.681	92.25
484.9	116.25
485.118	98.25
485.336	94.25
485.554	90.25
485.772	96.25
485.99	88.25
486.209	93.25
486.427	83.25
486.645	94.25
486.863	99.25
487.081	105.25
487.299	103.25
487.517	99.25
487.735	90.25
487.953	110.25
488.171	107.25
488.389	105.25
488.607	112.25
488.825	80.25
489.043	84.25
489.261	92.25
489.479	91.25
489.696	97.25
489.914	103.25
490.132	99.25
490.35	118.25
490.568	114.25
490.786	94.25
491.003	90.25
491.221	98.25
491.439	109.25
491.657	123.25
491.874	123.25
492.092	130.25
492.31	115.25
492.527	123.25
492.745	104.25
492.963	115.25
493.18	100.25
493.398	113.25
493.615	110.25
493.833	106.25
494.05	113.25
494.268	110.25
494.485	95.25
494.703	102.25
494.92	106.25
495.138	104.25
495.355	114.25
495.573	104.25
495.79	107.25
496.008	120.25
496.225	104.25
496.442	106.25
496.66	107.25
496.877	96.25
497.094	128.25
497.312	104.25
497.529	91.25
497.746	111.25
497.963	99.25
498.181	90.25
498.398	96.25
498.615	99.25
498.832	87.25
499.049	80.25
499.267	88.25
499.484	96.25
499.701	117.25
499.918	106.25
500.135	104.25
500.352	107.25
500.569	110.25
500.786	106.25
501.003	104.25
501.22	102.25
501.437	87.25
501.654	97.25
501.871	83.25
502.088	100.25
502.305	81.25
502.522	79.25
502.739	87.25
502.956	100.25
503.172	103.25
503.389	88.25
503.606	88.25
503.823	84.25
504.04	96.25
504.256	103.25
504.473	92.25
504.69	89.25
504.907	99.25
505.123	92.25
505.34	88.25
505.557	103.25
505.773	84.25
505.99	82.25
506.207	80.25
506.423	100.25
506.64	103.25
506.856	95.25
507.073	80.25
507.289	97.25
507.506	74.25
507.722	94.25
507.939	89.25
508.155	95.25
508.372	78.25
508.588	91.25
508.805	97.25
509.021	94.25
509.238	98.25
509.454	88.25
509.67	88.25
509.887	83.25
510.103	83.25
510.319	93.25
510.536	82.25
510.752	90.25
510.968	76.25
511.184	72.25
511.401	86.25
511.617	96.25
511.833	86.25
512.049	96.25
512.265	76.25
512.481	97.25
512.698	90.25
512.914	85.25
513.13	84.25
513.346	89.25
513.562	85.25
513.778	86.25
513.994	74.25
514.21	85.25
514.426	84.25
514.642	88.25
514.858	81.25
515.074	85.25
515.29	99.25
515.506	75.25
515.721	83.25
515.937	84.25
516.153	74.25
516.369	78.25
516.585	87.25
516.801	88.25
517.016	82.25
517.232	84.25
517.448	96.25
