Data from Location4.07152019.Energy5.Lamp.07192019.3%Agarose_HRD10591_15-24-11-577.txt Node
Date: Fri Jul 19 15:24:11 EDT 2019
User: cochatt
Spectrometer: HR+D1059
Trigger mode: 1
Integration Time (sec): 1.000000E-1
Scans to average: 1
Electric dark correction enabled: true
Nonlinearity correction enabled: false
Boxcar width: 0
XAxis mode: Wavelengths
Number of Pixels in Spectrum: 2048
>>>>>Begin Spectral Data<<<<<
223.165	-12.5
223.4	-12.5
223.635	-12.5
223.869	-17.5
224.104	-17.5
224.338	-19.5
224.573	-9.5
224.808	-13.5
225.042	-8.5
225.277	-6.5
225.511	-6.5
225.746	5.5
225.98	22.5
226.215	5.5
226.449	3.5
226.683	20.5
226.918	28.5
227.152	25.5
227.387	37.5
227.621	42.5
227.856	38.5
228.09	50.5
228.324	53.5
228.559	46.5
228.793	58.5
229.027	74.5
229.262	60.5
229.496	60.5
229.73	61.5
229.964	75.5
230.199	83.5
230.433	68.5
230.667	69.5
230.901	79.5
231.136	75.5
231.37	79.5
231.604	83.5
231.838	80.5
232.072	72.5
232.306	86.5
232.541	82.5
232.775	87.5
233.009	79.5
233.243	91.5
233.477	94.5
233.711	94.5
233.945	77.5
234.179	85.5
234.413	74.5
234.647	75.5
234.881	71.5
235.115	72.5
235.349	70.5
235.583	90.5
235.817	66.5
236.051	75.5
236.285	86.5
236.519	83.5
236.753	87.5
236.987	83.5
237.221	78.5
237.455	74.5
237.689	76.5
237.922	82.5
238.156	81.5
238.39	75.5
238.624	72.5
238.858	75.5
239.091	69.5
239.325	80.5
239.559	76.5
239.793	82.5
240.027	75.5
240.26	79.5
240.494	78.5
240.728	76.5
240.961	98.5
241.195	86.5
241.429	78.5
241.662	83.5
241.896	78.5
242.13	76.5
242.363	79.5
242.597	77.5
242.83	85.5
243.064	82.5
243.298	77.5
243.531	90.5
243.765	88.5
243.998	73.5
244.232	77.5
244.465	85.5
244.699	87.5
244.932	81.5
245.166	82.5
245.399	79.5
245.633	85.5
245.866	74.5
246.099	79.5
246.333	78.5
246.566	77.5
246.8	67.5
247.033	84.5
247.266	82.5
247.5	87.5
247.733	77.5
247.966	87.5
248.2	74.5
248.433	78.5
248.666	82.5
248.899	94.5
249.133	91.5
249.366	93.5
249.599	77.5
249.832	71.5
250.066	88.5
250.299	83.5
250.532	83.5
250.765	87.5
250.998	85.5
251.231	67.5
251.465	83.5
251.698	74.5
251.931	83.5
252.164	77.5
252.397	76.5
252.63	88.5
252.863	93.5
253.096	66.5
253.329	71.5
253.562	82.5
253.795	74.5
254.028	100.5
254.261	86.5
254.494	74.5
254.727	87.5
254.96	86.5
255.193	81.5
255.426	83.5
255.659	84.5
255.892	77.5
256.124	75.5
256.357	92.5
256.59	77.5
256.823	72.5
257.056	85.5
257.289	77.5
257.521	81.5
257.754	83.5
257.987	78.5
258.22	79.5
258.452	96.5
258.685	89.5
258.918	86.5
259.151	77.5
259.383	82.5
259.616	80.5
259.849	87.5
260.081	81.5
260.314	72.5
260.547	79.5
260.779	79.5
261.012	76.5
261.244	94.5
261.477	97.5
261.71	90.5
261.942	84.5
262.175	90.5
262.407	75.5
262.64	89.5
262.872	80.5
263.105	80.5
263.337	86.5
263.57	93.5
263.802	83.5
264.035	74.5
264.267	73.5
264.499	96.5
264.732	92.5
264.964	88.5
265.197	77.5
265.429	91.5
265.661	77.5
265.894	91.5
266.126	91.5
266.358	86.5
266.591	71.5
266.823	81.5
267.055	83.5
267.287	81.5
267.52	93.5
267.752	86.5
267.984	86.5
268.216	93.5
268.448	87.5
268.681	88.5
268.913	90.5
269.145	84.5
269.377	84.5
269.609	102.5
269.841	87.5
270.073	89.5
270.306	74.5
270.538	79.5
270.77	86.5
271.002	97.5
271.234	82.5
271.466	76.5
271.698	85.5
271.93	87.5
272.162	74.5
272.394	97.5
272.626	84.5
272.858	93.5
273.09	72.5
273.322	85.5
273.553	88.5
273.785	81.5
274.017	70.5
274.249	90.5
274.481	85.5
274.713	94.5
274.945	95.5
275.176	75.5
275.408	95.5
275.64	96.5
275.872	95.5
276.104	89.5
276.335	87.5
276.567	92.5
276.799	95.5
277.031	79.5
277.262	83.5
277.494	82.5
277.726	88.5
277.957	78.5
278.189	91.5
278.421	97.5
278.652	90.5
278.884	77.5
279.115	85.5
279.347	88.5
279.579	93.5
279.81	101.5
280.042	79.5
280.273	78.5
280.505	81.5
280.736	84.5
280.968	78.5
281.199	78.5
281.431	79.5
281.662	93.5
281.894	95.5
282.125	90.5
282.356	89.5
282.588	78.5
282.819	79.5
283.051	79.5
283.282	94.5
283.513	94.5
283.745	92.5
283.976	81.5
284.207	85.5
284.439	70.5
284.67	79.5
284.901	83.5
285.132	94.5
285.364	88.5
285.595	88.5
285.826	84.5
286.057	86.5
286.288	105.5
286.52	81.5
286.751	93.5
286.982	100.5
287.213	85.5
287.444	86.5
287.675	82.5
287.906	77.5
288.138	89.5
288.369	90.5
288.6	83.5
288.831	82.5
289.062	94.5
289.293	85.5
289.524	105.5
289.755	104.5
289.986	82.5
290.217	92.5
290.448	99.5
290.679	85.5
290.91	91.5
291.141	75.5
291.371	70.5
291.602	72.5
291.833	93.5
292.064	87.5
292.295	83.5
292.526	86.5
292.757	91.5
292.987	91.5
293.218	97.5
293.449	89.5
293.68	78.5
293.91	94.5
294.141	77.5
294.372	96.5
294.603	91.5
294.833	89.5
295.064	83.5
295.295	86.5
295.525	83.5
295.756	83.5
295.987	76.5
296.217	74.5
296.448	95.5
296.679	80.5
296.909	80.5
297.14	87.5
297.37	87.5
297.601	84.5
297.831	84.5
298.062	85.5
298.292	92.5
298.523	83.5
298.753	82.5
298.984	86.5
299.214	103.5
299.445	86.5
299.675	84.5
299.905	82.5
300.136	68.5
300.366	93.5
300.597	89.5
300.827	89.5
301.057	90.5
301.288	83.5
301.518	97.5
301.748	84.5
301.979	92.5
302.209	98.5
302.439	85.5
302.669	80.5
302.9	82.5
303.13	89.5
303.36	74.5
303.59	88.5
303.82	89.5
304.051	87.5
304.281	102.5
304.511	97.5
304.741	86.5
304.971	81.5
305.201	66.5
305.431	81.5
305.661	97.5
305.891	92.5
306.121	94.5
306.352	87.5
306.582	92.5
306.812	100.5
307.042	82.5
307.272	76.5
307.502	90.5
307.731	90.5
307.961	79.5
308.191	78.5
308.421	101.5
308.651	81.5
308.881	79.5
309.111	90.5
309.341	83.5
309.571	73.5
309.8	85.5
310.03	94.5
310.26	98.5
310.49	86.5
310.72	87.5
310.949	97.5
311.179	86.5
311.409	87.5
311.639	74.5
311.868	83.5
312.098	100.5
312.328	89.5
312.557	86.5
312.787	79.5
313.017	73.5
313.246	86.5
313.476	97.5
313.706	78.5
313.935	86.5
314.165	88.5
314.394	90.5
314.624	89.5
314.853	84.5
315.083	88.5
315.312	77.5
315.542	85.5
315.771	88.5
316.001	79.5
316.23	95.5
316.46	91.5
316.689	83.5
316.919	98.5
317.148	87.5
317.377	90.5
317.607	92.5
317.836	99.5
318.065	93.5
318.295	85.5
318.524	91.5
318.753	82.5
318.983	91.5
319.212	105.5
319.441	78.5
319.67	77.5
319.9	83.5
320.129	82.5
320.358	91.5
320.587	87.5
320.816	80.5
321.046	73.5
321.275	84.5
321.504	88.5
321.733	85.5
321.962	84.5
322.191	90.5
322.42	78.5
322.649	106.5
322.878	91.5
323.108	87.5
323.337	85.5
323.566	90.5
323.795	92.5
324.024	91.5
324.253	82.5
324.482	88.5
324.71	87.5
324.939	87.5
325.168	101.5
325.397	69.5
325.626	77.5
325.855	88.5
326.084	83.5
326.313	82.5
326.542	85.5
326.77	90.5
326.999	95.5
327.228	89.5
327.457	82.5
327.686	96.5
327.914	91.5
328.143	85.5
328.372	79.5
328.6	88.5
328.829	99.5
329.058	94.5
329.287	88.5
329.515	89.5
329.744	90.5
329.972	104.5
330.201	85.5
330.43	101.5
330.658	89.5
330.887	80.5
331.115	106.5
331.344	76.5
331.572	85.5
331.801	84.5
332.03	79.5
332.258	85.5
332.486	84.5
332.715	84.5
332.943	97.5
333.172	90.5
333.4	104.5
333.629	90.5
333.857	85.5
334.085	86.5
334.314	87.5
334.542	81.5
334.771	90.5
334.999	85.5
335.227	89.5
335.455	80.5
335.684	102.5
335.912	84.5
336.14	79.5
336.369	86.5
336.597	90.5
336.825	72.5
337.053	77.5
337.281	72.5
337.51	83.5
337.738	88.5
337.966	92.5
338.194	77.5
338.422	107.5
338.65	72.5
338.878	94.5
339.106	74.5
339.334	75.5
339.562	85.5
339.79	85.5
340.018	79.5
340.246	87.5
340.474	93.5
340.702	83.5
340.93	83.5
341.158	93.5
341.386	85.5
341.614	79.5
341.842	83.5
342.07	65.5
342.298	86.5
342.526	86.5
342.754	81.5
342.981	90.5
343.209	83.5
343.437	76.5
343.665	84.5
343.893	92.5
344.12	79.5
344.348	94.5
344.576	85.5
344.804	90.5
345.031	89.5
345.259	94.5
345.487	86.5
345.714	89.5
345.942	90.5
346.17	83.5
346.397	82.5
346.625	101.5
346.853	101.5
347.08	77.5
347.308	73.5
347.535	90.5
347.763	90.5
347.99	75.5
348.218	93.5
348.445	91.5
348.673	85.5
348.9	103.5
349.128	79.5
349.355	85.5
349.583	84.5
349.81	98.5
350.037	91.5
350.265	77.5
350.492	85.5
350.72	93.5
350.947	89.5
351.174	70.5
351.402	92.5
351.629	87.5
351.856	96.5
352.083	90.5
352.311	81.5
352.538	85.5
352.765	101.5
352.992	92.5
353.22	75.5
353.447	84.5
353.674	97.5
353.901	82.5
354.128	89.5
354.355	100.5
354.583	89.5
354.81	103.5
355.037	86.5
355.264	88.5
355.491	80.5
355.718	85.5
355.945	88.5
356.172	72.5
356.399	84.5
356.626	79.5
356.853	99.5
357.08	98.5
357.307	92.5
357.534	77.5
357.761	77.5
357.988	83.5
358.215	89.5
358.441	86.5
358.668	87.5
358.895	86.5
359.122	79.5
359.349	90.5
359.576	93.5
359.802	74.5
360.029	83.5
360.256	84.5
360.483	75.5
360.709	98.5
360.936	81.5
361.163	87.5
361.39	81.5
361.616	85.5
361.843	82.5
362.07	82.5
362.296	91.5
362.523	81.5
362.749	101.5
362.976	82.5
363.203	90.5
363.429	86.5
363.656	75.5
363.882	87.5
364.109	91.5
364.335	96.5
364.562	83.5
364.788	87.5
365.015	80.5
365.241	99.5
365.468	80.5
365.694	77.5
365.92	80.5
366.147	88.5
366.373	83.5
366.599	84.5
366.826	77.5
367.052	80.5
367.278	89.5
367.505	70.5
367.731	89.5
367.957	83.5
368.184	83.5
368.41	84.5
368.636	81.5
368.862	87.5
369.089	91.5
369.315	81.5
369.541	93.5
369.767	93.5
369.993	84.5
370.219	76.5
370.445	84.5
370.672	74.5
370.898	78.5
371.124	84.5
371.35	83.5
371.576	80.5
371.802	93.5
372.028	90.5
372.254	82.5
372.48	91.5
372.706	83.5
372.932	109.5
373.158	99.5
373.384	95.5
373.61	88.5
373.835	94.5
374.061	94.5
374.287	87.5
374.513	105.5
374.739	77.5
374.965	90.5
375.191	75.5
375.416	72.5
375.642	92.5
375.868	87.5
376.094	86.5
376.319	85.5
376.545	82.5
376.771	77.5
376.997	79.5
377.222	77.5
377.448	92.5
377.674	76.5
377.899	85.5
378.125	90.5
378.35	90.5
378.576	88.5
378.802	80.5
379.027	83.5
379.253	90.5
379.478	88.5
379.704	89.5
379.929	82.5
380.155	85.5
380.38	85.5
380.606	84.5
380.831	87.5
381.057	91.5
381.282	79.5
381.507	83.5
381.733	91.5
381.958	76.5
382.184	91.5
382.409	80.5
382.634	99.5
382.86	77.5
383.085	78.5
383.31	86.5
383.535	89.5
383.761	88.5
383.986	87.5
384.211	84.5
384.436	85.5
384.662	92.5
384.887	91.5
385.112	75.5
385.337	93.5
385.562	72.5
385.787	79.5
386.013	88.5
386.238	89.5
386.463	87.5
386.688	84.5
386.913	84.5
387.138	80.5
387.363	85.5
387.588	90.5
387.813	77.5
388.038	90.5
388.263	80.5
388.488	90.5
388.713	91.5
388.938	80.5
389.163	90.5
389.387	72.5
389.612	87.5
389.837	85.5
390.062	87.5
390.287	94.5
390.512	94.5
390.736	104.5
390.961	91.5
391.186	96.5
391.411	84.5
391.636	77.5
391.86	79.5
392.085	83.5
392.31	92.5
392.534	87.5
392.759	75.5
392.984	89.5
393.208	90.5
393.433	89.5
393.658	84.5
393.882	97.5
394.107	90.5
394.331	86.5
394.556	97.5
394.78	103.5
395.005	96.5
395.229	77.5
395.454	75.5
395.678	82.5
395.903	82.5
396.127	97.5
396.352	87.5
396.576	95.5
396.801	98.5
397.025	89.5
397.249	91.5
397.474	103.5
397.698	76.5
397.922	92.5
398.147	94.5
398.371	86.5
398.595	96.5
398.82	90.5
399.044	80.5
399.268	101.5
399.492	99.5
399.717	87.5
399.941	102.5
400.165	95.5
400.389	94.5
400.613	94.5
400.837	74.5
401.062	77.5
401.286	86.5
401.51	81.5
401.734	87.5
401.958	82.5
402.182	89.5
402.406	96.5
402.63	92.5
402.854	79.5
403.078	97.5
403.302	87.5
403.526	88.5
403.75	109.5
403.974	99.5
404.198	100.5
404.422	90.5
404.645	76.5
404.869	90.5
405.093	75.5
405.317	86.5
405.541	83.5
405.765	86.5
405.988	98.5
406.212	96.5
406.436	85.5
406.66	93.5
406.883	96.5
407.107	85.5
407.331	78.5
407.555	87.5
407.778	92.5
408.002	98.5
408.226	98.5
408.449	91.5
408.673	92.5
408.896	93.5
409.12	84.5
409.344	73.5
409.567	87.5
409.791	101.5
410.014	101.5
410.238	97.5
410.461	91.5
410.685	86.5
410.908	90.5
411.132	95.5
411.355	98.5
411.578	85.5
411.802	95.5
412.025	88.5
412.249	93.5
412.472	90.5
412.695	79.5
412.919	99.5
413.142	86.5
413.365	91.5
413.589	98.5
413.812	92.5
414.035	86.5
414.258	90.5
414.482	94.5
414.705	101.5
414.928	98.5
415.151	90.5
415.374	97.5
415.597	106.5
415.821	98.5
416.044	94.5
416.267	84.5
416.49	96.5
416.713	112.5
416.936	94.5
417.159	87.5
417.382	90.5
417.605	93.5
417.828	88.5
418.051	91.5
418.274	101.5
418.497	85.5
418.72	98.5
418.943	102.5
419.166	98.5
419.389	103.5
419.611	99.5
419.834	91.5
420.057	100.5
420.28	109.5
420.503	104.5
420.726	99.5
420.948	80.5
421.171	91.5
421.394	100.5
421.617	74.5
421.839	93.5
422.062	98.5
422.285	92.5
422.507	94.5
422.73	97.5
422.953	97.5
423.175	97.5
423.398	101.5
423.621	79.5
423.843	97.5
424.066	103.5
424.288	86.5
424.511	90.5
424.733	94.5
424.956	95.5
425.178	102.5
425.401	88.5
425.623	93.5
425.846	91.5
426.068	94.5
426.291	92.5
426.513	96.5
426.735	97.5
426.958	100.5
427.18	92.5
427.402	101.5
427.625	79.5
427.847	97.5
428.069	85.5
428.292	88.5
428.514	80.5
428.736	90.5
428.958	93.5
429.181	108.5
429.403	88.5
429.625	92.5
429.847	95.5
430.069	88.5
430.292	97.5
430.514	100.5
430.736	97.5
430.958	98.5
431.18	91.5
431.402	81.5
431.624	80.5
431.846	85.5
432.068	99.5
432.29	93.5
432.512	91.5
432.734	86.5
432.956	100.5
433.178	91.5
433.4	110.5
433.622	91.5
433.844	103.5
434.066	94.5
434.287	99.5
434.509	79.5
434.731	100.5
434.953	81.5
435.175	88.5
435.397	87.5
435.618	88.5
435.84	97.5
436.062	88.5
436.284	102.5
436.505	90.5
436.727	99.5
436.949	101.5
437.17	87.5
437.392	94.5
437.614	103.5
437.835	100.5
438.057	87.5
438.278	93.5
438.5	98.5
438.721	91.5
438.943	90.5
439.165	99.5
439.386	85.5
439.608	93.5
439.829	97.5
440.05	89.5
440.272	106.5
440.493	110.5
440.715	111.5
440.936	82.5
441.158	101.5
441.379	100.5
441.6	116.5
441.822	107.5
442.043	97.5
442.264	95.5
442.486	89.5
442.707	106.5
442.928	102.5
443.149	110.5
443.371	93.5
443.592	110.5
443.813	103.5
444.034	95.5
444.255	89.5
444.476	108.5
444.698	100.5
444.919	102.5
445.14	172.5
445.361	128.5
445.582	111.5
445.803	95.5
446.024	109.5
446.245	100.5
446.466	118.5
446.687	105.5
446.908	107.5
447.129	103.5
447.35	80.5
447.571	96.5
447.792	86.5
448.013	93.5
448.234	98.5
448.455	97.5
448.675	108.5
448.896	92.5
449.117	106.5
449.338	103.5
449.559	92.5
449.779	87.5
450	95.5
450.221	91.5
450.442	98.5
450.662	93.5
450.883	86.5
451.104	93.5
451.324	92.5
451.545	90.5
451.766	101.5
451.986	103.5
452.207	93.5
452.428	102.5
452.648	99.5
452.869	98.5
453.089	89.5
453.31	81.5
453.53	79.5
453.751	100.5
453.971	95.5
454.192	97.5
454.412	108.5
454.633	89.5
454.853	97.5
455.073	86.5
455.294	100.5
455.514	84.5
455.734	93.5
455.955	102.5
456.175	93.5
456.395	94.5
456.616	91.5
456.836	95.5
457.056	93.5
457.276	90.5
457.497	83.5
457.717	79.5
457.937	76.5
458.157	81.5
458.377	94.5
458.598	94.5
458.818	72.5
459.038	75.5
459.258	87.5
459.478	75.5
459.698	78.5
459.918	86.5
460.138	91.5
460.358	94.5
460.578	91.5
460.798	88.5
461.018	91.5
461.238	97.5
461.458	100.5
461.678	77.5
461.898	87.5
462.118	91.5
462.338	98.5
462.558	98.5
462.777	87.5
462.997	97.5
463.217	106.5
463.437	78.5
463.657	98.5
463.876	99.5
464.096	98.5
464.316	85.5
464.536	92.5
464.755	101.5
464.975	91.5
465.195	95.5
465.414	96.5
465.634	94.5
465.854	95.5
466.073	100.5
466.293	100.5
466.512	86.5
466.732	106.5
466.951	107.5
467.171	101.5
467.391	109.5
467.61	94.5
467.829	98.5
468.049	95.5
468.268	95.5
468.488	99.5
468.707	93.5
468.927	96.5
469.146	83.5
469.365	96.5
469.585	110.5
469.804	106.5
470.023	116.5
470.243	99.5
470.462	98.5
470.681	88.5
470.901	102.5
471.12	105.5
471.339	113.5
471.558	89.5
471.777	103.5
471.997	95.5
472.216	89.5
472.435	82.5
472.654	89.5
472.873	88.5
473.092	86.5
473.311	85.5
473.53	82.5
473.749	102.5
473.968	99.5
474.187	85.5
474.406	105.5
474.625	87.5
474.844	113.5
475.063	87.5
475.282	85.5
475.501	89.5
475.72	115.5
475.939	94.5
476.158	89.5
476.377	94.5
476.596	110.5
476.814	86.5
477.033	93.5
477.252	94.5
477.471	99.5
477.69	108.5
477.908	108.5
478.127	101.5
478.346	84.5
478.564	103.5
478.783	107.5
479.002	110.5
479.22	97.5
479.439	87.5
479.658	88.5
479.876	75.5
480.095	84.5
480.313	89.5
480.532	95.5
480.751	100.5
480.969	74.5
481.188	82.5
481.406	84.5
481.624	76.5
481.843	81.5
482.061	83.5
482.28	76.5
482.498	101.5
482.717	87.5
482.935	91.5
483.153	97.5
483.372	94.5
483.59	107.5
483.808	100.5
484.027	101.5
484.245	90.5
484.463	102.5
484.681	102.5
484.9	108.5
485.118	94.5
485.336	81.5
485.554	93.5
485.772	93.5
485.99	92.5
486.209	99.5
486.427	87.5
486.645	86.5
486.863	94.5
487.081	94.5
487.299	98.5
487.517	108.5
487.735	103.5
487.953	119.5
488.171	116.5
488.389	113.5
488.607	103.5
488.825	87.5
489.043	98.5
489.261	96.5
489.479	111.5
489.696	93.5
489.914	99.5
490.132	95.5
490.35	107.5
490.568	109.5
490.786	111.5
491.003	99.5
491.221	101.5
491.439	127.5
491.657	119.5
491.874	130.5
492.092	120.5
492.31	128.5
492.527	119.5
492.745	119.5
492.963	110.5
493.18	115.5
493.398	115.5
493.615	101.5
493.833	106.5
494.05	102.5
494.268	111.5
494.485	109.5
494.703	118.5
494.92	98.5
495.138	119.5
495.355	121.5
495.573	99.5
495.79	99.5
496.008	110.5
496.225	115.5
496.442	111.5
496.66	111.5
496.877	106.5
497.094	109.5
497.312	103.5
497.529	106.5
497.746	97.5
497.963	94.5
498.181	90.5
498.398	105.5
498.615	94.5
498.832	98.5
499.049	91.5
499.267	102.5
499.484	100.5
499.701	99.5
499.918	106.5
500.135	86.5
500.352	99.5
500.569	97.5
500.786	107.5
501.003	110.5
501.22	105.5
501.437	115.5
501.654	92.5
501.871	97.5
502.088	106.5
502.305	111.5
502.522	93.5
502.739	93.5
502.956	113.5
503.172	100.5
503.389	103.5
503.606	79.5
503.823	95.5
504.04	88.5
504.256	94.5
504.473	94.5
504.69	103.5
504.907	103.5
505.123	89.5
505.34	88.5
505.557	105.5
505.773	90.5
505.99	105.5
506.207	93.5
506.423	85.5
506.64	85.5
506.856	90.5
507.073	89.5
507.289	91.5
507.506	102.5
507.722	83.5
507.939	86.5
508.155	83.5
508.372	105.5
508.588	111.5
508.805	98.5
509.021	102.5
509.238	95.5
509.454	100.5
509.67	94.5
509.887	92.5
510.103	72.5
510.319	99.5
510.536	90.5
510.752	92.5
510.968	70.5
511.184	85.5
511.401	71.5
511.617	98.5
511.833	84.5
512.049	85.5
512.265	98.5
512.481	99.5
512.698	98.5
512.914	75.5
513.13	88.5
513.346	81.5
513.562	86.5
513.778	78.5
513.994	87.5
514.21	86.5
514.426	82.5
514.642	83.5
514.858	88.5
515.074	90.5
515.29	99.5
515.506	92.5
515.721	85.5
515.937	91.5
516.153	81.5
516.369	83.5
516.585	82.5
516.801	94.5
517.016	92.5
517.232	85.5
517.448	88.5
517.664	89.5
517.879	83.5
518.095	89.5
518.311	90.5
518.527	97.5
518.742	85.5
518.958	92.5
519.173	92.5
519.389	86.5
519.605	85.5
519.82	103.5
520.036	114.5
520.251	83.5
520.467	90.5
520.682	78.5
520.898	84.5
521.113	71.5
521.329	92.5
521.544	70.5
521.76	102.5
521.975	91.5
522.19	91.5
522.406	101.5
522.621	100.5
522.836	91.5
523.052	86.5
523.267	86.5
523.482	88.5
523.698	88.5
523.913	98.5
524.128	84.5
524.343	97.5
524.559	93.5
524.774	107.5
524.989	100.5
525.204	94.5
525.419	94.5
525.634	85.5
525.849	92.5
526.064	87.5
526.28	88.5
526.495	76.5
526.71	61.5
526.925	94.5
527.14	88.5
527.355	79.5
527.57	86.5
527.785	86.5
527.999	89.5
528.214	93.5
528.429	93.5
528.644	100.5
528.859	91.5
529.074	92.5
529.289	113.5
529.503	97.5
529.718	97.5
529.933	91.5
530.148	94.5
530.363	81.5
530.577	85.5
530.792	85.5
531.007	94.5
531.221	78.5
531.436	80.5
531.651	95.5
531.865	89.5
532.08	91.5
532.295	96.5
532.509	91.5
532.724	97.5
532.938	93.5
533.153	104.5
533.367	99.5
533.582	93.5
533.796	85.5
534.011	81.5
534.225	87.5
534.44	84.5
534.654	78.5
534.868	87.5
535.083	104.5
535.297	94.5
535.511	96.5
535.726	100.5
535.94	93.5
536.154	90.5
536.369	85.5
536.583	95.5
536.797	80.5
