Data from Location4.07152019.Energy5.Lamp.07192019.3%Agarose_HRD10591_15-23-30-577.txt Node
Date: Fri Jul 19 15:23:30 EDT 2019
User: cochatt
Spectrometer: HR+D1059
Trigger mode: 1
Integration Time (sec): 1.000000E-1
Scans to average: 1
Electric dark correction enabled: true
Nonlinearity correction enabled: false
Boxcar width: 0
XAxis mode: Wavelengths
Number of Pixels in Spectrum: 2048
>>>>>Begin Spectral Data<<<<<
223.165	-9.38
223.4	-9.38
223.635	-9.38
223.869	-19.38
224.104	-15.38
224.338	-14.38
224.573	-15.38
224.808	-23.38
225.042	-5.38
225.277	-15.38
225.511	-8.38
225.746	18.62
225.98	16.62
226.215	11.62
226.449	18.62
226.683	15.62
226.918	32.62
227.152	12.62
227.387	26.62
227.621	37.62
227.856	39.62
228.09	34.62
228.324	41.62
228.559	36.62
228.793	52.62
229.027	62.62
229.262	62.62
229.496	62.62
229.73	72.62
229.964	72.62
230.199	72.62
230.433	64.62
230.667	49.62
230.901	77.62
231.136	70.62
231.37	66.62
231.604	67.62
231.838	70.62
232.072	67.62
232.306	76.62
232.541	72.62
232.775	87.62
233.009	79.62
233.243	89.62
233.477	84.62
233.711	80.62
233.945	86.62
234.179	76.62
234.413	80.62
234.647	83.62
234.881	77.62
235.115	81.62
235.349	70.62
235.583	86.62
235.817	76.62
236.051	70.62
236.285	56.62
236.519	79.62
236.753	75.62
236.987	76.62
237.221	68.62
237.455	76.62
237.689	74.62
237.922	83.62
238.156	69.62
238.39	82.62
238.624	57.62
238.858	70.62
239.091	68.62
239.325	75.62
239.559	76.62
239.793	58.62
240.027	68.62
240.26	69.62
240.494	70.62
240.728	61.62
240.961	75.62
241.195	61.62
241.429	69.62
241.662	67.62
241.896	78.62
242.13	73.62
242.363	67.62
242.597	84.62
242.83	71.62
243.064	74.62
243.298	82.62
243.531	72.62
243.765	77.62
243.998	75.62
244.232	71.62
244.465	84.62
244.699	94.62
244.932	83.62
245.166	76.62
245.399	83.62
245.633	76.62
245.866	78.62
246.099	87.62
246.333	71.62
246.566	62.62
246.8	63.62
247.033	65.62
247.266	72.62
247.5	70.62
247.733	78.62
247.966	80.62
248.2	70.62
248.433	69.62
248.666	66.62
248.899	68.62
249.133	68.62
249.366	82.62
249.599	71.62
249.832	86.62
250.066	89.62
250.299	84.62
250.532	77.62
250.765	73.62
250.998	70.62
251.231	85.62
251.465	79.62
251.698	74.62
251.931	70.62
252.164	68.62
252.397	87.62
252.63	80.62
252.863	61.62
253.096	69.62
253.329	88.62
253.562	80.62
253.795	78.62
254.028	79.62
254.261	78.62
254.494	78.62
254.727	88.62
254.96	75.62
255.193	77.62
255.426	70.62
255.659	85.62
255.892	62.62
256.124	83.62
256.357	65.62
256.59	81.62
256.823	62.62
257.056	81.62
257.289	70.62
257.521	80.62
257.754	62.62
257.987	81.62
258.22	83.62
258.452	70.62
258.685	84.62
258.918	86.62
259.151	69.62
259.383	77.62
259.616	75.62
259.849	84.62
260.081	73.62
260.314	64.62
260.547	85.62
260.779	78.62
261.012	69.62
261.244	59.62
261.477	70.62
261.71	60.62
261.942	74.62
262.175	78.62
262.407	77.62
262.64	72.62
262.872	80.62
263.105	88.62
263.337	83.62
263.57	75.62
263.802	80.62
264.035	87.62
264.267	67.62
264.499	78.62
264.732	82.62
264.964	79.62
265.197	63.62
265.429	68.62
265.661	81.62
265.894	100.62
266.126	73.62
266.358	86.62
266.591	87.62
266.823	93.62
267.055	75.62
267.287	72.62
267.52	73.62
267.752	81.62
267.984	71.62
268.216	77.62
268.448	76.62
268.681	76.62
268.913	84.62
269.145	82.62
269.377	80.62
269.609	92.62
269.841	82.62
270.073	53.62
270.306	80.62
270.538	82.62
270.77	67.62
271.002	80.62
271.234	71.62
271.466	82.62
271.698	75.62
271.93	75.62
272.162	76.62
272.394	91.62
272.626	71.62
272.858	68.62
273.09	69.62
273.322	59.62
273.553	57.62
273.785	75.62
274.017	79.62
274.249	83.62
274.481	77.62
274.713	86.62
274.945	90.62
275.176	71.62
275.408	73.62
275.64	83.62
275.872	81.62
276.104	72.62
276.335	82.62
276.567	82.62
276.799	69.62
277.031	76.62
277.262	72.62
277.494	86.62
277.726	81.62
277.957	72.62
278.189	76.62
278.421	73.62
278.652	68.62
278.884	92.62
279.115	75.62
279.347	75.62
279.579	73.62
279.81	82.62
280.042	72.62
280.273	78.62
280.505	75.62
280.736	84.62
280.968	86.62
281.199	84.62
281.431	73.62
281.662	67.62
281.894	77.62
282.125	66.62
282.356	80.62
282.588	70.62
282.819	74.62
283.051	69.62
283.282	76.62
283.513	96.62
283.745	77.62
283.976	83.62
284.207	72.62
284.439	76.62
284.67	67.62
284.901	73.62
285.132	79.62
285.364	71.62
285.595	78.62
285.826	73.62
286.057	75.62
286.288	82.62
286.52	74.62
286.751	70.62
286.982	86.62
287.213	75.62
287.444	86.62
287.675	75.62
287.906	89.62
288.138	76.62
288.369	77.62
288.6	85.62
288.831	86.62
289.062	83.62
289.293	80.62
289.524	75.62
289.755	79.62
289.986	81.62
290.217	80.62
290.448	65.62
290.679	78.62
290.91	72.62
291.141	72.62
291.371	71.62
291.602	77.62
291.833	78.62
292.064	68.62
292.295	74.62
292.526	67.62
292.757	91.62
292.987	78.62
293.218	70.62
293.449	79.62
293.68	72.62
293.91	76.62
294.141	79.62
294.372	71.62
294.603	74.62
294.833	82.62
295.064	79.62
295.295	76.62
295.525	83.62
295.756	66.62
295.987	82.62
296.217	78.62
296.448	75.62
296.679	84.62
296.909	73.62
297.14	76.62
297.37	84.62
297.601	84.62
297.831	70.62
298.062	62.62
298.292	88.62
298.523	56.62
298.753	74.62
298.984	82.62
299.214	83.62
299.445	89.62
299.675	76.62
299.905	84.62
300.136	72.62
300.366	69.62
300.597	71.62
300.827	70.62
301.057	84.62
301.288	66.62
301.518	90.62
301.748	92.62
301.979	79.62
302.209	78.62
302.439	89.62
302.669	75.62
302.9	83.62
303.13	88.62
303.36	80.62
303.59	69.62
303.82	75.62
304.051	80.62
304.281	80.62
304.511	72.62
304.741	76.62
304.971	70.62
305.201	76.62
305.431	84.62
305.661	83.62
305.891	84.62
306.121	77.62
306.352	78.62
306.582	76.62
306.812	70.62
307.042	79.62
307.272	87.62
307.502	74.62
307.731	67.62
307.961	74.62
308.191	78.62
308.421	83.62
308.651	76.62
308.881	88.62
309.111	84.62
309.341	79.62
309.571	62.62
309.8	77.62
310.03	77.62
310.26	73.62
310.49	69.62
310.72	86.62
310.949	82.62
311.179	84.62
311.409	78.62
311.639	83.62
311.868	89.62
312.098	79.62
312.328	84.62
312.557	89.62
312.787	88.62
313.017	93.62
313.246	72.62
313.476	77.62
313.706	80.62
313.935	96.62
314.165	81.62
314.394	66.62
314.624	91.62
314.853	84.62
315.083	87.62
315.312	86.62
315.542	88.62
315.771	84.62
316.001	70.62
316.23	78.62
316.46	87.62
316.689	82.62
316.919	79.62
317.148	82.62
317.377	81.62
317.607	69.62
317.836	83.62
318.065	67.62
318.295	75.62
318.524	72.62
318.753	89.62
318.983	75.62
319.212	82.62
319.441	88.62
319.67	78.62
319.9	90.62
320.129	83.62
320.358	75.62
320.587	71.62
320.816	79.62
321.046	79.62
321.275	92.62
321.504	73.62
321.733	81.62
321.962	84.62
322.191	85.62
322.42	84.62
322.649	85.62
322.878	83.62
323.108	86.62
323.337	86.62
323.566	89.62
323.795	79.62
324.024	87.62
324.253	86.62
324.482	89.62
324.71	78.62
324.939	90.62
325.168	88.62
325.397	70.62
325.626	92.62
325.855	80.62
326.084	81.62
326.313	79.62
326.542	80.62
326.77	100.62
326.999	82.62
327.228	83.62
327.457	91.62
327.686	75.62
327.914	83.62
328.143	69.62
328.372	84.62
328.6	87.62
328.829	72.62
329.058	74.62
329.287	65.62
329.515	72.62
329.744	71.62
329.972	67.62
330.201	54.62
330.43	68.62
330.658	77.62
330.887	71.62
331.115	87.62
331.344	78.62
331.572	84.62
331.801	88.62
332.03	61.62
332.258	68.62
332.486	85.62
332.715	71.62
332.943	87.62
333.172	80.62
333.4	80.62
333.629	81.62
333.857	78.62
334.085	85.62
334.314	78.62
334.542	88.62
334.771	79.62
334.999	82.62
335.227	84.62
335.455	72.62
335.684	88.62
335.912	77.62
336.14	69.62
336.369	84.62
336.597	72.62
336.825	77.62
337.053	85.62
337.281	68.62
337.51	76.62
337.738	83.62
337.966	67.62
338.194	69.62
338.422	80.62
338.65	78.62
338.878	71.62
339.106	90.62
339.334	86.62
339.562	82.62
339.79	81.62
340.018	75.62
340.246	92.62
340.474	78.62
340.702	78.62
340.93	80.62
341.158	73.62
341.386	75.62
341.614	79.62
341.842	71.62
342.07	86.62
342.298	80.62
342.526	82.62
342.754	90.62
342.981	88.62
343.209	63.62
343.437	75.62
343.665	79.62
343.893	91.62
344.12	77.62
344.348	75.62
344.576	62.62
344.804	78.62
345.031	93.62
345.259	86.62
345.487	73.62
345.714	82.62
345.942	78.62
346.17	78.62
346.397	67.62
346.625	93.62
346.853	86.62
347.08	65.62
347.308	89.62
347.535	63.62
347.763	75.62
347.99	69.62
348.218	92.62
348.445	74.62
348.673	73.62
348.9	71.62
349.128	79.62
349.355	75.62
349.583	86.62
349.81	79.62
350.037	95.62
350.265	84.62
350.492	81.62
350.72	75.62
350.947	78.62
351.174	67.62
351.402	79.62
351.629	83.62
351.856	70.62
352.083	64.62
352.311	75.62
352.538	71.62
352.765	82.62
352.992	81.62
353.22	83.62
353.447	83.62
353.674	82.62
353.901	63.62
354.128	82.62
354.355	91.62
354.583	78.62
354.81	81.62
355.037	61.62
355.264	75.62
355.491	60.62
355.718	68.62
355.945	90.62
356.172	78.62
356.399	72.62
356.626	95.62
356.853	90.62
357.08	82.62
357.307	87.62
357.534	80.62
357.761	88.62
357.988	76.62
358.215	71.62
358.441	82.62
358.668	76.62
358.895	84.62
359.122	65.62
359.349	76.62
359.576	98.62
359.802	71.62
360.029	81.62
360.256	79.62
360.483	83.62
360.709	55.62
360.936	91.62
361.163	87.62
361.39	71.62
361.616	71.62
361.843	71.62
362.07	85.62
362.296	76.62
362.523	84.62
362.749	83.62
362.976	81.62
363.203	83.62
363.429	64.62
363.656	75.62
363.882	82.62
364.109	87.62
364.335	79.62
364.562	80.62
364.788	70.62
365.015	85.62
365.241	74.62
365.468	80.62
365.694	82.62
365.92	83.62
366.147	102.62
366.373	88.62
366.599	74.62
366.826	66.62
367.052	87.62
367.278	88.62
367.505	70.62
367.731	83.62
367.957	76.62
368.184	78.62
368.41	81.62
368.636	79.62
368.862	83.62
369.089	75.62
369.315	84.62
369.541	67.62
369.767	86.62
369.993	77.62
370.219	70.62
370.445	71.62
370.672	76.62
370.898	83.62
371.124	74.62
371.35	63.62
371.576	78.62
371.802	79.62
372.028	81.62
372.254	86.62
372.48	86.62
372.706	84.62
372.932	92.62
373.158	80.62
373.384	81.62
373.61	96.62
373.835	91.62
374.061	88.62
374.287	83.62
374.513	87.62
374.739	76.62
374.965	78.62
375.191	74.62
375.416	67.62
375.642	84.62
375.868	91.62
376.094	78.62
376.319	86.62
376.545	76.62
376.771	78.62
376.997	77.62
377.222	66.62
377.448	76.62
377.674	71.62
377.899	87.62
378.125	90.62
378.35	90.62
378.576	72.62
378.802	78.62
379.027	82.62
379.253	96.62
379.478	69.62
379.704	83.62
379.929	89.62
380.155	94.62
380.38	83.62
380.606	78.62
380.831	86.62
381.057	82.62
381.282	84.62
381.507	75.62
381.733	86.62
381.958	70.62
382.184	72.62
382.409	87.62
382.634	74.62
382.86	86.62
383.085	71.62
383.31	80.62
383.535	67.62
383.761	78.62
383.986	81.62
384.211	72.62
384.436	78.62
384.662	82.62
384.887	87.62
385.112	90.62
385.337	78.62
385.562	70.62
385.787	80.62
386.013	90.62
386.238	88.62
386.463	71.62
386.688	75.62
386.913	81.62
387.138	98.62
387.363	85.62
387.588	87.62
387.813	85.62
388.038	75.62
388.263	88.62
388.488	77.62
388.713	92.62
388.938	67.62
389.163	82.62
389.387	86.62
389.612	79.62
389.837	82.62
390.062	90.62
390.287	82.62
390.512	87.62
390.736	64.62
390.961	71.62
391.186	92.62
391.411	74.62
391.636	88.62
391.86	85.62
392.085	83.62
392.31	82.62
392.534	79.62
392.759	86.62
392.984	73.62
393.208	88.62
393.433	92.62
393.658	84.62
393.882	76.62
394.107	82.62
394.331	86.62
394.556	94.62
394.78	80.62
395.005	71.62
395.229	50.62
395.454	78.62
395.678	83.62
395.903	78.62
396.127	76.62
396.352	92.62
396.576	75.62
396.801	74.62
397.025	87.62
397.249	78.62
397.474	79.62
397.698	82.62
397.922	78.62
398.147	96.62
398.371	59.62
398.595	78.62
398.82	77.62
399.044	75.62
399.268	88.62
399.492	95.62
399.717	92.62
399.941	81.62
400.165	79.62
400.389	80.62
400.613	84.62
400.837	90.62
401.062	95.62
401.286	89.62
401.51	82.62
401.734	92.62
401.958	84.62
402.182	93.62
402.406	96.62
402.63	76.62
402.854	69.62
403.078	84.62
403.302	84.62
403.526	89.62
403.75	95.62
403.974	69.62
404.198	85.62
404.422	89.62
404.645	78.62
404.869	78.62
405.093	67.62
405.317	87.62
405.541	78.62
405.765	86.62
405.988	84.62
406.212	85.62
406.436	87.62
406.66	91.62
406.883	81.62
407.107	84.62
407.331	90.62
407.555	76.62
407.778	94.62
408.002	78.62
408.226	76.62
408.449	88.62
408.673	80.62
408.896	79.62
409.12	98.62
409.344	88.62
409.567	85.62
409.791	94.62
410.014	94.62
410.238	103.62
410.461	75.62
410.685	80.62
410.908	92.62
411.132	84.62
411.355	92.62
411.578	87.62
411.802	84.62
412.025	84.62
412.249	87.62
412.472	78.62
412.695	87.62
412.919	86.62
413.142	83.62
413.365	80.62
413.589	81.62
413.812	82.62
414.035	88.62
414.258	98.62
414.482	83.62
414.705	93.62
414.928	80.62
415.151	86.62
415.374	78.62
415.597	76.62
415.821	73.62
416.044	94.62
416.267	87.62
416.49	80.62
416.713	94.62
416.936	85.62
417.159	68.62
417.382	85.62
417.605	90.62
417.828	100.62
418.051	89.62
418.274	94.62
418.497	87.62
418.72	94.62
418.943	99.62
419.166	94.62
419.389	87.62
419.611	85.62
419.834	86.62
420.057	85.62
420.28	79.62
420.503	94.62
420.726	99.62
420.948	76.62
421.171	82.62
421.394	86.62
421.617	82.62
421.839	86.62
422.062	90.62
422.285	98.62
422.507	106.62
422.73	85.62
422.953	75.62
423.175	87.62
423.398	84.62
423.621	84.62
423.843	78.62
424.066	92.62
424.288	91.62
424.511	92.62
424.733	83.62
424.956	86.62
425.178	85.62
425.401	96.62
425.623	84.62
425.846	80.62
426.068	92.62
426.291	88.62
426.513	75.62
426.735	80.62
426.958	93.62
427.18	86.62
427.402	96.62
427.625	88.62
427.847	99.62
428.069	86.62
428.292	85.62
428.514	82.62
428.736	90.62
428.958	89.62
429.181	74.62
429.403	82.62
429.625	90.62
429.847	89.62
430.069	86.62
430.292	96.62
430.514	85.62
430.736	85.62
430.958	87.62
431.18	86.62
431.402	90.62
431.624	72.62
431.846	78.62
432.068	93.62
432.29	71.62
432.512	88.62
432.734	84.62
432.956	86.62
433.178	101.62
433.4	94.62
433.622	75.62
433.844	98.62
434.066	95.62
434.287	80.62
434.509	77.62
434.731	70.62
434.953	73.62
435.175	78.62
435.397	92.62
435.618	85.62
435.84	78.62
436.062	80.62
436.284	74.62
436.505	99.62
436.727	95.62
436.949	86.62
437.17	90.62
437.392	72.62
437.614	58.62
437.835	87.62
438.057	76.62
438.278	71.62
438.5	90.62
438.721	83.62
438.943	108.62
439.165	95.62
439.386	86.62
439.608	93.62
439.829	93.62
440.05	95.62
440.272	95.62
440.493	84.62
440.715	94.62
440.936	93.62
441.158	93.62
441.379	88.62
441.6	82.62
441.822	87.62
442.043	108.62
442.264	95.62
442.486	87.62
442.707	77.62
442.928	87.62
443.149	93.62
443.371	92.62
443.592	75.62
443.813	82.62
444.034	91.62
444.255	102.62
444.476	102.62
444.698	94.62
444.919	79.62
445.14	191.62
445.361	137.62
445.582	92.62
445.803	87.62
446.024	100.62
446.245	100.62
446.466	87.62
446.687	91.62
446.908	100.62
447.129	99.62
447.35	99.62
447.571	117.62
447.792	85.62
448.013	90.62
448.234	92.62
448.455	87.62
448.675	86.62
448.896	84.62
449.117	80.62
449.338	84.62
449.559	89.62
449.779	89.62
450	108.62
450.221	99.62
450.442	96.62
450.662	93.62
450.883	78.62
451.104	100.62
451.324	86.62
451.545	82.62
451.766	70.62
451.986	77.62
452.207	78.62
452.428	112.62
452.648	98.62
452.869	81.62
453.089	86.62
453.31	89.62
453.53	85.62
453.751	84.62
453.971	92.62
454.192	84.62
454.412	82.62
454.633	79.62
454.853	96.62
455.073	94.62
455.294	82.62
455.514	93.62
455.734	98.62
455.955	107.62
456.175	67.62
456.395	69.62
456.616	81.62
456.836	82.62
457.056	61.62
457.276	87.62
457.497	93.62
457.717	87.62
457.937	77.62
458.157	86.62
458.377	91.62
458.598	82.62
458.818	82.62
459.038	87.62
459.258	88.62
459.478	83.62
459.698	82.62
459.918	89.62
460.138	78.62
460.358	81.62
460.578	91.62
460.798	86.62
461.018	107.62
461.238	83.62
461.458	84.62
461.678	75.62
461.898	81.62
462.118	96.62
462.338	93.62
462.558	92.62
462.777	77.62
462.997	89.62
463.217	65.62
463.437	72.62
463.657	88.62
463.876	82.62
464.096	87.62
464.316	92.62
464.536	83.62
464.755	88.62
464.975	80.62
465.195	82.62
465.414	86.62
465.634	89.62
465.854	104.62
466.073	86.62
466.293	75.62
466.512	88.62
466.732	76.62
466.951	84.62
467.171	85.62
467.391	79.62
467.61	84.62
467.829	97.62
468.049	78.62
468.268	90.62
468.488	84.62
468.707	83.62
468.927	87.62
469.146	91.62
469.365	94.62
469.585	96.62
469.804	96.62
470.023	90.62
470.243	107.62
470.462	90.62
470.681	102.62
470.901	100.62
471.12	86.62
471.339	82.62
471.558	88.62
471.777	101.62
471.997	111.62
472.216	87.62
472.435	103.62
472.654	85.62
472.873	81.62
473.092	96.62
473.311	103.62
473.53	94.62
473.749	98.62
473.968	108.62
474.187	75.62
474.406	83.62
474.625	92.62
474.844	86.62
475.063	90.62
475.282	82.62
475.501	89.62
475.72	87.62
475.939	80.62
476.158	83.62
476.377	100.62
476.596	90.62
476.814	92.62
477.033	81.62
477.252	97.62
477.471	95.62
477.69	97.62
477.908	86.62
478.127	102.62
478.346	97.62
478.564	87.62
478.783	81.62
479.002	87.62
479.22	91.62
479.439	94.62
479.658	86.62
479.876	77.62
480.095	82.62
480.313	82.62
480.532	96.62
480.751	95.62
480.969	78.62
481.188	81.62
481.406	74.62
481.624	80.62
481.843	87.62
482.061	85.62
482.28	79.62
482.498	86.62
482.717	84.62
482.935	76.62
483.153	98.62
483.372	94.62
483.59	90.62
483.808	98.62
484.027	86.62
484.245	79.62
484.463	113.62
484.681	108.62
484.9	83.62
485.118	89.62
485.336	83.62
485.554	89.62
485.772	82.62
485.99	90.62
486.209	92.62
486.427	90.62
486.645	81.62
486.863	96.62
487.081	98.62
487.299	85.62
487.517	94.62
487.735	113.62
487.953	105.62
488.171	104.62
488.389	111.62
488.607	95.62
488.825	85.62
489.043	83.62
489.261	89.62
489.479	103.62
489.696	88.62
489.914	86.62
490.132	109.62
490.35	95.62
490.568	106.62
490.786	111.62
491.003	109.62
491.221	106.62
491.439	111.62
491.657	98.62
491.874	114.62
492.092	143.62
492.31	117.62
492.527	128.62
492.745	122.62
492.963	109.62
493.18	103.62
493.398	120.62
493.615	111.62
493.833	110.62
494.05	106.62
494.268	103.62
494.485	94.62
494.703	100.62
494.92	109.62
495.138	102.62
495.355	101.62
495.573	99.62
495.79	88.62
496.008	98.62
496.225	111.62
496.442	99.62
496.66	107.62
496.877	94.62
497.094	114.62
497.312	102.62
497.529	98.62
497.746	81.62
497.963	96.62
498.181	92.62
498.398	80.62
498.615	89.62
498.832	97.62
499.049	96.62
499.267	95.62
499.484	91.62
499.701	86.62
499.918	86.62
500.135	92.62
500.352	92.62
500.569	99.62
500.786	96.62
501.003	92.62
501.22	95.62
501.437	84.62
501.654	99.62
501.871	88.62
502.088	90.62
502.305	96.62
502.522	77.62
502.739	86.62
502.956	86.62
503.172	88.62
503.389	92.62
503.606	107.62
503.823	85.62
504.04	96.62
504.256	82.62
504.473	78.62
504.69	81.62
504.907	90.62
505.123	83.62
505.34	94.62
505.557	86.62
505.773	102.62
505.99	96.62
506.207	86.62
506.423	91.62
506.64	81.62
506.856	84.62
507.073	81.62
507.289	102.62
507.506	86.62
507.722	93.62
507.939	82.62
508.155	72.62
508.372	90.62
508.588	88.62
508.805	80.62
509.021	97.62
509.238	94.62
509.454	83.62
509.67	86.62
509.887	77.62
510.103	83.62
510.319	93.62
510.536	89.62
510.752	77.62
510.968	78.62
511.184	74.62
511.401	85.62
511.617	62.62
511.833	78.62
512.049	75.62
512.265	80.62
512.481	81.62
512.698	91.62
512.914	82.62
513.13	72.62
513.346	90.62
513.562	84.62
513.778	84.62
513.994	81.62
514.21	80.62
514.426	87.62
514.642	80.62
514.858	69.62
515.074	92.62
515.29	77.62
515.506	98.62
515.721	82.62
515.937	71.62
516.153	91.62
516.369	86.62
516.585	76.62
516.801	69.62
517.016	74.62
517.232	69.62
517.448	90.62
517.664	69.62
517.879	90.62
518.095	94.62
518.311	70.62
518.527	67.62
