Data from Location4.07152019.Energy5.Lamp.07192019.3%Agarose_HRD10591_15-25-05-577.txt Node
Date: Fri Jul 19 15:25:05 EDT 2019
User: cochatt
Spectrometer: HR+D1059
Trigger mode: 1
Integration Time (sec): 1.000000E-1
Scans to average: 1
Electric dark correction enabled: true
Nonlinearity correction enabled: false
Boxcar width: 0
XAxis mode: Wavelengths
Number of Pixels in Spectrum: 2048
>>>>>Begin Spectral Data<<<<<
223.165	-22.31
223.4	-22.31
223.635	-22.31
223.869	-15.31
224.104	-19.31
224.338	-15.31
224.573	-25.31
224.808	-14.31
225.042	-0.31
225.277	7.69
225.511	-1.31
225.746	5.69
225.98	11.69
226.215	5.69
226.449	25.69
226.683	16.69
226.918	15.69
227.152	24.69
227.387	30.69
227.621	36.69
227.856	41.69
228.09	35.69
228.324	47.69
228.559	55.69
228.793	69.69
229.027	54.69
229.262	56.69
229.496	70.69
229.73	63.69
229.964	51.69
230.199	74.69
230.433	73.69
230.667	73.69
230.901	77.69
231.136	70.69
231.37	80.69
231.604	83.69
231.838	83.69
232.072	73.69
232.306	73.69
232.541	94.69
232.775	61.69
233.009	77.69
233.243	76.69
233.477	83.69
233.711	75.69
233.945	71.69
234.179	72.69
234.413	82.69
234.647	76.69
234.881	71.69
235.115	81.69
235.349	67.69
235.583	72.69
235.817	82.69
236.051	72.69
236.285	83.69
236.519	71.69
236.753	86.69
236.987	76.69
237.221	56.69
237.455	77.69
237.689	79.69
237.922	85.69
238.156	86.69
238.39	67.69
238.624	70.69
238.858	76.69
239.091	79.69
239.325	84.69
239.559	68.69
239.793	74.69
240.027	77.69
240.26	92.69
240.494	76.69
240.728	87.69
240.961	71.69
241.195	84.69
241.429	58.69
241.662	74.69
241.896	74.69
242.13	76.69
242.363	74.69
242.597	61.69
242.83	77.69
243.064	68.69
243.298	81.69
243.531	76.69
243.765	68.69
243.998	71.69
244.232	78.69
244.465	84.69
244.699	79.69
244.932	78.69
245.166	64.69
245.399	67.69
245.633	72.69
245.866	91.69
246.099	83.69
246.333	82.69
246.566	88.69
246.8	68.69
247.033	82.69
247.266	83.69
247.5	62.69
247.733	84.69
247.966	70.69
248.2	76.69
248.433	73.69
248.666	76.69
248.899	69.69
249.133	72.69
249.366	77.69
249.599	77.69
249.832	82.69
250.066	93.69
250.299	83.69
250.532	79.69
250.765	74.69
250.998	72.69
251.231	72.69
251.465	76.69
251.698	79.69
251.931	75.69
252.164	72.69
252.397	85.69
252.63	73.69
252.863	73.69
253.096	73.69
253.329	92.69
253.562	84.69
253.795	83.69
254.028	97.69
254.261	68.69
254.494	86.69
254.727	75.69
254.96	81.69
255.193	84.69
255.426	87.69
255.659	69.69
255.892	81.69
256.124	72.69
256.357	73.69
256.59	68.69
256.823	81.69
257.056	73.69
257.289	63.69
257.521	72.69
257.754	74.69
257.987	79.69
258.22	80.69
258.452	65.69
258.685	81.69
258.918	75.69
259.151	71.69
259.383	81.69
259.616	68.69
259.849	84.69
260.081	66.69
260.314	84.69
260.547	81.69
260.779	59.69
261.012	79.69
261.244	77.69
261.477	71.69
261.71	79.69
261.942	71.69
262.175	85.69
262.407	81.69
262.64	70.69
262.872	83.69
263.105	78.69
263.337	77.69
263.57	57.69
263.802	79.69
264.035	91.69
264.267	87.69
264.499	63.69
264.732	85.69
264.964	69.69
265.197	76.69
265.429	86.69
265.661	74.69
265.894	77.69
266.126	89.69
266.358	67.69
266.591	83.69
266.823	88.69
267.055	99.69
267.287	79.69
267.52	82.69
267.752	76.69
267.984	70.69
268.216	70.69
268.448	80.69
268.681	83.69
268.913	64.69
269.145	87.69
269.377	79.69
269.609	91.69
269.841	75.69
270.073	71.69
270.306	76.69
270.538	76.69
270.77	83.69
271.002	80.69
271.234	85.69
271.466	82.69
271.698	77.69
271.93	84.69
272.162	65.69
272.394	72.69
272.626	79.69
272.858	84.69
273.09	73.69
273.322	83.69
273.553	92.69
273.785	84.69
274.017	78.69
274.249	78.69
274.481	86.69
274.713	81.69
274.945	67.69
275.176	88.69
275.408	69.69
275.64	77.69
275.872	87.69
276.104	84.69
276.335	81.69
276.567	76.69
276.799	89.69
277.031	81.69
277.262	84.69
277.494	67.69
277.726	88.69
277.957	73.69
278.189	83.69
278.421	89.69
278.652	62.69
278.884	67.69
279.115	88.69
279.347	78.69
279.579	71.69
279.81	94.69
280.042	79.69
280.273	79.69
280.505	79.69
280.736	91.69
280.968	76.69
281.199	75.69
281.431	77.69
281.662	82.69
281.894	93.69
282.125	72.69
282.356	72.69
282.588	89.69
282.819	87.69
283.051	73.69
283.282	69.69
283.513	88.69
283.745	94.69
283.976	67.69
284.207	87.69
284.439	88.69
284.67	80.69
284.901	88.69
285.132	89.69
285.364	85.69
285.595	75.69
285.826	97.69
286.057	93.69
286.288	92.69
286.52	68.69
286.751	81.69
286.982	89.69
287.213	82.69
287.444	67.69
287.675	72.69
287.906	92.69
288.138	85.69
288.369	78.69
288.6	80.69
288.831	99.69
289.062	84.69
289.293	85.69
289.524	72.69
289.755	78.69
289.986	81.69
290.217	72.69
290.448	80.69
290.679	73.69
290.91	81.69
291.141	77.69
291.371	82.69
291.602	68.69
291.833	76.69
292.064	80.69
292.295	87.69
292.526	92.69
292.757	79.69
292.987	75.69
293.218	84.69
293.449	74.69
293.68	74.69
293.91	89.69
294.141	71.69
294.372	75.69
294.603	73.69
294.833	95.69
295.064	80.69
295.295	83.69
295.525	75.69
295.756	86.69
295.987	81.69
296.217	84.69
296.448	87.69
296.679	83.69
296.909	99.69
297.14	78.69
297.37	77.69
297.601	77.69
297.831	84.69
298.062	87.69
298.292	73.69
298.523	79.69
298.753	82.69
298.984	77.69
299.214	92.69
299.445	77.69
299.675	83.69
299.905	83.69
300.136	84.69
300.366	70.69
300.597	74.69
300.827	81.69
301.057	75.69
301.288	85.69
301.518	79.69
301.748	84.69
301.979	89.69
302.209	73.69
302.439	80.69
302.669	86.69
302.9	76.69
303.13	90.69
303.36	77.69
303.59	87.69
303.82	79.69
304.051	80.69
304.281	72.69
304.511	95.69
304.741	79.69
304.971	81.69
305.201	86.69
305.431	70.69
305.661	67.69
305.891	82.69
306.121	73.69
306.352	82.69
306.582	72.69
306.812	88.69
307.042	77.69
307.272	87.69
307.502	89.69
307.731	85.69
307.961	91.69
308.191	82.69
308.421	82.69
308.651	84.69
308.881	79.69
309.111	82.69
309.341	68.69
309.571	92.69
309.8	81.69
310.03	65.69
310.26	61.69
310.49	89.69
310.72	83.69
310.949	84.69
311.179	82.69
311.409	72.69
311.639	76.69
311.868	93.69
312.098	88.69
312.328	104.69
312.557	75.69
312.787	87.69
313.017	81.69
313.246	84.69
313.476	75.69
313.706	90.69
313.935	82.69
314.165	78.69
314.394	80.69
314.624	81.69
314.853	72.69
315.083	73.69
315.312	64.69
315.542	89.69
315.771	84.69
316.001	76.69
316.23	79.69
316.46	79.69
316.689	73.69
316.919	75.69
317.148	83.69
317.377	90.69
317.607	88.69
317.836	79.69
318.065	90.69
318.295	99.69
318.524	93.69
318.753	77.69
318.983	84.69
319.212	75.69
319.441	72.69
319.67	82.69
319.9	91.69
320.129	92.69
320.358	76.69
320.587	79.69
320.816	89.69
321.046	69.69
321.275	88.69
321.504	73.69
321.733	91.69
321.962	64.69
322.191	75.69
322.42	83.69
322.649	83.69
322.878	101.69
323.108	68.69
323.337	84.69
323.566	94.69
323.795	92.69
324.024	81.69
324.253	89.69
324.482	79.69
324.71	86.69
324.939	81.69
325.168	97.69
325.397	88.69
325.626	82.69
325.855	81.69
326.084	84.69
326.313	85.69
326.542	85.69
326.77	83.69
326.999	75.69
327.228	79.69
327.457	73.69
327.686	76.69
327.914	86.69
328.143	97.69
328.372	81.69
328.6	74.69
328.829	86.69
329.058	77.69
329.287	81.69
329.515	83.69
329.744	73.69
329.972	85.69
330.201	89.69
330.43	88.69
330.658	91.69
330.887	86.69
331.115	71.69
331.344	72.69
331.572	96.69
331.801	82.69
332.03	80.69
332.258	80.69
332.486	86.69
332.715	95.69
332.943	79.69
333.172	84.69
333.4	73.69
333.629	74.69
333.857	81.69
334.085	85.69
334.314	86.69
334.542	84.69
334.771	80.69
334.999	80.69
335.227	80.69
335.455	76.69
335.684	80.69
335.912	87.69
336.14	83.69
336.369	79.69
336.597	77.69
336.825	83.69
337.053	86.69
337.281	80.69
337.51	74.69
337.738	83.69
337.966	76.69
338.194	77.69
338.422	73.69
338.65	82.69
338.878	83.69
339.106	78.69
339.334	86.69
339.562	91.69
339.79	68.69
340.018	85.69
340.246	72.69
340.474	71.69
340.702	77.69
340.93	85.69
341.158	69.69
341.386	80.69
341.614	93.69
341.842	71.69
342.07	89.69
342.298	81.69
342.526	87.69
342.754	80.69
342.981	68.69
343.209	77.69
343.437	92.69
343.665	94.69
343.893	81.69
344.12	77.69
344.348	77.69
344.576	82.69
344.804	89.69
345.031	85.69
345.259	85.69
345.487	80.69
345.714	89.69
345.942	88.69
346.17	74.69
346.397	73.69
346.625	91.69
346.853	80.69
347.08	80.69
347.308	77.69
347.535	89.69
347.763	89.69
347.99	87.69
348.218	90.69
348.445	73.69
348.673	77.69
348.9	99.69
349.128	79.69
349.355	94.69
349.583	84.69
349.81	73.69
350.037	91.69
350.265	69.69
350.492	83.69
350.72	67.69
350.947	77.69
351.174	70.69
351.402	77.69
351.629	78.69
351.856	76.69
352.083	77.69
352.311	67.69
352.538	75.69
352.765	79.69
352.992	72.69
353.22	73.69
353.447	63.69
353.674	83.69
353.901	81.69
354.128	79.69
354.355	70.69
354.583	80.69
354.81	86.69
355.037	66.69
355.264	87.69
355.491	78.69
355.718	79.69
355.945	78.69
356.172	75.69
356.399	93.69
356.626	87.69
356.853	69.69
357.08	79.69
357.307	82.69
357.534	84.69
357.761	78.69
357.988	84.69
358.215	85.69
358.441	95.69
358.668	86.69
358.895	87.69
359.122	82.69
359.349	83.69
359.576	84.69
359.802	79.69
360.029	70.69
360.256	86.69
360.483	97.69
360.709	79.69
360.936	89.69
361.163	80.69
361.39	65.69
361.616	85.69
361.843	83.69
362.07	79.69
362.296	71.69
362.523	92.69
362.749	85.69
362.976	79.69
363.203	93.69
363.429	89.69
363.656	96.69
363.882	78.69
364.109	70.69
364.335	104.69
364.562	77.69
364.788	81.69
365.015	81.69
365.241	71.69
365.468	81.69
365.694	82.69
365.92	84.69
366.147	92.69
366.373	67.69
366.599	73.69
366.826	79.69
367.052	83.69
367.278	71.69
367.505	79.69
367.731	73.69
367.957	95.69
368.184	85.69
368.41	78.69
368.636	77.69
368.862	78.69
369.089	92.69
369.315	83.69
369.541	73.69
369.767	77.69
369.993	86.69
370.219	81.69
370.445	87.69
370.672	85.69
370.898	95.69
371.124	83.69
371.35	84.69
371.576	83.69
371.802	86.69
372.028	59.69
372.254	71.69
372.48	76.69
372.706	82.69
372.932	81.69
373.158	80.69
373.384	85.69
373.61	72.69
373.835	90.69
374.061	88.69
374.287	76.69
374.513	81.69
374.739	76.69
374.965	92.69
375.191	79.69
375.416	85.69
375.642	77.69
375.868	87.69
376.094	87.69
376.319	76.69
376.545	83.69
376.771	78.69
376.997	77.69
377.222	76.69
377.448	79.69
377.674	85.69
377.899	92.69
378.125	81.69
378.35	80.69
378.576	77.69
378.802	83.69
379.027	87.69
379.253	72.69
379.478	101.69
379.704	84.69
379.929	85.69
380.155	87.69
380.38	93.69
380.606	90.69
380.831	75.69
381.057	81.69
381.282	93.69
381.507	80.69
381.733	80.69
381.958	76.69
382.184	91.69
382.409	88.69
382.634	82.69
382.86	91.69
383.085	89.69
383.31	79.69
383.535	89.69
383.761	81.69
383.986	81.69
384.211	83.69
384.436	94.69
384.662	83.69
384.887	84.69
385.112	74.69
385.337	88.69
385.562	88.69
385.787	82.69
386.013	93.69
386.238	101.69
386.463	93.69
386.688	83.69
386.913	79.69
387.138	81.69
387.363	73.69
387.588	94.69
387.813	88.69
388.038	76.69
388.263	83.69
388.488	89.69
388.713	86.69
388.938	87.69
389.163	84.69
389.387	87.69
389.612	84.69
389.837	97.69
390.062	96.69
390.287	99.69
390.512	77.69
390.736	95.69
390.961	67.69
391.186	70.69
391.411	95.69
391.636	73.69
391.86	86.69
392.085	68.69
392.31	79.69
392.534	83.69
392.759	81.69
392.984	96.69
393.208	73.69
393.433	84.69
393.658	68.69
393.882	90.69
394.107	94.69
394.331	96.69
394.556	94.69
394.78	84.69
395.005	81.69
395.229	80.69
395.454	86.69
395.678	88.69
395.903	89.69
396.127	88.69
396.352	88.69
396.576	76.69
396.801	96.69
397.025	69.69
397.249	76.69
397.474	83.69
397.698	68.69
397.922	87.69
398.147	78.69
398.371	90.69
398.595	79.69
398.82	101.69
399.044	86.69
399.268	84.69
399.492	87.69
399.717	93.69
399.941	86.69
400.165	87.69
400.389	82.69
400.613	72.69
400.837	85.69
401.062	95.69
401.286	69.69
401.51	83.69
401.734	74.69
401.958	97.69
402.182	76.69
402.406	99.69
402.63	83.69
402.854	95.69
403.078	101.69
403.302	91.69
403.526	96.69
403.75	94.69
403.974	78.69
404.198	82.69
404.422	87.69
404.645	92.69
404.869	87.69
405.093	85.69
405.317	84.69
405.541	105.69
405.765	94.69
405.988	75.69
406.212	77.69
406.436	79.69
406.66	80.69
406.883	81.69
407.107	77.69
407.331	100.69
407.555	79.69
407.778	93.69
408.002	81.69
408.226	93.69
408.449	84.69
408.673	91.69
408.896	90.69
409.12	86.69
409.344	87.69
409.567	88.69
409.791	77.69
410.014	91.69
410.238	85.69
410.461	87.69
410.685	72.69
410.908	97.69
411.132	85.69
411.355	87.69
411.578	95.69
411.802	86.69
412.025	91.69
412.249	84.69
412.472	80.69
412.695	88.69
412.919	95.69
413.142	89.69
413.365	90.69
413.589	92.69
413.812	91.69
414.035	96.69
414.258	87.69
414.482	84.69
414.705	93.69
414.928	90.69
415.151	87.69
415.374	91.69
415.597	74.69
415.821	93.69
416.044	81.69
416.267	92.69
416.49	87.69
416.713	95.69
416.936	89.69
417.159	85.69
417.382	89.69
417.605	98.69
417.828	79.69
418.051	90.69
418.274	78.69
418.497	108.69
418.72	93.69
418.943	96.69
419.166	91.69
419.389	83.69
419.611	98.69
419.834	90.69
420.057	100.69
420.28	68.69
420.503	80.69
420.726	89.69
420.948	93.69
421.171	99.69
421.394	84.69
421.617	95.69
421.839	77.69
422.062	92.69
422.285	96.69
422.507	95.69
422.73	85.69
422.953	85.69
423.175	90.69
423.398	74.69
423.621	96.69
423.843	88.69
424.066	87.69
424.288	88.69
424.511	87.69
424.733	101.69
424.956	100.69
425.178	100.69
425.401	92.69
425.623	95.69
425.846	96.69
426.068	95.69
426.291	83.69
426.513	85.69
426.735	91.69
426.958	85.69
427.18	93.69
427.402	106.69
427.625	84.69
427.847	93.69
428.069	86.69
428.292	99.69
428.514	91.69
428.736	97.69
428.958	91.69
429.181	79.69
429.403	88.69
429.625	88.69
429.847	105.69
430.069	96.69
430.292	103.69
430.514	71.69
430.736	89.69
430.958	91.69
431.18	103.69
431.402	93.69
431.624	84.69
431.846	81.69
432.068	71.69
432.29	94.69
432.512	97.69
432.734	80.69
432.956	90.69
433.178	103.69
433.4	70.69
433.622	80.69
433.844	94.69
434.066	76.69
434.287	87.69
434.509	72.69
434.731	83.69
434.953	63.69
435.175	90.69
435.397	87.69
435.618	77.69
435.84	78.69
436.062	85.69
436.284	83.69
436.505	89.69
436.727	88.69
436.949	87.69
437.17	87.69
437.392	81.69
437.614	79.69
437.835	82.69
438.057	101.69
438.278	100.69
438.5	99.69
438.721	87.69
438.943	78.69
439.165	81.69
439.386	85.69
439.608	103.69
439.829	91.69
440.05	97.69
440.272	111.69
440.493	88.69
440.715	105.69
440.936	102.69
441.158	83.69
441.379	95.69
441.6	98.69
441.822	86.69
442.043	91.69
442.264	89.69
442.486	87.69
442.707	98.69
442.928	91.69
443.149	78.69
443.371	101.69
443.592	95.69
443.813	105.69
444.034	95.69
444.255	94.69
444.476	90.69
444.698	97.69
444.919	82.69
445.14	205.69
445.361	154.69
445.582	105.69
445.803	83.69
446.024	101.69
446.245	111.69
446.466	101.69
446.687	77.69
446.908	93.69
447.129	100.69
447.35	89.69
447.571	92.69
447.792	93.69
448.013	85.69
448.234	103.69
448.455	95.69
448.675	79.69
448.896	80.69
449.117	79.69
449.338	89.69
449.559	103.69
449.779	108.69
450	100.69
450.221	89.69
450.442	113.69
450.662	103.69
450.883	91.69
451.104	84.69
451.324	96.69
451.545	105.69
451.766	84.69
451.986	91.69
452.207	93.69
452.428	86.69
452.648	85.69
452.869	94.69
453.089	85.69
453.31	97.69
453.53	84.69
453.751	86.69
453.971	80.69
454.192	74.69
454.412	82.69
454.633	79.69
454.853	105.69
455.073	83.69
455.294	98.69
455.514	104.69
455.734	87.69
455.955	105.69
456.175	97.69
456.395	87.69
456.616	87.69
456.836	96.69
457.056	95.69
457.276	82.69
457.497	75.69
457.717	76.69
457.937	83.69
458.157	90.69
458.377	85.69
458.598	82.69
458.818	76.69
459.038	72.69
459.258	80.69
459.478	74.69
459.698	71.69
459.918	77.69
460.138	84.69
460.358	78.69
460.578	97.69
460.798	84.69
461.018	105.69
461.238	89.69
461.458	95.69
461.678	92.69
461.898	97.69
462.118	93.69
462.338	83.69
462.558	83.69
462.777	86.69
462.997	98.69
463.217	76.69
463.437	94.69
463.657	81.69
463.876	69.69
464.096	95.69
464.316	87.69
464.536	67.69
464.755	90.69
464.975	88.69
465.195	91.69
465.414	92.69
465.634	85.69
465.854	84.69
466.073	93.69
466.293	96.69
466.512	101.69
466.732	102.69
466.951	96.69
467.171	96.69
467.391	90.69
467.61	97.69
467.829	91.69
468.049	96.69
468.268	91.69
468.488	79.69
468.707	104.69
468.927	88.69
469.146	113.69
469.365	93.69
469.585	97.69
469.804	113.69
470.023	88.69
470.243	96.69
470.462	103.69
470.681	96.69
470.901	89.69
471.12	109.69
471.339	85.69
471.558	103.69
471.777	88.69
471.997	96.69
472.216	81.69
472.435	96.69
472.654	87.69
472.873	86.69
473.092	88.69
473.311	96.69
473.53	87.69
473.749	84.69
473.968	95.69
474.187	83.69
474.406	94.69
474.625	84.69
474.844	80.69
475.063	81.69
475.282	101.69
475.501	96.69
475.72	99.69
475.939	89.69
476.158	92.69
476.377	101.69
476.596	101.69
476.814	76.69
477.033	95.69
477.252	80.69
477.471	74.69
477.69	88.69
477.908	102.69
478.127	101.69
478.346	97.69
478.564	109.69
478.783	96.69
479.002	87.69
479.22	89.69
479.439	85.69
479.658	81.69
479.876	90.69
480.095	87.69
480.313	90.69
480.532	77.69
480.751	88.69
480.969	83.69
481.188	81.69
481.406	85.69
481.624	78.69
481.843	64.69
482.061	84.69
482.28	86.69
482.498	78.69
482.717	85.69
482.935	98.69
483.153	102.69
483.372	104.69
483.59	104.69
483.808	79.69
484.027	96.69
484.245	104.69
484.463	100.69
484.681	88.69
484.9	100.69
485.118	89.69
485.336	84.69
485.554	83.69
485.772	79.69
485.99	85.69
486.209	94.69
486.427	79.69
486.645	89.69
486.863	92.69
487.081	93.69
487.299	77.69
487.517	97.69
487.735	92.69
487.953	106.69
488.171	97.69
488.389	91.69
488.607	101.69
488.825	95.69
489.043	82.69
489.261	111.69
489.479	93.69
489.696	92.69
489.914	113.69
490.132	96.69
490.35	96.69
490.568	110.69
490.786	89.69
491.003	108.69
491.221	111.69
491.439	114.69
491.657	108.69
491.874	97.69
492.092	118.69
492.31	119.69
492.527	124.69
492.745	113.69
492.963	104.69
493.18	106.69
493.398	99.69
493.615	115.69
493.833	93.69
494.05	94.69
494.268	108.69
494.485	111.69
494.703	110.69
494.92	103.69
495.138	119.69
495.355	103.69
495.573	100.69
495.79	95.69
496.008	99.69
496.225	121.69
496.442	100.69
496.66	105.69
496.877	95.69
497.094	103.69
497.312	107.69
497.529	83.69
497.746	97.69
497.963	96.69
498.181	88.69
498.398	79.69
498.615	82.69
498.832	95.69
499.049	82.69
499.267	99.69
499.484	80.69
499.701	74.69
499.918	98.69
500.135	85.69
500.352	87.69
500.569	98.69
500.786	95.69
501.003	97.69
501.22	96.69
501.437	94.69
501.654	89.69
501.871	93.69
502.088	89.69
502.305	110.69
502.522	86.69
502.739	87.69
502.956	96.69
503.172	92.69
503.389	86.69
503.606	91.69
503.823	97.69
504.04	98.69
504.256	95.69
504.473	87.69
504.69	80.69
504.907	93.69
505.123	99.69
505.34	91.69
505.557	83.69
505.773	93.69
505.99	99.69
506.207	93.69
506.423	85.69
506.64	79.69
506.856	77.69
507.073	100.69
507.289	98.69
507.506	95.69
507.722	86.69
507.939	91.69
508.155	84.69
508.372	91.69
508.588	96.69
508.805	99.69
509.021	84.69
509.238	101.69
509.454	100.69
509.67	79.69
509.887	86.69
510.103	103.69
510.319	71.69
510.536	96.69
510.752	86.69
510.968	86.69
511.184	92.69
511.401	62.69
511.617	79.69
511.833	71.69
512.049	92.69
512.265	90.69
512.481	88.69
512.698	84.69
512.914	83.69
513.13	92.69
513.346	79.69
513.562	81.69
513.778	79.69
513.994	79.69
514.21	89.69
514.426	80.69
514.642	78.69
514.858	89.69
515.074	74.69
515.29	86.69
515.506	91.69
515.721	77.69
515.937	69.69
516.153	72.69
516.369	74.69
516.585	85.69
516.801	89.69
517.016	77.69
517.232	77.69
517.448	84.69
517.664	63.69
517.879	85.69
518.095	79.69
