Data from Location4.07152019.Energy5.Lamp.07192019.3%Agarose_HRD10591_15-23-57-576.txt Node
Date: Fri Jul 19 15:23:57 EDT 2019
User: cochatt
Spectrometer: HR+D1059
Trigger mode: 1
Integration Time (sec): 1.000000E-1
Scans to average: 1
Electric dark correction enabled: true
Nonlinearity correction enabled: false
Boxcar width: 0
XAxis mode: Wavelengths
Number of Pixels in Spectrum: 2048
>>>>>Begin Spectral Data<<<<<
223.165	-13.38
223.4	-13.38
223.635	-13.38
223.869	-9.38
224.104	-22.38
224.338	-2.38
224.573	-14.38
224.808	-13.38
225.042	0.62
225.277	-5.38
225.511	-0.38
225.746	-5.38
225.98	0.62
226.215	15.62
226.449	19.62
226.683	12.62
226.918	10.62
227.152	26.62
227.387	22.62
227.621	30.62
227.856	40.62
228.09	43.62
228.324	53.62
228.559	61.62
228.793	49.62
229.027	46.62
229.262	74.62
229.496	57.62
229.73	59.62
229.964	65.62
230.199	62.62
230.433	62.62
230.667	81.62
230.901	73.62
231.136	79.62
231.37	77.62
231.604	70.62
231.838	85.62
232.072	84.62
232.306	80.62
232.541	84.62
232.775	74.62
233.009	94.62
233.243	85.62
233.477	83.62
233.711	89.62
233.945	83.62
234.179	96.62
234.413	76.62
234.647	87.62
234.881	80.62
235.115	82.62
235.349	78.62
235.583	87.62
235.817	78.62
236.051	75.62
236.285	75.62
236.519	85.62
236.753	75.62
236.987	83.62
237.221	94.62
237.455	105.62
237.689	80.62
237.922	62.62
238.156	86.62
238.39	66.62
238.624	78.62
238.858	69.62
239.091	74.62
239.325	83.62
239.559	71.62
239.793	70.62
240.027	81.62
240.26	80.62
240.494	74.62
240.728	69.62
240.961	66.62
241.195	90.62
241.429	72.62
241.662	88.62
241.896	69.62
242.13	77.62
242.363	76.62
242.597	79.62
242.83	71.62
243.064	75.62
243.298	73.62
243.531	65.62
243.765	89.62
243.998	78.62
244.232	82.62
244.465	71.62
244.699	74.62
244.932	93.62
245.166	73.62
245.399	86.62
245.633	69.62
245.866	78.62
246.099	69.62
246.333	81.62
246.566	82.62
246.8	70.62
247.033	84.62
247.266	81.62
247.5	85.62
247.733	76.62
247.966	67.62
248.2	79.62
248.433	80.62
248.666	81.62
248.899	101.62
249.133	81.62
249.366	78.62
249.599	78.62
249.832	80.62
250.066	88.62
250.299	59.62
250.532	84.62
250.765	75.62
250.998	81.62
251.231	70.62
251.465	68.62
251.698	74.62
251.931	81.62
252.164	88.62
252.397	83.62
252.63	72.62
252.863	81.62
253.096	71.62
253.329	73.62
253.562	85.62
253.795	88.62
254.028	70.62
254.261	73.62
254.494	82.62
254.727	82.62
254.96	75.62
255.193	78.62
255.426	66.62
255.659	81.62
255.892	76.62
256.124	75.62
256.357	83.62
256.59	76.62
256.823	80.62
257.056	83.62
257.289	80.62
257.521	85.62
257.754	84.62
257.987	76.62
258.22	82.62
258.452	71.62
258.685	89.62
258.918	76.62
259.151	83.62
259.383	77.62
259.616	81.62
259.849	85.62
260.081	82.62
260.314	86.62
260.547	76.62
260.779	58.62
261.012	85.62
261.244	74.62
261.477	84.62
261.71	90.62
261.942	75.62
262.175	73.62
262.407	79.62
262.64	87.62
262.872	71.62
263.105	94.62
263.337	77.62
263.57	75.62
263.802	97.62
264.035	81.62
264.267	80.62
264.499	79.62
264.732	85.62
264.964	87.62
265.197	83.62
265.429	78.62
265.661	90.62
265.894	80.62
266.126	91.62
266.358	91.62
266.591	88.62
266.823	82.62
267.055	80.62
267.287	78.62
267.52	88.62
267.752	88.62
267.984	79.62
268.216	91.62
268.448	78.62
268.681	100.62
268.913	76.62
269.145	82.62
269.377	69.62
269.609	81.62
269.841	85.62
270.073	88.62
270.306	79.62
270.538	80.62
270.77	75.62
271.002	76.62
271.234	84.62
271.466	89.62
271.698	85.62
271.93	67.62
272.162	81.62
272.394	61.62
272.626	70.62
272.858	83.62
273.09	86.62
273.322	80.62
273.553	75.62
273.785	90.62
274.017	96.62
274.249	84.62
274.481	74.62
274.713	72.62
274.945	91.62
275.176	81.62
275.408	87.62
275.64	78.62
275.872	81.62
276.104	79.62
276.335	80.62
276.567	80.62
276.799	88.62
277.031	76.62
277.262	72.62
277.494	86.62
277.726	101.62
277.957	87.62
278.189	84.62
278.421	86.62
278.652	79.62
278.884	77.62
279.115	78.62
279.347	68.62
279.579	85.62
279.81	79.62
280.042	81.62
280.273	94.62
280.505	86.62
280.736	84.62
280.968	95.62
281.199	89.62
281.431	86.62
281.662	94.62
281.894	82.62
282.125	88.62
282.356	86.62
282.588	83.62
282.819	77.62
283.051	68.62
283.282	80.62
283.513	72.62
283.745	74.62
283.976	83.62
284.207	98.62
284.439	93.62
284.67	79.62
284.901	86.62
285.132	76.62
285.364	88.62
285.595	77.62
285.826	85.62
286.057	93.62
286.288	81.62
286.52	98.62
286.751	101.62
286.982	77.62
287.213	90.62
287.444	80.62
287.675	86.62
287.906	99.62
288.138	86.62
288.369	81.62
288.6	90.62
288.831	98.62
289.062	87.62
289.293	88.62
289.524	95.62
289.755	77.62
289.986	94.62
290.217	92.62
290.448	74.62
290.679	84.62
290.91	99.62
291.141	87.62
291.371	84.62
291.602	85.62
291.833	75.62
292.064	88.62
292.295	93.62
292.526	81.62
292.757	64.62
292.987	96.62
293.218	93.62
293.449	93.62
293.68	96.62
293.91	84.62
294.141	77.62
294.372	82.62
294.603	76.62
294.833	78.62
295.064	70.62
295.295	72.62
295.525	82.62
295.756	82.62
295.987	80.62
296.217	95.62
296.448	95.62
296.679	64.62
296.909	73.62
297.14	77.62
297.37	73.62
297.601	74.62
297.831	86.62
298.062	86.62
298.292	88.62
298.523	78.62
298.753	76.62
298.984	85.62
299.214	89.62
299.445	80.62
299.675	84.62
299.905	84.62
300.136	83.62
300.366	82.62
300.597	91.62
300.827	79.62
301.057	82.62
301.288	76.62
301.518	87.62
301.748	85.62
301.979	81.62
302.209	96.62
302.439	83.62
302.669	78.62
302.9	94.62
303.13	85.62
303.36	81.62
303.59	84.62
303.82	86.62
304.051	81.62
304.281	101.62
304.511	97.62
304.741	102.62
304.971	87.62
305.201	83.62
305.431	75.62
305.661	74.62
305.891	71.62
306.121	80.62
306.352	93.62
306.582	74.62
306.812	83.62
307.042	90.62
307.272	72.62
307.502	81.62
307.731	81.62
307.961	82.62
308.191	95.62
308.421	94.62
308.651	77.62
308.881	95.62
309.111	81.62
309.341	87.62
309.571	89.62
309.8	93.62
310.03	89.62
310.26	71.62
310.49	64.62
310.72	97.62
310.949	79.62
311.179	65.62
311.409	84.62
311.639	86.62
311.868	83.62
312.098	90.62
312.328	95.62
312.557	83.62
312.787	81.62
313.017	85.62
313.246	91.62
313.476	79.62
313.706	84.62
313.935	90.62
314.165	92.62
314.394	94.62
314.624	81.62
314.853	82.62
315.083	86.62
315.312	89.62
315.542	83.62
315.771	89.62
316.001	82.62
316.23	86.62
316.46	79.62
316.689	79.62
316.919	90.62
317.148	88.62
317.377	93.62
317.607	70.62
317.836	88.62
318.065	71.62
318.295	75.62
318.524	81.62
318.753	87.62
318.983	73.62
319.212	82.62
319.441	77.62
319.67	79.62
319.9	75.62
320.129	79.62
320.358	92.62
320.587	77.62
320.816	90.62
321.046	73.62
321.275	94.62
321.504	85.62
321.733	92.62
321.962	88.62
322.191	86.62
322.42	80.62
322.649	82.62
322.878	81.62
323.108	64.62
323.337	95.62
323.566	83.62
323.795	90.62
324.024	74.62
324.253	79.62
324.482	91.62
324.71	84.62
324.939	86.62
325.168	80.62
325.397	96.62
325.626	85.62
325.855	90.62
326.084	95.62
326.313	81.62
326.542	89.62
326.77	80.62
326.999	90.62
327.228	83.62
327.457	78.62
327.686	75.62
327.914	91.62
328.143	89.62
328.372	85.62
328.6	93.62
328.829	94.62
329.058	81.62
329.287	83.62
329.515	81.62
329.744	82.62
329.972	79.62
330.201	84.62
330.43	106.62
330.658	99.62
330.887	81.62
331.115	83.62
331.344	77.62
331.572	91.62
331.801	90.62
332.03	74.62
332.258	72.62
332.486	91.62
332.715	74.62
332.943	76.62
333.172	76.62
333.4	88.62
333.629	64.62
333.857	88.62
334.085	76.62
334.314	78.62
334.542	78.62
334.771	78.62
334.999	82.62
335.227	82.62
335.455	90.62
335.684	90.62
335.912	77.62
336.14	74.62
336.369	81.62
336.597	92.62
336.825	82.62
337.053	80.62
337.281	87.62
337.51	70.62
337.738	98.62
337.966	84.62
338.194	87.62
338.422	90.62
338.65	94.62
338.878	87.62
339.106	78.62
339.334	94.62
339.562	90.62
339.79	76.62
340.018	81.62
340.246	87.62
340.474	82.62
340.702	92.62
340.93	83.62
341.158	69.62
341.386	72.62
341.614	87.62
341.842	79.62
342.07	76.62
342.298	72.62
342.526	84.62
342.754	75.62
342.981	78.62
343.209	82.62
343.437	90.62
343.665	79.62
343.893	82.62
344.12	89.62
344.348	80.62
344.576	84.62
344.804	93.62
345.031	88.62
345.259	81.62
345.487	95.62
345.714	84.62
345.942	81.62
346.17	90.62
346.397	83.62
346.625	81.62
346.853	71.62
347.08	89.62
347.308	83.62
347.535	105.62
347.763	86.62
347.99	76.62
348.218	82.62
348.445	85.62
348.673	79.62
348.9	76.62
349.128	86.62
349.355	90.62
349.583	82.62
349.81	86.62
350.037	82.62
350.265	78.62
350.492	78.62
350.72	83.62
350.947	73.62
351.174	90.62
351.402	78.62
351.629	75.62
351.856	82.62
352.083	82.62
352.311	87.62
352.538	77.62
352.765	95.62
352.992	86.62
353.22	72.62
353.447	94.62
353.674	87.62
353.901	82.62
354.128	94.62
354.355	87.62
354.583	93.62
354.81	87.62
355.037	93.62
355.264	70.62
355.491	72.62
355.718	85.62
355.945	84.62
356.172	93.62
356.399	75.62
356.626	84.62
356.853	79.62
357.08	67.62
357.307	82.62
357.534	86.62
357.761	96.62
357.988	88.62
358.215	88.62
358.441	68.62
358.668	84.62
358.895	94.62
359.122	92.62
359.349	77.62
359.576	90.62
359.802	96.62
360.029	80.62
360.256	76.62
360.483	78.62
360.709	76.62
360.936	83.62
361.163	81.62
361.39	82.62
361.616	91.62
361.843	78.62
362.07	77.62
362.296	72.62
362.523	82.62
362.749	79.62
362.976	68.62
363.203	83.62
363.429	71.62
363.656	87.62
363.882	77.62
364.109	92.62
364.335	91.62
364.562	93.62
364.788	68.62
365.015	68.62
365.241	80.62
365.468	91.62
365.694	82.62
365.92	83.62
366.147	80.62
366.373	81.62
366.599	72.62
366.826	83.62
367.052	75.62
367.278	86.62
367.505	82.62
367.731	72.62
367.957	67.62
368.184	87.62
368.41	87.62
368.636	82.62
368.862	87.62
369.089	84.62
369.315	86.62
369.541	83.62
369.767	79.62
369.993	80.62
370.219	86.62
370.445	76.62
370.672	92.62
370.898	84.62
371.124	75.62
371.35	80.62
371.576	96.62
371.802	94.62
372.028	81.62
372.254	78.62
372.48	87.62
372.706	86.62
372.932	88.62
373.158	85.62
373.384	84.62
373.61	75.62
373.835	89.62
374.061	93.62
374.287	86.62
374.513	92.62
374.739	83.62
374.965	79.62
375.191	87.62
375.416	83.62
375.642	80.62
375.868	92.62
376.094	84.62
376.319	80.62
376.545	78.62
376.771	91.62
376.997	90.62
377.222	81.62
377.448	89.62
377.674	80.62
377.899	91.62
378.125	80.62
378.35	82.62
378.576	81.62
378.802	100.62
379.027	82.62
379.253	93.62
379.478	84.62
379.704	96.62
379.929	65.62
380.155	75.62
380.38	73.62
380.606	86.62
380.831	78.62
381.057	83.62
381.282	87.62
381.507	90.62
381.733	78.62
381.958	83.62
382.184	98.62
382.409	80.62
382.634	94.62
382.86	87.62
383.085	81.62
383.31	85.62
383.535	77.62
383.761	66.62
383.986	75.62
384.211	83.62
384.436	90.62
384.662	80.62
384.887	83.62
385.112	78.62
385.337	86.62
385.562	80.62
385.787	89.62
386.013	89.62
386.238	70.62
386.463	82.62
386.688	85.62
386.913	88.62
387.138	86.62
387.363	88.62
387.588	86.62
387.813	87.62
388.038	85.62
388.263	73.62
388.488	81.62
388.713	90.62
388.938	89.62
389.163	85.62
389.387	79.62
389.612	82.62
389.837	86.62
390.062	85.62
390.287	82.62
390.512	93.62
390.736	96.62
390.961	61.62
391.186	93.62
391.411	92.62
391.636	86.62
391.86	89.62
392.085	88.62
392.31	87.62
392.534	95.62
392.759	88.62
392.984	80.62
393.208	83.62
393.433	91.62
393.658	94.62
393.882	102.62
394.107	81.62
394.331	94.62
394.556	92.62
394.78	87.62
395.005	96.62
395.229	82.62
395.454	90.62
395.678	94.62
395.903	76.62
396.127	86.62
396.352	87.62
396.576	88.62
396.801	97.62
397.025	90.62
397.249	91.62
397.474	87.62
397.698	92.62
397.922	81.62
398.147	85.62
398.371	69.62
398.595	80.62
398.82	83.62
399.044	79.62
399.268	83.62
399.492	85.62
399.717	94.62
399.941	89.62
400.165	83.62
400.389	85.62
400.613	89.62
400.837	83.62
401.062	87.62
401.286	91.62
401.51	85.62
401.734	79.62
401.958	82.62
402.182	84.62
402.406	99.62
402.63	80.62
402.854	95.62
403.078	79.62
403.302	88.62
403.526	99.62
403.75	93.62
403.974	97.62
404.198	87.62
404.422	82.62
404.645	83.62
404.869	101.62
405.093	91.62
405.317	94.62
405.541	82.62
405.765	93.62
405.988	79.62
406.212	93.62
406.436	87.62
406.66	94.62
406.883	85.62
407.107	73.62
407.331	83.62
407.555	89.62
407.778	85.62
408.002	69.62
408.226	84.62
408.449	84.62
408.673	87.62
408.896	79.62
409.12	82.62
409.344	94.62
409.567	86.62
409.791	80.62
410.014	85.62
410.238	85.62
410.461	95.62
410.685	77.62
410.908	88.62
411.132	93.62
411.355	83.62
411.578	77.62
411.802	90.62
412.025	76.62
412.249	83.62
412.472	88.62
412.695	91.62
412.919	86.62
413.142	90.62
413.365	86.62
413.589	88.62
413.812	94.62
414.035	99.62
414.258	89.62
414.482	105.62
414.705	82.62
414.928	94.62
415.151	81.62
415.374	85.62
415.597	84.62
415.821	98.62
416.044	80.62
416.267	85.62
416.49	92.62
416.713	86.62
416.936	75.62
417.159	77.62
417.382	79.62
417.605	91.62
417.828	91.62
418.051	96.62
418.274	97.62
418.497	99.62
418.72	81.62
418.943	77.62
419.166	78.62
419.389	98.62
419.611	90.62
419.834	88.62
420.057	91.62
420.28	89.62
420.503	83.62
420.726	109.62
420.948	90.62
421.171	100.62
421.394	96.62
421.617	83.62
421.839	100.62
422.062	93.62
422.285	85.62
422.507	87.62
422.73	94.62
422.953	99.62
423.175	95.62
423.398	88.62
423.621	106.62
423.843	96.62
424.066	97.62
424.288	92.62
424.511	111.62
424.733	83.62
424.956	106.62
425.178	103.62
425.401	100.62
425.623	88.62
425.846	98.62
426.068	85.62
426.291	102.62
426.513	95.62
426.735	87.62
426.958	78.62
427.18	98.62
427.402	95.62
427.625	93.62
427.847	92.62
428.069	87.62
428.292	76.62
428.514	94.62
428.736	102.62
428.958	91.62
429.181	105.62
429.403	90.62
429.625	85.62
429.847	85.62
430.069	93.62
430.292	97.62
430.514	97.62
430.736	81.62
430.958	89.62
431.18	81.62
431.402	98.62
431.624	105.62
431.846	90.62
432.068	79.62
432.29	96.62
432.512	100.62
432.734	103.62
432.956	92.62
433.178	93.62
433.4	84.62
433.622	99.62
433.844	102.62
434.066	95.62
434.287	98.62
434.509	77.62
434.731	82.62
434.953	81.62
435.175	85.62
435.397	88.62
435.618	87.62
435.84	90.62
436.062	88.62
436.284	89.62
436.505	89.62
436.727	105.62
436.949	96.62
437.17	93.62
437.392	97.62
437.614	93.62
437.835	87.62
438.057	90.62
438.278	84.62
438.5	86.62
438.721	100.62
438.943	93.62
439.165	107.62
439.386	107.62
439.608	84.62
439.829	105.62
440.05	114.62
440.272	105.62
440.493	93.62
440.715	95.62
440.936	96.62
441.158	91.62
441.379	110.62
441.6	101.62
441.822	104.62
442.043	94.62
442.264	91.62
442.486	97.62
442.707	105.62
442.928	86.62
443.149	89.62
443.371	88.62
443.592	97.62
443.813	100.62
444.034	88.62
444.255	115.62
444.476	90.62
444.698	81.62
444.919	91.62
445.14	168.62
445.361	133.62
445.582	96.62
445.803	85.62
446.024	102.62
446.245	110.62
446.466	93.62
446.687	95.62
446.908	84.62
447.129	91.62
447.35	103.62
447.571	102.62
447.792	86.62
448.013	106.62
448.234	90.62
448.455	102.62
448.675	101.62
448.896	110.62
449.117	99.62
449.338	98.62
449.559	80.62
449.779	93.62
450	107.62
450.221	115.62
450.442	96.62
450.662	101.62
450.883	86.62
451.104	99.62
451.324	104.62
451.545	93.62
451.766	97.62
451.986	82.62
452.207	93.62
452.428	99.62
452.648	100.62
452.869	88.62
453.089	86.62
453.31	83.62
453.53	83.62
453.751	97.62
453.971	101.62
454.192	100.62
454.412	100.62
454.633	89.62
454.853	82.62
455.073	95.62
455.294	103.62
455.514	78.62
455.734	87.62
455.955	101.62
456.175	87.62
456.395	88.62
456.616	89.62
456.836	95.62
457.056	83.62
457.276	88.62
457.497	93.62
457.717	105.62
457.937	89.62
458.157	91.62
458.377	90.62
458.598	78.62
458.818	81.62
459.038	90.62
459.258	77.62
459.478	88.62
459.698	85.62
459.918	93.62
460.138	91.62
460.358	83.62
460.578	85.62
460.798	90.62
461.018	72.62
461.238	81.62
461.458	96.62
461.678	96.62
461.898	84.62
462.118	97.62
462.338	84.62
462.558	85.62
462.777	86.62
462.997	84.62
463.217	81.62
463.437	85.62
463.657	76.62
463.876	83.62
464.096	78.62
464.316	76.62
464.536	94.62
464.755	83.62
464.975	85.62
465.195	84.62
465.414	102.62
465.634	93.62
465.854	82.62
466.073	107.62
466.293	105.62
466.512	91.62
466.732	85.62
466.951	99.62
467.171	100.62
467.391	94.62
467.61	86.62
467.829	101.62
468.049	90.62
468.268	89.62
468.488	87.62
468.707	84.62
468.927	89.62
469.146	85.62
469.365	94.62
469.585	107.62
469.804	101.62
470.023	101.62
470.243	97.62
470.462	110.62
470.681	104.62
470.901	93.62
471.12	89.62
471.339	89.62
471.558	94.62
471.777	95.62
471.997	100.62
472.216	88.62
472.435	85.62
472.654	79.62
472.873	95.62
473.092	89.62
473.311	90.62
473.53	95.62
473.749	96.62
473.968	119.62
474.187	95.62
474.406	96.62
474.625	93.62
474.844	87.62
475.063	103.62
475.282	94.62
475.501	84.62
475.72	87.62
475.939	94.62
476.158	92.62
476.377	91.62
476.596	95.62
476.814	95.62
477.033	84.62
477.252	79.62
477.471	92.62
477.69	81.62
477.908	98.62
478.127	87.62
478.346	103.62
478.564	105.62
478.783	85.62
479.002	100.62
479.22	91.62
479.439	104.62
479.658	101.62
479.876	95.62
480.095	90.62
480.313	89.62
480.532	91.62
480.751	95.62
480.969	82.62
481.188	83.62
481.406	75.62
481.624	76.62
481.843	78.62
482.061	91.62
482.28	83.62
482.498	97.62
482.717	96.62
482.935	102.62
483.153	91.62
483.372	98.62
483.59	101.62
483.808	95.62
484.027	104.62
484.245	106.62
484.463	101.62
484.681	115.62
484.9	107.62
485.118	96.62
485.336	93.62
485.554	82.62
485.772	88.62
485.99	96.62
486.209	78.62
486.427	98.62
486.645	93.62
486.863	89.62
487.081	102.62
487.299	97.62
487.517	97.62
487.735	99.62
487.953	100.62
488.171	101.62
488.389	89.62
488.607	111.62
488.825	99.62
489.043	97.62
489.261	98.62
489.479	93.62
489.696	104.62
489.914	88.62
490.132	91.62
490.35	106.62
490.568	100.62
490.786	92.62
491.003	119.62
491.221	102.62
491.439	114.62
491.657	113.62
491.874	127.62
492.092	115.62
492.31	145.62
492.527	128.62
492.745	117.62
492.963	120.62
493.18	108.62
493.398	111.62
493.615	99.62
493.833	105.62
494.05	126.62
494.268	104.62
494.485	111.62
494.703	114.62
494.92	95.62
495.138	104.62
495.355	110.62
495.573	111.62
495.79	118.62
496.008	111.62
496.225	104.62
496.442	87.62
496.66	122.62
496.877	113.62
497.094	120.62
497.312	101.62
497.529	93.62
497.746	101.62
497.963	98.62
498.181	107.62
498.398	104.62
498.615	89.62
498.832	99.62
499.049	97.62
499.267	95.62
499.484	94.62
499.701	90.62
499.918	96.62
500.135	102.62
500.352	105.62
500.569	118.62
500.786	105.62
501.003	96.62
501.22	91.62
501.437	100.62
501.654	104.62
501.871	101.62
502.088	103.62
502.305	105.62
502.522	89.62
502.739	95.62
502.956	88.62
503.172	89.62
503.389	85.62
503.606	93.62
503.823	85.62
504.04	106.62
504.256	103.62
504.473	93.62
504.69	103.62
504.907	100.62
505.123	87.62
505.34	99.62
505.557	93.62
505.773	101.62
505.99	99.62
506.207	90.62
506.423	92.62
506.64	82.62
506.856	90.62
507.073	82.62
507.289	99.62
507.506	86.62
507.722	100.62
507.939	83.62
508.155	94.62
508.372	88.62
508.588	80.62
508.805	80.62
509.021	91.62
509.238	80.62
509.454	96.62
509.67	85.62
509.887	89.62
510.103	87.62
510.319	88.62
510.536	91.62
510.752	81.62
510.968	81.62
511.184	84.62
511.401	89.62
511.617	100.62
511.833	92.62
512.049	95.62
512.265	78.62
512.481	94.62
512.698	84.62
512.914	95.62
513.13	105.62
513.346	85.62
513.562	86.62
513.778	74.62
513.994	77.62
514.21	93.62
514.426	81.62
514.642	86.62
514.858	81.62
515.074	83.62
515.29	87.62
515.506	80.62
515.721	93.62
515.937	90.62
516.153	79.62
516.369	95.62
516.585	75.62
516.801	81.62
517.016	65.62
517.232	86.62
517.448	83.62
