Data from Location4.07152019.Energy5.Lamp.07192019.3%Agarose_HRD10591_15-25-25-579.txt Node
Date: Fri Jul 19 15:25:25 EDT 2019
User: cochatt
Spectrometer: HR+D1059
Trigger mode: 1
Integration Time (sec): 1.000000E-1
Scans to average: 1
Electric dark correction enabled: true
Nonlinearity correction enabled: false
Boxcar width: 0
XAxis mode: Wavelengths
Number of Pixels in Spectrum: 2048
>>>>>Begin Spectral Data<<<<<
223.165	-21.5
223.4	-21.5
223.635	-21.5
223.869	-10.5
224.104	-19.5
224.338	-20.5
224.573	-22.5
224.808	-8.5
225.042	-9.5
225.277	4.5
225.511	-5.5
225.746	0.5
225.98	9.5
226.215	17.5
226.449	10.5
226.683	26.5
226.918	22.5
227.152	26.5
227.387	31.5
227.621	44.5
227.856	45.5
228.09	39.5
228.324	49.5
228.559	54.5
228.793	53.5
229.027	55.5
229.262	64.5
229.496	67.5
229.73	75.5
229.964	62.5
230.199	69.5
230.433	65.5
230.667	82.5
230.901	78.5
231.136	75.5
231.37	76.5
231.604	76.5
231.838	84.5
232.072	78.5
232.306	73.5
232.541	86.5
232.775	84.5
233.009	75.5
233.243	79.5
233.477	74.5
233.711	82.5
233.945	81.5
234.179	69.5
234.413	68.5
234.647	75.5
234.881	76.5
235.115	82.5
235.349	75.5
235.583	65.5
235.817	68.5
236.051	73.5
236.285	66.5
236.519	79.5
236.753	76.5
236.987	72.5
237.221	87.5
237.455	87.5
237.689	83.5
237.922	83.5
238.156	70.5
238.39	81.5
238.624	80.5
238.858	85.5
239.091	72.5
239.325	60.5
239.559	78.5
239.793	72.5
240.027	70.5
240.26	79.5
240.494	77.5
240.728	84.5
240.961	70.5
241.195	84.5
241.429	75.5
241.662	69.5
241.896	74.5
242.13	75.5
242.363	70.5
242.597	70.5
242.83	77.5
243.064	69.5
243.298	72.5
243.531	59.5
243.765	79.5
243.998	88.5
244.232	80.5
244.465	74.5
244.699	79.5
244.932	70.5
245.166	62.5
245.399	62.5
245.633	68.5
245.866	82.5
246.099	97.5
246.333	79.5
246.566	72.5
246.8	73.5
247.033	70.5
247.266	80.5
247.5	72.5
247.733	72.5
247.966	70.5
248.2	68.5
248.433	75.5
248.666	67.5
248.899	80.5
249.133	72.5
249.366	72.5
249.599	68.5
249.832	82.5
250.066	74.5
250.299	81.5
250.532	76.5
250.765	66.5
250.998	81.5
251.231	80.5
251.465	90.5
251.698	76.5
251.931	67.5
252.164	84.5
252.397	88.5
252.63	78.5
252.863	84.5
253.096	72.5
253.329	73.5
253.562	84.5
253.795	79.5
254.028	82.5
254.261	63.5
254.494	88.5
254.727	88.5
254.96	77.5
255.193	83.5
255.426	92.5
255.659	84.5
255.892	72.5
256.124	80.5
256.357	74.5
256.59	90.5
256.823	78.5
257.056	85.5
257.289	72.5
257.521	74.5
257.754	82.5
257.987	70.5
258.22	81.5
258.452	76.5
258.685	75.5
258.918	72.5
259.151	75.5
259.383	75.5
259.616	82.5
259.849	79.5
260.081	78.5
260.314	79.5
260.547	85.5
260.779	79.5
261.012	91.5
261.244	77.5
261.477	75.5
261.71	82.5
261.942	78.5
262.175	68.5
262.407	72.5
262.64	54.5
262.872	69.5
263.105	86.5
263.337	88.5
263.57	85.5
263.802	72.5
264.035	76.5
264.267	79.5
264.499	89.5
264.732	89.5
264.964	102.5
265.197	92.5
265.429	90.5
265.661	91.5
265.894	82.5
266.126	76.5
266.358	85.5
266.591	75.5
266.823	62.5
267.055	78.5
267.287	83.5
267.52	83.5
267.752	65.5
267.984	87.5
268.216	71.5
268.448	81.5
268.681	74.5
268.913	87.5
269.145	79.5
269.377	84.5
269.609	87.5
269.841	97.5
270.073	88.5
270.306	92.5
270.538	83.5
270.77	83.5
271.002	82.5
271.234	85.5
271.466	100.5
271.698	86.5
271.93	72.5
272.162	86.5
272.394	74.5
272.626	82.5
272.858	92.5
273.09	79.5
273.322	75.5
273.553	83.5
273.785	85.5
274.017	79.5
274.249	76.5
274.481	88.5
274.713	88.5
274.945	84.5
275.176	75.5
275.408	75.5
275.64	91.5
275.872	87.5
276.104	102.5
276.335	81.5
276.567	84.5
276.799	87.5
277.031	77.5
277.262	88.5
277.494	89.5
277.726	93.5
277.957	91.5
278.189	94.5
278.421	81.5
278.652	94.5
278.884	98.5
279.115	86.5
279.347	77.5
279.579	90.5
279.81	76.5
280.042	86.5
280.273	73.5
280.505	87.5
280.736	87.5
280.968	78.5
281.199	82.5
281.431	83.5
281.662	90.5
281.894	79.5
282.125	84.5
282.356	96.5
282.588	82.5
282.819	82.5
283.051	80.5
283.282	70.5
283.513	83.5
283.745	85.5
283.976	85.5
284.207	90.5
284.439	72.5
284.67	79.5
284.901	71.5
285.132	86.5
285.364	81.5
285.595	86.5
285.826	87.5
286.057	95.5
286.288	78.5
286.52	65.5
286.751	96.5
286.982	81.5
287.213	82.5
287.444	87.5
287.675	91.5
287.906	89.5
288.138	82.5
288.369	88.5
288.6	82.5
288.831	83.5
289.062	83.5
289.293	76.5
289.524	85.5
289.755	82.5
289.986	79.5
290.217	82.5
290.448	75.5
290.679	86.5
290.91	76.5
291.141	75.5
291.371	79.5
291.602	89.5
291.833	86.5
292.064	80.5
292.295	83.5
292.526	79.5
292.757	91.5
292.987	75.5
293.218	84.5
293.449	88.5
293.68	98.5
293.91	75.5
294.141	85.5
294.372	82.5
294.603	89.5
294.833	81.5
295.064	102.5
295.295	82.5
295.525	86.5
295.756	96.5
295.987	93.5
296.217	70.5
296.448	83.5
296.679	90.5
296.909	85.5
297.14	78.5
297.37	88.5
297.601	91.5
297.831	88.5
298.062	99.5
298.292	84.5
298.523	76.5
298.753	71.5
298.984	79.5
299.214	77.5
299.445	87.5
299.675	95.5
299.905	93.5
300.136	95.5
300.366	79.5
300.597	79.5
300.827	81.5
301.057	71.5
301.288	82.5
301.518	78.5
301.748	101.5
301.979	89.5
302.209	80.5
302.439	72.5
302.669	76.5
302.9	78.5
303.13	86.5
303.36	91.5
303.59	79.5
303.82	87.5
304.051	75.5
304.281	81.5
304.511	85.5
304.741	82.5
304.971	75.5
305.201	73.5
305.431	75.5
305.661	85.5
305.891	83.5
306.121	75.5
306.352	77.5
306.582	74.5
306.812	76.5
307.042	91.5
307.272	79.5
307.502	94.5
307.731	87.5
307.961	83.5
308.191	81.5
308.421	96.5
308.651	87.5
308.881	98.5
309.111	86.5
309.341	86.5
309.571	63.5
309.8	80.5
310.03	84.5
310.26	91.5
310.49	70.5
310.72	91.5
310.949	78.5
311.179	90.5
311.409	83.5
311.639	68.5
311.868	78.5
312.098	87.5
312.328	79.5
312.557	78.5
312.787	71.5
313.017	83.5
313.246	78.5
313.476	79.5
313.706	86.5
313.935	79.5
314.165	93.5
314.394	76.5
314.624	97.5
314.853	88.5
315.083	91.5
315.312	79.5
315.542	77.5
315.771	77.5
316.001	75.5
316.23	68.5
316.46	79.5
316.689	75.5
316.919	76.5
317.148	108.5
317.377	94.5
317.607	87.5
317.836	90.5
318.065	83.5
318.295	79.5
318.524	84.5
318.753	99.5
318.983	76.5
319.212	84.5
319.441	94.5
319.67	90.5
319.9	86.5
320.129	88.5
320.358	80.5
320.587	81.5
320.816	75.5
321.046	79.5
321.275	88.5
321.504	99.5
321.733	91.5
321.962	83.5
322.191	96.5
322.42	101.5
322.649	86.5
322.878	82.5
323.108	84.5
323.337	70.5
323.566	93.5
323.795	101.5
324.024	89.5
324.253	72.5
324.482	82.5
324.71	82.5
324.939	84.5
325.168	88.5
325.397	88.5
325.626	71.5
325.855	80.5
326.084	85.5
326.313	75.5
326.542	86.5
326.77	77.5
326.999	66.5
327.228	79.5
327.457	95.5
327.686	105.5
327.914	80.5
328.143	81.5
328.372	90.5
328.6	81.5
328.829	74.5
329.058	89.5
329.287	86.5
329.515	77.5
329.744	80.5
329.972	85.5
330.201	71.5
330.43	87.5
330.658	88.5
330.887	91.5
331.115	88.5
331.344	87.5
331.572	76.5
331.801	72.5
332.03	87.5
332.258	91.5
332.486	76.5
332.715	71.5
332.943	91.5
333.172	85.5
333.4	70.5
333.629	81.5
333.857	83.5
334.085	75.5
334.314	83.5
334.542	78.5
334.771	73.5
334.999	95.5
335.227	94.5
335.455	83.5
335.684	94.5
335.912	92.5
336.14	78.5
336.369	88.5
336.597	68.5
336.825	85.5
337.053	76.5
337.281	79.5
337.51	90.5
337.738	89.5
337.966	88.5
338.194	82.5
338.422	89.5
338.65	79.5
338.878	84.5
339.106	83.5
339.334	95.5
339.562	82.5
339.79	82.5
340.018	94.5
340.246	77.5
340.474	87.5
340.702	75.5
340.93	82.5
341.158	80.5
341.386	80.5
341.614	66.5
341.842	80.5
342.07	89.5
342.298	84.5
342.526	87.5
342.754	105.5
342.981	73.5
343.209	75.5
343.437	87.5
343.665	87.5
343.893	78.5
344.12	78.5
344.348	74.5
344.576	80.5
344.804	82.5
345.031	87.5
345.259	88.5
345.487	82.5
345.714	72.5
345.942	78.5
346.17	75.5
346.397	88.5
346.625	74.5
346.853	84.5
347.08	79.5
347.308	89.5
347.535	74.5
347.763	93.5
347.99	88.5
348.218	82.5
348.445	73.5
348.673	83.5
348.9	83.5
349.128	80.5
349.355	74.5
349.583	77.5
349.81	78.5
350.037	82.5
350.265	86.5
350.492	85.5
350.72	75.5
350.947	96.5
351.174	96.5
351.402	95.5
351.629	69.5
351.856	79.5
352.083	86.5
352.311	70.5
352.538	86.5
352.765	84.5
352.992	86.5
353.22	89.5
353.447	72.5
353.674	86.5
353.901	80.5
354.128	95.5
354.355	80.5
354.583	76.5
354.81	94.5
355.037	85.5
355.264	74.5
355.491	81.5
355.718	65.5
355.945	90.5
356.172	85.5
356.399	90.5
356.626	93.5
356.853	94.5
357.08	82.5
357.307	82.5
357.534	83.5
357.761	89.5
357.988	79.5
358.215	74.5
358.441	82.5
358.668	100.5
358.895	73.5
359.122	87.5
359.349	76.5
359.576	90.5
359.802	97.5
360.029	72.5
360.256	72.5
360.483	65.5
360.709	91.5
360.936	87.5
361.163	71.5
361.39	67.5
361.616	73.5
361.843	76.5
362.07	82.5
362.296	95.5
362.523	86.5
362.749	76.5
362.976	91.5
363.203	73.5
363.429	76.5
363.656	75.5
363.882	85.5
364.109	97.5
364.335	87.5
364.562	78.5
364.788	91.5
365.015	82.5
365.241	82.5
365.468	75.5
365.694	93.5
365.92	103.5
366.147	89.5
366.373	83.5
366.599	81.5
366.826	87.5
367.052	91.5
367.278	78.5
367.505	88.5
367.731	84.5
367.957	68.5
368.184	92.5
368.41	82.5
368.636	75.5
368.862	82.5
369.089	86.5
369.315	79.5
369.541	85.5
369.767	88.5
369.993	78.5
370.219	83.5
370.445	86.5
370.672	81.5
370.898	78.5
371.124	91.5
371.35	77.5
371.576	91.5
371.802	98.5
372.028	83.5
372.254	92.5
372.48	87.5
372.706	84.5
372.932	78.5
373.158	85.5
373.384	81.5
373.61	91.5
373.835	84.5
374.061	79.5
374.287	85.5
374.513	84.5
374.739	86.5
374.965	83.5
375.191	96.5
375.416	102.5
375.642	91.5
375.868	69.5
376.094	87.5
376.319	93.5
376.545	87.5
376.771	72.5
376.997	75.5
377.222	94.5
377.448	74.5
377.674	79.5
377.899	78.5
378.125	76.5
378.35	92.5
378.576	100.5
378.802	85.5
379.027	69.5
379.253	82.5
379.478	80.5
379.704	80.5
379.929	84.5
380.155	87.5
380.38	92.5
380.606	84.5
380.831	80.5
381.057	90.5
381.282	75.5
381.507	83.5
381.733	83.5
381.958	76.5
382.184	91.5
382.409	85.5
382.634	91.5
382.86	87.5
383.085	76.5
383.31	78.5
383.535	81.5
383.761	90.5
383.986	72.5
384.211	81.5
384.436	76.5
384.662	78.5
384.887	88.5
385.112	96.5
385.337	88.5
385.562	84.5
385.787	95.5
386.013	76.5
386.238	85.5
386.463	85.5
386.688	85.5
386.913	96.5
387.138	67.5
387.363	92.5
387.588	78.5
387.813	86.5
388.038	92.5
388.263	95.5
388.488	94.5
388.713	83.5
388.938	97.5
389.163	88.5
389.387	78.5
389.612	86.5
389.837	80.5
390.062	88.5
390.287	89.5
390.512	81.5
390.736	90.5
390.961	94.5
391.186	89.5
391.411	84.5
391.636	77.5
391.86	83.5
392.085	95.5
392.31	81.5
392.534	84.5
392.759	79.5
392.984	91.5
393.208	91.5
393.433	97.5
393.658	102.5
393.882	69.5
394.107	86.5
394.331	101.5
394.556	85.5
394.78	96.5
395.005	89.5
395.229	107.5
395.454	88.5
395.678	90.5
395.903	89.5
396.127	79.5
396.352	77.5
396.576	91.5
396.801	80.5
397.025	103.5
397.249	104.5
397.474	86.5
397.698	79.5
397.922	95.5
398.147	87.5
398.371	90.5
398.595	96.5
398.82	90.5
399.044	83.5
399.268	94.5
399.492	84.5
399.717	93.5
399.941	87.5
400.165	99.5
400.389	84.5
400.613	86.5
400.837	86.5
401.062	103.5
401.286	98.5
401.51	94.5
401.734	99.5
401.958	84.5
402.182	76.5
402.406	81.5
402.63	91.5
402.854	96.5
403.078	106.5
403.302	82.5
403.526	97.5
403.75	83.5
403.974	90.5
404.198	89.5
404.422	80.5
404.645	85.5
404.869	95.5
405.093	91.5
405.317	80.5
405.541	94.5
405.765	74.5
405.988	85.5
406.212	89.5
406.436	109.5
406.66	105.5
406.883	93.5
407.107	85.5
407.331	97.5
407.555	103.5
407.778	91.5
408.002	96.5
408.226	75.5
408.449	101.5
408.673	103.5
408.896	95.5
409.12	90.5
409.344	87.5
409.567	85.5
409.791	82.5
410.014	84.5
410.238	87.5
410.461	82.5
410.685	93.5
410.908	100.5
411.132	91.5
411.355	94.5
411.578	86.5
411.802	82.5
412.025	85.5
412.249	83.5
412.472	94.5
412.695	101.5
412.919	91.5
413.142	80.5
413.365	91.5
413.589	78.5
413.812	95.5
414.035	105.5
414.258	83.5
414.482	91.5
414.705	107.5
414.928	91.5
415.151	93.5
415.374	99.5
415.597	83.5
415.821	81.5
416.044	94.5
416.267	96.5
416.49	88.5
416.713	92.5
416.936	78.5
417.159	73.5
417.382	93.5
417.605	96.5
417.828	89.5
418.051	85.5
418.274	94.5
418.497	95.5
418.72	75.5
418.943	92.5
419.166	100.5
419.389	88.5
419.611	87.5
419.834	94.5
420.057	89.5
420.28	102.5
420.503	93.5
420.726	105.5
420.948	80.5
421.171	78.5
421.394	97.5
421.617	90.5
421.839	87.5
422.062	104.5
422.285	100.5
422.507	90.5
422.73	88.5
422.953	106.5
423.175	93.5
423.398	96.5
423.621	92.5
423.843	92.5
424.066	100.5
424.288	82.5
424.511	88.5
424.733	96.5
424.956	87.5
425.178	102.5
425.401	100.5
425.623	97.5
425.846	78.5
426.068	82.5
426.291	90.5
426.513	111.5
426.735	109.5
426.958	87.5
427.18	95.5
427.402	96.5
427.625	85.5
427.847	95.5
428.069	97.5
428.292	94.5
428.514	92.5
428.736	97.5
428.958	95.5
429.181	87.5
429.403	94.5
429.625	89.5
429.847	90.5
430.069	91.5
430.292	99.5
430.514	115.5
430.736	98.5
430.958	87.5
431.18	84.5
431.402	96.5
431.624	95.5
431.846	86.5
432.068	84.5
432.29	93.5
432.512	95.5
432.734	84.5
432.956	95.5
433.178	107.5
433.4	83.5
433.622	98.5
433.844	94.5
434.066	95.5
434.287	80.5
434.509	82.5
434.731	92.5
434.953	95.5
435.175	102.5
435.397	92.5
435.618	98.5
435.84	93.5
436.062	88.5
436.284	97.5
436.505	86.5
436.727	101.5
436.949	99.5
437.17	96.5
437.392	89.5
437.614	80.5
437.835	104.5
438.057	89.5
438.278	94.5
438.5	91.5
438.721	82.5
438.943	101.5
439.165	107.5
439.386	95.5
439.608	96.5
439.829	94.5
440.05	108.5
440.272	114.5
440.493	103.5
440.715	96.5
440.936	98.5
441.158	106.5
441.379	97.5
441.6	103.5
441.822	95.5
442.043	100.5
442.264	104.5
442.486	103.5
442.707	94.5
442.928	94.5
443.149	90.5
443.371	89.5
443.592	90.5
443.813	83.5
444.034	99.5
444.255	100.5
444.476	99.5
444.698	84.5
444.919	92.5
445.14	234.5
445.361	156.5
445.582	99.5
445.803	115.5
446.024	100.5
446.245	99.5
446.466	112.5
446.687	94.5
446.908	99.5
447.129	104.5
447.35	95.5
447.571	108.5
447.792	96.5
448.013	91.5
448.234	94.5
448.455	97.5
448.675	105.5
448.896	95.5
449.117	105.5
449.338	107.5
449.559	100.5
449.779	94.5
450	86.5
450.221	84.5
450.442	87.5
450.662	96.5
450.883	93.5
451.104	91.5
451.324	90.5
451.545	100.5
451.766	96.5
451.986	104.5
452.207	83.5
452.428	101.5
452.648	99.5
452.869	95.5
453.089	81.5
453.31	100.5
453.53	86.5
453.751	90.5
453.971	89.5
454.192	91.5
454.412	88.5
454.633	101.5
454.853	86.5
455.073	103.5
455.294	88.5
455.514	84.5
455.734	98.5
455.955	99.5
456.175	78.5
456.395	70.5
456.616	85.5
456.836	89.5
457.056	82.5
457.276	86.5
457.497	89.5
457.717	84.5
457.937	86.5
458.157	98.5
458.377	78.5
458.598	83.5
458.818	94.5
459.038	93.5
459.258	77.5
459.478	87.5
459.698	81.5
459.918	80.5
460.138	84.5
460.358	99.5
460.578	94.5
460.798	92.5
461.018	90.5
461.238	100.5
461.458	71.5
461.678	92.5
461.898	99.5
462.118	86.5
462.338	88.5
462.558	88.5
462.777	82.5
462.997	101.5
463.217	83.5
463.437	90.5
463.657	85.5
463.876	76.5
464.096	83.5
464.316	86.5
464.536	102.5
464.755	97.5
464.975	101.5
465.195	85.5
465.414	83.5
465.634	85.5
465.854	94.5
466.073	78.5
466.293	92.5
466.512	91.5
466.732	92.5
466.951	91.5
467.171	89.5
467.391	91.5
467.61	82.5
467.829	99.5
468.049	89.5
468.268	101.5
468.488	96.5
468.707	102.5
468.927	96.5
469.146	105.5
469.365	99.5
469.585	90.5
469.804	92.5
470.023	95.5
470.243	92.5
470.462	94.5
470.681	101.5
470.901	84.5
471.12	88.5
471.339	103.5
471.558	87.5
471.777	96.5
471.997	80.5
472.216	86.5
472.435	79.5
472.654	82.5
472.873	91.5
473.092	100.5
473.311	112.5
473.53	97.5
473.749	94.5
473.968	98.5
474.187	95.5
474.406	100.5
474.625	97.5
474.844	90.5
475.063	88.5
475.282	79.5
475.501	90.5
475.72	94.5
475.939	101.5
476.158	101.5
476.377	100.5
476.596	93.5
476.814	95.5
477.033	83.5
477.252	101.5
477.471	93.5
477.69	83.5
477.908	96.5
478.127	97.5
478.346	105.5
478.564	89.5
478.783	103.5
479.002	96.5
479.22	90.5
479.439	93.5
479.658	98.5
479.876	84.5
480.095	84.5
480.313	70.5
480.532	87.5
480.751	91.5
480.969	96.5
481.188	86.5
481.406	80.5
481.624	86.5
481.843	93.5
482.061	76.5
482.28	96.5
482.498	92.5
482.717	86.5
482.935	91.5
483.153	111.5
483.372	102.5
483.59	104.5
483.808	99.5
484.027	89.5
484.245	83.5
484.463	94.5
484.681	102.5
484.9	95.5
485.118	85.5
485.336	95.5
485.554	96.5
485.772	85.5
485.99	85.5
486.209	89.5
486.427	88.5
486.645	93.5
486.863	83.5
487.081	95.5
487.299	101.5
487.517	101.5
487.735	106.5
487.953	113.5
488.171	119.5
488.389	98.5
488.607	114.5
488.825	99.5
489.043	94.5
489.261	107.5
489.479	92.5
489.696	117.5
489.914	102.5
490.132	110.5
490.35	103.5
490.568	114.5
490.786	108.5
491.003	123.5
491.221	114.5
491.439	99.5
491.657	123.5
491.874	111.5
492.092	108.5
492.31	126.5
492.527	126.5
492.745	111.5
492.963	122.5
493.18	126.5
493.398	112.5
493.615	110.5
493.833	117.5
494.05	94.5
494.268	110.5
494.485	111.5
494.703	117.5
494.92	113.5
495.138	119.5
495.355	106.5
495.573	86.5
495.79	101.5
496.008	104.5
496.225	122.5
496.442	104.5
496.66	99.5
496.877	105.5
497.094	102.5
497.312	104.5
497.529	98.5
497.746	86.5
497.963	99.5
498.181	102.5
498.398	93.5
498.615	90.5
498.832	95.5
499.049	100.5
499.267	95.5
499.484	74.5
499.701	85.5
499.918	87.5
500.135	88.5
500.352	101.5
500.569	94.5
500.786	106.5
501.003	98.5
501.22	107.5
501.437	86.5
501.654	105.5
501.871	72.5
502.088	93.5
502.305	98.5
502.522	97.5
502.739	97.5
502.956	102.5
503.172	83.5
503.389	93.5
503.606	95.5
503.823	83.5
504.04	89.5
504.256	74.5
504.473	86.5
504.69	94.5
504.907	92.5
505.123	91.5
505.34	86.5
505.557	91.5
505.773	99.5
505.99	83.5
506.207	82.5
506.423	98.5
506.64	86.5
506.856	98.5
507.073	88.5
507.289	93.5
507.506	97.5
507.722	72.5
507.939	88.5
508.155	84.5
508.372	86.5
508.588	85.5
508.805	94.5
509.021	99.5
509.238	94.5
509.454	86.5
509.67	82.5
509.887	94.5
510.103	90.5
510.319	68.5
510.536	85.5
510.752	83.5
510.968	92.5
511.184	84.5
511.401	89.5
511.617	79.5
511.833	91.5
512.049	94.5
512.265	87.5
512.481	85.5
512.698	89.5
512.914	83.5
513.13	65.5
513.346	75.5
513.562	83.5
513.778	88.5
513.994	105.5
514.21	92.5
514.426	102.5
514.642	85.5
514.858	86.5
515.074	87.5
515.29	100.5
515.506	83.5
515.721	73.5
515.937	84.5
516.153	78.5
516.369	85.5
516.585	82.5
516.801	82.5
517.016	83.5
517.232	88.5
517.448	78.5
517.664	88.5
517.879	84.5
518.095	79.5
518.311	87.5
518.527	91.5
518.742	90.5
518.958	75.5
519.173	84.5
519.389	93.5
519.605	88.5
519.82	95.5
520.036	103.5
520.251	73.5
520.467	85.5
520.682	81.5
520.898	86.5
521.113	95.5
521.329	85.5
521.544	84.5
521.76	94.5
521.975	89.5
522.19	106.5
522.406	81.5
522.621	86.5
522.836	87.5
523.052	103.5
523.267	89.5
523.482	98.5
523.698	88.5
523.913	103.5
524.128	91.5
524.343	91.5
524.559	100.5
524.774	96.5
524.989	94.5
525.204	73.5
525.419	90.5
525.634	83.5
525.849	92.5
526.064	97.5
526.28	92.5
526.495	74.5
526.71	77.5
526.925	80.5
527.14	71.5
527.355	91.5
527.57	78.5
527.785	73.5
527.999	75.5
528.214	98.5
528.429	95.5
528.644	109.5
528.859	96.5
529.074	105.5
529.289	99.5
529.503	92.5
529.718	113.5
529.933	101.5
530.148	92.5
530.363	94.5
530.577	73.5
530.792	85.5
531.007	82.5
531.221	83.5
531.436	76.5
531.651	79.5
531.865	90.5
532.08	76.5
532.295	75.5
532.509	73.5
532.724	82.5
532.938	96.5
533.153	84.5
533.367	97.5
533.582	98.5
533.796	73.5
534.011	103.5
534.225	110.5
534.44	82.5
534.654	88.5
534.868	79.5
535.083	85.5
535.297	76.5
535.511	99.5
535.726	76.5
535.94	103.5
536.154	104.5
536.369	99.5
536.583	87.5
536.797	81.5
537.011	81.5
537.225	90.5
537.44	73.5
