Data from Location4.07152019.Energy5.Lamp.07192019.3%Agarose_HRD10591_15-24-28-577.txt Node
Date: Fri Jul 19 15:24:28 EDT 2019
User: cochatt
Spectrometer: HR+D1059
Trigger mode: 1
Integration Time (sec): 1.000000E-1
Scans to average: 1
Electric dark correction enabled: true
Nonlinearity correction enabled: false
Boxcar width: 0
XAxis mode: Wavelengths
Number of Pixels in Spectrum: 2048
>>>>>Begin Spectral Data<<<<<
223.165	-19.81
223.4	-19.81
223.635	-19.81
223.869	-15.81
224.104	-7.81
224.338	-15.81
224.573	-21.81
224.808	-18.81
225.042	-6.81
225.277	-1.81
225.511	-1.81
225.746	0.19
225.98	4.19
226.215	4.19
226.449	12.19
226.683	14.19
226.918	31.19
227.152	44.19
227.387	18.19
227.621	24.19
227.856	36.19
228.09	44.19
228.324	50.19
228.559	56.19
228.793	54.19
229.027	54.19
229.262	62.19
229.496	66.19
229.73	58.19
229.964	64.19
230.199	68.19
230.433	70.19
230.667	71.19
230.901	90.19
231.136	65.19
231.37	72.19
231.604	80.19
231.838	81.19
232.072	72.19
232.306	76.19
232.541	72.19
232.775	66.19
233.009	75.19
233.243	85.19
233.477	80.19
233.711	73.19
233.945	95.19
234.179	82.19
234.413	82.19
234.647	77.19
234.881	71.19
235.115	81.19
235.349	78.19
235.583	66.19
235.817	72.19
236.051	74.19
236.285	77.19
236.519	56.19
236.753	80.19
236.987	74.19
237.221	81.19
237.455	62.19
237.689	78.19
237.922	64.19
238.156	66.19
238.39	82.19
238.624	68.19
238.858	67.19
239.091	73.19
239.325	68.19
239.559	72.19
239.793	73.19
240.027	78.19
240.26	65.19
240.494	80.19
240.728	80.19
240.961	72.19
241.195	80.19
241.429	73.19
241.662	90.19
241.896	77.19
242.13	76.19
242.363	75.19
242.597	84.19
242.83	85.19
243.064	78.19
243.298	65.19
243.531	62.19
243.765	74.19
243.998	78.19
244.232	71.19
244.465	60.19
244.699	83.19
244.932	76.19
245.166	68.19
245.399	74.19
245.633	72.19
245.866	80.19
246.099	68.19
246.333	74.19
246.566	68.19
246.8	64.19
247.033	66.19
247.266	61.19
247.5	60.19
247.733	82.19
247.966	61.19
248.2	66.19
248.433	69.19
248.666	77.19
248.899	76.19
249.133	74.19
249.366	89.19
249.599	59.19
249.832	64.19
250.066	73.19
250.299	71.19
250.532	67.19
250.765	75.19
250.998	76.19
251.231	76.19
251.465	73.19
251.698	75.19
251.931	75.19
252.164	91.19
252.397	73.19
252.63	66.19
252.863	68.19
253.096	62.19
253.329	78.19
253.562	74.19
253.795	70.19
254.028	67.19
254.261	83.19
254.494	79.19
254.727	80.19
254.96	67.19
255.193	76.19
255.426	79.19
255.659	73.19
255.892	73.19
256.124	78.19
256.357	75.19
256.59	68.19
256.823	64.19
257.056	82.19
257.289	67.19
257.521	75.19
257.754	80.19
257.987	89.19
258.22	72.19
258.452	64.19
258.685	73.19
258.918	83.19
259.151	78.19
259.383	77.19
259.616	72.19
259.849	72.19
260.081	76.19
260.314	77.19
260.547	64.19
260.779	81.19
261.012	66.19
261.244	61.19
261.477	69.19
261.71	72.19
261.942	72.19
262.175	73.19
262.407	79.19
262.64	72.19
262.872	83.19
263.105	78.19
263.337	59.19
263.57	68.19
263.802	74.19
264.035	62.19
264.267	77.19
264.499	73.19
264.732	73.19
264.964	78.19
265.197	77.19
265.429	81.19
265.661	74.19
265.894	80.19
266.126	70.19
266.358	74.19
266.591	79.19
266.823	71.19
267.055	80.19
267.287	69.19
267.52	60.19
267.752	88.19
267.984	86.19
268.216	78.19
268.448	77.19
268.681	87.19
268.913	74.19
269.145	73.19
269.377	73.19
269.609	84.19
269.841	69.19
270.073	64.19
270.306	77.19
270.538	76.19
270.77	69.19
271.002	67.19
271.234	79.19
271.466	85.19
271.698	63.19
271.93	76.19
272.162	63.19
272.394	89.19
272.626	60.19
272.858	69.19
273.09	79.19
273.322	81.19
273.553	81.19
273.785	74.19
274.017	95.19
274.249	86.19
274.481	88.19
274.713	78.19
274.945	79.19
275.176	69.19
275.408	76.19
275.64	73.19
275.872	74.19
276.104	78.19
276.335	82.19
276.567	74.19
276.799	92.19
277.031	69.19
277.262	80.19
277.494	82.19
277.726	76.19
277.957	59.19
278.189	84.19
278.421	78.19
278.652	69.19
278.884	82.19
279.115	77.19
279.347	87.19
279.579	95.19
279.81	68.19
280.042	73.19
280.273	72.19
280.505	75.19
280.736	76.19
280.968	83.19
281.199	69.19
281.431	83.19
281.662	82.19
281.894	75.19
282.125	77.19
282.356	83.19
282.588	82.19
282.819	84.19
283.051	72.19
283.282	69.19
283.513	85.19
283.745	75.19
283.976	81.19
284.207	62.19
284.439	78.19
284.67	91.19
284.901	84.19
285.132	79.19
285.364	75.19
285.595	69.19
285.826	74.19
286.057	91.19
286.288	78.19
286.52	80.19
286.751	78.19
286.982	83.19
287.213	78.19
287.444	76.19
287.675	54.19
287.906	91.19
288.138	76.19
288.369	72.19
288.6	83.19
288.831	88.19
289.062	83.19
289.293	76.19
289.524	84.19
289.755	70.19
289.986	76.19
290.217	76.19
290.448	84.19
290.679	85.19
290.91	70.19
291.141	84.19
291.371	83.19
291.602	72.19
291.833	77.19
292.064	84.19
292.295	75.19
292.526	79.19
292.757	82.19
292.987	101.19
293.218	74.19
293.449	74.19
293.68	73.19
293.91	73.19
294.141	72.19
294.372	82.19
294.603	88.19
294.833	72.19
295.064	70.19
295.295	79.19
295.525	91.19
295.756	78.19
295.987	80.19
296.217	83.19
296.448	81.19
296.679	75.19
296.909	74.19
297.14	74.19
297.37	93.19
297.601	79.19
297.831	76.19
298.062	86.19
298.292	66.19
298.523	80.19
298.753	88.19
298.984	76.19
299.214	83.19
299.445	90.19
299.675	88.19
299.905	85.19
300.136	96.19
300.366	86.19
300.597	79.19
300.827	75.19
301.057	77.19
301.288	74.19
301.518	69.19
301.748	74.19
301.979	73.19
302.209	106.19
302.439	77.19
302.669	84.19
302.9	76.19
303.13	62.19
303.36	87.19
303.59	74.19
303.82	80.19
304.051	83.19
304.281	72.19
304.511	94.19
304.741	69.19
304.971	79.19
305.201	91.19
305.431	76.19
305.661	77.19
305.891	79.19
306.121	84.19
306.352	79.19
306.582	75.19
306.812	100.19
307.042	79.19
307.272	84.19
307.502	81.19
307.731	81.19
307.961	71.19
308.191	84.19
308.421	83.19
308.651	89.19
308.881	75.19
309.111	79.19
309.341	69.19
309.571	92.19
309.8	73.19
310.03	88.19
310.26	76.19
310.49	84.19
310.72	68.19
310.949	74.19
311.179	70.19
311.409	89.19
311.639	82.19
311.868	70.19
312.098	86.19
312.328	79.19
312.557	88.19
312.787	88.19
313.017	77.19
313.246	80.19
313.476	83.19
313.706	73.19
313.935	82.19
314.165	69.19
314.394	89.19
314.624	85.19
314.853	88.19
315.083	67.19
315.312	69.19
315.542	76.19
315.771	66.19
316.001	78.19
316.23	82.19
316.46	81.19
316.689	74.19
316.919	67.19
317.148	71.19
317.377	71.19
317.607	90.19
317.836	85.19
318.065	73.19
318.295	72.19
318.524	72.19
318.753	72.19
318.983	73.19
319.212	78.19
319.441	80.19
319.67	69.19
319.9	85.19
320.129	93.19
320.358	75.19
320.587	85.19
320.816	76.19
321.046	80.19
321.275	72.19
321.504	83.19
321.733	62.19
321.962	78.19
322.191	91.19
322.42	92.19
322.649	91.19
322.878	89.19
323.108	68.19
323.337	85.19
323.566	77.19
323.795	93.19
324.024	76.19
324.253	92.19
324.482	74.19
324.71	78.19
324.939	90.19
325.168	89.19
325.397	92.19
325.626	63.19
325.855	84.19
326.084	80.19
326.313	80.19
326.542	73.19
326.77	82.19
326.999	74.19
327.228	79.19
327.457	67.19
327.686	86.19
327.914	70.19
328.143	83.19
328.372	90.19
328.6	87.19
328.829	78.19
329.058	80.19
329.287	96.19
329.515	64.19
329.744	77.19
329.972	73.19
330.201	75.19
330.43	72.19
330.658	84.19
330.887	73.19
331.115	81.19
331.344	75.19
331.572	90.19
331.801	71.19
332.03	90.19
332.258	71.19
332.486	75.19
332.715	70.19
332.943	72.19
333.172	90.19
333.4	64.19
333.629	84.19
333.857	72.19
334.085	70.19
334.314	82.19
334.542	69.19
334.771	69.19
334.999	82.19
335.227	70.19
335.455	77.19
335.684	81.19
335.912	71.19
336.14	87.19
336.369	72.19
336.597	74.19
336.825	83.19
337.053	77.19
337.281	69.19
337.51	65.19
337.738	83.19
337.966	80.19
338.194	73.19
338.422	82.19
338.65	84.19
338.878	69.19
339.106	78.19
339.334	69.19
339.562	73.19
339.79	91.19
340.018	78.19
340.246	76.19
340.474	83.19
340.702	75.19
340.93	73.19
341.158	69.19
341.386	72.19
341.614	76.19
341.842	61.19
342.07	79.19
342.298	79.19
342.526	81.19
342.754	73.19
342.981	75.19
343.209	68.19
343.437	84.19
343.665	84.19
343.893	90.19
344.12	93.19
344.348	90.19
344.576	65.19
344.804	71.19
345.031	68.19
345.259	72.19
345.487	93.19
345.714	90.19
345.942	62.19
346.17	63.19
346.397	76.19
346.625	69.19
346.853	85.19
347.08	76.19
347.308	80.19
347.535	73.19
347.763	84.19
347.99	64.19
348.218	80.19
348.445	71.19
348.673	75.19
348.9	87.19
349.128	83.19
349.355	67.19
349.583	70.19
349.81	80.19
350.037	69.19
350.265	84.19
350.492	88.19
350.72	73.19
350.947	77.19
351.174	94.19
351.402	90.19
351.629	68.19
351.856	65.19
352.083	74.19
352.311	84.19
352.538	78.19
352.765	80.19
352.992	75.19
353.22	75.19
353.447	94.19
353.674	83.19
353.901	82.19
354.128	76.19
354.355	82.19
354.583	66.19
354.81	78.19
355.037	85.19
355.264	90.19
355.491	65.19
355.718	70.19
355.945	79.19
356.172	84.19
356.399	71.19
356.626	79.19
356.853	67.19
357.08	62.19
357.307	79.19
357.534	67.19
357.761	70.19
357.988	69.19
358.215	66.19
358.441	80.19
358.668	73.19
358.895	89.19
359.122	85.19
359.349	79.19
359.576	78.19
359.802	72.19
360.029	79.19
360.256	80.19
360.483	82.19
360.709	95.19
360.936	79.19
361.163	89.19
361.39	72.19
361.616	70.19
361.843	91.19
362.07	62.19
362.296	60.19
362.523	79.19
362.749	85.19
362.976	69.19
363.203	83.19
363.429	83.19
363.656	85.19
363.882	62.19
364.109	58.19
364.335	78.19
364.562	82.19
364.788	77.19
365.015	73.19
365.241	63.19
365.468	94.19
365.694	84.19
365.92	71.19
366.147	70.19
366.373	80.19
366.599	80.19
366.826	76.19
367.052	78.19
367.278	69.19
367.505	84.19
367.731	76.19
367.957	77.19
368.184	87.19
368.41	75.19
368.636	87.19
368.862	83.19
369.089	76.19
369.315	78.19
369.541	86.19
369.767	84.19
369.993	76.19
370.219	74.19
370.445	77.19
370.672	72.19
370.898	76.19
371.124	81.19
371.35	73.19
371.576	74.19
371.802	76.19
372.028	80.19
372.254	81.19
372.48	73.19
372.706	78.19
372.932	79.19
373.158	81.19
373.384	73.19
373.61	85.19
373.835	85.19
374.061	91.19
374.287	79.19
374.513	78.19
374.739	91.19
374.965	72.19
375.191	88.19
375.416	75.19
375.642	84.19
375.868	77.19
376.094	69.19
376.319	76.19
376.545	74.19
376.771	75.19
376.997	88.19
377.222	71.19
377.448	86.19
377.674	79.19
377.899	81.19
378.125	96.19
378.35	73.19
378.576	89.19
378.802	72.19
379.027	83.19
379.253	83.19
379.478	79.19
379.704	72.19
379.929	81.19
380.155	76.19
380.38	82.19
380.606	81.19
380.831	73.19
381.057	74.19
381.282	67.19
381.507	88.19
381.733	57.19
381.958	76.19
382.184	93.19
382.409	80.19
382.634	74.19
382.86	85.19
383.085	78.19
383.31	69.19
383.535	73.19
383.761	69.19
383.986	74.19
384.211	78.19
384.436	81.19
384.662	76.19
384.887	82.19
385.112	80.19
385.337	89.19
385.562	82.19
385.787	72.19
386.013	98.19
386.238	68.19
386.463	79.19
386.688	75.19
386.913	84.19
387.138	77.19
387.363	78.19
387.588	80.19
387.813	81.19
388.038	83.19
388.263	73.19
388.488	70.19
388.713	85.19
388.938	74.19
389.163	77.19
389.387	77.19
389.612	74.19
389.837	83.19
390.062	95.19
390.287	82.19
390.512	93.19
390.736	70.19
390.961	83.19
391.186	80.19
391.411	74.19
391.636	67.19
391.86	82.19
392.085	76.19
392.31	92.19
392.534	71.19
392.759	80.19
392.984	72.19
393.208	66.19
393.433	70.19
393.658	85.19
393.882	81.19
394.107	92.19
394.331	81.19
394.556	68.19
394.78	79.19
395.005	80.19
395.229	89.19
395.454	84.19
395.678	69.19
395.903	92.19
396.127	77.19
396.352	86.19
396.576	80.19
396.801	67.19
397.025	62.19
397.249	76.19
397.474	94.19
397.698	78.19
397.922	84.19
398.147	65.19
398.371	84.19
398.595	67.19
398.82	82.19
399.044	74.19
399.268	76.19
399.492	74.19
399.717	96.19
399.941	82.19
400.165	78.19
400.389	86.19
400.613	66.19
400.837	81.19
401.062	81.19
401.286	82.19
401.51	77.19
401.734	71.19
401.958	80.19
402.182	82.19
402.406	88.19
402.63	79.19
402.854	86.19
403.078	81.19
403.302	74.19
403.526	90.19
403.75	88.19
403.974	80.19
404.198	90.19
404.422	91.19
404.645	82.19
404.869	88.19
405.093	75.19
405.317	83.19
405.541	84.19
405.765	82.19
405.988	88.19
406.212	98.19
406.436	88.19
406.66	77.19
406.883	85.19
407.107	93.19
407.331	89.19
407.555	79.19
407.778	84.19
408.002	84.19
408.226	64.19
408.449	90.19
408.673	88.19
408.896	88.19
409.12	91.19
409.344	83.19
409.567	81.19
409.791	76.19
410.014	98.19
410.238	84.19
410.461	85.19
410.685	91.19
410.908	83.19
411.132	96.19
411.355	88.19
411.578	70.19
411.802	87.19
412.025	96.19
412.249	91.19
412.472	96.19
412.695	88.19
412.919	85.19
413.142	84.19
413.365	87.19
413.589	81.19
413.812	74.19
414.035	85.19
414.258	76.19
414.482	98.19
414.705	80.19
414.928	74.19
415.151	83.19
415.374	89.19
415.597	86.19
415.821	82.19
416.044	93.19
416.267	98.19
416.49	93.19
416.713	74.19
416.936	95.19
417.159	79.19
417.382	72.19
417.605	82.19
417.828	93.19
418.051	81.19
418.274	82.19
418.497	93.19
418.72	94.19
418.943	84.19
419.166	88.19
419.389	88.19
419.611	68.19
419.834	79.19
420.057	95.19
420.28	82.19
420.503	85.19
420.726	85.19
420.948	84.19
421.171	90.19
421.394	90.19
421.617	93.19
421.839	94.19
422.062	94.19
422.285	93.19
422.507	96.19
422.73	89.19
422.953	86.19
423.175	66.19
423.398	84.19
423.621	99.19
423.843	81.19
424.066	90.19
424.288	94.19
424.511	86.19
424.733	88.19
424.956	100.19
425.178	81.19
425.401	89.19
425.623	96.19
425.846	85.19
426.068	84.19
426.291	89.19
426.513	92.19
426.735	80.19
426.958	84.19
427.18	101.19
427.402	97.19
427.625	83.19
427.847	96.19
428.069	101.19
428.292	83.19
428.514	90.19
428.736	88.19
428.958	89.19
429.181	87.19
429.403	91.19
429.625	83.19
429.847	89.19
430.069	92.19
430.292	86.19
430.514	69.19
430.736	78.19
430.958	93.19
431.18	79.19
431.402	90.19
431.624	76.19
431.846	75.19
432.068	80.19
432.29	69.19
432.512	81.19
432.734	79.19
432.956	89.19
433.178	93.19
433.4	91.19
433.622	105.19
433.844	104.19
434.066	93.19
434.287	90.19
434.509	75.19
434.731	74.19
434.953	92.19
435.175	98.19
435.397	84.19
435.618	98.19
435.84	75.19
436.062	97.19
436.284	92.19
436.505	101.19
436.727	88.19
436.949	72.19
437.17	95.19
437.392	76.19
437.614	75.19
437.835	80.19
438.057	86.19
438.278	87.19
438.5	98.19
438.721	85.19
438.943	82.19
439.165	98.19
439.386	92.19
439.608	85.19
439.829	86.19
440.05	102.19
440.272	85.19
440.493	95.19
440.715	86.19
440.936	92.19
441.158	91.19
441.379	98.19
441.6	76.19
441.822	98.19
442.043	97.19
442.264	82.19
442.486	98.19
442.707	89.19
442.928	83.19
443.149	92.19
443.371	77.19
443.592	80.19
443.813	83.19
444.034	85.19
444.255	101.19
444.476	104.19
444.698	90.19
444.919	97.19
445.14	238.19
445.361	157.19
445.582	113.19
445.803	90.19
446.024	95.19
446.245	88.19
446.466	94.19
446.687	106.19
446.908	80.19
447.129	94.19
447.35	75.19
447.571	105.19
447.792	98.19
448.013	90.19
448.234	91.19
448.455	94.19
448.675	99.19
448.896	84.19
449.117	92.19
449.338	91.19
449.559	96.19
449.779	83.19
450	103.19
450.221	87.19
450.442	93.19
450.662	100.19
450.883	76.19
451.104	81.19
451.324	87.19
451.545	82.19
451.766	90.19
451.986	91.19
452.207	82.19
452.428	86.19
452.648	95.19
452.869	88.19
453.089	93.19
453.31	91.19
453.53	87.19
453.751	97.19
453.971	74.19
454.192	74.19
454.412	91.19
454.633	84.19
454.853	76.19
455.073	90.19
455.294	85.19
455.514	81.19
455.734	80.19
455.955	77.19
456.175	78.19
456.395	88.19
456.616	92.19
456.836	92.19
457.056	84.19
457.276	92.19
457.497	87.19
457.717	91.19
457.937	92.19
458.157	81.19
458.377	74.19
458.598	72.19
458.818	91.19
459.038	86.19
459.258	82.19
459.478	75.19
459.698	74.19
459.918	85.19
460.138	85.19
460.358	82.19
460.578	89.19
460.798	95.19
461.018	87.19
461.238	89.19
461.458	84.19
461.678	74.19
461.898	84.19
462.118	80.19
462.338	73.19
462.558	77.19
462.777	94.19
462.997	70.19
463.217	66.19
463.437	68.19
463.657	76.19
463.876	90.19
464.096	85.19
464.316	83.19
464.536	83.19
464.755	88.19
464.975	94.19
465.195	90.19
465.414	92.19
465.634	81.19
465.854	92.19
466.073	82.19
466.293	89.19
466.512	83.19
466.732	97.19
466.951	107.19
467.171	101.19
467.391	70.19
467.61	89.19
467.829	105.19
468.049	82.19
468.268	94.19
468.488	87.19
468.707	96.19
468.927	88.19
469.146	99.19
469.365	91.19
469.585	77.19
469.804	91.19
470.023	99.19
470.243	82.19
470.462	83.19
470.681	100.19
470.901	93.19
471.12	88.19
471.339	91.19
471.558	101.19
471.777	88.19
471.997	102.19
472.216	82.19
472.435	82.19
472.654	89.19
472.873	95.19
473.092	92.19
473.311	108.19
473.53	90.19
473.749	88.19
473.968	81.19
474.187	99.19
474.406	83.19
474.625	87.19
474.844	85.19
475.063	84.19
475.282	94.19
475.501	97.19
475.72	84.19
475.939	73.19
476.158	92.19
476.377	70.19
476.596	85.19
476.814	85.19
477.033	79.19
477.252	80.19
477.471	83.19
477.69	95.19
477.908	84.19
478.127	91.19
478.346	87.19
478.564	92.19
478.783	93.19
479.002	89.19
479.22	86.19
479.439	96.19
479.658	84.19
479.876	72.19
480.095	86.19
480.313	98.19
480.532	101.19
480.751	81.19
480.969	81.19
481.188	80.19
481.406	77.19
481.624	80.19
481.843	80.19
482.061	86.19
482.28	84.19
482.498	70.19
482.717	82.19
482.935	85.19
483.153	89.19
483.372	97.19
483.59	103.19
483.808	92.19
484.027	87.19
484.245	93.19
484.463	87.19
484.681	105.19
484.9	101.19
485.118	104.19
485.336	99.19
485.554	68.19
485.772	80.19
485.99	83.19
486.209	68.19
486.427	83.19
486.645	89.19
486.863	93.19
487.081	96.19
487.299	92.19
487.517	105.19
487.735	86.19
487.953	116.19
488.171	104.19
488.389	105.19
488.607	81.19
488.825	99.19
489.043	91.19
489.261	85.19
489.479	82.19
489.696	107.19
489.914	84.19
490.132	97.19
490.35	89.19
490.568	116.19
490.786	108.19
491.003	116.19
491.221	93.19
491.439	99.19
491.657	104.19
491.874	121.19
492.092	116.19
492.31	134.19
492.527	100.19
492.745	110.19
492.963	100.19
493.18	100.19
493.398	115.19
493.615	108.19
493.833	106.19
494.05	102.19
494.268	106.19
494.485	98.19
494.703	108.19
494.92	101.19
495.138	108.19
495.355	106.19
495.573	109.19
495.79	111.19
496.008	107.19
496.225	94.19
496.442	98.19
496.66	103.19
496.877	100.19
497.094	110.19
497.312	92.19
497.529	91.19
497.746	93.19
497.963	89.19
498.181	88.19
498.398	78.19
498.615	87.19
498.832	70.19
499.049	89.19
499.267	95.19
499.484	83.19
499.701	85.19
499.918	98.19
500.135	69.19
500.352	79.19
500.569	92.19
500.786	109.19
501.003	92.19
501.22	86.19
501.437	82.19
501.654	83.19
501.871	92.19
502.088	82.19
502.305	106.19
502.522	85.19
502.739	90.19
502.956	86.19
503.172	95.19
503.389	104.19
503.606	81.19
503.823	92.19
504.04	92.19
504.256	81.19
504.473	101.19
504.69	89.19
504.907	96.19
505.123	90.19
505.34	104.19
505.557	99.19
505.773	84.19
505.99	88.19
506.207	77.19
506.423	103.19
506.64	80.19
506.856	78.19
507.073	108.19
507.289	88.19
507.506	78.19
507.722	88.19
507.939	90.19
508.155	84.19
508.372	84.19
508.588	96.19
508.805	88.19
509.021	78.19
509.238	91.19
509.454	93.19
509.67	104.19
509.887	102.19
510.103	72.19
510.319	80.19
510.536	72.19
510.752	86.19
510.968	91.19
511.184	83.19
511.401	82.19
511.617	70.19
511.833	78.19
512.049	93.19
512.265	84.19
512.481	93.19
512.698	73.19
512.914	76.19
513.13	80.19
513.346	70.19
513.562	70.19
513.778	69.19
513.994	93.19
514.21	80.19
514.426	85.19
514.642	78.19
514.858	82.19
515.074	74.19
515.29	81.19
515.506	75.19
515.721	89.19
515.937	87.19
516.153	76.19
516.369	76.19
516.585	72.19
516.801	89.19
517.016	64.19
517.232	85.19
517.448	72.19
517.664	72.19
517.879	91.19
518.095	81.19
518.311	73.19
518.527	96.19
