Data from Location4.07152019.Energy5.Lamp.07192019.3%Agarose_HRD10591_15-24-48-577.txt Node
Date: Fri Jul 19 15:24:48 EDT 2019
User: cochatt
Spectrometer: HR+D1059
Trigger mode: 1
Integration Time (sec): 1.000000E-1
Scans to average: 1
Electric dark correction enabled: true
Nonlinearity correction enabled: false
Boxcar width: 0
XAxis mode: Wavelengths
Number of Pixels in Spectrum: 2048
>>>>>Begin Spectral Data<<<<<
223.165	-17.5
223.4	-17.5
223.635	-17.5
223.869	-9.5
224.104	-21.5
224.338	-23.5
224.573	-9.5
224.808	-14.5
225.042	-4.5
225.277	-9.5
225.511	0.5
225.746	15.5
225.98	8.5
226.215	11.5
226.449	14.5
226.683	9.5
226.918	25.5
227.152	24.5
227.387	32.5
227.621	47.5
227.856	46.5
228.09	42.5
228.324	33.5
228.559	55.5
228.793	64.5
229.027	55.5
229.262	71.5
229.496	52.5
229.73	58.5
229.964	72.5
230.199	71.5
230.433	71.5
230.667	74.5
230.901	81.5
231.136	81.5
231.37	82.5
231.604	69.5
231.838	85.5
232.072	75.5
232.306	76.5
232.541	91.5
232.775	72.5
233.009	79.5
233.243	89.5
233.477	85.5
233.711	85.5
233.945	81.5
234.179	84.5
234.413	84.5
234.647	77.5
234.881	82.5
235.115	84.5
235.349	88.5
235.583	82.5
235.817	87.5
236.051	75.5
236.285	52.5
236.519	78.5
236.753	76.5
236.987	83.5
237.221	78.5
237.455	72.5
237.689	80.5
237.922	84.5
238.156	87.5
238.39	72.5
238.624	82.5
238.858	71.5
239.091	83.5
239.325	69.5
239.559	76.5
239.793	92.5
240.027	70.5
240.26	80.5
240.494	74.5
240.728	69.5
240.961	68.5
241.195	77.5
241.429	75.5
241.662	73.5
241.896	84.5
242.13	67.5
242.363	63.5
242.597	82.5
242.83	76.5
243.064	74.5
243.298	66.5
243.531	80.5
243.765	78.5
243.998	88.5
244.232	75.5
244.465	70.5
244.699	90.5
244.932	77.5
245.166	64.5
245.399	74.5
245.633	80.5
245.866	74.5
246.099	71.5
246.333	82.5
246.566	86.5
246.8	70.5
247.033	92.5
247.266	62.5
247.5	92.5
247.733	78.5
247.966	87.5
248.2	84.5
248.433	84.5
248.666	80.5
248.899	77.5
249.133	85.5
249.366	78.5
249.599	68.5
249.832	80.5
250.066	73.5
250.299	73.5
250.532	78.5
250.765	92.5
250.998	80.5
251.231	85.5
251.465	81.5
251.698	84.5
251.931	78.5
252.164	68.5
252.397	56.5
252.63	84.5
252.863	81.5
253.096	70.5
253.329	80.5
253.562	72.5
253.795	75.5
254.028	82.5
254.261	88.5
254.494	80.5
254.727	85.5
254.96	82.5
255.193	67.5
255.426	71.5
255.659	92.5
255.892	72.5
256.124	75.5
256.357	84.5
256.59	77.5
256.823	88.5
257.056	71.5
257.289	79.5
257.521	88.5
257.754	82.5
257.987	73.5
258.22	80.5
258.452	85.5
258.685	75.5
258.918	75.5
259.151	78.5
259.383	84.5
259.616	82.5
259.849	80.5
260.081	80.5
260.314	85.5
260.547	77.5
260.779	74.5
261.012	74.5
261.244	79.5
261.477	84.5
261.71	79.5
261.942	75.5
262.175	95.5
262.407	84.5
262.64	70.5
262.872	85.5
263.105	65.5
263.337	85.5
263.57	74.5
263.802	84.5
264.035	95.5
264.267	76.5
264.499	78.5
264.732	90.5
264.964	83.5
265.197	71.5
265.429	83.5
265.661	81.5
265.894	85.5
266.126	93.5
266.358	73.5
266.591	78.5
266.823	84.5
267.055	73.5
267.287	86.5
267.52	83.5
267.752	96.5
267.984	82.5
268.216	88.5
268.448	67.5
268.681	88.5
268.913	79.5
269.145	82.5
269.377	74.5
269.609	77.5
269.841	88.5
270.073	85.5
270.306	89.5
270.538	72.5
270.77	77.5
271.002	74.5
271.234	80.5
271.466	84.5
271.698	77.5
271.93	78.5
272.162	78.5
272.394	85.5
272.626	71.5
272.858	82.5
273.09	77.5
273.322	95.5
273.553	95.5
273.785	92.5
274.017	76.5
274.249	80.5
274.481	89.5
274.713	90.5
274.945	82.5
275.176	83.5
275.408	62.5
275.64	88.5
275.872	81.5
276.104	84.5
276.335	72.5
276.567	86.5
276.799	76.5
277.031	86.5
277.262	85.5
277.494	80.5
277.726	83.5
277.957	83.5
278.189	80.5
278.421	69.5
278.652	69.5
278.884	79.5
279.115	81.5
279.347	88.5
279.579	98.5
279.81	70.5
280.042	68.5
280.273	89.5
280.505	81.5
280.736	77.5
280.968	88.5
281.199	88.5
281.431	71.5
281.662	82.5
281.894	92.5
282.125	89.5
282.356	70.5
282.588	81.5
282.819	71.5
283.051	73.5
283.282	80.5
283.513	90.5
283.745	85.5
283.976	81.5
284.207	96.5
284.439	75.5
284.67	98.5
284.901	87.5
285.132	90.5
285.364	83.5
285.595	93.5
285.826	89.5
286.057	79.5
286.288	74.5
286.52	74.5
286.751	86.5
286.982	83.5
287.213	88.5
287.444	87.5
287.675	83.5
287.906	65.5
288.138	84.5
288.369	81.5
288.6	72.5
288.831	71.5
289.062	77.5
289.293	87.5
289.524	77.5
289.755	93.5
289.986	73.5
290.217	89.5
290.448	81.5
290.679	84.5
290.91	90.5
291.141	75.5
291.371	102.5
291.602	83.5
291.833	100.5
292.064	87.5
292.295	90.5
292.526	81.5
292.757	102.5
292.987	91.5
293.218	79.5
293.449	85.5
293.68	83.5
293.91	89.5
294.141	77.5
294.372	84.5
294.603	79.5
294.833	89.5
295.064	77.5
295.295	90.5
295.525	95.5
295.756	88.5
295.987	85.5
296.217	80.5
296.448	78.5
296.679	85.5
296.909	80.5
297.14	86.5
297.37	92.5
297.601	74.5
297.831	74.5
298.062	89.5
298.292	88.5
298.523	82.5
298.753	100.5
298.984	92.5
299.214	77.5
299.445	89.5
299.675	71.5
299.905	75.5
300.136	84.5
300.366	70.5
300.597	74.5
300.827	74.5
301.057	93.5
301.288	89.5
301.518	79.5
301.748	88.5
301.979	94.5
302.209	69.5
302.439	89.5
302.669	86.5
302.9	69.5
303.13	90.5
303.36	80.5
303.59	83.5
303.82	87.5
304.051	84.5
304.281	86.5
304.511	89.5
304.741	85.5
304.971	70.5
305.201	78.5
305.431	80.5
305.661	85.5
305.891	85.5
306.121	78.5
306.352	80.5
306.582	66.5
306.812	89.5
307.042	67.5
307.272	70.5
307.502	62.5
307.731	83.5
307.961	83.5
308.191	80.5
308.421	84.5
308.651	87.5
308.881	96.5
309.111	77.5
309.341	78.5
309.571	83.5
309.8	87.5
310.03	84.5
310.26	77.5
310.49	81.5
310.72	70.5
310.949	82.5
311.179	74.5
311.409	77.5
311.639	92.5
311.868	100.5
312.098	80.5
312.328	88.5
312.557	100.5
312.787	72.5
313.017	86.5
313.246	84.5
313.476	72.5
313.706	81.5
313.935	82.5
314.165	91.5
314.394	89.5
314.624	87.5
314.853	96.5
315.083	87.5
315.312	96.5
315.542	78.5
315.771	84.5
316.001	80.5
316.23	81.5
316.46	78.5
316.689	83.5
316.919	103.5
317.148	88.5
317.377	90.5
317.607	73.5
317.836	82.5
318.065	68.5
318.295	82.5
318.524	78.5
318.753	101.5
318.983	86.5
319.212	94.5
319.441	77.5
319.67	73.5
319.9	84.5
320.129	87.5
320.358	85.5
320.587	94.5
320.816	95.5
321.046	92.5
321.275	89.5
321.504	73.5
321.733	96.5
321.962	89.5
322.191	87.5
322.42	75.5
322.649	81.5
322.878	65.5
323.108	80.5
323.337	81.5
323.566	85.5
323.795	80.5
324.024	87.5
324.253	88.5
324.482	84.5
324.71	74.5
324.939	87.5
325.168	93.5
325.397	84.5
325.626	86.5
325.855	84.5
326.084	71.5
326.313	78.5
326.542	82.5
326.77	83.5
326.999	88.5
327.228	81.5
327.457	78.5
327.686	93.5
327.914	78.5
328.143	77.5
328.372	81.5
328.6	91.5
328.829	87.5
329.058	88.5
329.287	99.5
329.515	95.5
329.744	84.5
329.972	81.5
330.201	77.5
330.43	82.5
330.658	74.5
330.887	87.5
331.115	73.5
331.344	86.5
331.572	76.5
331.801	88.5
332.03	77.5
332.258	80.5
332.486	72.5
332.715	79.5
332.943	81.5
333.172	74.5
333.4	89.5
333.629	90.5
333.857	86.5
334.085	85.5
334.314	98.5
334.542	81.5
334.771	96.5
334.999	69.5
335.227	103.5
335.455	86.5
335.684	87.5
335.912	90.5
336.14	68.5
336.369	88.5
336.597	82.5
336.825	89.5
337.053	87.5
337.281	92.5
337.51	81.5
337.738	76.5
337.966	72.5
338.194	87.5
338.422	82.5
338.65	82.5
338.878	91.5
339.106	78.5
339.334	88.5
339.562	86.5
339.79	78.5
340.018	76.5
340.246	85.5
340.474	68.5
340.702	75.5
340.93	89.5
341.158	80.5
341.386	81.5
341.614	92.5
341.842	86.5
342.07	82.5
342.298	87.5
342.526	87.5
342.754	87.5
342.981	78.5
343.209	80.5
343.437	87.5
343.665	81.5
343.893	68.5
344.12	82.5
344.348	80.5
344.576	88.5
344.804	75.5
345.031	84.5
345.259	73.5
345.487	77.5
345.714	89.5
345.942	87.5
346.17	77.5
346.397	69.5
346.625	87.5
346.853	87.5
347.08	71.5
347.308	88.5
347.535	87.5
347.763	72.5
347.99	92.5
348.218	84.5
348.445	90.5
348.673	86.5
348.9	84.5
349.128	85.5
349.355	85.5
349.583	68.5
349.81	78.5
350.037	88.5
350.265	88.5
350.492	81.5
350.72	85.5
350.947	83.5
351.174	94.5
351.402	92.5
351.629	66.5
351.856	88.5
352.083	83.5
352.311	80.5
352.538	68.5
352.765	78.5
352.992	77.5
353.22	75.5
353.447	89.5
353.674	88.5
353.901	92.5
354.128	87.5
354.355	72.5
354.583	91.5
354.81	84.5
355.037	78.5
355.264	76.5
355.491	81.5
355.718	80.5
355.945	87.5
356.172	75.5
356.399	73.5
356.626	92.5
356.853	80.5
357.08	82.5
357.307	86.5
357.534	89.5
357.761	86.5
357.988	82.5
358.215	83.5
358.441	86.5
358.668	84.5
358.895	69.5
359.122	84.5
359.349	74.5
359.576	72.5
359.802	70.5
360.029	83.5
360.256	73.5
360.483	79.5
360.709	79.5
360.936	84.5
361.163	77.5
361.39	72.5
361.616	91.5
361.843	90.5
362.07	101.5
362.296	72.5
362.523	79.5
362.749	77.5
362.976	82.5
363.203	81.5
363.429	63.5
363.656	87.5
363.882	77.5
364.109	84.5
364.335	83.5
364.562	96.5
364.788	76.5
365.015	85.5
365.241	77.5
365.468	78.5
365.694	95.5
365.92	83.5
366.147	94.5
366.373	83.5
366.599	83.5
366.826	77.5
367.052	70.5
367.278	83.5
367.505	86.5
367.731	78.5
367.957	88.5
368.184	87.5
368.41	87.5
368.636	89.5
368.862	75.5
369.089	81.5
369.315	85.5
369.541	97.5
369.767	86.5
369.993	87.5
370.219	81.5
370.445	87.5
370.672	85.5
370.898	81.5
371.124	64.5
371.35	81.5
371.576	86.5
371.802	80.5
372.028	89.5
372.254	86.5
372.48	79.5
372.706	72.5
372.932	85.5
373.158	63.5
373.384	83.5
373.61	78.5
373.835	82.5
374.061	73.5
374.287	86.5
374.513	72.5
374.739	79.5
374.965	76.5
375.191	79.5
375.416	105.5
375.642	80.5
375.868	80.5
376.094	84.5
376.319	86.5
376.545	78.5
376.771	93.5
376.997	81.5
377.222	68.5
377.448	94.5
377.674	79.5
377.899	75.5
378.125	78.5
378.35	81.5
378.576	70.5
378.802	76.5
379.027	62.5
379.253	84.5
379.478	95.5
379.704	88.5
379.929	65.5
380.155	82.5
380.38	81.5
380.606	88.5
380.831	76.5
381.057	105.5
381.282	82.5
381.507	86.5
381.733	74.5
381.958	74.5
382.184	88.5
382.409	93.5
382.634	80.5
382.86	81.5
383.085	73.5
383.31	76.5
383.535	76.5
383.761	80.5
383.986	85.5
384.211	78.5
384.436	89.5
384.662	76.5
384.887	96.5
385.112	72.5
385.337	87.5
385.562	80.5
385.787	85.5
386.013	98.5
386.238	89.5
386.463	91.5
386.688	70.5
386.913	69.5
387.138	80.5
387.363	82.5
387.588	90.5
387.813	86.5
388.038	89.5
388.263	81.5
388.488	85.5
388.713	78.5
388.938	74.5
389.163	100.5
389.387	108.5
389.612	95.5
389.837	76.5
390.062	76.5
390.287	80.5
390.512	87.5
390.736	80.5
390.961	80.5
391.186	91.5
391.411	88.5
391.636	93.5
391.86	101.5
392.085	82.5
392.31	86.5
392.534	83.5
392.759	93.5
392.984	93.5
393.208	85.5
393.433	79.5
393.658	84.5
393.882	86.5
394.107	89.5
394.331	94.5
394.556	71.5
394.78	70.5
395.005	89.5
395.229	73.5
395.454	89.5
395.678	87.5
395.903	79.5
396.127	78.5
396.352	78.5
396.576	91.5
396.801	83.5
397.025	87.5
397.249	88.5
397.474	84.5
397.698	85.5
397.922	92.5
398.147	102.5
398.371	72.5
398.595	102.5
398.82	73.5
399.044	73.5
399.268	85.5
399.492	92.5
399.717	87.5
399.941	77.5
400.165	84.5
400.389	87.5
400.613	98.5
400.837	89.5
401.062	92.5
401.286	94.5
401.51	79.5
401.734	82.5
401.958	83.5
402.182	79.5
402.406	72.5
402.63	86.5
402.854	82.5
403.078	89.5
403.302	85.5
403.526	92.5
403.75	81.5
403.974	82.5
404.198	85.5
404.422	80.5
404.645	89.5
404.869	106.5
405.093	95.5
405.317	82.5
405.541	91.5
405.765	90.5
405.988	94.5
406.212	76.5
406.436	97.5
406.66	95.5
406.883	71.5
407.107	90.5
407.331	88.5
407.555	86.5
407.778	80.5
408.002	97.5
408.226	90.5
408.449	100.5
408.673	98.5
408.896	88.5
409.12	83.5
409.344	80.5
409.567	82.5
409.791	88.5
410.014	88.5
410.238	92.5
410.461	87.5
410.685	99.5
410.908	81.5
411.132	85.5
411.355	67.5
411.578	93.5
411.802	87.5
412.025	87.5
412.249	86.5
412.472	87.5
412.695	79.5
412.919	94.5
413.142	75.5
413.365	86.5
413.589	81.5
413.812	73.5
414.035	94.5
414.258	86.5
414.482	75.5
414.705	90.5
414.928	95.5
415.151	77.5
415.374	92.5
415.597	82.5
415.821	89.5
416.044	86.5
416.267	80.5
416.49	101.5
416.713	80.5
416.936	88.5
417.159	82.5
417.382	76.5
417.605	88.5
417.828	84.5
418.051	90.5
418.274	85.5
418.497	80.5
418.72	95.5
418.943	86.5
419.166	94.5
419.389	86.5
419.611	82.5
419.834	95.5
420.057	96.5
420.28	75.5
420.503	93.5
420.726	85.5
420.948	96.5
421.171	93.5
421.394	83.5
421.617	88.5
421.839	90.5
422.062	93.5
422.285	100.5
422.507	89.5
422.73	85.5
422.953	79.5
423.175	98.5
423.398	91.5
423.621	93.5
423.843	88.5
424.066	84.5
424.288	96.5
424.511	104.5
424.733	103.5
424.956	96.5
425.178	84.5
425.401	93.5
425.623	84.5
425.846	77.5
426.068	93.5
426.291	88.5
426.513	99.5
426.735	82.5
426.958	82.5
427.18	79.5
427.402	86.5
427.625	92.5
427.847	89.5
428.069	86.5
428.292	97.5
428.514	97.5
428.736	82.5
428.958	102.5
429.181	88.5
429.403	81.5
429.625	95.5
429.847	82.5
430.069	104.5
430.292	93.5
430.514	93.5
430.736	90.5
430.958	93.5
431.18	93.5
431.402	84.5
431.624	83.5
431.846	90.5
432.068	69.5
432.29	82.5
432.512	84.5
432.734	98.5
432.956	82.5
433.178	77.5
433.4	95.5
433.622	104.5
433.844	85.5
434.066	94.5
434.287	84.5
434.509	80.5
434.731	93.5
434.953	68.5
435.175	83.5
435.397	103.5
435.618	95.5
435.84	73.5
436.062	83.5
436.284	76.5
436.505	95.5
436.727	99.5
436.949	89.5
437.17	104.5
437.392	87.5
437.614	92.5
437.835	93.5
438.057	90.5
438.278	91.5
438.5	94.5
438.721	88.5
438.943	101.5
439.165	95.5
439.386	107.5
439.608	95.5
439.829	94.5
440.05	100.5
440.272	100.5
440.493	80.5
440.715	90.5
440.936	95.5
441.158	89.5
441.379	94.5
441.6	91.5
441.822	87.5
442.043	101.5
442.264	96.5
442.486	108.5
442.707	88.5
442.928	81.5
443.149	101.5
443.371	99.5
443.592	93.5
443.813	90.5
444.034	99.5
444.255	101.5
444.476	104.5
444.698	86.5
444.919	89.5
445.14	230.5
445.361	156.5
445.582	108.5
445.803	102.5
446.024	100.5
446.245	94.5
446.466	98.5
446.687	100.5
446.908	105.5
447.129	90.5
447.35	101.5
447.571	87.5
447.792	98.5
448.013	116.5
448.234	97.5
448.455	92.5
448.675	91.5
448.896	86.5
449.117	97.5
449.338	88.5
449.559	85.5
449.779	102.5
450	88.5
450.221	73.5
450.442	94.5
450.662	101.5
450.883	91.5
451.104	111.5
451.324	105.5
451.545	101.5
451.766	88.5
451.986	81.5
452.207	80.5
452.428	85.5
452.648	86.5
452.869	85.5
453.089	88.5
453.31	81.5
453.53	82.5
453.751	80.5
453.971	86.5
454.192	84.5
454.412	79.5
454.633	93.5
454.853	89.5
455.073	104.5
455.294	104.5
455.514	90.5
455.734	94.5
455.955	76.5
456.175	94.5
456.395	77.5
456.616	79.5
456.836	88.5
457.056	95.5
457.276	85.5
457.497	87.5
457.717	89.5
457.937	97.5
458.157	81.5
458.377	79.5
458.598	75.5
458.818	93.5
459.038	72.5
459.258	80.5
459.478	80.5
459.698	72.5
459.918	82.5
460.138	82.5
460.358	89.5
460.578	95.5
460.798	77.5
461.018	84.5
461.238	90.5
461.458	87.5
461.678	80.5
461.898	99.5
462.118	81.5
462.338	97.5
462.558	95.5
462.777	87.5
462.997	77.5
463.217	100.5
463.437	91.5
463.657	87.5
463.876	87.5
464.096	106.5
464.316	83.5
464.536	88.5
464.755	82.5
464.975	89.5
465.195	92.5
465.414	83.5
465.634	81.5
465.854	86.5
466.073	89.5
466.293	88.5
466.512	84.5
466.732	86.5
466.951	104.5
467.171	94.5
467.391	93.5
467.61	93.5
467.829	97.5
468.049	91.5
468.268	101.5
468.488	91.5
468.707	96.5
468.927	94.5
469.146	96.5
469.365	99.5
469.585	90.5
469.804	109.5
470.023	92.5
470.243	96.5
470.462	96.5
470.681	86.5
470.901	101.5
471.12	97.5
471.339	94.5
471.558	96.5
471.777	100.5
471.997	100.5
472.216	103.5
472.435	98.5
472.654	85.5
472.873	94.5
473.092	100.5
473.311	98.5
473.53	99.5
473.749	101.5
473.968	97.5
474.187	97.5
474.406	110.5
474.625	93.5
474.844	95.5
475.063	93.5
475.282	105.5
475.501	92.5
475.72	94.5
475.939	85.5
476.158	93.5
476.377	104.5
476.596	91.5
476.814	95.5
477.033	85.5
477.252	88.5
477.471	90.5
477.69	108.5
477.908	108.5
478.127	83.5
478.346	104.5
478.564	82.5
478.783	93.5
479.002	94.5
479.22	104.5
479.439	98.5
479.658	93.5
479.876	100.5
480.095	80.5
480.313	91.5
480.532	94.5
480.751	95.5
480.969	97.5
481.188	98.5
481.406	89.5
481.624	73.5
481.843	89.5
482.061	80.5
482.28	80.5
482.498	82.5
482.717	89.5
482.935	95.5
483.153	106.5
483.372	99.5
483.59	94.5
483.808	92.5
484.027	106.5
484.245	100.5
484.463	102.5
484.681	117.5
484.9	97.5
485.118	112.5
485.336	85.5
485.554	100.5
485.772	86.5
485.99	67.5
486.209	78.5
486.427	75.5
486.645	102.5
486.863	98.5
487.081	110.5
487.299	98.5
487.517	102.5
487.735	108.5
487.953	116.5
488.171	112.5
488.389	94.5
488.607	100.5
488.825	110.5
489.043	84.5
489.261	103.5
489.479	108.5
489.696	90.5
489.914	93.5
490.132	105.5
490.35	103.5
490.568	96.5
490.786	101.5
491.003	115.5
491.221	104.5
491.439	101.5
491.657	118.5
491.874	125.5
492.092	118.5
492.31	121.5
492.527	121.5
492.745	109.5
492.963	118.5
493.18	122.5
493.398	119.5
493.615	115.5
493.833	104.5
494.05	108.5
494.268	111.5
494.485	100.5
494.703	108.5
494.92	103.5
495.138	110.5
495.355	111.5
495.573	115.5
495.79	109.5
496.008	104.5
496.225	95.5
496.442	101.5
496.66	113.5
496.877	105.5
497.094	102.5
497.312	103.5
497.529	89.5
497.746	98.5
497.963	103.5
498.181	111.5
498.398	94.5
498.615	108.5
498.832	92.5
499.049	93.5
499.267	89.5
499.484	94.5
499.701	104.5
499.918	100.5
500.135	102.5
500.352	90.5
500.569	102.5
500.786	103.5
501.003	76.5
501.22	89.5
501.437	99.5
501.654	104.5
501.871	108.5
502.088	95.5
502.305	108.5
502.522	90.5
502.739	96.5
502.956	86.5
503.172	99.5
503.389	106.5
503.606	87.5
503.823	112.5
504.04	103.5
504.256	100.5
504.473	93.5
504.69	86.5
504.907	105.5
505.123	83.5
505.34	93.5
505.557	99.5
505.773	93.5
505.99	97.5
506.207	101.5
506.423	89.5
506.64	100.5
506.856	82.5
507.073	82.5
507.289	96.5
507.506	97.5
507.722	89.5
507.939	93.5
508.155	101.5
508.372	94.5
508.588	96.5
508.805	90.5
509.021	87.5
509.238	88.5
509.454	77.5
509.67	84.5
509.887	87.5
510.103	95.5
510.319	94.5
510.536	82.5
510.752	93.5
510.968	83.5
511.184	83.5
511.401	73.5
511.617	82.5
511.833	87.5
512.049	78.5
512.265	86.5
512.481	81.5
512.698	93.5
512.914	87.5
513.13	77.5
513.346	75.5
513.562	86.5
513.778	85.5
513.994	85.5
514.21	80.5
514.426	82.5
514.642	82.5
514.858	87.5
515.074	78.5
515.29	93.5
515.506	90.5
515.721	82.5
515.937	97.5
516.153	74.5
516.369	93.5
516.585	90.5
516.801	92.5
517.016	80.5
517.232	73.5
517.448	84.5
517.664	74.5
517.879	84.5
518.095	78.5
518.311	82.5
518.527	79.5
518.742	82.5
518.958	90.5
519.173	82.5
519.389	77.5
519.605	88.5
519.82	74.5
520.036	88.5
520.251	93.5
520.467	83.5
520.682	91.5
520.898	73.5
521.113	86.5
521.329	79.5
521.544	87.5
521.76	85.5
521.975	79.5
522.19	89.5
522.406	97.5
522.621	80.5
522.836	95.5
523.052	87.5
523.267	94.5
523.482	93.5
523.698	96.5
523.913	87.5
524.128	86.5
524.343	103.5
524.559	97.5
524.774	92.5
524.989	113.5
525.204	97.5
525.419	96.5
525.634	93.5
525.849	95.5
526.064	89.5
526.28	80.5
526.495	100.5
526.71	96.5
526.925	92.5
527.14	90.5
527.355	81.5
527.57	70.5
527.785	82.5
527.999	82.5
528.214	96.5
528.429	84.5
528.644	84.5
528.859	89.5
529.074	93.5
529.289	97.5
529.503	85.5
529.718	92.5
529.933	93.5
530.148	99.5
530.363	81.5
530.577	78.5
530.792	71.5
531.007	73.5
531.221	90.5
531.436	86.5
531.651	82.5
531.865	92.5
532.08	91.5
532.295	92.5
532.509	92.5
532.724	80.5
532.938	89.5
533.153	80.5
533.367	89.5
533.582	95.5
533.796	86.5
534.011	91.5
534.225	88.5
534.44	82.5
534.654	88.5
534.868	90.5
535.083	94.5
535.297	92.5
535.511	94.5
535.726	97.5
535.94	96.5
536.154	97.5
536.369	87.5
536.583	77.5
536.797	84.5
537.011	78.5
537.225	82.5
537.44	81.5
537.654	91.5
