Data from Location4.07152019.Energy5.Lamp.07192019.3%Agarose_HRD10591_15-25-41-577.txt Node
Date: Fri Jul 19 15:25:41 EDT 2019
User: cochatt
Spectrometer: HR+D1059
Trigger mode: 1
Integration Time (sec): 1.000000E-1
Scans to average: 1
Electric dark correction enabled: true
Nonlinearity correction enabled: false
Boxcar width: 0
XAxis mode: Wavelengths
Number of Pixels in Spectrum: 2048
>>>>>Begin Spectral Data<<<<<
223.165	-15.38
223.4	-15.38
223.635	-15.38
223.869	-20.38
224.104	-11.38
224.338	0.62
224.573	-5.38
224.808	2.62
225.042	0.62
225.277	-1.38
225.511	-9.38
225.746	-11.38
225.98	-5.38
226.215	0.62
226.449	22.62
226.683	18.62
226.918	16.62
227.152	17.62
227.387	31.62
227.621	39.62
227.856	48.62
228.09	57.62
228.324	46.62
228.559	54.62
228.793	47.62
229.027	72.62
229.262	69.62
229.496	70.62
229.73	72.62
229.964	78.62
230.199	80.62
230.433	81.62
230.667	77.62
230.901	91.62
231.136	71.62
231.37	75.62
231.604	101.62
231.838	83.62
232.072	85.62
232.306	82.62
232.541	79.62
232.775	87.62
233.009	87.62
233.243	81.62
233.477	71.62
233.711	78.62
233.945	89.62
234.179	89.62
234.413	84.62
234.647	96.62
234.881	75.62
235.115	81.62
235.349	74.62
235.583	78.62
235.817	84.62
236.051	66.62
236.285	74.62
236.519	67.62
236.753	83.62
236.987	79.62
237.221	66.62
237.455	78.62
237.689	74.62
237.922	96.62
238.156	70.62
238.39	77.62
238.624	77.62
238.858	73.62
239.091	88.62
239.325	78.62
239.559	74.62
239.793	84.62
240.027	73.62
240.26	83.62
240.494	64.62
240.728	87.62
240.961	71.62
241.195	83.62
241.429	79.62
241.662	73.62
241.896	74.62
242.13	64.62
242.363	91.62
242.597	73.62
242.83	76.62
243.064	47.62
243.298	61.62
243.531	80.62
243.765	95.62
243.998	71.62
244.232	79.62
244.465	83.62
244.699	92.62
244.932	78.62
245.166	88.62
245.399	65.62
245.633	84.62
245.866	80.62
246.099	77.62
246.333	80.62
246.566	79.62
246.8	86.62
247.033	68.62
247.266	63.62
247.5	85.62
247.733	89.62
247.966	78.62
248.2	67.62
248.433	87.62
248.666	80.62
248.899	88.62
249.133	71.62
249.366	72.62
249.599	76.62
249.832	88.62
250.066	71.62
250.299	74.62
250.532	82.62
250.765	84.62
250.998	75.62
251.231	88.62
251.465	83.62
251.698	67.62
251.931	73.62
252.164	77.62
252.397	80.62
252.63	81.62
252.863	72.62
253.096	78.62
253.329	78.62
253.562	82.62
253.795	73.62
254.028	86.62
254.261	77.62
254.494	89.62
254.727	80.62
254.96	73.62
255.193	79.62
255.426	81.62
255.659	78.62
255.892	75.62
256.124	70.62
256.357	79.62
256.59	73.62
256.823	83.62
257.056	78.62
257.289	85.62
257.521	86.62
257.754	83.62
257.987	82.62
258.22	88.62
258.452	78.62
258.685	71.62
258.918	76.62
259.151	75.62
259.383	92.62
259.616	91.62
259.849	83.62
260.081	78.62
260.314	85.62
260.547	90.62
260.779	91.62
261.012	80.62
261.244	94.62
261.477	92.62
261.71	87.62
261.942	80.62
262.175	83.62
262.407	88.62
262.64	95.62
262.872	84.62
263.105	83.62
263.337	81.62
263.57	89.62
263.802	83.62
264.035	88.62
264.267	75.62
264.499	88.62
264.732	90.62
264.964	87.62
265.197	68.62
265.429	65.62
265.661	79.62
265.894	75.62
266.126	90.62
266.358	70.62
266.591	84.62
266.823	81.62
267.055	69.62
267.287	86.62
267.52	78.62
267.752	66.62
267.984	68.62
268.216	87.62
268.448	79.62
268.681	91.62
268.913	80.62
269.145	84.62
269.377	79.62
269.609	87.62
269.841	69.62
270.073	66.62
270.306	84.62
270.538	87.62
270.77	90.62
271.002	77.62
271.234	83.62
271.466	91.62
271.698	82.62
271.93	80.62
272.162	86.62
272.394	78.62
272.626	91.62
272.858	76.62
273.09	83.62
273.322	89.62
273.553	85.62
273.785	80.62
274.017	81.62
274.249	90.62
274.481	82.62
274.713	84.62
274.945	76.62
275.176	78.62
275.408	79.62
275.64	74.62
275.872	90.62
276.104	82.62
276.335	85.62
276.567	90.62
276.799	89.62
277.031	78.62
277.262	74.62
277.494	75.62
277.726	90.62
277.957	96.62
278.189	82.62
278.421	89.62
278.652	81.62
278.884	88.62
279.115	96.62
279.347	79.62
279.579	87.62
279.81	89.62
280.042	73.62
280.273	73.62
280.505	85.62
280.736	90.62
280.968	90.62
281.199	91.62
281.431	76.62
281.662	87.62
281.894	68.62
282.125	79.62
282.356	90.62
282.588	87.62
282.819	76.62
283.051	92.62
283.282	90.62
283.513	90.62
283.745	105.62
283.976	88.62
284.207	94.62
284.439	97.62
284.67	80.62
284.901	91.62
285.132	75.62
285.364	82.62
285.595	85.62
285.826	72.62
286.057	72.62
286.288	84.62
286.52	82.62
286.751	80.62
286.982	82.62
287.213	85.62
287.444	77.62
287.675	84.62
287.906	82.62
288.138	68.62
288.369	85.62
288.6	90.62
288.831	86.62
289.062	84.62
289.293	96.62
289.524	78.62
289.755	78.62
289.986	76.62
290.217	72.62
290.448	79.62
290.679	76.62
290.91	80.62
291.141	65.62
291.371	94.62
291.602	92.62
291.833	76.62
292.064	86.62
292.295	84.62
292.526	90.62
292.757	92.62
292.987	81.62
293.218	86.62
293.449	75.62
293.68	89.62
293.91	86.62
294.141	82.62
294.372	80.62
294.603	86.62
294.833	83.62
295.064	83.62
295.295	82.62
295.525	101.62
295.756	87.62
295.987	88.62
296.217	82.62
296.448	97.62
296.679	83.62
296.909	91.62
297.14	75.62
297.37	86.62
297.601	75.62
297.831	98.62
298.062	81.62
298.292	90.62
298.523	88.62
298.753	89.62
298.984	65.62
299.214	71.62
299.445	82.62
299.675	84.62
299.905	86.62
300.136	77.62
300.366	84.62
300.597	95.62
300.827	84.62
301.057	100.62
301.288	91.62
301.518	84.62
301.748	75.62
301.979	90.62
302.209	89.62
302.439	74.62
302.669	80.62
302.9	90.62
303.13	96.62
303.36	81.62
303.59	87.62
303.82	89.62
304.051	84.62
304.281	87.62
304.511	73.62
304.741	82.62
304.971	84.62
305.201	92.62
305.431	90.62
305.661	78.62
305.891	83.62
306.121	94.62
306.352	94.62
306.582	84.62
306.812	78.62
307.042	87.62
307.272	84.62
307.502	84.62
307.731	86.62
307.961	80.62
308.191	83.62
308.421	96.62
308.651	78.62
308.881	87.62
309.111	90.62
309.341	73.62
309.571	89.62
309.8	88.62
310.03	91.62
310.26	82.62
310.49	84.62
310.72	67.62
310.949	79.62
311.179	81.62
311.409	81.62
311.639	96.62
311.868	78.62
312.098	90.62
312.328	87.62
312.557	95.62
312.787	84.62
313.017	87.62
313.246	73.62
313.476	94.62
313.706	68.62
313.935	85.62
314.165	68.62
314.394	80.62
314.624	86.62
314.853	83.62
315.083	88.62
315.312	94.62
315.542	71.62
315.771	75.62
316.001	99.62
316.23	82.62
316.46	76.62
316.689	83.62
316.919	82.62
317.148	82.62
317.377	78.62
317.607	82.62
317.836	86.62
318.065	97.62
318.295	89.62
318.524	91.62
318.753	89.62
318.983	85.62
319.212	82.62
319.441	105.62
319.67	85.62
319.9	76.62
320.129	76.62
320.358	87.62
320.587	93.62
320.816	89.62
321.046	89.62
321.275	80.62
321.504	95.62
321.733	84.62
321.962	91.62
322.191	91.62
322.42	95.62
322.649	94.62
322.878	101.62
323.108	84.62
323.337	74.62
323.566	81.62
323.795	79.62
324.024	91.62
324.253	86.62
324.482	94.62
324.71	72.62
324.939	95.62
325.168	81.62
325.397	84.62
325.626	92.62
325.855	87.62
326.084	84.62
326.313	87.62
326.542	88.62
326.77	82.62
326.999	86.62
327.228	81.62
327.457	95.62
327.686	79.62
327.914	82.62
328.143	86.62
328.372	86.62
328.6	85.62
328.829	96.62
329.058	73.62
329.287	87.62
329.515	70.62
329.744	88.62
329.972	84.62
330.201	72.62
330.43	74.62
330.658	85.62
330.887	74.62
331.115	71.62
331.344	97.62
331.572	71.62
331.801	76.62
332.03	87.62
332.258	78.62
332.486	92.62
332.715	80.62
332.943	92.62
333.172	88.62
333.4	101.62
333.629	88.62
333.857	82.62
334.085	87.62
334.314	84.62
334.542	83.62
334.771	86.62
334.999	85.62
335.227	72.62
335.455	77.62
335.684	87.62
335.912	87.62
336.14	89.62
336.369	81.62
336.597	76.62
336.825	81.62
337.053	86.62
337.281	84.62
337.51	86.62
337.738	91.62
337.966	86.62
338.194	70.62
338.422	85.62
338.65	82.62
338.878	88.62
339.106	70.62
339.334	85.62
339.562	81.62
339.79	92.62
340.018	86.62
340.246	88.62
340.474	99.62
340.702	91.62
340.93	76.62
341.158	78.62
341.386	79.62
341.614	83.62
341.842	95.62
342.07	81.62
342.298	81.62
342.526	93.62
342.754	91.62
342.981	85.62
343.209	83.62
343.437	81.62
343.665	81.62
343.893	74.62
344.12	71.62
344.348	91.62
344.576	87.62
344.804	85.62
345.031	68.62
345.259	76.62
345.487	80.62
345.714	93.62
345.942	107.62
346.17	84.62
346.397	84.62
346.625	79.62
346.853	84.62
347.08	83.62
347.308	76.62
347.535	80.62
347.763	80.62
347.99	79.62
348.218	92.62
348.445	85.62
348.673	86.62
348.9	89.62
349.128	86.62
349.355	92.62
349.583	85.62
349.81	75.62
350.037	88.62
350.265	88.62
350.492	84.62
350.72	86.62
350.947	87.62
351.174	78.62
351.402	68.62
351.629	91.62
351.856	86.62
352.083	65.62
352.311	91.62
352.538	84.62
352.765	80.62
352.992	88.62
353.22	94.62
353.447	76.62
353.674	92.62
353.901	90.62
354.128	82.62
354.355	79.62
354.583	92.62
354.81	83.62
355.037	80.62
355.264	62.62
355.491	71.62
355.718	99.62
355.945	93.62
356.172	90.62
356.399	90.62
356.626	87.62
356.853	76.62
357.08	81.62
357.307	75.62
357.534	80.62
357.761	85.62
357.988	87.62
358.215	74.62
358.441	80.62
358.668	89.62
358.895	95.62
359.122	80.62
359.349	90.62
359.576	93.62
359.802	76.62
360.029	86.62
360.256	75.62
360.483	82.62
360.709	86.62
360.936	80.62
361.163	89.62
361.39	93.62
361.616	94.62
361.843	73.62
362.07	84.62
362.296	80.62
362.523	85.62
362.749	80.62
362.976	68.62
363.203	76.62
363.429	75.62
363.656	76.62
363.882	78.62
364.109	80.62
364.335	87.62
364.562	84.62
364.788	73.62
365.015	91.62
365.241	86.62
365.468	97.62
365.694	84.62
365.92	87.62
366.147	90.62
366.373	88.62
366.599	81.62
366.826	87.62
367.052	79.62
367.278	86.62
367.505	83.62
367.731	96.62
367.957	88.62
368.184	87.62
368.41	84.62
368.636	81.62
368.862	89.62
369.089	88.62
369.315	89.62
369.541	75.62
369.767	67.62
369.993	76.62
370.219	79.62
370.445	85.62
370.672	77.62
370.898	62.62
371.124	90.62
371.35	81.62
371.576	84.62
371.802	81.62
372.028	86.62
372.254	83.62
372.48	86.62
372.706	76.62
372.932	86.62
373.158	83.62
373.384	83.62
373.61	89.62
373.835	81.62
374.061	73.62
374.287	76.62
374.513	75.62
374.739	90.62
374.965	85.62
375.191	77.62
375.416	83.62
375.642	74.62
375.868	83.62
376.094	86.62
376.319	94.62
376.545	83.62
376.771	73.62
376.997	92.62
377.222	85.62
377.448	97.62
377.674	90.62
377.899	100.62
378.125	85.62
378.35	102.62
378.576	60.62
378.802	85.62
379.027	74.62
379.253	77.62
379.478	87.62
379.704	75.62
379.929	70.62
380.155	79.62
380.38	81.62
380.606	82.62
380.831	76.62
381.057	92.62
381.282	85.62
381.507	82.62
381.733	91.62
381.958	90.62
382.184	92.62
382.409	86.62
382.634	76.62
382.86	86.62
383.085	72.62
383.31	88.62
383.535	89.62
383.761	84.62
383.986	79.62
384.211	81.62
384.436	91.62
384.662	98.62
384.887	85.62
385.112	75.62
385.337	81.62
385.562	80.62
385.787	90.62
386.013	87.62
386.238	77.62
386.463	87.62
386.688	84.62
386.913	84.62
387.138	68.62
387.363	89.62
387.588	84.62
387.813	96.62
388.038	83.62
388.263	79.62
388.488	98.62
388.713	87.62
388.938	70.62
389.163	81.62
389.387	94.62
389.612	84.62
389.837	88.62
390.062	75.62
390.287	74.62
390.512	72.62
390.736	94.62
390.961	79.62
391.186	79.62
391.411	99.62
391.636	76.62
391.86	84.62
392.085	87.62
392.31	88.62
392.534	96.62
392.759	81.62
392.984	78.62
393.208	102.62
393.433	72.62
393.658	83.62
393.882	96.62
394.107	78.62
394.331	84.62
394.556	79.62
394.78	78.62
395.005	86.62
395.229	83.62
395.454	94.62
395.678	89.62
395.903	96.62
396.127	88.62
396.352	94.62
396.576	95.62
396.801	89.62
397.025	82.62
397.249	83.62
397.474	75.62
397.698	78.62
397.922	79.62
398.147	77.62
398.371	83.62
398.595	89.62
398.82	83.62
399.044	86.62
399.268	92.62
399.492	80.62
399.717	85.62
399.941	81.62
400.165	86.62
400.389	79.62
400.613	93.62
400.837	94.62
401.062	88.62
401.286	93.62
401.51	84.62
401.734	87.62
401.958	66.62
402.182	101.62
402.406	78.62
402.63	89.62
402.854	99.62
403.078	75.62
403.302	92.62
403.526	86.62
403.75	86.62
403.974	83.62
404.198	96.62
404.422	83.62
404.645	93.62
404.869	98.62
405.093	80.62
405.317	95.62
405.541	101.62
405.765	85.62
405.988	78.62
406.212	91.62
406.436	92.62
406.66	94.62
406.883	73.62
407.107	76.62
407.331	93.62
407.555	102.62
407.778	81.62
408.002	93.62
408.226	85.62
408.449	89.62
408.673	80.62
408.896	88.62
409.12	92.62
409.344	96.62
409.567	79.62
409.791	108.62
410.014	87.62
410.238	94.62
410.461	91.62
410.685	82.62
410.908	94.62
411.132	79.62
411.355	86.62
411.578	90.62
411.802	92.62
412.025	75.62
412.249	86.62
412.472	81.62
412.695	84.62
412.919	95.62
413.142	93.62
413.365	96.62
413.589	90.62
413.812	84.62
414.035	87.62
414.258	96.62
414.482	86.62
414.705	75.62
414.928	98.62
415.151	88.62
415.374	87.62
415.597	84.62
415.821	86.62
416.044	89.62
416.267	103.62
416.49	95.62
416.713	90.62
416.936	94.62
417.159	87.62
417.382	89.62
417.605	92.62
417.828	90.62
418.051	82.62
418.274	91.62
418.497	80.62
418.72	98.62
418.943	95.62
419.166	97.62
419.389	87.62
419.611	100.62
419.834	82.62
420.057	90.62
420.28	93.62
420.503	102.62
420.726	91.62
420.948	83.62
421.171	87.62
421.394	86.62
421.617	99.62
421.839	95.62
422.062	87.62
422.285	85.62
422.507	86.62
422.73	81.62
422.953	99.62
423.175	85.62
423.398	88.62
423.621	115.62
423.843	93.62
424.066	91.62
424.288	98.62
424.511	90.62
424.733	103.62
424.956	106.62
425.178	81.62
425.401	105.62
425.623	88.62
425.846	86.62
426.068	97.62
426.291	89.62
426.513	94.62
426.735	91.62
426.958	92.62
427.18	91.62
427.402	88.62
427.625	101.62
427.847	87.62
428.069	85.62
428.292	95.62
428.514	98.62
428.736	79.62
428.958	94.62
429.181	84.62
429.403	96.62
429.625	102.62
429.847	91.62
430.069	85.62
430.292	86.62
430.514	86.62
430.736	94.62
430.958	92.62
431.18	82.62
431.402	91.62
431.624	87.62
431.846	89.62
432.068	76.62
432.29	81.62
432.512	95.62
432.734	79.62
432.956	91.62
433.178	86.62
433.4	95.62
433.622	92.62
433.844	81.62
434.066	101.62
434.287	84.62
434.509	93.62
434.731	80.62
434.953	90.62
435.175	106.62
435.397	91.62
435.618	88.62
435.84	83.62
436.062	83.62
436.284	87.62
436.505	82.62
436.727	94.62
436.949	91.62
437.17	87.62
437.392	99.62
437.614	89.62
437.835	83.62
438.057	94.62
438.278	89.62
438.5	79.62
438.721	93.62
438.943	92.62
439.165	95.62
439.386	91.62
439.608	87.62
439.829	84.62
440.05	93.62
440.272	82.62
440.493	96.62
440.715	93.62
440.936	95.62
441.158	104.62
441.379	90.62
441.6	107.62
441.822	93.62
442.043	92.62
442.264	94.62
442.486	97.62
442.707	92.62
442.928	104.62
443.149	83.62
443.371	88.62
443.592	102.62
443.813	90.62
444.034	95.62
444.255	114.62
444.476	112.62
444.698	92.62
444.919	94.62
445.14	246.62
445.361	173.62
445.582	99.62
445.803	107.62
446.024	113.62
446.245	114.62
446.466	98.62
446.687	90.62
446.908	95.62
447.129	84.62
447.35	93.62
447.571	102.62
447.792	87.62
448.013	77.62
448.234	99.62
448.455	97.62
448.675	102.62
448.896	90.62
449.117	82.62
449.338	84.62
449.559	85.62
449.779	82.62
450	95.62
450.221	93.62
450.442	98.62
450.662	106.62
450.883	97.62
451.104	96.62
451.324	97.62
451.545	97.62
451.766	83.62
451.986	86.62
452.207	85.62
452.428	83.62
452.648	104.62
452.869	99.62
453.089	90.62
453.31	87.62
453.53	66.62
453.751	97.62
453.971	82.62
454.192	93.62
454.412	82.62
454.633	91.62
454.853	104.62
455.073	89.62
455.294	94.62
455.514	86.62
455.734	78.62
455.955	94.62
456.175	91.62
456.395	98.62
456.616	86.62
456.836	96.62
457.056	77.62
457.276	92.62
457.497	78.62
457.717	86.62
457.937	96.62
458.157	76.62
458.377	102.62
458.598	85.62
458.818	86.62
459.038	85.62
459.258	76.62
459.478	82.62
459.698	73.62
459.918	66.62
460.138	96.62
460.358	90.62
460.578	86.62
460.798	95.62
461.018	94.62
461.238	92.62
461.458	98.62
461.678	79.62
461.898	90.62
462.118	85.62
462.338	87.62
462.558	100.62
462.777	82.62
462.997	99.62
463.217	87.62
463.437	89.62
463.657	83.62
463.876	86.62
464.096	91.62
464.316	80.62
464.536	94.62
464.755	91.62
464.975	85.62
465.195	100.62
465.414	94.62
465.634	84.62
465.854	90.62
466.073	86.62
466.293	86.62
466.512	96.62
466.732	82.62
466.951	87.62
467.171	90.62
467.391	95.62
467.61	102.62
467.829	106.62
468.049	99.62
468.268	97.62
468.488	91.62
468.707	103.62
468.927	87.62
469.146	98.62
469.365	94.62
469.585	97.62
469.804	112.62
470.023	86.62
470.243	108.62
470.462	93.62
470.681	88.62
470.901	98.62
471.12	92.62
471.339	97.62
471.558	78.62
471.777	83.62
471.997	90.62
472.216	90.62
472.435	81.62
472.654	86.62
472.873	92.62
473.092	76.62
473.311	100.62
473.53	96.62
473.749	89.62
473.968	96.62
474.187	90.62
474.406	94.62
474.625	95.62
474.844	91.62
475.063	94.62
475.282	100.62
475.501	81.62
475.72	115.62
475.939	93.62
476.158	78.62
476.377	103.62
476.596	100.62
476.814	84.62
477.033	83.62
477.252	92.62
477.471	116.62
477.69	94.62
477.908	88.62
478.127	94.62
478.346	86.62
478.564	103.62
478.783	96.62
479.002	94.62
479.22	96.62
479.439	87.62
479.658	74.62
479.876	86.62
480.095	83.62
480.313	106.62
480.532	89.62
480.751	87.62
480.969	92.62
481.188	89.62
481.406	91.62
481.624	87.62
481.843	76.62
482.061	80.62
482.28	98.62
482.498	78.62
482.717	92.62
482.935	84.62
483.153	93.62
483.372	114.62
483.59	89.62
483.808	92.62
484.027	85.62
484.245	86.62
484.463	98.62
484.681	112.62
484.9	100.62
485.118	97.62
485.336	103.62
485.554	100.62
485.772	79.62
485.99	89.62
486.209	98.62
486.427	96.62
486.645	101.62
486.863	99.62
487.081	96.62
487.299	93.62
487.517	105.62
487.735	99.62
487.953	104.62
488.171	96.62
488.389	110.62
488.607	110.62
488.825	86.62
489.043	78.62
489.261	102.62
489.479	90.62
489.696	84.62
489.914	103.62
490.132	102.62
490.35	106.62
490.568	101.62
490.786	108.62
491.003	118.62
491.221	118.62
491.439	115.62
491.657	112.62
491.874	127.62
492.092	125.62
492.31	124.62
492.527	123.62
492.745	119.62
492.963	119.62
493.18	128.62
493.398	104.62
493.615	108.62
493.833	108.62
494.05	103.62
494.268	112.62
494.485	102.62
494.703	102.62
494.92	122.62
495.138	115.62
495.355	89.62
495.573	106.62
495.79	101.62
496.008	103.62
496.225	118.62
496.442	100.62
496.66	112.62
496.877	103.62
497.094	96.62
497.312	107.62
497.529	100.62
497.746	111.62
497.963	98.62
498.181	87.62
498.398	82.62
498.615	99.62
498.832	94.62
499.049	93.62
499.267	94.62
499.484	99.62
499.701	99.62
499.918	103.62
500.135	103.62
500.352	106.62
500.569	107.62
500.786	90.62
501.003	111.62
501.22	86.62
501.437	90.62
501.654	102.62
501.871	96.62
502.088	82.62
502.305	97.62
502.522	86.62
502.739	102.62
502.956	103.62
503.172	107.62
503.389	101.62
503.606	105.62
503.823	90.62
504.04	97.62
504.256	86.62
504.473	86.62
504.69	98.62
504.907	110.62
505.123	85.62
505.34	94.62
505.557	92.62
505.773	95.62
505.99	101.62
506.207	87.62
506.423	97.62
506.64	97.62
506.856	102.62
507.073	103.62
507.289	88.62
507.506	90.62
507.722	97.62
507.939	99.62
508.155	80.62
508.372	85.62
508.588	101.62
508.805	94.62
509.021	81.62
509.238	90.62
509.454	84.62
509.67	87.62
509.887	73.62
510.103	87.62
510.319	75.62
510.536	85.62
510.752	76.62
510.968	67.62
511.184	65.62
511.401	72.62
511.617	70.62
511.833	79.62
512.049	76.62
512.265	91.62
512.481	79.62
512.698	79.62
512.914	85.62
513.13	96.62
513.346	83.62
513.562	84.62
513.778	91.62
513.994	85.62
514.21	77.62
514.426	73.62
514.642	90.62
514.858	91.62
515.074	87.62
515.29	81.62
515.506	94.62
515.721	75.62
515.937	81.62
516.153	77.62
516.369	89.62
516.585	88.62
516.801	84.62
517.016	75.62
517.232	93.62
517.448	85.62
517.664	95.62
517.879	74.62
