Data from Location4.07152019.Energy5.Lamp.07192019.3%Agarose_HRD10591_15-23-35-577.txt Node
Date: Fri Jul 19 15:23:35 EDT 2019
User: cochatt
Spectrometer: HR+D1059
Trigger mode: 1
Integration Time (sec): 1.000000E-1
Scans to average: 1
Electric dark correction enabled: true
Nonlinearity correction enabled: false
Boxcar width: 0
XAxis mode: Wavelengths
Number of Pixels in Spectrum: 2048
>>>>>Begin Spectral Data<<<<<
223.165	-19.69
223.4	-19.69
223.635	-19.69
223.869	-27.69
224.104	-18.69
224.338	-8.69
224.573	-20.69
224.808	-17.69
225.042	-25.69
225.277	-13.69
225.511	-1.69
225.746	18.31
225.98	19.31
226.215	13.31
226.449	27.31
226.683	20.31
226.918	25.31
227.152	30.31
227.387	42.31
227.621	42.31
227.856	58.31
228.09	48.31
228.324	41.31
228.559	51.31
228.793	56.31
229.027	67.31
229.262	50.31
229.496	57.31
229.73	85.31
229.964	71.31
230.199	78.31
230.433	67.31
230.667	77.31
230.901	70.31
231.136	85.31
231.37	81.31
231.604	78.31
231.838	77.31
232.072	93.31
232.306	94.31
232.541	86.31
232.775	106.31
233.009	86.31
233.243	87.31
233.477	86.31
233.711	86.31
233.945	74.31
234.179	75.31
234.413	85.31
234.647	97.31
234.881	70.31
235.115	84.31
235.349	87.31
235.583	76.31
235.817	75.31
236.051	89.31
236.285	79.31
236.519	88.31
236.753	84.31
236.987	87.31
237.221	85.31
237.455	83.31
237.689	80.31
237.922	87.31
238.156	81.31
238.39	82.31
238.624	71.31
238.858	79.31
239.091	83.31
239.325	65.31
239.559	77.31
239.793	73.31
240.027	79.31
240.26	84.31
240.494	81.31
240.728	80.31
240.961	89.31
241.195	74.31
241.429	79.31
241.662	88.31
241.896	71.31
242.13	80.31
242.363	88.31
242.597	77.31
242.83	75.31
243.064	68.31
243.298	68.31
243.531	74.31
243.765	84.31
243.998	78.31
244.232	82.31
244.465	65.31
244.699	80.31
244.932	83.31
245.166	88.31
245.399	78.31
245.633	77.31
245.866	86.31
246.099	73.31
246.333	74.31
246.566	84.31
246.8	78.31
247.033	77.31
247.266	84.31
247.5	81.31
247.733	82.31
247.966	84.31
248.2	89.31
248.433	77.31
248.666	87.31
248.899	74.31
249.133	76.31
249.366	83.31
249.599	87.31
249.832	92.31
250.066	77.31
250.299	95.31
250.532	79.31
250.765	89.31
250.998	87.31
251.231	71.31
251.465	76.31
251.698	79.31
251.931	84.31
252.164	79.31
252.397	83.31
252.63	87.31
252.863	84.31
253.096	89.31
253.329	89.31
253.562	80.31
253.795	80.31
254.028	85.31
254.261	81.31
254.494	75.31
254.727	88.31
254.96	92.31
255.193	79.31
255.426	85.31
255.659	84.31
255.892	90.31
256.124	86.31
256.357	78.31
256.59	100.31
256.823	85.31
257.056	80.31
257.289	83.31
257.521	83.31
257.754	73.31
257.987	79.31
258.22	96.31
258.452	85.31
258.685	89.31
258.918	77.31
259.151	87.31
259.383	90.31
259.616	95.31
259.849	74.31
260.081	92.31
260.314	86.31
260.547	83.31
260.779	84.31
261.012	85.31
261.244	95.31
261.477	98.31
261.71	90.31
261.942	88.31
262.175	98.31
262.407	84.31
262.64	60.31
262.872	87.31
263.105	92.31
263.337	73.31
263.57	93.31
263.802	75.31
264.035	80.31
264.267	83.31
264.499	82.31
264.732	92.31
264.964	92.31
265.197	82.31
265.429	81.31
265.661	89.31
265.894	74.31
266.126	80.31
266.358	74.31
266.591	73.31
266.823	86.31
267.055	81.31
267.287	78.31
267.52	77.31
267.752	79.31
267.984	95.31
268.216	78.31
268.448	99.31
268.681	84.31
268.913	82.31
269.145	83.31
269.377	85.31
269.609	84.31
269.841	80.31
270.073	86.31
270.306	105.31
270.538	76.31
270.77	78.31
271.002	84.31
271.234	92.31
271.466	74.31
271.698	81.31
271.93	79.31
272.162	90.31
272.394	76.31
272.626	74.31
272.858	74.31
273.09	91.31
273.322	70.31
273.553	94.31
273.785	82.31
274.017	97.31
274.249	91.31
274.481	83.31
274.713	94.31
274.945	84.31
275.176	87.31
275.408	100.31
275.64	90.31
275.872	88.31
276.104	89.31
276.335	89.31
276.567	86.31
276.799	85.31
277.031	73.31
277.262	91.31
277.494	99.31
277.726	79.31
277.957	84.31
278.189	79.31
278.421	71.31
278.652	87.31
278.884	89.31
279.115	79.31
279.347	89.31
279.579	90.31
279.81	86.31
280.042	69.31
280.273	92.31
280.505	73.31
280.736	80.31
280.968	89.31
281.199	78.31
281.431	80.31
281.662	69.31
281.894	83.31
282.125	74.31
282.356	75.31
282.588	69.31
282.819	71.31
283.051	71.31
283.282	82.31
283.513	85.31
283.745	80.31
283.976	89.31
284.207	80.31
284.439	83.31
284.67	89.31
284.901	78.31
285.132	93.31
285.364	90.31
285.595	87.31
285.826	82.31
286.057	86.31
286.288	76.31
286.52	77.31
286.751	84.31
286.982	94.31
287.213	95.31
287.444	78.31
287.675	100.31
287.906	92.31
288.138	91.31
288.369	99.31
288.6	81.31
288.831	83.31
289.062	84.31
289.293	89.31
289.524	83.31
289.755	78.31
289.986	84.31
290.217	92.31
290.448	71.31
290.679	81.31
290.91	87.31
291.141	100.31
291.371	88.31
291.602	81.31
291.833	95.31
292.064	74.31
292.295	74.31
292.526	87.31
292.757	92.31
292.987	88.31
293.218	76.31
293.449	90.31
293.68	91.31
293.91	81.31
294.141	94.31
294.372	92.31
294.603	86.31
294.833	79.31
295.064	80.31
295.295	83.31
295.525	78.31
295.756	82.31
295.987	87.31
296.217	81.31
296.448	89.31
296.679	82.31
296.909	75.31
297.14	87.31
297.37	91.31
297.601	87.31
297.831	88.31
298.062	89.31
298.292	75.31
298.523	90.31
298.753	77.31
298.984	80.31
299.214	79.31
299.445	105.31
299.675	86.31
299.905	90.31
300.136	98.31
300.366	91.31
300.597	89.31
300.827	100.31
301.057	98.31
301.288	86.31
301.518	93.31
301.748	97.31
301.979	93.31
302.209	61.31
302.439	96.31
302.669	83.31
302.9	106.31
303.13	99.31
303.36	81.31
303.59	77.31
303.82	82.31
304.051	90.31
304.281	84.31
304.511	88.31
304.741	94.31
304.971	87.31
305.201	99.31
305.431	93.31
305.661	79.31
305.891	100.31
306.121	94.31
306.352	65.31
306.582	94.31
306.812	93.31
307.042	91.31
307.272	84.31
307.502	85.31
307.731	82.31
307.961	93.31
308.191	75.31
308.421	77.31
308.651	92.31
308.881	87.31
309.111	79.31
309.341	78.31
309.571	83.31
309.8	89.31
310.03	93.31
310.26	89.31
310.49	89.31
310.72	74.31
310.949	94.31
311.179	81.31
311.409	90.31
311.639	82.31
311.868	92.31
312.098	103.31
312.328	96.31
312.557	94.31
312.787	81.31
313.017	92.31
313.246	86.31
313.476	97.31
313.706	86.31
313.935	88.31
314.165	91.31
314.394	92.31
314.624	89.31
314.853	83.31
315.083	96.31
315.312	90.31
315.542	84.31
315.771	77.31
316.001	88.31
316.23	97.31
316.46	93.31
316.689	79.31
316.919	89.31
317.148	79.31
317.377	86.31
317.607	95.31
317.836	95.31
318.065	74.31
318.295	91.31
318.524	88.31
318.753	89.31
318.983	91.31
319.212	93.31
319.441	82.31
319.67	82.31
319.9	90.31
320.129	85.31
320.358	70.31
320.587	98.31
320.816	81.31
321.046	84.31
321.275	88.31
321.504	82.31
321.733	95.31
321.962	90.31
322.191	58.31
322.42	82.31
322.649	86.31
322.878	83.31
323.108	97.31
323.337	106.31
323.566	94.31
323.795	81.31
324.024	101.31
324.253	84.31
324.482	93.31
324.71	86.31
324.939	84.31
325.168	78.31
325.397	90.31
325.626	84.31
325.855	93.31
326.084	89.31
326.313	83.31
326.542	105.31
326.77	94.31
326.999	77.31
327.228	90.31
327.457	91.31
327.686	85.31
327.914	94.31
328.143	93.31
328.372	90.31
328.6	81.31
328.829	80.31
329.058	111.31
329.287	72.31
329.515	103.31
329.744	82.31
329.972	100.31
330.201	81.31
330.43	84.31
330.658	98.31
330.887	93.31
331.115	89.31
331.344	80.31
331.572	89.31
331.801	79.31
332.03	92.31
332.258	83.31
332.486	81.31
332.715	81.31
332.943	96.31
333.172	88.31
333.4	77.31
333.629	71.31
333.857	91.31
334.085	73.31
334.314	87.31
334.542	89.31
334.771	94.31
334.999	91.31
335.227	79.31
335.455	90.31
335.684	82.31
335.912	95.31
336.14	82.31
336.369	71.31
336.597	87.31
336.825	84.31
337.053	104.31
337.281	91.31
337.51	87.31
337.738	77.31
337.966	85.31
338.194	76.31
338.422	90.31
338.65	97.31
338.878	99.31
339.106	94.31
339.334	86.31
339.562	100.31
339.79	98.31
340.018	80.31
340.246	94.31
340.474	86.31
340.702	89.31
340.93	95.31
341.158	76.31
341.386	95.31
341.614	82.31
341.842	85.31
342.07	87.31
342.298	100.31
342.526	95.31
342.754	94.31
342.981	77.31
343.209	82.31
343.437	85.31
343.665	82.31
343.893	82.31
344.12	89.31
344.348	92.31
344.576	85.31
344.804	88.31
345.031	88.31
345.259	85.31
345.487	88.31
345.714	81.31
345.942	69.31
346.17	90.31
346.397	85.31
346.625	82.31
346.853	83.31
347.08	85.31
347.308	82.31
347.535	85.31
347.763	79.31
347.99	86.31
348.218	89.31
348.445	76.31
348.673	92.31
348.9	93.31
349.128	105.31
349.355	84.31
349.583	80.31
349.81	90.31
350.037	91.31
350.265	85.31
350.492	88.31
350.72	88.31
350.947	69.31
351.174	83.31
351.402	92.31
351.629	85.31
351.856	78.31
352.083	78.31
352.311	85.31
352.538	76.31
352.765	80.31
352.992	80.31
353.22	86.31
353.447	91.31
353.674	87.31
353.901	100.31
354.128	81.31
354.355	69.31
354.583	83.31
354.81	82.31
355.037	82.31
355.264	102.31
355.491	93.31
355.718	82.31
355.945	107.31
356.172	88.31
356.399	79.31
356.626	78.31
356.853	84.31
357.08	91.31
357.307	87.31
357.534	80.31
357.761	78.31
357.988	92.31
358.215	92.31
358.441	78.31
358.668	88.31
358.895	77.31
359.122	88.31
359.349	81.31
359.576	93.31
359.802	98.31
360.029	90.31
360.256	84.31
360.483	84.31
360.709	86.31
360.936	102.31
361.163	98.31
361.39	77.31
361.616	85.31
361.843	87.31
362.07	92.31
362.296	77.31
362.523	76.31
362.749	60.31
362.976	76.31
363.203	83.31
363.429	93.31
363.656	92.31
363.882	75.31
364.109	91.31
364.335	84.31
364.562	97.31
364.788	89.31
365.015	94.31
365.241	97.31
365.468	92.31
365.694	78.31
365.92	102.31
366.147	83.31
366.373	85.31
366.599	82.31
366.826	87.31
367.052	95.31
367.278	102.31
367.505	86.31
367.731	91.31
367.957	99.31
368.184	94.31
368.41	88.31
368.636	89.31
368.862	86.31
369.089	89.31
369.315	90.31
369.541	88.31
369.767	85.31
369.993	92.31
370.219	85.31
370.445	86.31
370.672	82.31
370.898	93.31
371.124	92.31
371.35	84.31
371.576	86.31
371.802	91.31
372.028	78.31
372.254	87.31
372.48	98.31
372.706	88.31
372.932	98.31
373.158	86.31
373.384	108.31
373.61	94.31
373.835	83.31
374.061	90.31
374.287	87.31
374.513	87.31
374.739	109.31
374.965	81.31
375.191	75.31
375.416	99.31
375.642	90.31
375.868	99.31
376.094	71.31
376.319	86.31
376.545	92.31
376.771	79.31
376.997	82.31
377.222	83.31
377.448	91.31
377.674	106.31
377.899	79.31
378.125	79.31
378.35	91.31
378.576	88.31
378.802	87.31
379.027	99.31
379.253	91.31
379.478	81.31
379.704	86.31
379.929	89.31
380.155	85.31
380.38	84.31
380.606	82.31
380.831	93.31
381.057	85.31
381.282	95.31
381.507	92.31
381.733	92.31
381.958	94.31
382.184	84.31
382.409	89.31
382.634	102.31
382.86	84.31
383.085	88.31
383.31	79.31
383.535	79.31
383.761	74.31
383.986	90.31
384.211	94.31
384.436	79.31
384.662	86.31
384.887	70.31
385.112	85.31
385.337	90.31
385.562	84.31
385.787	93.31
386.013	78.31
386.238	70.31
386.463	79.31
386.688	85.31
386.913	87.31
387.138	87.31
387.363	87.31
387.588	81.31
387.813	90.31
388.038	90.31
388.263	77.31
388.488	93.31
388.713	93.31
388.938	82.31
389.163	84.31
389.387	94.31
389.612	93.31
389.837	82.31
390.062	85.31
390.287	83.31
390.512	96.31
390.736	97.31
390.961	91.31
391.186	98.31
391.411	94.31
391.636	92.31
391.86	82.31
392.085	100.31
392.31	78.31
392.534	86.31
392.759	105.31
392.984	95.31
393.208	87.31
393.433	74.31
393.658	98.31
393.882	91.31
394.107	83.31
394.331	90.31
394.556	102.31
394.78	100.31
395.005	90.31
395.229	95.31
395.454	87.31
395.678	86.31
395.903	83.31
396.127	97.31
396.352	86.31
396.576	89.31
396.801	90.31
397.025	92.31
397.249	97.31
397.474	91.31
397.698	104.31
397.922	87.31
398.147	86.31
398.371	87.31
398.595	75.31
398.82	105.31
399.044	77.31
399.268	97.31
399.492	95.31
399.717	93.31
399.941	87.31
400.165	91.31
400.389	90.31
400.613	90.31
400.837	99.31
401.062	84.31
401.286	84.31
401.51	91.31
401.734	83.31
401.958	81.31
402.182	103.31
402.406	98.31
402.63	88.31
402.854	77.31
403.078	109.31
403.302	94.31
403.526	98.31
403.75	91.31
403.974	86.31
404.198	94.31
404.422	101.31
404.645	92.31
404.869	94.31
405.093	86.31
405.317	99.31
405.541	92.31
405.765	111.31
405.988	98.31
406.212	95.31
406.436	91.31
406.66	91.31
406.883	91.31
407.107	99.31
407.331	94.31
407.555	90.31
407.778	103.31
408.002	109.31
408.226	97.31
408.449	98.31
408.673	92.31
408.896	103.31
409.12	90.31
409.344	93.31
409.567	93.31
409.791	75.31
410.014	110.31
410.238	101.31
410.461	91.31
410.685	86.31
410.908	91.31
411.132	97.31
411.355	90.31
411.578	96.31
411.802	100.31
412.025	90.31
412.249	81.31
412.472	98.31
412.695	102.31
412.919	93.31
413.142	91.31
413.365	86.31
413.589	90.31
413.812	87.31
414.035	90.31
414.258	91.31
414.482	96.31
414.705	102.31
414.928	101.31
415.151	88.31
415.374	101.31
415.597	81.31
415.821	97.31
416.044	98.31
416.267	78.31
416.49	98.31
416.713	106.31
416.936	95.31
417.159	85.31
417.382	101.31
417.605	88.31
417.828	106.31
418.051	94.31
418.274	74.31
418.497	94.31
418.72	95.31
418.943	102.31
419.166	101.31
419.389	93.31
419.611	94.31
419.834	97.31
420.057	95.31
420.28	91.31
420.503	104.31
420.726	83.31
420.948	90.31
421.171	86.31
421.394	101.31
421.617	107.31
421.839	100.31
422.062	91.31
422.285	102.31
422.507	97.31
422.73	98.31
422.953	84.31
423.175	93.31
423.398	93.31
423.621	97.31
423.843	94.31
424.066	89.31
424.288	105.31
424.511	99.31
424.733	94.31
424.956	108.31
425.178	88.31
425.401	92.31
425.623	88.31
425.846	90.31
426.068	112.31
426.291	99.31
426.513	84.31
426.735	92.31
426.958	112.31
427.18	105.31
427.402	87.31
427.625	95.31
427.847	95.31
428.069	111.31
428.292	101.31
428.514	95.31
428.736	97.31
428.958	88.31
429.181	108.31
429.403	82.31
429.625	100.31
429.847	95.31
430.069	86.31
430.292	89.31
430.514	96.31
430.736	93.31
430.958	94.31
431.18	88.31
431.402	95.31
431.624	95.31
431.846	96.31
432.068	84.31
432.29	96.31
432.512	97.31
432.734	90.31
432.956	101.31
433.178	121.31
433.4	109.31
433.622	84.31
433.844	99.31
434.066	108.31
434.287	86.31
434.509	78.31
434.731	95.31
434.953	93.31
435.175	115.31
435.397	79.31
435.618	85.31
435.84	100.31
436.062	95.31
436.284	95.31
436.505	101.31
436.727	101.31
436.949	99.31
437.17	109.31
437.392	106.31
437.614	98.31
437.835	93.31
438.057	96.31
438.278	85.31
438.5	91.31
438.721	95.31
438.943	104.31
439.165	104.31
439.386	92.31
439.608	110.31
439.829	106.31
440.05	95.31
440.272	102.31
440.493	108.31
440.715	108.31
440.936	100.31
441.158	100.31
441.379	104.31
441.6	99.31
441.822	95.31
442.043	98.31
442.264	99.31
442.486	109.31
442.707	91.31
442.928	95.31
443.149	100.31
443.371	103.31
443.592	83.31
443.813	94.31
444.034	100.31
444.255	109.31
444.476	106.31
444.698	91.31
444.919	97.31
445.14	188.31
445.361	124.31
445.582	98.31
445.803	96.31
446.024	102.31
446.245	82.31
446.466	108.31
446.687	103.31
446.908	109.31
447.129	99.31
447.35	92.31
447.571	94.31
447.792	95.31
448.013	109.31
448.234	108.31
448.455	106.31
448.675	93.31
448.896	91.31
449.117	111.31
449.338	100.31
449.559	113.31
449.779	111.31
450	90.31
450.221	106.31
450.442	84.31
450.662	103.31
450.883	94.31
451.104	99.31
451.324	96.31
451.545	108.31
451.766	103.31
451.986	120.31
452.207	113.31
452.428	92.31
452.648	104.31
452.869	103.31
453.089	106.31
453.31	96.31
453.53	102.31
453.751	93.31
453.971	85.31
454.192	82.31
454.412	99.31
454.633	87.31
454.853	99.31
455.073	85.31
455.294	92.31
455.514	105.31
455.734	90.31
455.955	91.31
456.175	87.31
456.395	84.31
456.616	93.31
456.836	96.31
457.056	102.31
457.276	81.31
457.497	94.31
457.717	96.31
457.937	91.31
458.157	72.31
458.377	98.31
458.598	87.31
458.818	85.31
459.038	84.31
459.258	77.31
459.478	95.31
459.698	78.31
459.918	76.31
460.138	77.31
460.358	79.31
460.578	89.31
460.798	100.31
461.018	97.31
461.238	105.31
461.458	87.31
461.678	91.31
461.898	94.31
462.118	97.31
462.338	94.31
462.558	90.31
462.777	94.31
462.997	75.31
463.217	92.31
463.437	102.31
463.657	99.31
463.876	100.31
464.096	79.31
464.316	86.31
464.536	87.31
464.755	92.31
464.975	89.31
465.195	98.31
465.414	88.31
465.634	89.31
465.854	112.31
466.073	77.31
466.293	89.31
466.512	92.31
466.732	98.31
466.951	86.31
467.171	96.31
467.391	107.31
467.61	93.31
467.829	106.31
468.049	97.31
468.268	90.31
468.488	99.31
468.707	99.31
468.927	97.31
469.146	81.31
469.365	99.31
469.585	100.31
469.804	99.31
470.023	104.31
470.243	89.31
470.462	87.31
470.681	103.31
470.901	113.31
471.12	91.31
471.339	88.31
471.558	106.31
471.777	95.31
471.997	98.31
472.216	90.31
472.435	106.31
472.654	93.31
472.873	83.31
473.092	100.31
473.311	110.31
473.53	97.31
473.749	102.31
473.968	105.31
474.187	90.31
474.406	115.31
474.625	113.31
474.844	89.31
475.063	97.31
475.282	99.31
475.501	96.31
475.72	108.31
475.939	99.31
476.158	110.31
476.377	101.31
476.596	83.31
476.814	84.31
477.033	97.31
477.252	95.31
477.471	94.31
477.69	102.31
477.908	102.31
478.127	99.31
478.346	99.31
478.564	98.31
478.783	101.31
479.002	97.31
479.22	90.31
479.439	106.31
479.658	95.31
479.876	97.31
480.095	75.31
480.313	89.31
480.532	87.31
480.751	107.31
480.969	76.31
481.188	83.31
481.406	89.31
481.624	85.31
481.843	92.31
482.061	92.31
482.28	89.31
482.498	87.31
482.717	108.31
482.935	90.31
483.153	93.31
483.372	97.31
483.59	121.31
483.808	104.31
484.027	93.31
484.245	90.31
484.463	105.31
484.681	125.31
484.9	123.31
485.118	100.31
485.336	96.31
485.554	86.31
485.772	94.31
485.99	76.31
486.209	93.31
486.427	90.31
486.645	92.31
486.863	109.31
487.081	101.31
487.299	97.31
487.517	101.31
487.735	118.31
487.953	125.31
488.171	120.31
488.389	118.31
488.607	102.31
488.825	94.31
489.043	91.31
489.261	92.31
489.479	106.31
489.696	107.31
489.914	101.31
490.132	104.31
490.35	110.31
490.568	109.31
490.786	119.31
491.003	116.31
491.221	118.31
491.439	118.31
491.657	114.31
491.874	129.31
492.092	110.31
492.31	123.31
492.527	117.31
492.745	117.31
492.963	122.31
493.18	109.31
493.398	105.31
493.615	113.31
493.833	101.31
494.05	117.31
494.268	117.31
494.485	122.31
494.703	116.31
494.92	109.31
495.138	113.31
495.355	113.31
495.573	103.31
495.79	93.31
496.008	119.31
496.225	114.31
496.442	119.31
496.66	113.31
496.877	108.31
497.094	117.31
497.312	107.31
497.529	100.31
497.746	92.31
497.963	101.31
498.181	107.31
498.398	93.31
498.615	82.31
498.832	82.31
499.049	94.31
499.267	97.31
499.484	94.31
499.701	103.31
499.918	107.31
500.135	105.31
500.352	111.31
500.569	96.31
500.786	93.31
501.003	108.31
501.22	104.31
501.437	109.31
501.654	90.31
501.871	106.31
502.088	102.31
502.305	110.31
502.522	85.31
502.739	113.31
502.956	96.31
503.172	83.31
503.389	92.31
503.606	92.31
503.823	98.31
504.04	95.31
504.256	100.31
504.473	97.31
504.69	97.31
504.907	90.31
505.123	92.31
505.34	94.31
505.557	78.31
505.773	95.31
505.99	109.31
506.207	94.31
506.423	85.31
506.64	99.31
506.856	93.31
507.073	103.31
507.289	97.31
507.506	91.31
507.722	99.31
507.939	85.31
508.155	85.31
508.372	93.31
508.588	86.31
508.805	98.31
509.021	92.31
509.238	84.31
509.454	102.31
509.67	91.31
509.887	83.31
510.103	97.31
510.319	107.31
510.536	88.31
510.752	91.31
510.968	84.31
511.184	70.31
511.401	92.31
511.617	94.31
511.833	87.31
512.049	95.31
512.265	87.31
512.481	97.31
512.698	90.31
512.914	80.31
513.13	95.31
513.346	87.31
513.562	85.31
513.778	97.31
513.994	90.31
514.21	83.31
514.426	85.31
514.642	85.31
514.858	94.31
515.074	84.31
515.29	88.31
515.506	91.31
515.721	89.31
515.937	93.31
516.153	91.31
516.369	101.31
