Data from Location4.07152019.Energy5.Lamp.07192019.3%Agarose_HRD10591_15-24-58-577.txt Node
Date: Fri Jul 19 15:24:58 EDT 2019
User: cochatt
Spectrometer: HR+D1059
Trigger mode: 1
Integration Time (sec): 1.000000E-1
Scans to average: 1
Electric dark correction enabled: true
Nonlinearity correction enabled: false
Boxcar width: 0
XAxis mode: Wavelengths
Number of Pixels in Spectrum: 2048
>>>>>Begin Spectral Data<<<<<
223.165	-18.06
223.4	-18.06
223.635	-18.06
223.869	-22.06
224.104	-19.06
224.338	-3.06
224.573	-12.06
224.808	-6.06
225.042	-12.06
225.277	-5.06
225.511	11.94
225.746	0.94
225.98	5.94
226.215	4.94
226.449	10.94
226.683	21.94
226.918	19.94
227.152	20.94
227.387	14.94
227.621	31.94
227.856	49.94
228.09	36.94
228.324	50.94
228.559	54.94
228.793	55.94
229.027	74.94
229.262	67.94
229.496	83.94
229.73	72.94
229.964	59.94
230.199	80.94
230.433	75.94
230.667	60.94
230.901	75.94
231.136	77.94
231.37	84.94
231.604	74.94
231.838	76.94
232.072	72.94
232.306	83.94
232.541	87.94
232.775	82.94
233.009	79.94
233.243	72.94
233.477	83.94
233.711	73.94
233.945	71.94
234.179	94.94
234.413	87.94
234.647	76.94
234.881	84.94
235.115	85.94
235.349	92.94
235.583	91.94
235.817	78.94
236.051	77.94
236.285	78.94
236.519	87.94
236.753	80.94
236.987	93.94
237.221	64.94
237.455	83.94
237.689	66.94
237.922	87.94
238.156	73.94
238.39	81.94
238.624	74.94
238.858	84.94
239.091	85.94
239.325	87.94
239.559	91.94
239.793	70.94
240.027	76.94
240.26	81.94
240.494	69.94
240.728	58.94
240.961	77.94
241.195	80.94
241.429	78.94
241.662	81.94
241.896	71.94
242.13	76.94
242.363	80.94
242.597	74.94
242.83	81.94
243.064	79.94
243.298	79.94
243.531	79.94
243.765	83.94
243.998	85.94
244.232	84.94
244.465	69.94
244.699	63.94
244.932	63.94
245.166	78.94
245.399	73.94
245.633	82.94
245.866	93.94
246.099	71.94
246.333	90.94
246.566	72.94
246.8	80.94
247.033	74.94
247.266	83.94
247.5	77.94
247.733	84.94
247.966	83.94
248.2	91.94
248.433	70.94
248.666	89.94
248.899	99.94
249.133	73.94
249.366	82.94
249.599	86.94
249.832	86.94
250.066	71.94
250.299	67.94
250.532	71.94
250.765	81.94
250.998	83.94
251.231	78.94
251.465	65.94
251.698	83.94
251.931	80.94
252.164	89.94
252.397	88.94
252.63	92.94
252.863	88.94
253.096	85.94
253.329	83.94
253.562	95.94
253.795	83.94
254.028	76.94
254.261	85.94
254.494	82.94
254.727	103.94
254.96	82.94
255.193	78.94
255.426	77.94
255.659	66.94
255.892	71.94
256.124	76.94
256.357	90.94
256.59	85.94
256.823	74.94
257.056	80.94
257.289	84.94
257.521	76.94
257.754	83.94
257.987	77.94
258.22	82.94
258.452	75.94
258.685	88.94
258.918	87.94
259.151	96.94
259.383	83.94
259.616	79.94
259.849	85.94
260.081	84.94
260.314	82.94
260.547	81.94
260.779	97.94
261.012	85.94
261.244	87.94
261.477	85.94
261.71	61.94
261.942	93.94
262.175	82.94
262.407	86.94
262.64	78.94
262.872	89.94
263.105	87.94
263.337	100.94
263.57	92.94
263.802	86.94
264.035	75.94
264.267	85.94
264.499	72.94
264.732	78.94
264.964	89.94
265.197	81.94
265.429	83.94
265.661	69.94
265.894	81.94
266.126	86.94
266.358	89.94
266.591	80.94
266.823	89.94
267.055	84.94
267.287	87.94
267.52	70.94
267.752	79.94
267.984	101.94
268.216	74.94
268.448	91.94
268.681	95.94
268.913	83.94
269.145	95.94
269.377	84.94
269.609	82.94
269.841	83.94
270.073	75.94
270.306	95.94
270.538	80.94
270.77	80.94
271.002	76.94
271.234	86.94
271.466	83.94
271.698	85.94
271.93	99.94
272.162	82.94
272.394	98.94
272.626	76.94
272.858	78.94
273.09	83.94
273.322	96.94
273.553	71.94
273.785	92.94
274.017	77.94
274.249	81.94
274.481	89.94
274.713	87.94
274.945	87.94
275.176	95.94
275.408	96.94
275.64	91.94
275.872	85.94
276.104	89.94
276.335	82.94
276.567	72.94
276.799	77.94
277.031	82.94
277.262	84.94
277.494	92.94
277.726	78.94
277.957	71.94
278.189	84.94
278.421	67.94
278.652	92.94
278.884	92.94
279.115	86.94
279.347	79.94
279.579	87.94
279.81	85.94
280.042	86.94
280.273	92.94
280.505	73.94
280.736	84.94
280.968	82.94
281.199	75.94
281.431	80.94
281.662	99.94
281.894	77.94
282.125	79.94
282.356	77.94
282.588	89.94
282.819	89.94
283.051	82.94
283.282	79.94
283.513	97.94
283.745	81.94
283.976	90.94
284.207	80.94
284.439	85.94
284.67	87.94
284.901	86.94
285.132	101.94
285.364	96.94
285.595	82.94
285.826	93.94
286.057	83.94
286.288	99.94
286.52	74.94
286.751	82.94
286.982	73.94
287.213	95.94
287.444	88.94
287.675	91.94
287.906	90.94
288.138	92.94
288.369	83.94
288.6	83.94
288.831	77.94
289.062	89.94
289.293	70.94
289.524	91.94
289.755	83.94
289.986	93.94
290.217	82.94
290.448	83.94
290.679	85.94
290.91	96.94
291.141	87.94
291.371	85.94
291.602	78.94
291.833	83.94
292.064	87.94
292.295	80.94
292.526	73.94
292.757	84.94
292.987	82.94
293.218	84.94
293.449	88.94
293.68	88.94
293.91	81.94
294.141	92.94
294.372	90.94
294.603	96.94
294.833	75.94
295.064	75.94
295.295	86.94
295.525	81.94
295.756	79.94
295.987	66.94
296.217	75.94
296.448	75.94
296.679	83.94
296.909	82.94
297.14	76.94
297.37	98.94
297.601	80.94
297.831	83.94
298.062	84.94
298.292	89.94
298.523	93.94
298.753	104.94
298.984	77.94
299.214	81.94
299.445	84.94
299.675	80.94
299.905	85.94
300.136	83.94
300.366	95.94
300.597	96.94
300.827	76.94
301.057	84.94
301.288	83.94
301.518	88.94
301.748	76.94
301.979	71.94
302.209	78.94
302.439	84.94
302.669	95.94
302.9	85.94
303.13	75.94
303.36	87.94
303.59	83.94
303.82	106.94
304.051	106.94
304.281	82.94
304.511	81.94
304.741	80.94
304.971	97.94
305.201	81.94
305.431	99.94
305.661	84.94
305.891	88.94
306.121	87.94
306.352	87.94
306.582	92.94
306.812	86.94
307.042	86.94
307.272	80.94
307.502	86.94
307.731	84.94
307.961	83.94
308.191	76.94
308.421	89.94
308.651	83.94
308.881	91.94
309.111	98.94
309.341	100.94
309.571	78.94
309.8	89.94
310.03	101.94
310.26	93.94
310.49	91.94
310.72	85.94
310.949	91.94
311.179	86.94
311.409	75.94
311.639	87.94
311.868	91.94
312.098	93.94
312.328	91.94
312.557	90.94
312.787	92.94
313.017	82.94
313.246	81.94
313.476	83.94
313.706	90.94
313.935	89.94
314.165	79.94
314.394	84.94
314.624	95.94
314.853	91.94
315.083	85.94
315.312	93.94
315.542	77.94
315.771	82.94
316.001	77.94
316.23	83.94
316.46	80.94
316.689	89.94
316.919	98.94
317.148	100.94
317.377	84.94
317.607	86.94
317.836	89.94
318.065	91.94
318.295	89.94
318.524	96.94
318.753	76.94
318.983	90.94
319.212	96.94
319.441	76.94
319.67	96.94
319.9	75.94
320.129	92.94
320.358	83.94
320.587	82.94
320.816	89.94
321.046	92.94
321.275	77.94
321.504	72.94
321.733	92.94
321.962	88.94
322.191	96.94
322.42	88.94
322.649	76.94
322.878	86.94
323.108	107.94
323.337	93.94
323.566	93.94
323.795	75.94
324.024	75.94
324.253	97.94
324.482	80.94
324.71	79.94
324.939	85.94
325.168	88.94
325.397	83.94
325.626	99.94
325.855	81.94
326.084	82.94
326.313	101.94
326.542	97.94
326.77	77.94
326.999	91.94
327.228	88.94
327.457	93.94
327.686	103.94
327.914	76.94
328.143	84.94
328.372	72.94
328.6	83.94
328.829	96.94
329.058	84.94
329.287	74.94
329.515	89.94
329.744	94.94
329.972	83.94
330.201	82.94
330.43	86.94
330.658	77.94
330.887	80.94
331.115	83.94
331.344	81.94
331.572	85.94
331.801	101.94
332.03	95.94
332.258	96.94
332.486	85.94
332.715	95.94
332.943	94.94
333.172	93.94
333.4	94.94
333.629	104.94
333.857	77.94
334.085	82.94
334.314	88.94
334.542	79.94
334.771	101.94
334.999	80.94
335.227	81.94
335.455	87.94
335.684	92.94
335.912	87.94
336.14	90.94
336.369	84.94
336.597	91.94
336.825	91.94
337.053	86.94
337.281	100.94
337.51	88.94
337.738	98.94
337.966	73.94
338.194	68.94
338.422	75.94
338.65	93.94
338.878	96.94
339.106	103.94
339.334	98.94
339.562	94.94
339.79	80.94
340.018	85.94
340.246	86.94
340.474	82.94
340.702	90.94
340.93	88.94
341.158	83.94
341.386	101.94
341.614	82.94
341.842	82.94
342.07	75.94
342.298	94.94
342.526	75.94
342.754	91.94
342.981	90.94
343.209	95.94
343.437	88.94
343.665	93.94
343.893	95.94
344.12	77.94
344.348	92.94
344.576	96.94
344.804	91.94
345.031	76.94
345.259	75.94
345.487	87.94
345.714	95.94
345.942	81.94
346.17	73.94
346.397	85.94
346.625	63.94
346.853	99.94
347.08	86.94
347.308	92.94
347.535	69.94
347.763	100.94
347.99	84.94
348.218	82.94
348.445	72.94
348.673	79.94
348.9	89.94
349.128	98.94
349.355	88.94
349.583	79.94
349.81	84.94
350.037	84.94
350.265	84.94
350.492	96.94
350.72	99.94
350.947	85.94
351.174	83.94
351.402	87.94
351.629	81.94
351.856	72.94
352.083	78.94
352.311	80.94
352.538	91.94
352.765	84.94
352.992	83.94
353.22	73.94
353.447	85.94
353.674	98.94
353.901	103.94
354.128	76.94
354.355	97.94
354.583	91.94
354.81	96.94
355.037	99.94
355.264	79.94
355.491	79.94
355.718	80.94
355.945	80.94
356.172	75.94
356.399	77.94
356.626	83.94
356.853	84.94
357.08	92.94
357.307	91.94
357.534	91.94
357.761	85.94
357.988	86.94
358.215	87.94
358.441	85.94
358.668	87.94
358.895	84.94
359.122	86.94
359.349	93.94
359.576	87.94
359.802	80.94
360.029	99.94
360.256	91.94
360.483	86.94
360.709	82.94
360.936	92.94
361.163	81.94
361.39	81.94
361.616	96.94
361.843	92.94
362.07	81.94
362.296	86.94
362.523	90.94
362.749	82.94
362.976	88.94
363.203	93.94
363.429	88.94
363.656	74.94
363.882	81.94
364.109	87.94
364.335	80.94
364.562	71.94
364.788	72.94
365.015	76.94
365.241	70.94
365.468	88.94
365.694	81.94
365.92	88.94
366.147	102.94
366.373	99.94
366.599	85.94
366.826	87.94
367.052	88.94
367.278	83.94
367.505	72.94
367.731	65.94
367.957	80.94
368.184	88.94
368.41	80.94
368.636	84.94
368.862	93.94
369.089	75.94
369.315	73.94
369.541	91.94
369.767	76.94
369.993	92.94
370.219	90.94
370.445	83.94
370.672	74.94
370.898	72.94
371.124	83.94
371.35	81.94
371.576	99.94
371.802	78.94
372.028	81.94
372.254	85.94
372.48	87.94
372.706	78.94
372.932	94.94
373.158	96.94
373.384	83.94
373.61	87.94
373.835	94.94
374.061	90.94
374.287	87.94
374.513	86.94
374.739	91.94
374.965	85.94
375.191	69.94
375.416	80.94
375.642	80.94
375.868	103.94
376.094	77.94
376.319	71.94
376.545	86.94
376.771	77.94
376.997	92.94
377.222	87.94
377.448	92.94
377.674	79.94
377.899	92.94
378.125	91.94
378.35	70.94
378.576	82.94
378.802	89.94
379.027	84.94
379.253	89.94
379.478	98.94
379.704	84.94
379.929	78.94
380.155	89.94
380.38	67.94
380.606	89.94
380.831	75.94
381.057	93.94
381.282	90.94
381.507	95.94
381.733	83.94
381.958	80.94
382.184	73.94
382.409	105.94
382.634	99.94
382.86	73.94
383.085	77.94
383.31	91.94
383.535	98.94
383.761	85.94
383.986	83.94
384.211	77.94
384.436	82.94
384.662	73.94
384.887	78.94
385.112	85.94
385.337	71.94
385.562	74.94
385.787	74.94
386.013	98.94
386.238	82.94
386.463	96.94
386.688	95.94
386.913	94.94
387.138	97.94
387.363	91.94
387.588	98.94
387.813	90.94
388.038	79.94
388.263	98.94
388.488	83.94
388.713	86.94
388.938	73.94
389.163	88.94
389.387	84.94
389.612	84.94
389.837	98.94
390.062	97.94
390.287	88.94
390.512	85.94
390.736	94.94
390.961	82.94
391.186	86.94
391.411	90.94
391.636	99.94
391.86	86.94
392.085	88.94
392.31	80.94
392.534	89.94
392.759	77.94
392.984	90.94
393.208	86.94
393.433	96.94
393.658	83.94
393.882	84.94
394.107	91.94
394.331	87.94
394.556	92.94
394.78	89.94
395.005	81.94
395.229	79.94
395.454	80.94
395.678	79.94
395.903	85.94
396.127	100.94
396.352	86.94
396.576	93.94
396.801	95.94
397.025	88.94
397.249	93.94
397.474	101.94
397.698	86.94
397.922	87.94
398.147	85.94
398.371	81.94
398.595	95.94
398.82	111.94
399.044	97.94
399.268	92.94
399.492	79.94
399.717	95.94
399.941	88.94
400.165	86.94
400.389	88.94
400.613	98.94
400.837	95.94
401.062	81.94
401.286	78.94
401.51	98.94
401.734	81.94
401.958	82.94
402.182	91.94
402.406	89.94
402.63	96.94
402.854	81.94
403.078	83.94
403.302	87.94
403.526	81.94
403.75	76.94
403.974	76.94
404.198	99.94
404.422	103.94
404.645	80.94
404.869	84.94
405.093	85.94
405.317	83.94
405.541	94.94
405.765	93.94
405.988	89.94
406.212	97.94
406.436	91.94
406.66	100.94
406.883	109.94
407.107	92.94
407.331	89.94
407.555	94.94
407.778	85.94
408.002	93.94
408.226	84.94
408.449	86.94
408.673	76.94
408.896	86.94
409.12	79.94
409.344	92.94
409.567	94.94
409.791	83.94
410.014	97.94
410.238	109.94
410.461	103.94
410.685	108.94
410.908	96.94
411.132	98.94
411.355	97.94
411.578	107.94
411.802	87.94
412.025	97.94
412.249	77.94
412.472	78.94
412.695	96.94
412.919	101.94
413.142	93.94
413.365	113.94
413.589	93.94
413.812	90.94
414.035	99.94
414.258	81.94
414.482	83.94
414.705	101.94
414.928	90.94
415.151	85.94
415.374	88.94
415.597	90.94
415.821	97.94
416.044	89.94
416.267	95.94
416.49	83.94
416.713	98.94
416.936	90.94
417.159	94.94
417.382	88.94
417.605	88.94
417.828	98.94
418.051	93.94
418.274	87.94
418.497	77.94
418.72	105.94
418.943	104.94
419.166	86.94
419.389	104.94
419.611	90.94
419.834	90.94
420.057	92.94
420.28	92.94
420.503	80.94
420.726	94.94
420.948	105.94
421.171	97.94
421.394	93.94
421.617	97.94
421.839	96.94
422.062	119.94
422.285	109.94
422.507	98.94
422.73	88.94
422.953	104.94
423.175	99.94
423.398	92.94
423.621	81.94
423.843	100.94
424.066	106.94
424.288	113.94
424.511	100.94
424.733	99.94
424.956	97.94
425.178	90.94
425.401	99.94
425.623	94.94
425.846	90.94
426.068	78.94
426.291	105.94
426.513	98.94
426.735	99.94
426.958	96.94
427.18	105.94
427.402	91.94
427.625	85.94
427.847	92.94
428.069	108.94
428.292	93.94
428.514	96.94
428.736	97.94
428.958	92.94
429.181	97.94
429.403	95.94
429.625	97.94
429.847	76.94
430.069	88.94
430.292	92.94
430.514	90.94
430.736	94.94
430.958	116.94
431.18	95.94
431.402	103.94
431.624	84.94
431.846	86.94
432.068	81.94
432.29	79.94
432.512	83.94
432.734	83.94
432.956	101.94
433.178	105.94
433.4	95.94
433.622	90.94
433.844	95.94
434.066	103.94
434.287	87.94
434.509	78.94
434.731	89.94
434.953	98.94
435.175	100.94
435.397	105.94
435.618	82.94
435.84	85.94
436.062	92.94
436.284	97.94
436.505	95.94
436.727	91.94
436.949	90.94
437.17	83.94
437.392	92.94
437.614	91.94
437.835	81.94
438.057	88.94
438.278	113.94
438.5	95.94
438.721	105.94
438.943	98.94
439.165	103.94
439.386	99.94
439.608	97.94
439.829	104.94
440.05	108.94
440.272	98.94
440.493	95.94
440.715	106.94
440.936	91.94
441.158	103.94
441.379	101.94
441.6	107.94
441.822	99.94
442.043	114.94
442.264	95.94
442.486	107.94
442.707	102.94
442.928	96.94
443.149	104.94
443.371	104.94
443.592	82.94
443.813	89.94
444.034	81.94
444.255	100.94
444.476	89.94
444.698	111.94
444.919	100.94
445.14	201.94
445.361	133.94
445.582	105.94
445.803	95.94
446.024	92.94
446.245	107.94
446.466	102.94
446.687	98.94
446.908	87.94
447.129	105.94
447.35	119.94
447.571	101.94
447.792	104.94
448.013	107.94
448.234	90.94
448.455	109.94
448.675	93.94
448.896	102.94
449.117	102.94
449.338	103.94
449.559	92.94
449.779	95.94
450	103.94
450.221	93.94
450.442	91.94
450.662	102.94
450.883	102.94
451.104	107.94
451.324	95.94
451.545	98.94
451.766	98.94
451.986	108.94
452.207	93.94
452.428	90.94
452.648	107.94
452.869	99.94
453.089	90.94
453.31	99.94
453.53	85.94
453.751	77.94
453.971	89.94
454.192	91.94
454.412	72.94
454.633	92.94
454.853	89.94
455.073	93.94
455.294	94.94
455.514	85.94
455.734	93.94
455.955	86.94
456.175	81.94
456.395	90.94
456.616	91.94
456.836	92.94
457.056	91.94
457.276	102.94
457.497	90.94
457.717	73.94
457.937	104.94
458.157	84.94
458.377	71.94
458.598	94.94
458.818	77.94
459.038	93.94
459.258	82.94
459.478	90.94
459.698	71.94
459.918	93.94
460.138	74.94
460.358	90.94
460.578	87.94
460.798	91.94
461.018	105.94
461.238	104.94
461.458	94.94
461.678	83.94
461.898	89.94
462.118	81.94
462.338	86.94
462.558	76.94
462.777	81.94
462.997	95.94
463.217	105.94
463.437	99.94
463.657	82.94
463.876	87.94
464.096	96.94
464.316	92.94
464.536	89.94
464.755	84.94
464.975	88.94
465.195	91.94
465.414	84.94
465.634	81.94
465.854	90.94
466.073	89.94
466.293	88.94
466.512	92.94
466.732	94.94
466.951	87.94
467.171	88.94
467.391	88.94
467.61	88.94
467.829	102.94
468.049	105.94
468.268	98.94
468.488	96.94
468.707	94.94
468.927	90.94
469.146	98.94
469.365	111.94
469.585	98.94
469.804	91.94
470.023	99.94
470.243	107.94
470.462	105.94
470.681	107.94
470.901	102.94
471.12	96.94
471.339	97.94
471.558	87.94
471.777	107.94
471.997	103.94
472.216	86.94
472.435	94.94
472.654	97.94
472.873	90.94
473.092	80.94
473.311	89.94
473.53	94.94
473.749	95.94
473.968	88.94
474.187	95.94
474.406	93.94
474.625	105.94
474.844	82.94
475.063	97.94
475.282	114.94
475.501	95.94
475.72	93.94
475.939	89.94
476.158	95.94
476.377	91.94
476.596	86.94
476.814	78.94
477.033	98.94
477.252	102.94
477.471	102.94
477.69	85.94
477.908	98.94
478.127	91.94
478.346	92.94
478.564	88.94
478.783	94.94
479.002	93.94
479.22	113.94
479.439	118.94
479.658	100.94
479.876	104.94
480.095	84.94
480.313	83.94
480.532	98.94
480.751	101.94
480.969	94.94
481.188	78.94
481.406	91.94
481.624	87.94
481.843	92.94
482.061	89.94
482.28	87.94
482.498	98.94
482.717	98.94
482.935	96.94
483.153	107.94
483.372	102.94
483.59	99.94
483.808	92.94
484.027	84.94
484.245	84.94
484.463	86.94
484.681	113.94
484.9	84.94
485.118	90.94
485.336	105.94
485.554	92.94
485.772	89.94
485.99	106.94
486.209	97.94
486.427	87.94
486.645	97.94
486.863	101.94
487.081	99.94
487.299	92.94
487.517	76.94
487.735	88.94
487.953	126.94
488.171	119.94
488.389	100.94
488.607	101.94
488.825	92.94
489.043	97.94
489.261	115.94
489.479	101.94
489.696	103.94
489.914	100.94
490.132	100.94
490.35	105.94
490.568	108.94
490.786	88.94
491.003	99.94
491.221	101.94
491.439	118.94
491.657	113.94
491.874	117.94
492.092	129.94
492.31	133.94
492.527	120.94
492.745	107.94
492.963	117.94
493.18	116.94
493.398	122.94
493.615	112.94
493.833	111.94
494.05	112.94
494.268	124.94
494.485	111.94
494.703	109.94
494.92	102.94
495.138	105.94
495.355	106.94
495.573	117.94
495.79	105.94
496.008	112.94
496.225	107.94
496.442	98.94
496.66	114.94
496.877	111.94
497.094	103.94
497.312	108.94
497.529	109.94
497.746	106.94
497.963	102.94
498.181	92.94
498.398	94.94
498.615	86.94
498.832	82.94
499.049	89.94
499.267	89.94
499.484	98.94
499.701	113.94
499.918	92.94
500.135	85.94
500.352	126.94
500.569	111.94
500.786	101.94
501.003	93.94
501.22	96.94
501.437	96.94
501.654	81.94
501.871	98.94
502.088	104.94
502.305	94.94
502.522	86.94
502.739	96.94
502.956	97.94
503.172	110.94
503.389	91.94
503.606	89.94
503.823	102.94
504.04	97.94
504.256	98.94
504.473	99.94
504.69	91.94
504.907	97.94
505.123	88.94
505.34	120.94
505.557	89.94
505.773	113.94
505.99	103.94
506.207	107.94
506.423	106.94
506.64	79.94
506.856	93.94
507.073	114.94
507.289	74.94
507.506	93.94
507.722	87.94
507.939	94.94
508.155	93.94
508.372	96.94
508.588	93.94
508.805	92.94
509.021	92.94
509.238	91.94
509.454	99.94
509.67	85.94
509.887	93.94
510.103	89.94
510.319	75.94
510.536	88.94
510.752	85.94
510.968	82.94
511.184	73.94
511.401	77.94
511.617	86.94
511.833	92.94
512.049	87.94
512.265	81.94
512.481	85.94
512.698	87.94
512.914	101.94
513.13	81.94
513.346	86.94
513.562	92.94
513.778	75.94
513.994	86.94
514.21	99.94
514.426	102.94
514.642	72.94
514.858	96.94
515.074	88.94
515.29	98.94
515.506	79.94
515.721	77.94
515.937	73.94
516.153	81.94
516.369	83.94
516.585	85.94
516.801	82.94
517.016	98.94
