Data from Location4.07152019.Energy5.Lamp.07192019.3%Agarose_HRD10591_15-23-10-577.txt Node
Date: Fri Jul 19 15:23:10 EDT 2019
User: cochatt
Spectrometer: HR+D1059
Trigger mode: 1
Integration Time (sec): 1.000000E-1
Scans to average: 1
Electric dark correction enabled: true
Nonlinearity correction enabled: false
Boxcar width: 0
XAxis mode: Wavelengths
Number of Pixels in Spectrum: 2048
>>>>>Begin Spectral Data<<<<<
223.165	-21.62
223.4	-21.62
223.635	-21.62
223.869	-11.62
224.104	-23.62
224.338	-14.62
224.573	-25.62
224.808	-20.62
225.042	-19.62
225.277	12.38
225.511	-1.62
225.746	5.38
225.98	14.38
226.215	-2.62
226.449	12.38
226.683	31.38
226.918	40.38
227.152	25.38
227.387	30.38
227.621	37.38
227.856	42.38
228.09	38.38
228.324	54.38
228.559	58.38
228.793	68.38
229.027	44.38
229.262	54.38
229.496	55.38
229.73	61.38
229.964	73.38
230.199	63.38
230.433	61.38
230.667	75.38
230.901	92.38
231.136	67.38
231.37	88.38
231.604	80.38
231.838	76.38
232.072	80.38
232.306	79.38
232.541	72.38
232.775	84.38
233.009	79.38
233.243	90.38
233.477	76.38
233.711	75.38
233.945	79.38
234.179	75.38
234.413	79.38
234.647	83.38
234.881	69.38
235.115	83.38
235.349	79.38
235.583	77.38
235.817	79.38
236.051	70.38
236.285	63.38
236.519	85.38
236.753	76.38
236.987	80.38
237.221	63.38
237.455	80.38
237.689	74.38
237.922	81.38
238.156	89.38
238.39	73.38
238.624	65.38
238.858	74.38
239.091	70.38
239.325	72.38
239.559	77.38
239.793	60.38
240.027	87.38
240.26	83.38
240.494	58.38
240.728	67.38
240.961	76.38
241.195	79.38
241.429	81.38
241.662	69.38
241.896	77.38
242.13	77.38
242.363	70.38
242.597	63.38
242.83	70.38
243.064	81.38
243.298	70.38
243.531	62.38
243.765	75.38
243.998	80.38
244.232	73.38
244.465	67.38
244.699	70.38
244.932	84.38
245.166	82.38
245.399	70.38
245.633	75.38
245.866	64.38
246.099	87.38
246.333	80.38
246.566	77.38
246.8	66.38
247.033	83.38
247.266	70.38
247.5	78.38
247.733	73.38
247.966	80.38
248.2	64.38
248.433	73.38
248.666	76.38
248.899	83.38
249.133	78.38
249.366	80.38
249.599	77.38
249.832	70.38
250.066	83.38
250.299	62.38
250.532	67.38
250.765	90.38
250.998	66.38
251.231	68.38
251.465	91.38
251.698	79.38
251.931	94.38
252.164	96.38
252.397	60.38
252.63	74.38
252.863	76.38
253.096	69.38
253.329	93.38
253.562	81.38
253.795	85.38
254.028	76.38
254.261	77.38
254.494	81.38
254.727	90.38
254.96	82.38
255.193	71.38
255.426	71.38
255.659	72.38
255.892	80.38
256.124	79.38
256.357	87.38
256.59	83.38
256.823	90.38
257.056	76.38
257.289	72.38
257.521	69.38
257.754	66.38
257.987	76.38
258.22	77.38
258.452	72.38
258.685	54.38
258.918	66.38
259.151	72.38
259.383	76.38
259.616	84.38
259.849	78.38
260.081	77.38
260.314	72.38
260.547	78.38
260.779	77.38
261.012	69.38
261.244	81.38
261.477	78.38
261.71	84.38
261.942	78.38
262.175	77.38
262.407	74.38
262.64	79.38
262.872	75.38
263.105	72.38
263.337	94.38
263.57	72.38
263.802	77.38
264.035	74.38
264.267	67.38
264.499	67.38
264.732	86.38
264.964	81.38
265.197	86.38
265.429	81.38
265.661	76.38
265.894	69.38
266.126	79.38
266.358	73.38
266.591	73.38
266.823	75.38
267.055	64.38
267.287	74.38
267.52	82.38
267.752	67.38
267.984	90.38
268.216	73.38
268.448	72.38
268.681	90.38
268.913	76.38
269.145	77.38
269.377	88.38
269.609	78.38
269.841	84.38
270.073	81.38
270.306	92.38
270.538	80.38
270.77	82.38
271.002	78.38
271.234	73.38
271.466	80.38
271.698	76.38
271.93	83.38
272.162	85.38
272.394	70.38
272.626	72.38
272.858	76.38
273.09	62.38
273.322	92.38
273.553	69.38
273.785	64.38
274.017	81.38
274.249	67.38
274.481	77.38
274.713	81.38
274.945	79.38
275.176	76.38
275.408	82.38
275.64	69.38
275.872	62.38
276.104	94.38
276.335	81.38
276.567	87.38
276.799	71.38
277.031	82.38
277.262	82.38
277.494	79.38
277.726	82.38
277.957	82.38
278.189	73.38
278.421	70.38
278.652	82.38
278.884	72.38
279.115	99.38
279.347	78.38
279.579	89.38
279.81	82.38
280.042	94.38
280.273	82.38
280.505	86.38
280.736	76.38
280.968	84.38
281.199	73.38
281.431	66.38
281.662	62.38
281.894	76.38
282.125	90.38
282.356	92.38
282.588	68.38
282.819	73.38
283.051	69.38
283.282	84.38
283.513	81.38
283.745	75.38
283.976	74.38
284.207	93.38
284.439	68.38
284.67	73.38
284.901	83.38
285.132	67.38
285.364	75.38
285.595	87.38
285.826	94.38
286.057	80.38
286.288	80.38
286.52	82.38
286.751	77.38
286.982	72.38
287.213	79.38
287.444	74.38
287.675	77.38
287.906	91.38
288.138	84.38
288.369	93.38
288.6	96.38
288.831	88.38
289.062	86.38
289.293	81.38
289.524	93.38
289.755	80.38
289.986	71.38
290.217	76.38
290.448	82.38
290.679	83.38
290.91	84.38
291.141	72.38
291.371	85.38
291.602	84.38
291.833	75.38
292.064	79.38
292.295	79.38
292.526	82.38
292.757	72.38
292.987	89.38
293.218	70.38
293.449	81.38
293.68	82.38
293.91	85.38
294.141	79.38
294.372	73.38
294.603	69.38
294.833	79.38
295.064	86.38
295.295	76.38
295.525	83.38
295.756	83.38
295.987	100.38
296.217	73.38
296.448	70.38
296.679	75.38
296.909	70.38
297.14	94.38
297.37	84.38
297.601	94.38
297.831	78.38
298.062	89.38
298.292	82.38
298.523	77.38
298.753	85.38
298.984	79.38
299.214	84.38
299.445	82.38
299.675	75.38
299.905	77.38
300.136	79.38
300.366	75.38
300.597	83.38
300.827	89.38
301.057	76.38
301.288	83.38
301.518	78.38
301.748	75.38
301.979	69.38
302.209	105.38
302.439	84.38
302.669	79.38
302.9	80.38
303.13	100.38
303.36	88.38
303.59	85.38
303.82	72.38
304.051	75.38
304.281	78.38
304.511	95.38
304.741	89.38
304.971	68.38
305.201	75.38
305.431	91.38
305.661	83.38
305.891	88.38
306.121	82.38
306.352	83.38
306.582	90.38
306.812	88.38
307.042	81.38
307.272	95.38
307.502	85.38
307.731	75.38
307.961	100.38
308.191	82.38
308.421	99.38
308.651	72.38
308.881	86.38
309.111	70.38
309.341	74.38
309.571	85.38
309.8	82.38
310.03	72.38
310.26	80.38
310.49	76.38
310.72	93.38
310.949	78.38
311.179	76.38
311.409	72.38
311.639	80.38
311.868	89.38
312.098	74.38
312.328	77.38
312.557	91.38
312.787	87.38
313.017	79.38
313.246	88.38
313.476	87.38
313.706	83.38
313.935	82.38
314.165	71.38
314.394	87.38
314.624	78.38
314.853	72.38
315.083	69.38
315.312	91.38
315.542	84.38
315.771	82.38
316.001	98.38
316.23	89.38
316.46	79.38
316.689	69.38
316.919	70.38
317.148	78.38
317.377	90.38
317.607	75.38
317.836	71.38
318.065	79.38
318.295	71.38
318.524	79.38
318.753	77.38
318.983	87.38
319.212	81.38
319.441	86.38
319.67	77.38
319.9	85.38
320.129	80.38
320.358	70.38
320.587	79.38
320.816	89.38
321.046	88.38
321.275	83.38
321.504	86.38
321.733	90.38
321.962	76.38
322.191	88.38
322.42	91.38
322.649	83.38
322.878	82.38
323.108	73.38
323.337	75.38
323.566	71.38
323.795	93.38
324.024	82.38
324.253	81.38
324.482	86.38
324.71	71.38
324.939	75.38
325.168	81.38
325.397	85.38
325.626	77.38
325.855	77.38
326.084	85.38
326.313	82.38
326.542	77.38
326.77	79.38
326.999	89.38
327.228	77.38
327.457	71.38
327.686	82.38
327.914	75.38
328.143	87.38
328.372	77.38
328.6	89.38
328.829	85.38
329.058	77.38
329.287	76.38
329.515	80.38
329.744	79.38
329.972	65.38
330.201	81.38
330.43	89.38
330.658	72.38
330.887	86.38
331.115	81.38
331.344	79.38
331.572	63.38
331.801	88.38
332.03	90.38
332.258	86.38
332.486	74.38
332.715	77.38
332.943	82.38
333.172	87.38
333.4	79.38
333.629	80.38
333.857	78.38
334.085	73.38
334.314	78.38
334.542	82.38
334.771	73.38
334.999	88.38
335.227	76.38
335.455	85.38
335.684	84.38
335.912	84.38
336.14	68.38
336.369	99.38
336.597	73.38
336.825	77.38
337.053	80.38
337.281	76.38
337.51	78.38
337.738	67.38
337.966	78.38
338.194	77.38
338.422	68.38
338.65	87.38
338.878	73.38
339.106	66.38
339.334	74.38
339.562	86.38
339.79	71.38
340.018	79.38
340.246	64.38
340.474	72.38
340.702	80.38
340.93	80.38
341.158	73.38
341.386	86.38
341.614	85.38
341.842	81.38
342.07	87.38
342.298	86.38
342.526	92.38
342.754	70.38
342.981	84.38
343.209	67.38
343.437	85.38
343.665	87.38
343.893	78.38
344.12	82.38
344.348	82.38
344.576	79.38
344.804	94.38
345.031	92.38
345.259	86.38
345.487	83.38
345.714	71.38
345.942	86.38
346.17	83.38
346.397	74.38
346.625	81.38
346.853	90.38
347.08	80.38
347.308	83.38
347.535	92.38
347.763	72.38
347.99	85.38
348.218	82.38
348.445	67.38
348.673	73.38
348.9	68.38
349.128	84.38
349.355	87.38
349.583	69.38
349.81	85.38
350.037	78.38
350.265	87.38
350.492	78.38
350.72	78.38
350.947	69.38
351.174	108.38
351.402	82.38
351.629	80.38
351.856	80.38
352.083	85.38
352.311	74.38
352.538	85.38
352.765	87.38
352.992	81.38
353.22	85.38
353.447	83.38
353.674	75.38
353.901	91.38
354.128	72.38
354.355	79.38
354.583	88.38
354.81	83.38
355.037	87.38
355.264	61.38
355.491	66.38
355.718	84.38
355.945	96.38
356.172	70.38
356.399	80.38
356.626	91.38
356.853	82.38
357.08	79.38
357.307	73.38
357.534	84.38
357.761	77.38
357.988	72.38
358.215	82.38
358.441	74.38
358.668	81.38
358.895	74.38
359.122	75.38
359.349	83.38
359.576	65.38
359.802	77.38
360.029	79.38
360.256	77.38
360.483	86.38
360.709	76.38
360.936	95.38
361.163	76.38
361.39	85.38
361.616	71.38
361.843	84.38
362.07	93.38
362.296	87.38
362.523	71.38
362.749	81.38
362.976	71.38
363.203	76.38
363.429	84.38
363.656	83.38
363.882	78.38
364.109	73.38
364.335	79.38
364.562	89.38
364.788	80.38
365.015	82.38
365.241	75.38
365.468	77.38
365.694	93.38
365.92	79.38
366.147	81.38
366.373	85.38
366.599	72.38
366.826	79.38
367.052	80.38
367.278	79.38
367.505	85.38
367.731	89.38
367.957	85.38
368.184	69.38
368.41	80.38
368.636	79.38
368.862	82.38
369.089	82.38
369.315	81.38
369.541	86.38
369.767	83.38
369.993	82.38
370.219	86.38
370.445	70.38
370.672	91.38
370.898	71.38
371.124	71.38
371.35	90.38
371.576	87.38
371.802	80.38
372.028	82.38
372.254	86.38
372.48	83.38
372.706	82.38
372.932	85.38
373.158	79.38
373.384	93.38
373.61	88.38
373.835	82.38
374.061	85.38
374.287	79.38
374.513	76.38
374.739	66.38
374.965	82.38
375.191	80.38
375.416	75.38
375.642	78.38
375.868	86.38
376.094	81.38
376.319	86.38
376.545	89.38
376.771	87.38
376.997	81.38
377.222	88.38
377.448	74.38
377.674	92.38
377.899	79.38
378.125	82.38
378.35	88.38
378.576	95.38
378.802	76.38
379.027	78.38
379.253	92.38
379.478	77.38
379.704	74.38
379.929	82.38
380.155	71.38
380.38	84.38
380.606	80.38
380.831	71.38
381.057	79.38
381.282	80.38
381.507	83.38
381.733	90.38
381.958	83.38
382.184	80.38
382.409	69.38
382.634	72.38
382.86	92.38
383.085	86.38
383.31	91.38
383.535	86.38
383.761	74.38
383.986	65.38
384.211	81.38
384.436	88.38
384.662	79.38
384.887	70.38
385.112	82.38
385.337	102.38
385.562	75.38
385.787	89.38
386.013	86.38
386.238	92.38
386.463	84.38
386.688	87.38
386.913	81.38
387.138	84.38
387.363	90.38
387.588	85.38
387.813	84.38
388.038	79.38
388.263	92.38
388.488	87.38
388.713	66.38
388.938	59.38
389.163	85.38
389.387	87.38
389.612	75.38
389.837	84.38
390.062	77.38
390.287	78.38
390.512	87.38
390.736	83.38
390.961	76.38
391.186	79.38
391.411	103.38
391.636	90.38
391.86	92.38
392.085	82.38
392.31	91.38
392.534	78.38
392.759	87.38
392.984	87.38
393.208	84.38
393.433	101.38
393.658	89.38
393.882	78.38
394.107	91.38
394.331	79.38
394.556	86.38
394.78	76.38
395.005	82.38
395.229	79.38
395.454	87.38
395.678	94.38
395.903	93.38
396.127	95.38
396.352	82.38
396.576	70.38
396.801	90.38
397.025	87.38
397.249	78.38
397.474	80.38
397.698	81.38
397.922	91.38
398.147	82.38
398.371	79.38
398.595	84.38
398.82	99.38
399.044	71.38
399.268	78.38
399.492	78.38
399.717	83.38
399.941	94.38
400.165	94.38
400.389	85.38
400.613	101.38
400.837	84.38
401.062	87.38
401.286	98.38
401.51	85.38
401.734	78.38
401.958	83.38
402.182	90.38
402.406	92.38
402.63	86.38
402.854	80.38
403.078	86.38
403.302	93.38
403.526	82.38
403.75	81.38
403.974	85.38
404.198	82.38
404.422	90.38
404.645	69.38
404.869	85.38
405.093	93.38
405.317	88.38
405.541	78.38
405.765	102.38
405.988	83.38
406.212	85.38
406.436	91.38
406.66	83.38
406.883	93.38
407.107	87.38
407.331	85.38
407.555	91.38
407.778	74.38
408.002	83.38
408.226	70.38
408.449	80.38
408.673	83.38
408.896	80.38
409.12	91.38
409.344	89.38
409.567	79.38
409.791	87.38
410.014	93.38
410.238	86.38
410.461	79.38
410.685	74.38
410.908	63.38
411.132	84.38
411.355	87.38
411.578	93.38
411.802	85.38
412.025	102.38
412.249	89.38
412.472	77.38
412.695	79.38
412.919	84.38
413.142	92.38
413.365	90.38
413.589	84.38
413.812	71.38
414.035	97.38
414.258	82.38
414.482	90.38
414.705	74.38
414.928	91.38
415.151	108.38
415.374	94.38
415.597	81.38
415.821	96.38
416.044	86.38
416.267	93.38
416.49	87.38
416.713	84.38
416.936	81.38
417.159	85.38
417.382	85.38
417.605	65.38
417.828	95.38
418.051	81.38
418.274	67.38
418.497	81.38
418.72	106.38
418.943	98.38
419.166	83.38
419.389	79.38
419.611	69.38
419.834	83.38
420.057	88.38
420.28	86.38
420.503	82.38
420.726	85.38
420.948	88.38
421.171	82.38
421.394	95.38
421.617	112.38
421.839	83.38
422.062	96.38
422.285	90.38
422.507	86.38
422.73	96.38
422.953	101.38
423.175	98.38
423.398	86.38
423.621	93.38
423.843	91.38
424.066	95.38
424.288	101.38
424.511	103.38
424.733	97.38
424.956	84.38
425.178	80.38
425.401	108.38
425.623	91.38
425.846	87.38
426.068	92.38
426.291	86.38
426.513	95.38
426.735	99.38
426.958	102.38
427.18	74.38
427.402	92.38
427.625	90.38
427.847	94.38
428.069	93.38
428.292	88.38
428.514	82.38
428.736	75.38
428.958	86.38
429.181	91.38
429.403	104.38
429.625	92.38
429.847	89.38
430.069	95.38
430.292	90.38
430.514	84.38
430.736	96.38
430.958	100.38
431.18	86.38
431.402	99.38
431.624	93.38
431.846	85.38
432.068	93.38
432.29	91.38
432.512	96.38
432.734	91.38
432.956	104.38
433.178	90.38
433.4	102.38
433.622	92.38
433.844	87.38
434.066	87.38
434.287	89.38
434.509	71.38
434.731	91.38
434.953	74.38
435.175	86.38
435.397	86.38
435.618	87.38
435.84	103.38
436.062	77.38
436.284	80.38
436.505	105.38
436.727	90.38
436.949	95.38
437.17	92.38
437.392	88.38
437.614	94.38
437.835	78.38
438.057	77.38
438.278	86.38
438.5	83.38
438.721	77.38
438.943	97.38
439.165	95.38
439.386	99.38
439.608	90.38
439.829	93.38
440.05	88.38
440.272	108.38
440.493	92.38
440.715	86.38
440.936	87.38
441.158	85.38
441.379	102.38
441.6	84.38
441.822	87.38
442.043	79.38
442.264	94.38
442.486	96.38
442.707	94.38
442.928	97.38
443.149	85.38
443.371	89.38
443.592	86.38
443.813	103.38
444.034	94.38
444.255	93.38
444.476	107.38
444.698	96.38
444.919	99.38
445.14	176.38
445.361	147.38
445.582	95.38
445.803	103.38
446.024	92.38
446.245	96.38
446.466	92.38
446.687	90.38
446.908	96.38
447.129	89.38
447.35	90.38
447.571	106.38
447.792	94.38
448.013	88.38
448.234	87.38
448.455	78.38
448.675	115.38
448.896	107.38
449.117	106.38
449.338	99.38
449.559	101.38
449.779	98.38
450	103.38
450.221	84.38
450.442	87.38
450.662	77.38
450.883	84.38
451.104	92.38
451.324	102.38
451.545	90.38
451.766	83.38
451.986	88.38
452.207	80.38
452.428	87.38
452.648	88.38
452.869	90.38
453.089	96.38
453.31	82.38
453.53	97.38
453.751	82.38
453.971	83.38
454.192	77.38
454.412	82.38
454.633	93.38
454.853	88.38
455.073	89.38
455.294	87.38
455.514	110.38
455.734	87.38
455.955	89.38
456.175	96.38
456.395	90.38
456.616	83.38
456.836	88.38
457.056	79.38
457.276	81.38
457.497	95.38
457.717	84.38
457.937	84.38
458.157	97.38
458.377	90.38
458.598	78.38
458.818	83.38
459.038	74.38
459.258	91.38
459.478	95.38
459.698	96.38
459.918	77.38
460.138	87.38
460.358	80.38
460.578	81.38
460.798	82.38
461.018	69.38
461.238	76.38
461.458	90.38
461.678	91.38
461.898	108.38
462.118	86.38
462.338	84.38
462.558	96.38
462.777	83.38
462.997	82.38
463.217	73.38
463.437	94.38
463.657	87.38
463.876	83.38
464.096	91.38
464.316	99.38
464.536	84.38
464.755	75.38
464.975	96.38
465.195	100.38
465.414	91.38
465.634	90.38
465.854	86.38
466.073	103.38
466.293	87.38
466.512	95.38
466.732	85.38
466.951	78.38
467.171	107.38
467.391	94.38
467.61	95.38
467.829	106.38
468.049	106.38
468.268	85.38
468.488	84.38
468.707	83.38
468.927	82.38
469.146	86.38
469.365	94.38
469.585	78.38
469.804	95.38
470.023	101.38
470.243	92.38
470.462	87.38
470.681	98.38
470.901	103.38
471.12	92.38
471.339	90.38
471.558	90.38
471.777	95.38
471.997	97.38
472.216	100.38
472.435	87.38
472.654	85.38
472.873	81.38
473.092	93.38
473.311	95.38
473.53	83.38
473.749	89.38
473.968	95.38
474.187	83.38
474.406	91.38
474.625	93.38
474.844	82.38
475.063	85.38
475.282	98.38
475.501	89.38
475.72	98.38
475.939	76.38
476.158	97.38
476.377	79.38
476.596	76.38
476.814	84.38
477.033	92.38
477.252	64.38
477.471	83.38
477.69	102.38
477.908	86.38
478.127	98.38
478.346	98.38
478.564	90.38
478.783	88.38
479.002	95.38
479.22	90.38
479.439	90.38
479.658	87.38
479.876	84.38
480.095	79.38
480.313	77.38
480.532	70.38
480.751	98.38
480.969	91.38
481.188	80.38
481.406	66.38
481.624	75.38
481.843	89.38
482.061	80.38
482.28	85.38
482.498	87.38
482.717	76.38
482.935	84.38
483.153	87.38
483.372	91.38
483.59	106.38
483.808	91.38
484.027	96.38
484.245	92.38
484.463	80.38
484.681	96.38
484.9	78.38
485.118	88.38
485.336	93.38
485.554	93.38
485.772	75.38
485.99	81.38
486.209	79.38
486.427	77.38
486.645	91.38
486.863	88.38
487.081	98.38
487.299	107.38
487.517	98.38
487.735	112.38
487.953	114.38
488.171	117.38
488.389	108.38
488.607	99.38
488.825	91.38
489.043	95.38
489.261	93.38
489.479	89.38
489.696	92.38
489.914	98.38
490.132	94.38
490.35	87.38
490.568	99.38
490.786	110.38
491.003	111.38
491.221	98.38
491.439	103.38
491.657	107.38
491.874	116.38
492.092	102.38
492.31	129.38
492.527	127.38
492.745	128.38
492.963	121.38
493.18	106.38
493.398	112.38
493.615	104.38
493.833	112.38
494.05	103.38
494.268	93.38
494.485	114.38
494.703	111.38
494.92	94.38
495.138	93.38
495.355	112.38
495.573	96.38
495.79	111.38
496.008	108.38
496.225	102.38
496.442	104.38
496.66	112.38
496.877	109.38
497.094	103.38
497.312	96.38
497.529	99.38
497.746	112.38
497.963	104.38
498.181	86.38
498.398	74.38
498.615	104.38
498.832	100.38
499.049	94.38
499.267	88.38
499.484	92.38
499.701	94.38
499.918	89.38
500.135	103.38
500.352	84.38
500.569	104.38
500.786	102.38
501.003	80.38
501.22	85.38
501.437	95.38
501.654	98.38
501.871	84.38
502.088	97.38
502.305	93.38
502.522	98.38
502.739	89.38
502.956	85.38
503.172	92.38
503.389	97.38
503.606	89.38
503.823	83.38
504.04	86.38
504.256	78.38
504.473	83.38
504.69	100.38
504.907	102.38
505.123	91.38
505.34	101.38
505.557	101.38
505.773	101.38
505.99	104.38
506.207	88.38
506.423	86.38
506.64	78.38
506.856	77.38
507.073	85.38
507.289	81.38
507.506	91.38
507.722	93.38
507.939	89.38
508.155	86.38
508.372	106.38
508.588	84.38
508.805	87.38
509.021	83.38
509.238	72.38
509.454	80.38
509.67	88.38
509.887	92.38
510.103	83.38
510.319	69.38
510.536	71.38
510.752	78.38
510.968	84.38
511.184	91.38
511.401	77.38
511.617	72.38
511.833	73.38
512.049	96.38
512.265	90.38
512.481	77.38
512.698	75.38
512.914	72.38
513.13	86.38
513.346	67.38
513.562	91.38
513.778	82.38
513.994	80.38
514.21	82.38
514.426	83.38
514.642	79.38
514.858	72.38
515.074	78.38
515.29	78.38
515.506	86.38
515.721	79.38
515.937	94.38
516.153	90.38
516.369	75.38
516.585	79.38
516.801	76.38
517.016	75.38
517.232	77.38
517.448	97.38
517.664	72.38
517.879	83.38
518.095	84.38
