Data from Location4.07152019.Energy5.Lamp.07192019.3%Agarose_HRD10591_15-23-23-576.txt Node
Date: Fri Jul 19 15:23:23 EDT 2019
User: cochatt
Spectrometer: HR+D1059
Trigger mode: 1
Integration Time (sec): 1.000000E-1
Scans to average: 1
Electric dark correction enabled: true
Nonlinearity correction enabled: false
Boxcar width: 0
XAxis mode: Wavelengths
Number of Pixels in Spectrum: 2048
>>>>>Begin Spectral Data<<<<<
223.165	-11.69
223.4	-11.69
223.635	-11.69
223.869	-9.69
224.104	-14.69
224.338	-9.69
224.573	-20.69
224.808	-4.69
225.042	4.31
225.277	-5.69
225.511	-8.69
225.746	7.31
225.98	5.31
226.215	-0.69
226.449	12.31
226.683	13.31
226.918	22.31
227.152	21.31
227.387	20.31
227.621	22.31
227.856	47.31
228.09	41.31
228.324	49.31
228.559	53.31
228.793	53.31
229.027	63.31
229.262	50.31
229.496	63.31
229.73	71.31
229.964	66.31
230.199	71.31
230.433	70.31
230.667	77.31
230.901	77.31
231.136	97.31
231.37	66.31
231.604	78.31
231.838	89.31
232.072	87.31
232.306	85.31
232.541	90.31
232.775	84.31
233.009	85.31
233.243	77.31
233.477	82.31
233.711	76.31
233.945	78.31
234.179	77.31
234.413	72.31
234.647	75.31
234.881	80.31
235.115	77.31
235.349	78.31
235.583	79.31
235.817	88.31
236.051	79.31
236.285	71.31
236.519	79.31
236.753	72.31
236.987	59.31
237.221	77.31
237.455	77.31
237.689	82.31
237.922	67.31
238.156	73.31
238.39	47.31
238.624	70.31
238.858	68.31
239.091	78.31
239.325	81.31
239.559	80.31
239.793	60.31
240.027	83.31
240.26	84.31
240.494	78.31
240.728	83.31
240.961	76.31
241.195	84.31
241.429	77.31
241.662	78.31
241.896	72.31
242.13	67.31
242.363	82.31
242.597	76.31
242.83	68.31
243.064	78.31
243.298	76.31
243.531	78.31
243.765	82.31
243.998	68.31
244.232	63.31
244.465	88.31
244.699	78.31
244.932	76.31
245.166	70.31
245.399	71.31
245.633	87.31
245.866	76.31
246.099	71.31
246.333	94.31
246.566	68.31
246.8	80.31
247.033	67.31
247.266	80.31
247.5	83.31
247.733	95.31
247.966	71.31
248.2	65.31
248.433	77.31
248.666	77.31
248.899	68.31
249.133	78.31
249.366	85.31
249.599	82.31
249.832	85.31
250.066	82.31
250.299	80.31
250.532	90.31
250.765	77.31
250.998	69.31
251.231	74.31
251.465	82.31
251.698	61.31
251.931	83.31
252.164	70.31
252.397	76.31
252.63	88.31
252.863	63.31
253.096	79.31
253.329	92.31
253.562	73.31
253.795	72.31
254.028	89.31
254.261	77.31
254.494	81.31
254.727	80.31
254.96	74.31
255.193	70.31
255.426	76.31
255.659	71.31
255.892	75.31
256.124	65.31
256.357	87.31
256.59	83.31
256.823	63.31
257.056	74.31
257.289	72.31
257.521	81.31
257.754	74.31
257.987	76.31
258.22	72.31
258.452	73.31
258.685	75.31
258.918	88.31
259.151	81.31
259.383	90.31
259.616	72.31
259.849	81.31
260.081	95.31
260.314	70.31
260.547	80.31
260.779	84.31
261.012	80.31
261.244	74.31
261.477	77.31
261.71	74.31
261.942	98.31
262.175	76.31
262.407	76.31
262.64	77.31
262.872	73.31
263.105	71.31
263.337	88.31
263.57	77.31
263.802	95.31
264.035	69.31
264.267	83.31
264.499	80.31
264.732	78.31
264.964	84.31
265.197	76.31
265.429	78.31
265.661	92.31
265.894	74.31
266.126	63.31
266.358	79.31
266.591	75.31
266.823	85.31
267.055	83.31
267.287	76.31
267.52	80.31
267.752	76.31
267.984	81.31
268.216	74.31
268.448	83.31
268.681	80.31
268.913	84.31
269.145	76.31
269.377	76.31
269.609	81.31
269.841	85.31
270.073	71.31
270.306	72.31
270.538	85.31
270.77	83.31
271.002	76.31
271.234	73.31
271.466	78.31
271.698	80.31
271.93	75.31
272.162	85.31
272.394	86.31
272.626	74.31
272.858	81.31
273.09	80.31
273.322	73.31
273.553	72.31
273.785	81.31
274.017	89.31
274.249	85.31
274.481	82.31
274.713	81.31
274.945	92.31
275.176	86.31
275.408	81.31
275.64	83.31
275.872	73.31
276.104	81.31
276.335	80.31
276.567	78.31
276.799	84.31
277.031	70.31
277.262	76.31
277.494	85.31
277.726	74.31
277.957	85.31
278.189	82.31
278.421	84.31
278.652	77.31
278.884	85.31
279.115	84.31
279.347	67.31
279.579	72.31
279.81	74.31
280.042	82.31
280.273	81.31
280.505	73.31
280.736	75.31
280.968	82.31
281.199	88.31
281.431	58.31
281.662	74.31
281.894	83.31
282.125	86.31
282.356	83.31
282.588	77.31
282.819	82.31
283.051	72.31
283.282	77.31
283.513	92.31
283.745	88.31
283.976	84.31
284.207	82.31
284.439	79.31
284.67	86.31
284.901	86.31
285.132	77.31
285.364	96.31
285.595	87.31
285.826	80.31
286.057	73.31
286.288	80.31
286.52	91.31
286.751	74.31
286.982	79.31
287.213	65.31
287.444	87.31
287.675	80.31
287.906	88.31
288.138	91.31
288.369	75.31
288.6	72.31
288.831	81.31
289.062	87.31
289.293	85.31
289.524	84.31
289.755	74.31
289.986	78.31
290.217	88.31
290.448	86.31
290.679	84.31
290.91	92.31
291.141	96.31
291.371	92.31
291.602	76.31
291.833	86.31
292.064	75.31
292.295	82.31
292.526	85.31
292.757	78.31
292.987	93.31
293.218	69.31
293.449	86.31
293.68	84.31
293.91	84.31
294.141	88.31
294.372	83.31
294.603	88.31
294.833	63.31
295.064	79.31
295.295	81.31
295.525	80.31
295.756	89.31
295.987	84.31
296.217	81.31
296.448	87.31
296.679	93.31
296.909	77.31
297.14	76.31
297.37	83.31
297.601	76.31
297.831	88.31
298.062	87.31
298.292	100.31
298.523	89.31
298.753	82.31
298.984	88.31
299.214	82.31
299.445	86.31
299.675	83.31
299.905	91.31
300.136	77.31
300.366	88.31
300.597	95.31
300.827	79.31
301.057	92.31
301.288	83.31
301.518	85.31
301.748	79.31
301.979	75.31
302.209	91.31
302.439	92.31
302.669	83.31
302.9	87.31
303.13	80.31
303.36	87.31
303.59	73.31
303.82	92.31
304.051	81.31
304.281	86.31
304.511	89.31
304.741	97.31
304.971	64.31
305.201	95.31
305.431	91.31
305.661	80.31
305.891	84.31
306.121	86.31
306.352	80.31
306.582	70.31
306.812	75.31
307.042	73.31
307.272	73.31
307.502	84.31
307.731	93.31
307.961	83.31
308.191	72.31
308.421	95.31
308.651	86.31
308.881	75.31
309.111	84.31
309.341	81.31
309.571	78.31
309.8	80.31
310.03	71.31
310.26	79.31
310.49	76.31
310.72	77.31
310.949	104.31
311.179	71.31
311.409	88.31
311.639	81.31
311.868	95.31
312.098	91.31
312.328	80.31
312.557	80.31
312.787	71.31
313.017	76.31
313.246	82.31
313.476	79.31
313.706	78.31
313.935	76.31
314.165	76.31
314.394	81.31
314.624	83.31
314.853	85.31
315.083	88.31
315.312	91.31
315.542	87.31
315.771	87.31
316.001	84.31
316.23	71.31
316.46	88.31
316.689	66.31
316.919	94.31
317.148	75.31
317.377	79.31
317.607	94.31
317.836	81.31
318.065	95.31
318.295	75.31
318.524	72.31
318.753	82.31
318.983	78.31
319.212	78.31
319.441	88.31
319.67	82.31
319.9	62.31
320.129	84.31
320.358	90.31
320.587	93.31
320.816	79.31
321.046	90.31
321.275	79.31
321.504	82.31
321.733	73.31
321.962	77.31
322.191	85.31
322.42	86.31
322.649	88.31
322.878	84.31
323.108	88.31
323.337	83.31
323.566	80.31
323.795	75.31
324.024	85.31
324.253	80.31
324.482	69.31
324.71	86.31
324.939	87.31
325.168	78.31
325.397	81.31
325.626	84.31
325.855	74.31
326.084	77.31
326.313	86.31
326.542	96.31
326.77	76.31
326.999	87.31
327.228	88.31
327.457	82.31
327.686	84.31
327.914	84.31
328.143	94.31
328.372	95.31
328.6	85.31
328.829	80.31
329.058	73.31
329.287	79.31
329.515	85.31
329.744	84.31
329.972	80.31
330.201	62.31
330.43	72.31
330.658	74.31
330.887	80.31
331.115	77.31
331.344	89.31
331.572	81.31
331.801	83.31
332.03	73.31
332.258	89.31
332.486	85.31
332.715	95.31
332.943	88.31
333.172	83.31
333.4	73.31
333.629	88.31
333.857	63.31
334.085	75.31
334.314	93.31
334.542	84.31
334.771	82.31
334.999	81.31
335.227	69.31
335.455	83.31
335.684	96.31
335.912	84.31
336.14	93.31
336.369	85.31
336.597	81.31
336.825	89.31
337.053	89.31
337.281	83.31
337.51	72.31
337.738	80.31
337.966	77.31
338.194	76.31
338.422	80.31
338.65	72.31
338.878	81.31
339.106	80.31
339.334	81.31
339.562	86.31
339.79	65.31
340.018	75.31
340.246	67.31
340.474	84.31
340.702	95.31
340.93	86.31
341.158	78.31
341.386	73.31
341.614	83.31
341.842	82.31
342.07	80.31
342.298	72.31
342.526	93.31
342.754	80.31
342.981	87.31
343.209	80.31
343.437	93.31
343.665	80.31
343.893	79.31
344.12	85.31
344.348	64.31
344.576	79.31
344.804	76.31
345.031	71.31
345.259	79.31
345.487	77.31
345.714	79.31
345.942	88.31
346.17	84.31
346.397	80.31
346.625	95.31
346.853	73.31
347.08	78.31
347.308	86.31
347.535	73.31
347.763	77.31
347.99	101.31
348.218	92.31
348.445	72.31
348.673	81.31
348.9	74.31
349.128	79.31
349.355	94.31
349.583	66.31
349.81	76.31
350.037	64.31
350.265	82.31
350.492	84.31
350.72	76.31
350.947	87.31
351.174	72.31
351.402	86.31
351.629	84.31
351.856	83.31
352.083	83.31
352.311	80.31
352.538	88.31
352.765	83.31
352.992	73.31
353.22	82.31
353.447	70.31
353.674	83.31
353.901	75.31
354.128	79.31
354.355	83.31
354.583	85.31
354.81	82.31
355.037	80.31
355.264	81.31
355.491	78.31
355.718	69.31
355.945	70.31
356.172	78.31
356.399	78.31
356.626	68.31
356.853	79.31
357.08	80.31
357.307	90.31
357.534	76.31
357.761	87.31
357.988	88.31
358.215	73.31
358.441	81.31
358.668	81.31
358.895	84.31
359.122	88.31
359.349	70.31
359.576	88.31
359.802	78.31
360.029	84.31
360.256	83.31
360.483	84.31
360.709	81.31
360.936	98.31
361.163	81.31
361.39	82.31
361.616	76.31
361.843	79.31
362.07	81.31
362.296	66.31
362.523	76.31
362.749	81.31
362.976	78.31
363.203	102.31
363.429	81.31
363.656	76.31
363.882	88.31
364.109	90.31
364.335	80.31
364.562	80.31
364.788	81.31
365.015	77.31
365.241	75.31
365.468	78.31
365.694	75.31
365.92	82.31
366.147	65.31
366.373	78.31
366.599	79.31
366.826	81.31
367.052	80.31
367.278	78.31
367.505	91.31
367.731	74.31
367.957	68.31
368.184	80.31
368.41	94.31
368.636	85.31
368.862	89.31
369.089	75.31
369.315	83.31
369.541	87.31
369.767	87.31
369.993	73.31
370.219	85.31
370.445	74.31
370.672	84.31
370.898	85.31
371.124	91.31
371.35	75.31
371.576	91.31
371.802	86.31
372.028	77.31
372.254	82.31
372.48	73.31
372.706	100.31
372.932	85.31
373.158	83.31
373.384	76.31
373.61	72.31
373.835	77.31
374.061	86.31
374.287	79.31
374.513	87.31
374.739	84.31
374.965	84.31
375.191	85.31
375.416	80.31
375.642	80.31
375.868	80.31
376.094	94.31
376.319	75.31
376.545	67.31
376.771	76.31
376.997	67.31
377.222	79.31
377.448	79.31
377.674	90.31
377.899	79.31
378.125	74.31
378.35	88.31
378.576	88.31
378.802	89.31
379.027	82.31
379.253	86.31
379.478	73.31
379.704	96.31
379.929	85.31
380.155	90.31
380.38	83.31
380.606	84.31
380.831	82.31
381.057	87.31
381.282	84.31
381.507	85.31
381.733	80.31
381.958	92.31
382.184	83.31
382.409	83.31
382.634	80.31
382.86	88.31
383.085	76.31
383.31	80.31
383.535	68.31
383.761	80.31
383.986	89.31
384.211	93.31
384.436	74.31
384.662	71.31
384.887	74.31
385.112	80.31
385.337	83.31
385.562	89.31
385.787	82.31
386.013	95.31
386.238	71.31
386.463	75.31
386.688	78.31
386.913	71.31
387.138	99.31
387.363	80.31
387.588	84.31
387.813	94.31
388.038	81.31
388.263	91.31
388.488	78.31
388.713	85.31
388.938	76.31
389.163	97.31
389.387	87.31
389.612	83.31
389.837	78.31
390.062	81.31
390.287	85.31
390.512	85.31
390.736	83.31
390.961	85.31
391.186	79.31
391.411	95.31
391.636	81.31
391.86	84.31
392.085	82.31
392.31	77.31
392.534	71.31
392.759	81.31
392.984	96.31
393.208	74.31
393.433	90.31
393.658	72.31
393.882	63.31
394.107	85.31
394.331	86.31
394.556	89.31
394.78	97.31
395.005	95.31
395.229	81.31
395.454	80.31
395.678	71.31
395.903	98.31
396.127	96.31
396.352	79.31
396.576	81.31
396.801	88.31
397.025	70.31
397.249	84.31
397.474	61.31
397.698	78.31
397.922	77.31
398.147	72.31
398.371	84.31
398.595	92.31
398.82	88.31
399.044	82.31
399.268	89.31
399.492	81.31
399.717	81.31
399.941	88.31
400.165	71.31
400.389	73.31
400.613	82.31
400.837	78.31
401.062	91.31
401.286	94.31
401.51	77.31
401.734	71.31
401.958	87.31
402.182	93.31
402.406	93.31
402.63	78.31
402.854	85.31
403.078	92.31
403.302	87.31
403.526	77.31
403.75	78.31
403.974	86.31
404.198	69.31
404.422	86.31
404.645	96.31
404.869	87.31
405.093	83.31
405.317	80.31
405.541	71.31
405.765	85.31
405.988	83.31
406.212	91.31
406.436	84.31
406.66	86.31
406.883	93.31
407.107	80.31
407.331	88.31
407.555	98.31
407.778	79.31
408.002	87.31
408.226	86.31
408.449	95.31
408.673	98.31
408.896	86.31
409.12	85.31
409.344	82.31
409.567	88.31
409.791	87.31
410.014	80.31
410.238	91.31
410.461	81.31
410.685	88.31
410.908	86.31
411.132	93.31
411.355	103.31
411.578	87.31
411.802	88.31
412.025	85.31
412.249	89.31
412.472	83.31
412.695	97.31
412.919	81.31
413.142	92.31
413.365	74.31
413.589	86.31
413.812	92.31
414.035	88.31
414.258	86.31
414.482	69.31
414.705	90.31
414.928	84.31
415.151	78.31
415.374	84.31
415.597	86.31
415.821	90.31
416.044	86.31
416.267	85.31
416.49	72.31
416.713	88.31
416.936	82.31
417.159	83.31
417.382	91.31
417.605	85.31
417.828	100.31
418.051	95.31
418.274	81.31
418.497	89.31
418.72	92.31
418.943	95.31
419.166	86.31
419.389	99.31
419.611	91.31
419.834	100.31
420.057	71.31
420.28	86.31
420.503	95.31
420.726	76.31
420.948	92.31
421.171	103.31
421.394	99.31
421.617	103.31
421.839	106.31
422.062	96.31
422.285	84.31
422.507	100.31
422.73	84.31
422.953	100.31
423.175	89.31
423.398	89.31
423.621	77.31
423.843	107.31
424.066	93.31
424.288	99.31
424.511	86.31
424.733	72.31
424.956	83.31
425.178	77.31
425.401	102.31
425.623	86.31
425.846	80.31
426.068	104.31
426.291	90.31
426.513	90.31
426.735	87.31
426.958	88.31
427.18	88.31
427.402	98.31
427.625	100.31
427.847	81.31
428.069	96.31
428.292	93.31
428.514	91.31
428.736	98.31
428.958	89.31
429.181	80.31
429.403	86.31
429.625	74.31
429.847	89.31
430.069	91.31
430.292	102.31
430.514	99.31
430.736	80.31
430.958	91.31
431.18	94.31
431.402	91.31
431.624	86.31
431.846	92.31
432.068	81.31
432.29	80.31
432.512	96.31
432.734	92.31
432.956	90.31
433.178	84.31
433.4	95.31
433.622	93.31
433.844	89.31
434.066	90.31
434.287	91.31
434.509	84.31
434.731	78.31
434.953	75.31
435.175	93.31
435.397	104.31
435.618	80.31
435.84	96.31
436.062	76.31
436.284	94.31
436.505	96.31
436.727	82.31
436.949	92.31
437.17	83.31
437.392	91.31
437.614	79.31
437.835	83.31
438.057	89.31
438.278	96.31
438.5	72.31
438.721	77.31
438.943	96.31
439.165	111.31
439.386	87.31
439.608	103.31
439.829	82.31
440.05	97.31
440.272	87.31
440.493	84.31
440.715	101.31
440.936	97.31
441.158	93.31
441.379	94.31
441.6	91.31
441.822	87.31
442.043	83.31
442.264	93.31
442.486	92.31
442.707	103.31
442.928	111.31
443.149	85.31
443.371	88.31
443.592	84.31
443.813	84.31
444.034	91.31
444.255	86.31
444.476	86.31
444.698	86.31
444.919	93.31
445.14	187.31
445.361	138.31
445.582	111.31
445.803	102.31
446.024	87.31
446.245	92.31
446.466	96.31
446.687	86.31
446.908	102.31
447.129	97.31
447.35	88.31
447.571	91.31
447.792	99.31
448.013	81.31
448.234	96.31
448.455	100.31
448.675	79.31
448.896	101.31
449.117	88.31
449.338	100.31
449.559	90.31
449.779	101.31
450	83.31
450.221	98.31
450.442	92.31
450.662	82.31
450.883	104.31
451.104	91.31
451.324	96.31
451.545	97.31
451.766	102.31
451.986	95.31
452.207	100.31
452.428	77.31
452.648	85.31
452.869	99.31
453.089	86.31
453.31	88.31
453.53	85.31
453.751	80.31
453.971	65.31
454.192	84.31
454.412	92.31
454.633	99.31
454.853	78.31
455.073	66.31
455.294	87.31
455.514	92.31
455.734	87.31
455.955	87.31
456.175	94.31
456.395	91.31
456.616	74.31
456.836	75.31
457.056	93.31
457.276	80.31
457.497	83.31
457.717	92.31
457.937	72.31
458.157	82.31
458.377	84.31
458.598	77.31
458.818	74.31
459.038	71.31
459.258	89.31
459.478	71.31
459.698	86.31
459.918	83.31
460.138	88.31
460.358	99.31
460.578	95.31
460.798	86.31
461.018	84.31
461.238	92.31
461.458	83.31
461.678	85.31
461.898	84.31
462.118	86.31
462.338	73.31
462.558	81.31
462.777	89.31
462.997	80.31
463.217	85.31
463.437	88.31
463.657	80.31
463.876	80.31
464.096	92.31
464.316	84.31
464.536	82.31
464.755	83.31
464.975	72.31
465.195	82.31
465.414	83.31
465.634	91.31
465.854	90.31
466.073	87.31
466.293	83.31
466.512	69.31
466.732	90.31
466.951	91.31
467.171	93.31
467.391	102.31
467.61	98.31
467.829	82.31
468.049	84.31
468.268	92.31
468.488	92.31
468.707	100.31
468.927	94.31
469.146	101.31
469.365	97.31
469.585	91.31
469.804	103.31
470.023	99.31
470.243	86.31
470.462	86.31
470.681	95.31
470.901	96.31
471.12	107.31
471.339	93.31
471.558	91.31
471.777	110.31
471.997	94.31
472.216	85.31
472.435	87.31
472.654	88.31
472.873	86.31
473.092	90.31
473.311	99.31
473.53	86.31
473.749	99.31
473.968	94.31
474.187	88.31
474.406	89.31
474.625	89.31
474.844	93.31
475.063	84.31
475.282	91.31
475.501	95.31
475.72	89.31
475.939	93.31
476.158	97.31
476.377	72.31
476.596	96.31
476.814	89.31
477.033	74.31
477.252	95.31
477.471	67.31
477.69	91.31
477.908	83.31
478.127	92.31
478.346	82.31
478.564	93.31
478.783	89.31
479.002	88.31
479.22	105.31
479.439	74.31
479.658	99.31
479.876	85.31
480.095	72.31
480.313	84.31
480.532	88.31
480.751	99.31
480.969	96.31
481.188	86.31
481.406	91.31
481.624	64.31
481.843	87.31
482.061	84.31
482.28	96.31
482.498	91.31
482.717	99.31
482.935	85.31
483.153	100.31
483.372	103.31
483.59	102.31
483.808	104.31
484.027	96.31
484.245	89.31
484.463	99.31
484.681	111.31
484.9	95.31
485.118	99.31
485.336	92.31
485.554	84.31
485.772	90.31
485.99	80.31
486.209	87.31
486.427	82.31
486.645	86.31
486.863	91.31
487.081	97.31
487.299	86.31
487.517	96.31
487.735	105.31
487.953	111.31
488.171	109.31
488.389	100.31
488.607	115.31
488.825	88.31
489.043	89.31
489.261	92.31
489.479	88.31
489.696	96.31
489.914	99.31
490.132	100.31
490.35	101.31
490.568	99.31
490.786	94.31
491.003	121.31
491.221	108.31
491.439	100.31
491.657	103.31
491.874	116.31
492.092	123.31
492.31	117.31
492.527	113.31
492.745	111.31
492.963	108.31
493.18	113.31
493.398	97.31
493.615	88.31
493.833	111.31
494.05	89.31
494.268	117.31
494.485	113.31
494.703	108.31
494.92	111.31
495.138	111.31
495.355	100.31
495.573	103.31
495.79	103.31
496.008	114.31
496.225	101.31
496.442	102.31
496.66	110.31
496.877	113.31
497.094	104.31
497.312	98.31
497.529	108.31
497.746	100.31
497.963	90.31
498.181	89.31
498.398	87.31
498.615	88.31
498.832	82.31
499.049	81.31
499.267	92.31
499.484	102.31
499.701	95.31
499.918	102.31
500.135	94.31
500.352	96.31
500.569	96.31
500.786	82.31
501.003	97.31
501.22	91.31
501.437	89.31
501.654	100.31
501.871	85.31
502.088	90.31
502.305	104.31
502.522	109.31
502.739	93.31
502.956	85.31
503.172	84.31
503.389	94.31
503.606	95.31
503.823	92.31
504.04	88.31
504.256	98.31
504.473	77.31
504.69	102.31
504.907	93.31
505.123	100.31
505.34	98.31
505.557	94.31
505.773	84.31
505.99	79.31
506.207	89.31
506.423	93.31
506.64	87.31
506.856	85.31
507.073	77.31
507.289	100.31
507.506	76.31
507.722	80.31
507.939	91.31
508.155	96.31
508.372	95.31
508.588	90.31
508.805	75.31
509.021	90.31
509.238	80.31
509.454	93.31
509.67	100.31
509.887	81.31
510.103	80.31
510.319	81.31
510.536	98.31
510.752	98.31
510.968	76.31
511.184	82.31
511.401	82.31
511.617	67.31
511.833	79.31
512.049	84.31
512.265	78.31
512.481	80.31
512.698	92.31
512.914	89.31
513.13	72.31
513.346	83.31
513.562	75.31
513.778	89.31
513.994	88.31
514.21	83.31
514.426	77.31
514.642	74.31
514.858	84.31
515.074	95.31
515.29	76.31
515.506	81.31
515.721	81.31
515.937	81.31
516.153	81.31
516.369	82.31
516.585	81.31
516.801	85.31
517.016	94.31
517.232	77.31
517.448	83.31
517.664	90.31
517.879	80.31
518.095	73.31
518.311	77.31
