Data from Location4.07152019.Energy5.Lamp.07192019.3%Agarose_HRD10591_15-25-49-577.txt Node
Date: Fri Jul 19 15:25:49 EDT 2019
User: cochatt
Spectrometer: HR+D1059
Trigger mode: 1
Integration Time (sec): 1.000000E-1
Scans to average: 1
Electric dark correction enabled: true
Nonlinearity correction enabled: false
Boxcar width: 0
XAxis mode: Wavelengths
Number of Pixels in Spectrum: 2048
>>>>>Begin Spectral Data<<<<<
223.165	-2.62
223.4	-2.62
223.635	-2.62
223.869	-7.62
224.104	-18.62
224.338	-17.62
224.573	-6.62
224.808	-21.62
225.042	-14.62
225.277	-3.62
225.511	-22.62
225.746	6.38
225.98	1.38
226.215	11.38
226.449	20.38
226.683	14.38
226.918	33.38
227.152	28.38
227.387	36.38
227.621	25.38
227.856	38.38
228.09	30.38
228.324	38.38
228.559	56.38
228.793	51.38
229.027	54.38
229.262	70.38
229.496	68.38
229.73	64.38
229.964	65.38
230.199	65.38
230.433	73.38
230.667	73.38
230.901	73.38
231.136	80.38
231.37	84.38
231.604	79.38
231.838	85.38
232.072	68.38
232.306	75.38
232.541	70.38
232.775	96.38
233.009	84.38
233.243	88.38
233.477	78.38
233.711	77.38
233.945	74.38
234.179	71.38
234.413	77.38
234.647	80.38
234.881	92.38
235.115	83.38
235.349	77.38
235.583	72.38
235.817	83.38
236.051	76.38
236.285	77.38
236.519	57.38
236.753	81.38
236.987	64.38
237.221	61.38
237.455	84.38
237.689	73.38
237.922	70.38
238.156	67.38
238.39	59.38
238.624	88.38
238.858	73.38
239.091	70.38
239.325	78.38
239.559	53.38
239.793	84.38
240.027	73.38
240.26	75.38
240.494	71.38
240.728	70.38
240.961	87.38
241.195	72.38
241.429	86.38
241.662	73.38
241.896	77.38
242.13	79.38
242.363	73.38
242.597	85.38
242.83	71.38
243.064	76.38
243.298	83.38
243.531	83.38
243.765	68.38
243.998	66.38
244.232	72.38
244.465	72.38
244.699	77.38
244.932	67.38
245.166	69.38
245.399	74.38
245.633	83.38
245.866	79.38
246.099	77.38
246.333	70.38
246.566	58.38
246.8	86.38
247.033	76.38
247.266	79.38
247.5	73.38
247.733	82.38
247.966	84.38
248.2	83.38
248.433	82.38
248.666	77.38
248.899	70.38
249.133	79.38
249.366	86.38
249.599	80.38
249.832	67.38
250.066	69.38
250.299	83.38
250.532	79.38
250.765	67.38
250.998	64.38
251.231	70.38
251.465	79.38
251.698	74.38
251.931	86.38
252.164	70.38
252.397	59.38
252.63	67.38
252.863	84.38
253.096	79.38
253.329	62.38
253.562	71.38
253.795	77.38
254.028	86.38
254.261	75.38
254.494	72.38
254.727	70.38
254.96	78.38
255.193	70.38
255.426	79.38
255.659	72.38
255.892	80.38
256.124	76.38
256.357	71.38
256.59	78.38
256.823	76.38
257.056	73.38
257.289	78.38
257.521	81.38
257.754	63.38
257.987	79.38
258.22	85.38
258.452	72.38
258.685	71.38
258.918	85.38
259.151	85.38
259.383	87.38
259.616	80.38
259.849	78.38
260.081	84.38
260.314	70.38
260.547	92.38
260.779	76.38
261.012	65.38
261.244	67.38
261.477	78.38
261.71	79.38
261.942	76.38
262.175	79.38
262.407	78.38
262.64	60.38
262.872	72.38
263.105	90.38
263.337	69.38
263.57	85.38
263.802	74.38
264.035	78.38
264.267	76.38
264.499	76.38
264.732	80.38
264.964	78.38
265.197	65.38
265.429	87.38
265.661	86.38
265.894	88.38
266.126	82.38
266.358	83.38
266.591	79.38
266.823	71.38
267.055	62.38
267.287	67.38
267.52	82.38
267.752	77.38
267.984	76.38
268.216	88.38
268.448	75.38
268.681	81.38
268.913	74.38
269.145	75.38
269.377	80.38
269.609	78.38
269.841	85.38
270.073	81.38
270.306	64.38
270.538	77.38
270.77	86.38
271.002	75.38
271.234	89.38
271.466	89.38
271.698	59.38
271.93	74.38
272.162	76.38
272.394	89.38
272.626	77.38
272.858	83.38
273.09	89.38
273.322	89.38
273.553	88.38
273.785	80.38
274.017	76.38
274.249	74.38
274.481	80.38
274.713	71.38
274.945	70.38
275.176	82.38
275.408	82.38
275.64	77.38
275.872	74.38
276.104	71.38
276.335	66.38
276.567	85.38
276.799	82.38
277.031	78.38
277.262	72.38
277.494	75.38
277.726	74.38
277.957	78.38
278.189	78.38
278.421	85.38
278.652	91.38
278.884	71.38
279.115	86.38
279.347	82.38
279.579	87.38
279.81	88.38
280.042	74.38
280.273	86.38
280.505	71.38
280.736	85.38
280.968	77.38
281.199	83.38
281.431	90.38
281.662	72.38
281.894	81.38
282.125	61.38
282.356	83.38
282.588	85.38
282.819	84.38
283.051	96.38
283.282	83.38
283.513	91.38
283.745	66.38
283.976	93.38
284.207	84.38
284.439	75.38
284.67	71.38
284.901	73.38
285.132	73.38
285.364	90.38
285.595	88.38
285.826	74.38
286.057	82.38
286.288	91.38
286.52	83.38
286.751	84.38
286.982	77.38
287.213	89.38
287.444	92.38
287.675	84.38
287.906	96.38
288.138	83.38
288.369	65.38
288.6	80.38
288.831	81.38
289.062	87.38
289.293	83.38
289.524	81.38
289.755	81.38
289.986	77.38
290.217	83.38
290.448	88.38
290.679	85.38
290.91	100.38
291.141	92.38
291.371	80.38
291.602	81.38
291.833	78.38
292.064	80.38
292.295	84.38
292.526	79.38
292.757	89.38
292.987	76.38
293.218	88.38
293.449	79.38
293.68	75.38
293.91	88.38
294.141	83.38
294.372	76.38
294.603	94.38
294.833	89.38
295.064	88.38
295.295	101.38
295.525	73.38
295.756	80.38
295.987	90.38
296.217	84.38
296.448	88.38
296.679	80.38
296.909	68.38
297.14	88.38
297.37	87.38
297.601	61.38
297.831	99.38
298.062	76.38
298.292	77.38
298.523	88.38
298.753	82.38
298.984	83.38
299.214	75.38
299.445	80.38
299.675	75.38
299.905	90.38
300.136	74.38
300.366	76.38
300.597	87.38
300.827	81.38
301.057	85.38
301.288	84.38
301.518	75.38
301.748	90.38
301.979	84.38
302.209	73.38
302.439	82.38
302.669	91.38
302.9	76.38
303.13	80.38
303.36	72.38
303.59	82.38
303.82	87.38
304.051	76.38
304.281	81.38
304.511	87.38
304.741	87.38
304.971	81.38
305.201	92.38
305.431	79.38
305.661	79.38
305.891	68.38
306.121	75.38
306.352	87.38
306.582	83.38
306.812	93.38
307.042	79.38
307.272	80.38
307.502	95.38
307.731	96.38
307.961	89.38
308.191	79.38
308.421	87.38
308.651	82.38
308.881	86.38
309.111	87.38
309.341	85.38
309.571	81.38
309.8	78.38
310.03	68.38
310.26	95.38
310.49	82.38
310.72	88.38
310.949	73.38
311.179	85.38
311.409	91.38
311.639	72.38
311.868	94.38
312.098	77.38
312.328	80.38
312.557	75.38
312.787	87.38
313.017	83.38
313.246	66.38
313.476	76.38
313.706	82.38
313.935	83.38
314.165	74.38
314.394	88.38
314.624	90.38
314.853	82.38
315.083	88.38
315.312	74.38
315.542	77.38
315.771	96.38
316.001	78.38
316.23	89.38
316.46	82.38
316.689	79.38
316.919	78.38
317.148	80.38
317.377	92.38
317.607	90.38
317.836	94.38
318.065	89.38
318.295	73.38
318.524	81.38
318.753	94.38
318.983	83.38
319.212	75.38
319.441	83.38
319.67	86.38
319.9	73.38
320.129	68.38
320.358	83.38
320.587	87.38
320.816	88.38
321.046	89.38
321.275	80.38
321.504	79.38
321.733	79.38
321.962	79.38
322.191	78.38
322.42	77.38
322.649	82.38
322.878	81.38
323.108	84.38
323.337	85.38
323.566	72.38
323.795	75.38
324.024	84.38
324.253	85.38
324.482	82.38
324.71	92.38
324.939	90.38
325.168	103.38
325.397	79.38
325.626	88.38
325.855	62.38
326.084	66.38
326.313	73.38
326.542	82.38
326.77	81.38
326.999	91.38
327.228	83.38
327.457	77.38
327.686	83.38
327.914	75.38
328.143	78.38
328.372	85.38
328.6	95.38
328.829	89.38
329.058	79.38
329.287	77.38
329.515	71.38
329.744	74.38
329.972	87.38
330.201	96.38
330.43	70.38
330.658	81.38
330.887	87.38
331.115	72.38
331.344	73.38
331.572	84.38
331.801	76.38
332.03	81.38
332.258	90.38
332.486	75.38
332.715	62.38
332.943	72.38
333.172	73.38
333.4	81.38
333.629	78.38
333.857	94.38
334.085	79.38
334.314	101.38
334.542	73.38
334.771	86.38
334.999	75.38
335.227	91.38
335.455	88.38
335.684	83.38
335.912	85.38
336.14	89.38
336.369	64.38
336.597	75.38
336.825	77.38
337.053	70.38
337.281	88.38
337.51	95.38
337.738	83.38
337.966	78.38
338.194	67.38
338.422	84.38
338.65	87.38
338.878	88.38
339.106	78.38
339.334	87.38
339.562	78.38
339.79	86.38
340.018	73.38
340.246	79.38
340.474	81.38
340.702	97.38
340.93	82.38
341.158	74.38
341.386	87.38
341.614	79.38
341.842	69.38
342.07	74.38
342.298	76.38
342.526	76.38
342.754	79.38
342.981	80.38
343.209	61.38
343.437	83.38
343.665	86.38
343.893	77.38
344.12	83.38
344.348	70.38
344.576	87.38
344.804	93.38
345.031	69.38
345.259	70.38
345.487	70.38
345.714	83.38
345.942	83.38
346.17	78.38
346.397	79.38
346.625	72.38
346.853	84.38
347.08	75.38
347.308	80.38
347.535	85.38
347.763	87.38
347.99	79.38
348.218	76.38
348.445	72.38
348.673	65.38
348.9	77.38
349.128	95.38
349.355	84.38
349.583	76.38
349.81	82.38
350.037	83.38
350.265	64.38
350.492	88.38
350.72	72.38
350.947	69.38
351.174	80.38
351.402	77.38
351.629	100.38
351.856	89.38
352.083	82.38
352.311	73.38
352.538	86.38
352.765	77.38
352.992	80.38
353.22	72.38
353.447	72.38
353.674	91.38
353.901	81.38
354.128	80.38
354.355	83.38
354.583	73.38
354.81	72.38
355.037	70.38
355.264	75.38
355.491	81.38
355.718	70.38
355.945	81.38
356.172	75.38
356.399	87.38
356.626	90.38
356.853	76.38
357.08	84.38
357.307	81.38
357.534	82.38
357.761	94.38
357.988	81.38
358.215	84.38
358.441	99.38
358.668	89.38
358.895	71.38
359.122	77.38
359.349	84.38
359.576	69.38
359.802	76.38
360.029	76.38
360.256	81.38
360.483	73.38
360.709	91.38
360.936	89.38
361.163	92.38
361.39	77.38
361.616	81.38
361.843	84.38
362.07	69.38
362.296	79.38
362.523	68.38
362.749	89.38
362.976	79.38
363.203	91.38
363.429	77.38
363.656	85.38
363.882	80.38
364.109	83.38
364.335	98.38
364.562	80.38
364.788	82.38
365.015	87.38
365.241	76.38
365.468	88.38
365.694	78.38
365.92	90.38
366.147	92.38
366.373	89.38
366.599	87.38
366.826	89.38
367.052	81.38
367.278	72.38
367.505	85.38
367.731	85.38
367.957	75.38
368.184	79.38
368.41	70.38
368.636	90.38
368.862	83.38
369.089	81.38
369.315	90.38
369.541	79.38
369.767	95.38
369.993	88.38
370.219	78.38
370.445	88.38
370.672	88.38
370.898	76.38
371.124	83.38
371.35	77.38
371.576	81.38
371.802	56.38
372.028	92.38
372.254	73.38
372.48	76.38
372.706	87.38
372.932	80.38
373.158	85.38
373.384	96.38
373.61	77.38
373.835	77.38
374.061	75.38
374.287	75.38
374.513	82.38
374.739	78.38
374.965	81.38
375.191	84.38
375.416	72.38
375.642	68.38
375.868	89.38
376.094	78.38
376.319	88.38
376.545	66.38
376.771	78.38
376.997	78.38
377.222	83.38
377.448	81.38
377.674	88.38
377.899	67.38
378.125	97.38
378.35	78.38
378.576	83.38
378.802	75.38
379.027	69.38
379.253	79.38
379.478	76.38
379.704	76.38
379.929	76.38
380.155	88.38
380.38	85.38
380.606	73.38
380.831	79.38
381.057	87.38
381.282	83.38
381.507	70.38
381.733	67.38
381.958	94.38
382.184	84.38
382.409	73.38
382.634	71.38
382.86	80.38
383.085	93.38
383.31	76.38
383.535	77.38
383.761	76.38
383.986	84.38
384.211	78.38
384.436	76.38
384.662	71.38
384.887	91.38
385.112	75.38
385.337	80.38
385.562	93.38
385.787	85.38
386.013	91.38
386.238	83.38
386.463	92.38
386.688	82.38
386.913	81.38
387.138	79.38
387.363	84.38
387.588	88.38
387.813	84.38
388.038	77.38
388.263	84.38
388.488	79.38
388.713	88.38
388.938	79.38
389.163	79.38
389.387	96.38
389.612	84.38
389.837	90.38
390.062	96.38
390.287	86.38
390.512	79.38
390.736	77.38
390.961	88.38
391.186	73.38
391.411	82.38
391.636	85.38
391.86	89.38
392.085	99.38
392.31	76.38
392.534	76.38
392.759	86.38
392.984	70.38
393.208	77.38
393.433	87.38
393.658	90.38
393.882	83.38
394.107	87.38
394.331	76.38
394.556	93.38
394.78	99.38
395.005	73.38
395.229	83.38
395.454	88.38
395.678	80.38
395.903	84.38
396.127	90.38
396.352	92.38
396.576	90.38
396.801	108.38
397.025	96.38
397.249	86.38
397.474	79.38
397.698	86.38
397.922	83.38
398.147	76.38
398.371	78.38
398.595	83.38
398.82	96.38
399.044	83.38
399.268	91.38
399.492	75.38
399.717	77.38
399.941	83.38
400.165	73.38
400.389	87.38
400.613	74.38
400.837	87.38
401.062	96.38
401.286	84.38
401.51	86.38
401.734	88.38
401.958	84.38
402.182	89.38
402.406	81.38
402.63	79.38
402.854	88.38
403.078	92.38
403.302	99.38
403.526	94.38
403.75	89.38
403.974	79.38
404.198	92.38
404.422	91.38
404.645	78.38
404.869	80.38
405.093	95.38
405.317	81.38
405.541	81.38
405.765	87.38
405.988	81.38
406.212	83.38
406.436	91.38
406.66	83.38
406.883	79.38
407.107	82.38
407.331	83.38
407.555	98.38
407.778	76.38
408.002	91.38
408.226	81.38
408.449	88.38
408.673	90.38
408.896	80.38
409.12	82.38
409.344	95.38
409.567	87.38
409.791	87.38
410.014	79.38
410.238	80.38
410.461	92.38
410.685	83.38
410.908	85.38
411.132	94.38
411.355	86.38
411.578	101.38
411.802	91.38
412.025	80.38
412.249	83.38
412.472	87.38
412.695	82.38
412.919	86.38
413.142	83.38
413.365	98.38
413.589	89.38
413.812	90.38
414.035	93.38
414.258	88.38
414.482	84.38
414.705	74.38
414.928	88.38
415.151	78.38
415.374	86.38
415.597	88.38
415.821	93.38
416.044	89.38
416.267	86.38
416.49	102.38
416.713	96.38
416.936	93.38
417.159	95.38
417.382	95.38
417.605	90.38
417.828	91.38
418.051	101.38
418.274	110.38
418.497	95.38
418.72	89.38
418.943	105.38
419.166	103.38
419.389	80.38
419.611	88.38
419.834	79.38
420.057	87.38
420.28	96.38
420.503	103.38
420.726	104.38
420.948	101.38
421.171	85.38
421.394	86.38
421.617	102.38
421.839	102.38
422.062	104.38
422.285	92.38
422.507	78.38
422.73	85.38
422.953	102.38
423.175	92.38
423.398	86.38
423.621	101.38
423.843	84.38
424.066	78.38
424.288	95.38
424.511	93.38
424.733	87.38
424.956	96.38
425.178	114.38
425.401	97.38
425.623	88.38
425.846	88.38
426.068	97.38
426.291	84.38
426.513	95.38
426.735	81.38
426.958	90.38
427.18	88.38
427.402	88.38
427.625	94.38
427.847	89.38
428.069	93.38
428.292	102.38
428.514	85.38
428.736	82.38
428.958	92.38
429.181	95.38
429.403	92.38
429.625	95.38
429.847	95.38
430.069	86.38
430.292	111.38
430.514	104.38
430.736	93.38
430.958	79.38
431.18	88.38
431.402	91.38
431.624	92.38
431.846	81.38
432.068	80.38
432.29	90.38
432.512	84.38
432.734	100.38
432.956	82.38
433.178	97.38
433.4	102.38
433.622	105.38
433.844	102.38
434.066	89.38
434.287	81.38
434.509	73.38
434.731	72.38
434.953	93.38
435.175	89.38
435.397	97.38
435.618	82.38
435.84	95.38
436.062	74.38
436.284	102.38
436.505	86.38
436.727	73.38
436.949	87.38
437.17	93.38
437.392	93.38
437.614	104.38
437.835	89.38
438.057	90.38
438.278	80.38
438.5	82.38
438.721	97.38
438.943	75.38
439.165	95.38
439.386	86.38
439.608	84.38
439.829	94.38
440.05	83.38
440.272	92.38
440.493	81.38
440.715	91.38
440.936	88.38
441.158	77.38
441.379	89.38
441.6	110.38
441.822	107.38
442.043	111.38
442.264	92.38
442.486	93.38
442.707	96.38
442.928	87.38
443.149	99.38
443.371	94.38
443.592	94.38
443.813	94.38
444.034	100.38
444.255	89.38
444.476	105.38
444.698	108.38
444.919	98.38
445.14	217.38
445.361	160.38
445.582	111.38
445.803	79.38
446.024	91.38
446.245	81.38
446.466	98.38
446.687	102.38
446.908	105.38
447.129	103.38
447.35	89.38
447.571	88.38
447.792	99.38
448.013	94.38
448.234	79.38
448.455	95.38
448.675	96.38
448.896	74.38
449.117	90.38
449.338	101.38
449.559	102.38
449.779	99.38
450	97.38
450.221	103.38
450.442	93.38
450.662	78.38
450.883	94.38
451.104	85.38
451.324	101.38
451.545	90.38
451.766	82.38
451.986	90.38
452.207	96.38
452.428	79.38
452.648	77.38
452.869	81.38
453.089	87.38
453.31	83.38
453.53	85.38
453.751	81.38
453.971	84.38
454.192	81.38
454.412	91.38
454.633	86.38
454.853	88.38
455.073	78.38
455.294	87.38
455.514	80.38
455.734	104.38
455.955	81.38
456.175	86.38
456.395	82.38
456.616	80.38
456.836	84.38
457.056	89.38
457.276	84.38
457.497	76.38
457.717	79.38
457.937	85.38
458.157	88.38
458.377	91.38
458.598	81.38
458.818	74.38
459.038	74.38
459.258	78.38
459.478	87.38
459.698	91.38
459.918	87.38
460.138	99.38
460.358	97.38
460.578	85.38
460.798	91.38
461.018	93.38
461.238	87.38
461.458	86.38
461.678	87.38
461.898	77.38
462.118	82.38
462.338	95.38
462.558	93.38
462.777	82.38
462.997	83.38
463.217	94.38
463.437	83.38
463.657	95.38
463.876	89.38
464.096	83.38
464.316	78.38
464.536	93.38
464.755	87.38
464.975	92.38
465.195	86.38
465.414	88.38
465.634	75.38
465.854	85.38
466.073	99.38
466.293	96.38
466.512	102.38
466.732	107.38
466.951	93.38
467.171	109.38
467.391	95.38
467.61	98.38
467.829	103.38
468.049	89.38
468.268	103.38
468.488	97.38
468.707	86.38
468.927	92.38
469.146	104.38
469.365	118.38
469.585	95.38
469.804	101.38
470.023	76.38
470.243	107.38
470.462	95.38
470.681	104.38
470.901	107.38
471.12	96.38
471.339	106.38
471.558	100.38
471.777	95.38
471.997	93.38
472.216	92.38
472.435	89.38
472.654	78.38
472.873	83.38
473.092	96.38
473.311	101.38
473.53	93.38
473.749	89.38
473.968	100.38
474.187	97.38
474.406	98.38
474.625	98.38
474.844	98.38
475.063	81.38
475.282	92.38
475.501	89.38
475.72	86.38
475.939	82.38
476.158	85.38
476.377	85.38
476.596	97.38
476.814	98.38
477.033	74.38
477.252	87.38
477.471	88.38
477.69	96.38
477.908	100.38
478.127	84.38
478.346	92.38
478.564	93.38
478.783	103.38
479.002	93.38
479.22	91.38
479.439	93.38
479.658	87.38
479.876	87.38
480.095	88.38
480.313	93.38
480.532	84.38
480.751	90.38
480.969	79.38
481.188	83.38
481.406	83.38
481.624	67.38
481.843	95.38
482.061	89.38
482.28	94.38
482.498	96.38
482.717	76.38
482.935	86.38
483.153	88.38
483.372	109.38
483.59	91.38
483.808	107.38
484.027	99.38
484.245	100.38
484.463	94.38
484.681	99.38
484.9	91.38
485.118	112.38
485.336	81.38
485.554	97.38
485.772	78.38
485.99	78.38
486.209	84.38
486.427	84.38
486.645	98.38
486.863	95.38
487.081	108.38
487.299	77.38
487.517	107.38
487.735	99.38
487.953	114.38
488.171	93.38
488.389	109.38
488.607	110.38
488.825	93.38
489.043	89.38
489.261	90.38
489.479	93.38
489.696	89.38
489.914	108.38
490.132	104.38
490.35	88.38
490.568	95.38
490.786	102.38
491.003	105.38
491.221	107.38
491.439	104.38
491.657	119.38
491.874	121.38
492.092	120.38
492.31	131.38
492.527	121.38
492.745	117.38
492.963	96.38
493.18	117.38
493.398	97.38
493.615	96.38
493.833	91.38
494.05	100.38
494.268	113.38
494.485	115.38
494.703	96.38
494.92	101.38
495.138	108.38
495.355	97.38
495.573	100.38
495.79	101.38
496.008	108.38
496.225	107.38
496.442	105.38
496.66	115.38
496.877	102.38
497.094	115.38
497.312	107.38
497.529	105.38
497.746	93.38
497.963	104.38
498.181	98.38
498.398	102.38
498.615	97.38
498.832	87.38
499.049	87.38
499.267	86.38
499.484	105.38
499.701	100.38
499.918	95.38
500.135	107.38
500.352	86.38
500.569	107.38
500.786	91.38
501.003	99.38
501.22	88.38
501.437	91.38
501.654	89.38
501.871	100.38
502.088	95.38
502.305	99.38
502.522	87.38
502.739	107.38
502.956	110.38
503.172	100.38
503.389	84.38
503.606	79.38
503.823	95.38
504.04	107.38
504.256	95.38
504.473	85.38
504.69	76.38
504.907	99.38
505.123	103.38
505.34	84.38
505.557	99.38
505.773	96.38
505.99	81.38
506.207	81.38
506.423	79.38
506.64	93.38
506.856	88.38
507.073	86.38
507.289	97.38
507.506	93.38
507.722	86.38
507.939	84.38
508.155	101.38
508.372	96.38
508.588	91.38
508.805	95.38
509.021	76.38
509.238	81.38
509.454	88.38
509.67	72.38
509.887	94.38
510.103	80.38
510.319	73.38
510.536	76.38
510.752	85.38
510.968	78.38
511.184	77.38
511.401	80.38
511.617	80.38
511.833	76.38
512.049	85.38
512.265	89.38
512.481	89.38
512.698	82.38
512.914	87.38
513.13	85.38
513.346	80.38
513.562	94.38
513.778	75.38
513.994	80.38
514.21	84.38
514.426	100.38
514.642	85.38
514.858	87.38
515.074	60.38
515.29	82.38
515.506	83.38
515.721	76.38
515.937	88.38
516.153	85.38
516.369	86.38
516.585	79.38
516.801	72.38
517.016	94.38
517.232	81.38
517.448	84.38
517.664	86.38
517.879	76.38
