Data from Location4.07152019.Energy5.Lamp.07192019.3%Agarose_HRD10591_15-25-04-577.txt Node
Date: Fri Jul 19 15:25:04 EDT 2019
User: cochatt
Spectrometer: HR+D1059
Trigger mode: 1
Integration Time (sec): 1.000000E-1
Scans to average: 1
Electric dark correction enabled: true
Nonlinearity correction enabled: false
Boxcar width: 0
XAxis mode: Wavelengths
Number of Pixels in Spectrum: 2048
>>>>>Begin Spectral Data<<<<<
223.165	-14.94
223.4	-14.94
223.635	-14.94
223.869	-13.94
224.104	-29.94
224.338	-15.94
224.573	-16.94
224.808	6.06
225.042	-1.94
225.277	-5.94
225.511	0.06
225.746	-0.94
225.98	4.06
226.215	11.06
226.449	15.06
226.683	22.06
226.918	18.06
227.152	24.06
227.387	37.06
227.621	40.06
227.856	37.06
228.09	39.06
228.324	52.06
228.559	57.06
228.793	48.06
229.027	74.06
229.262	67.06
229.496	57.06
229.73	73.06
229.964	77.06
230.199	75.06
230.433	74.06
230.667	75.06
230.901	74.06
231.136	74.06
231.37	84.06
231.604	84.06
231.838	82.06
232.072	68.06
232.306	73.06
232.541	86.06
232.775	80.06
233.009	89.06
233.243	90.06
233.477	76.06
233.711	70.06
233.945	76.06
234.179	74.06
234.413	69.06
234.647	79.06
234.881	79.06
235.115	92.06
235.349	85.06
235.583	78.06
235.817	86.06
236.051	76.06
236.285	73.06
236.519	73.06
236.753	75.06
236.987	79.06
237.221	71.06
237.455	80.06
237.689	82.06
237.922	79.06
238.156	75.06
238.39	78.06
238.624	74.06
238.858	63.06
239.091	76.06
239.325	77.06
239.559	77.06
239.793	81.06
240.027	78.06
240.26	65.06
240.494	90.06
240.728	70.06
240.961	71.06
241.195	77.06
241.429	88.06
241.662	83.06
241.896	88.06
242.13	65.06
242.363	83.06
242.597	88.06
242.83	85.06
243.064	81.06
243.298	71.06
243.531	80.06
243.765	96.06
243.998	71.06
244.232	82.06
244.465	76.06
244.699	80.06
244.932	81.06
245.166	73.06
245.399	72.06
245.633	71.06
245.866	82.06
246.099	80.06
246.333	81.06
246.566	69.06
246.8	89.06
247.033	77.06
247.266	89.06
247.5	66.06
247.733	73.06
247.966	86.06
248.2	76.06
248.433	91.06
248.666	87.06
248.899	78.06
249.133	87.06
249.366	85.06
249.599	74.06
249.832	85.06
250.066	81.06
250.299	82.06
250.532	65.06
250.765	62.06
250.998	75.06
251.231	78.06
251.465	82.06
251.698	77.06
251.931	75.06
252.164	88.06
252.397	92.06
252.63	72.06
252.863	80.06
253.096	81.06
253.329	80.06
253.562	66.06
253.795	83.06
254.028	82.06
254.261	82.06
254.494	85.06
254.727	87.06
254.96	82.06
255.193	78.06
255.426	80.06
255.659	90.06
255.892	84.06
256.124	75.06
256.357	96.06
256.59	98.06
256.823	84.06
257.056	93.06
257.289	74.06
257.521	78.06
257.754	89.06
257.987	87.06
258.22	76.06
258.452	90.06
258.685	76.06
258.918	86.06
259.151	83.06
259.383	85.06
259.616	72.06
259.849	82.06
260.081	70.06
260.314	82.06
260.547	95.06
260.779	88.06
261.012	79.06
261.244	74.06
261.477	85.06
261.71	76.06
261.942	76.06
262.175	75.06
262.407	80.06
262.64	83.06
262.872	86.06
263.105	76.06
263.337	80.06
263.57	87.06
263.802	82.06
264.035	83.06
264.267	80.06
264.499	78.06
264.732	82.06
264.964	89.06
265.197	85.06
265.429	82.06
265.661	82.06
265.894	78.06
266.126	79.06
266.358	80.06
266.591	72.06
266.823	83.06
267.055	79.06
267.287	86.06
267.52	75.06
267.752	90.06
267.984	92.06
268.216	91.06
268.448	84.06
268.681	73.06
268.913	83.06
269.145	82.06
269.377	91.06
269.609	82.06
269.841	93.06
270.073	71.06
270.306	93.06
270.538	76.06
270.77	88.06
271.002	84.06
271.234	83.06
271.466	80.06
271.698	86.06
271.93	73.06
272.162	80.06
272.394	85.06
272.626	84.06
272.858	79.06
273.09	86.06
273.322	76.06
273.553	83.06
273.785	74.06
274.017	91.06
274.249	83.06
274.481	89.06
274.713	93.06
274.945	76.06
275.176	79.06
275.408	83.06
275.64	87.06
275.872	81.06
276.104	71.06
276.335	92.06
276.567	69.06
276.799	81.06
277.031	67.06
277.262	73.06
277.494	80.06
277.726	80.06
277.957	82.06
278.189	71.06
278.421	88.06
278.652	86.06
278.884	82.06
279.115	83.06
279.347	80.06
279.579	80.06
279.81	88.06
280.042	84.06
280.273	98.06
280.505	97.06
280.736	80.06
280.968	76.06
281.199	87.06
281.431	86.06
281.662	93.06
281.894	86.06
282.125	78.06
282.356	72.06
282.588	87.06
282.819	74.06
283.051	79.06
283.282	94.06
283.513	83.06
283.745	84.06
283.976	83.06
284.207	85.06
284.439	82.06
284.67	96.06
284.901	84.06
285.132	96.06
285.364	69.06
285.595	88.06
285.826	72.06
286.057	74.06
286.288	83.06
286.52	86.06
286.751	88.06
286.982	89.06
287.213	73.06
287.444	79.06
287.675	74.06
287.906	71.06
288.138	73.06
288.369	87.06
288.6	90.06
288.831	69.06
289.062	90.06
289.293	86.06
289.524	83.06
289.755	84.06
289.986	90.06
290.217	90.06
290.448	80.06
290.679	78.06
290.91	89.06
291.141	97.06
291.371	100.06
291.602	92.06
291.833	76.06
292.064	81.06
292.295	96.06
292.526	100.06
292.757	103.06
292.987	97.06
293.218	83.06
293.449	87.06
293.68	80.06
293.91	88.06
294.141	81.06
294.372	82.06
294.603	94.06
294.833	98.06
295.064	89.06
295.295	88.06
295.525	104.06
295.756	91.06
295.987	96.06
296.217	86.06
296.448	90.06
296.679	81.06
296.909	99.06
297.14	77.06
297.37	96.06
297.601	86.06
297.831	86.06
298.062	74.06
298.292	92.06
298.523	76.06
298.753	90.06
298.984	85.06
299.214	79.06
299.445	86.06
299.675	68.06
299.905	85.06
300.136	81.06
300.366	91.06
300.597	80.06
300.827	84.06
301.057	86.06
301.288	86.06
301.518	89.06
301.748	70.06
301.979	76.06
302.209	107.06
302.439	88.06
302.669	83.06
302.9	83.06
303.13	97.06
303.36	75.06
303.59	90.06
303.82	87.06
304.051	83.06
304.281	94.06
304.511	90.06
304.741	80.06
304.971	98.06
305.201	87.06
305.431	85.06
305.661	87.06
305.891	78.06
306.121	82.06
306.352	76.06
306.582	91.06
306.812	95.06
307.042	86.06
307.272	91.06
307.502	91.06
307.731	75.06
307.961	76.06
308.191	83.06
308.421	83.06
308.651	79.06
308.881	80.06
309.111	93.06
309.341	96.06
309.571	84.06
309.8	100.06
310.03	106.06
310.26	80.06
310.49	98.06
310.72	86.06
310.949	97.06
311.179	87.06
311.409	94.06
311.639	85.06
311.868	96.06
312.098	84.06
312.328	94.06
312.557	85.06
312.787	75.06
313.017	92.06
313.246	88.06
313.476	99.06
313.706	86.06
313.935	63.06
314.165	88.06
314.394	88.06
314.624	79.06
314.853	97.06
315.083	89.06
315.312	82.06
315.542	94.06
315.771	82.06
316.001	90.06
316.23	99.06
316.46	91.06
316.689	76.06
316.919	91.06
317.148	76.06
317.377	78.06
317.607	98.06
317.836	84.06
318.065	80.06
318.295	76.06
318.524	80.06
318.753	102.06
318.983	90.06
319.212	72.06
319.441	87.06
319.67	86.06
319.9	82.06
320.129	88.06
320.358	76.06
320.587	86.06
320.816	98.06
321.046	87.06
321.275	73.06
321.504	80.06
321.733	94.06
321.962	84.06
322.191	89.06
322.42	87.06
322.649	83.06
322.878	88.06
323.108	86.06
323.337	87.06
323.566	77.06
323.795	91.06
324.024	85.06
324.253	81.06
324.482	88.06
324.71	66.06
324.939	80.06
325.168	84.06
325.397	85.06
325.626	86.06
325.855	88.06
326.084	89.06
326.313	99.06
326.542	83.06
326.77	84.06
326.999	79.06
327.228	76.06
327.457	74.06
327.686	79.06
327.914	86.06
328.143	91.06
328.372	99.06
328.6	86.06
328.829	78.06
329.058	83.06
329.287	80.06
329.515	68.06
329.744	88.06
329.972	85.06
330.201	98.06
330.43	95.06
330.658	88.06
330.887	78.06
331.115	67.06
331.344	76.06
331.572	91.06
331.801	89.06
332.03	88.06
332.258	77.06
332.486	73.06
332.715	82.06
332.943	83.06
333.172	69.06
333.4	89.06
333.629	88.06
333.857	87.06
334.085	85.06
334.314	89.06
334.542	81.06
334.771	83.06
334.999	88.06
335.227	88.06
335.455	85.06
335.684	100.06
335.912	72.06
336.14	75.06
336.369	78.06
336.597	93.06
336.825	77.06
337.053	85.06
337.281	89.06
337.51	86.06
337.738	91.06
337.966	97.06
338.194	90.06
338.422	78.06
338.65	91.06
338.878	74.06
339.106	80.06
339.334	84.06
339.562	90.06
339.79	95.06
340.018	78.06
340.246	89.06
340.474	94.06
340.702	81.06
340.93	76.06
341.158	92.06
341.386	83.06
341.614	79.06
341.842	88.06
342.07	79.06
342.298	74.06
342.526	75.06
342.754	96.06
342.981	89.06
343.209	72.06
343.437	95.06
343.665	77.06
343.893	84.06
344.12	90.06
344.348	82.06
344.576	88.06
344.804	79.06
345.031	93.06
345.259	95.06
345.487	86.06
345.714	84.06
345.942	89.06
346.17	63.06
346.397	74.06
346.625	77.06
346.853	83.06
347.08	76.06
347.308	86.06
347.535	72.06
347.763	80.06
347.99	88.06
348.218	80.06
348.445	85.06
348.673	81.06
348.9	106.06
349.128	87.06
349.355	91.06
349.583	89.06
349.81	102.06
350.037	83.06
350.265	85.06
350.492	94.06
350.72	78.06
350.947	82.06
351.174	81.06
351.402	86.06
351.629	77.06
351.856	80.06
352.083	85.06
352.311	74.06
352.538	91.06
352.765	70.06
352.992	88.06
353.22	77.06
353.447	72.06
353.674	79.06
353.901	82.06
354.128	83.06
354.355	103.06
354.583	76.06
354.81	72.06
355.037	77.06
355.264	86.06
355.491	84.06
355.718	77.06
355.945	92.06
356.172	97.06
356.399	94.06
356.626	79.06
356.853	93.06
357.08	73.06
357.307	81.06
357.534	89.06
357.761	87.06
357.988	83.06
358.215	91.06
358.441	81.06
358.668	75.06
358.895	95.06
359.122	78.06
359.349	84.06
359.576	85.06
359.802	83.06
360.029	81.06
360.256	81.06
360.483	75.06
360.709	85.06
360.936	77.06
361.163	78.06
361.39	83.06
361.616	74.06
361.843	83.06
362.07	82.06
362.296	85.06
362.523	84.06
362.749	84.06
362.976	74.06
363.203	84.06
363.429	85.06
363.656	80.06
363.882	83.06
364.109	83.06
364.335	75.06
364.562	89.06
364.788	63.06
365.015	81.06
365.241	85.06
365.468	87.06
365.694	96.06
365.92	77.06
366.147	75.06
366.373	78.06
366.599	76.06
366.826	72.06
367.052	86.06
367.278	92.06
367.505	77.06
367.731	103.06
367.957	97.06
368.184	89.06
368.41	91.06
368.636	81.06
368.862	86.06
369.089	78.06
369.315	87.06
369.541	76.06
369.767	98.06
369.993	101.06
370.219	79.06
370.445	94.06
370.672	89.06
370.898	97.06
371.124	79.06
371.35	82.06
371.576	87.06
371.802	82.06
372.028	89.06
372.254	83.06
372.48	88.06
372.706	75.06
372.932	76.06
373.158	80.06
373.384	91.06
373.61	82.06
373.835	88.06
374.061	77.06
374.287	91.06
374.513	84.06
374.739	79.06
374.965	86.06
375.191	82.06
375.416	71.06
375.642	80.06
375.868	81.06
376.094	83.06
376.319	75.06
376.545	83.06
376.771	73.06
376.997	83.06
377.222	91.06
377.448	79.06
377.674	97.06
377.899	99.06
378.125	90.06
378.35	86.06
378.576	87.06
378.802	83.06
379.027	84.06
379.253	92.06
379.478	95.06
379.704	84.06
379.929	92.06
380.155	89.06
380.38	95.06
380.606	82.06
380.831	88.06
381.057	75.06
381.282	83.06
381.507	84.06
381.733	89.06
381.958	76.06
382.184	92.06
382.409	73.06
382.634	91.06
382.86	66.06
383.085	90.06
383.31	81.06
383.535	74.06
383.761	87.06
383.986	80.06
384.211	92.06
384.436	87.06
384.662	71.06
384.887	78.06
385.112	77.06
385.337	78.06
385.562	75.06
385.787	99.06
386.013	82.06
386.238	88.06
386.463	83.06
386.688	73.06
386.913	83.06
387.138	85.06
387.363	94.06
387.588	102.06
387.813	95.06
388.038	91.06
388.263	84.06
388.488	86.06
388.713	101.06
388.938	95.06
389.163	89.06
389.387	99.06
389.612	92.06
389.837	74.06
390.062	81.06
390.287	90.06
390.512	94.06
390.736	96.06
390.961	85.06
391.186	89.06
391.411	81.06
391.636	95.06
391.86	73.06
392.085	93.06
392.31	90.06
392.534	96.06
392.759	82.06
392.984	83.06
393.208	77.06
393.433	76.06
393.658	82.06
393.882	82.06
394.107	92.06
394.331	75.06
394.556	82.06
394.78	91.06
395.005	84.06
395.229	87.06
395.454	89.06
395.678	98.06
395.903	78.06
396.127	82.06
396.352	95.06
396.576	95.06
396.801	85.06
397.025	92.06
397.249	85.06
397.474	84.06
397.698	91.06
397.922	88.06
398.147	88.06
398.371	90.06
398.595	94.06
398.82	87.06
399.044	88.06
399.268	82.06
399.492	83.06
399.717	81.06
399.941	89.06
400.165	86.06
400.389	90.06
400.613	86.06
400.837	96.06
401.062	99.06
401.286	81.06
401.51	79.06
401.734	90.06
401.958	87.06
402.182	92.06
402.406	87.06
402.63	81.06
402.854	95.06
403.078	75.06
403.302	92.06
403.526	95.06
403.75	101.06
403.974	80.06
404.198	92.06
404.422	84.06
404.645	76.06
404.869	88.06
405.093	94.06
405.317	74.06
405.541	91.06
405.765	89.06
405.988	87.06
406.212	89.06
406.436	84.06
406.66	84.06
406.883	81.06
407.107	79.06
407.331	95.06
407.555	90.06
407.778	80.06
408.002	92.06
408.226	82.06
408.449	84.06
408.673	81.06
408.896	74.06
409.12	88.06
409.344	99.06
409.567	74.06
409.791	84.06
410.014	103.06
410.238	97.06
410.461	83.06
410.685	84.06
410.908	99.06
411.132	106.06
411.355	84.06
411.578	80.06
411.802	92.06
412.025	92.06
412.249	81.06
412.472	99.06
412.695	86.06
412.919	79.06
413.142	94.06
413.365	88.06
413.589	99.06
413.812	86.06
414.035	78.06
414.258	86.06
414.482	91.06
414.705	84.06
414.928	87.06
415.151	80.06
415.374	94.06
415.597	107.06
415.821	72.06
416.044	88.06
416.267	110.06
416.49	90.06
416.713	96.06
416.936	102.06
417.159	85.06
417.382	98.06
417.605	89.06
417.828	91.06
418.051	96.06
418.274	92.06
418.497	92.06
418.72	82.06
418.943	89.06
419.166	100.06
419.389	98.06
419.611	88.06
419.834	100.06
420.057	83.06
420.28	84.06
420.503	95.06
420.726	92.06
420.948	95.06
421.171	94.06
421.394	83.06
421.617	95.06
421.839	99.06
422.062	98.06
422.285	96.06
422.507	94.06
422.73	94.06
422.953	99.06
423.175	100.06
423.398	100.06
423.621	87.06
423.843	99.06
424.066	93.06
424.288	94.06
424.511	94.06
424.733	98.06
424.956	97.06
425.178	114.06
425.401	102.06
425.623	95.06
425.846	103.06
426.068	96.06
426.291	98.06
426.513	85.06
426.735	91.06
426.958	79.06
427.18	92.06
427.402	96.06
427.625	95.06
427.847	95.06
428.069	99.06
428.292	79.06
428.514	90.06
428.736	87.06
428.958	99.06
429.181	98.06
429.403	89.06
429.625	101.06
429.847	100.06
430.069	107.06
430.292	100.06
430.514	95.06
430.736	97.06
430.958	92.06
431.18	85.06
431.402	82.06
431.624	88.06
431.846	87.06
432.068	81.06
432.29	88.06
432.512	94.06
432.734	92.06
432.956	104.06
433.178	84.06
433.4	98.06
433.622	101.06
433.844	90.06
434.066	103.06
434.287	84.06
434.509	77.06
434.731	87.06
434.953	89.06
435.175	85.06
435.397	98.06
435.618	98.06
435.84	84.06
436.062	96.06
436.284	90.06
436.505	100.06
436.727	85.06
436.949	97.06
437.17	79.06
437.392	109.06
437.614	99.06
437.835	79.06
438.057	82.06
438.278	86.06
438.5	99.06
438.721	91.06
438.943	98.06
439.165	97.06
439.386	102.06
439.608	75.06
439.829	101.06
440.05	104.06
440.272	95.06
440.493	94.06
440.715	97.06
440.936	101.06
441.158	99.06
441.379	113.06
441.6	103.06
441.822	94.06
442.043	88.06
442.264	99.06
442.486	99.06
442.707	107.06
442.928	113.06
443.149	82.06
443.371	98.06
443.592	100.06
443.813	101.06
444.034	93.06
444.255	93.06
444.476	101.06
444.698	110.06
444.919	96.06
445.14	202.06
445.361	153.06
445.582	110.06
445.803	99.06
446.024	94.06
446.245	100.06
446.466	97.06
446.687	104.06
446.908	100.06
447.129	89.06
447.35	102.06
447.571	95.06
447.792	90.06
448.013	94.06
448.234	94.06
448.455	114.06
448.675	97.06
448.896	103.06
449.117	95.06
449.338	102.06
449.559	100.06
449.779	105.06
450	110.06
450.221	98.06
450.442	94.06
450.662	90.06
450.883	90.06
451.104	96.06
451.324	98.06
451.545	92.06
451.766	91.06
451.986	95.06
452.207	94.06
452.428	99.06
452.648	101.06
452.869	108.06
453.089	89.06
453.31	88.06
453.53	105.06
453.751	85.06
453.971	87.06
454.192	79.06
454.412	84.06
454.633	83.06
454.853	86.06
455.073	87.06
455.294	88.06
455.514	103.06
455.734	96.06
455.955	94.06
456.175	98.06
456.395	105.06
456.616	84.06
456.836	85.06
457.056	106.06
457.276	100.06
457.497	82.06
457.717	79.06
457.937	96.06
458.157	94.06
458.377	84.06
458.598	85.06
458.818	86.06
459.038	76.06
459.258	86.06
459.478	86.06
459.698	88.06
459.918	93.06
460.138	97.06
460.358	87.06
460.578	93.06
460.798	99.06
461.018	92.06
461.238	89.06
461.458	89.06
461.678	89.06
461.898	91.06
462.118	95.06
462.338	87.06
462.558	90.06
462.777	87.06
462.997	99.06
463.217	99.06
463.437	101.06
463.657	95.06
463.876	84.06
464.096	91.06
464.316	86.06
464.536	88.06
464.755	103.06
464.975	81.06
465.195	101.06
465.414	89.06
465.634	89.06
465.854	91.06
466.073	99.06
466.293	92.06
466.512	92.06
466.732	98.06
466.951	88.06
467.171	106.06
467.391	88.06
467.61	92.06
467.829	104.06
468.049	90.06
468.268	79.06
468.488	98.06
468.707	87.06
468.927	105.06
469.146	96.06
469.365	105.06
469.585	96.06
469.804	109.06
470.023	97.06
470.243	95.06
470.462	91.06
470.681	101.06
470.901	95.06
471.12	100.06
471.339	90.06
471.558	100.06
471.777	106.06
471.997	92.06
472.216	89.06
472.435	91.06
472.654	82.06
472.873	89.06
473.092	86.06
473.311	93.06
473.53	99.06
473.749	100.06
473.968	87.06
474.187	96.06
474.406	95.06
474.625	93.06
474.844	92.06
475.063	99.06
475.282	83.06
475.501	97.06
475.72	95.06
475.939	101.06
476.158	106.06
476.377	86.06
476.596	86.06
476.814	94.06
477.033	86.06
477.252	102.06
477.471	91.06
477.69	98.06
477.908	114.06
478.127	100.06
478.346	103.06
478.564	92.06
478.783	83.06
479.002	80.06
479.22	103.06
479.439	94.06
479.658	112.06
479.876	94.06
480.095	97.06
480.313	85.06
480.532	88.06
480.751	86.06
480.969	84.06
481.188	86.06
481.406	96.06
481.624	101.06
481.843	70.06
482.061	83.06
482.28	92.06
482.498	87.06
482.717	102.06
482.935	92.06
483.153	91.06
483.372	95.06
483.59	93.06
483.808	95.06
484.027	107.06
484.245	93.06
484.463	118.06
484.681	118.06
484.9	106.06
485.118	112.06
485.336	88.06
485.554	96.06
485.772	88.06
485.99	95.06
486.209	95.06
486.427	90.06
486.645	103.06
486.863	85.06
487.081	101.06
487.299	111.06
487.517	95.06
487.735	108.06
487.953	113.06
488.171	121.06
488.389	115.06
488.607	113.06
488.825	102.06
489.043	104.06
489.261	103.06
489.479	84.06
489.696	113.06
489.914	100.06
490.132	100.06
490.35	98.06
490.568	110.06
490.786	102.06
491.003	109.06
491.221	107.06
491.439	111.06
491.657	120.06
491.874	124.06
492.092	110.06
492.31	128.06
492.527	124.06
492.745	106.06
492.963	134.06
493.18	130.06
493.398	110.06
493.615	107.06
493.833	96.06
494.05	119.06
494.268	116.06
494.485	105.06
494.703	104.06
494.92	104.06
495.138	107.06
495.355	108.06
495.573	119.06
495.79	116.06
496.008	112.06
496.225	117.06
496.442	94.06
496.66	117.06
496.877	113.06
497.094	112.06
497.312	115.06
497.529	106.06
497.746	100.06
497.963	103.06
498.181	95.06
498.398	96.06
498.615	83.06
498.832	95.06
499.049	88.06
499.267	105.06
499.484	97.06
499.701	91.06
499.918	87.06
500.135	104.06
500.352	118.06
500.569	112.06
500.786	103.06
501.003	96.06
501.22	88.06
501.437	102.06
501.654	99.06
501.871	92.06
502.088	100.06
502.305	97.06
502.522	91.06
502.739	93.06
502.956	114.06
503.172	95.06
503.389	83.06
503.606	87.06
503.823	89.06
504.04	95.06
504.256	104.06
504.473	100.06
504.69	94.06
504.907	86.06
505.123	97.06
505.34	94.06
505.557	98.06
505.773	94.06
505.99	90.06
506.207	98.06
506.423	100.06
506.64	95.06
506.856	92.06
507.073	92.06
507.289	95.06
507.506	76.06
507.722	102.06
507.939	96.06
508.155	91.06
508.372	93.06
508.588	84.06
508.805	81.06
509.021	94.06
509.238	98.06
509.454	89.06
509.67	88.06
509.887	64.06
510.103	67.06
510.319	92.06
510.536	90.06
510.752	80.06
510.968	94.06
511.184	93.06
511.401	81.06
511.617	95.06
511.833	92.06
512.049	87.06
512.265	90.06
512.481	67.06
512.698	87.06
512.914	83.06
513.13	91.06
513.346	91.06
513.562	98.06
513.778	75.06
513.994	80.06
514.21	85.06
514.426	103.06
514.642	81.06
514.858	95.06
515.074	83.06
515.29	90.06
515.506	90.06
515.721	80.06
515.937	84.06
516.153	92.06
516.369	79.06
516.585	89.06
516.801	81.06
517.016	99.06
517.232	98.06
