Data from Location4.07152019.Energy5.Lamp.07192019.3%Agarose_HRD10591_15-25-11-577.txt Node
Date: Fri Jul 19 15:25:11 EDT 2019
User: cochatt
Spectrometer: HR+D1059
Trigger mode: 1
Integration Time (sec): 1.000000E-1
Scans to average: 1
Electric dark correction enabled: true
Nonlinearity correction enabled: false
Boxcar width: 0
XAxis mode: Wavelengths
Number of Pixels in Spectrum: 2048
>>>>>Begin Spectral Data<<<<<
223.165	-12.81
223.4	-12.81
223.635	-12.81
223.869	-15.81
224.104	-11.81
224.338	-13.81
224.573	1.19
224.808	-0.81
225.042	13.19
225.277	-3.81
225.511	-23.81
225.746	0.19
225.98	-2.81
226.215	3.19
226.449	14.19
226.683	4.19
226.918	23.19
227.152	26.19
227.387	33.19
227.621	38.19
227.856	43.19
228.09	38.19
228.324	44.19
228.559	63.19
228.793	67.19
229.027	59.19
229.262	56.19
229.496	55.19
229.73	72.19
229.964	82.19
230.199	78.19
230.433	81.19
230.667	71.19
230.901	85.19
231.136	73.19
231.37	63.19
231.604	82.19
231.838	95.19
232.072	78.19
232.306	79.19
232.541	82.19
232.775	87.19
233.009	73.19
233.243	76.19
233.477	80.19
233.711	83.19
233.945	72.19
234.179	83.19
234.413	85.19
234.647	73.19
234.881	81.19
235.115	97.19
235.349	80.19
235.583	88.19
235.817	72.19
236.051	73.19
236.285	73.19
236.519	76.19
236.753	95.19
236.987	83.19
237.221	77.19
237.455	84.19
237.689	85.19
237.922	70.19
238.156	76.19
238.39	87.19
238.624	88.19
238.858	70.19
239.091	77.19
239.325	73.19
239.559	76.19
239.793	78.19
240.027	79.19
240.26	85.19
240.494	79.19
240.728	74.19
240.961	80.19
241.195	82.19
241.429	90.19
241.662	74.19
241.896	84.19
242.13	73.19
242.363	99.19
242.597	86.19
242.83	67.19
243.064	83.19
243.298	77.19
243.531	81.19
243.765	68.19
243.998	69.19
244.232	91.19
244.465	82.19
244.699	93.19
244.932	79.19
245.166	91.19
245.399	81.19
245.633	81.19
245.866	76.19
246.099	71.19
246.333	83.19
246.566	76.19
246.8	78.19
247.033	82.19
247.266	81.19
247.5	67.19
247.733	92.19
247.966	76.19
248.2	74.19
248.433	83.19
248.666	83.19
248.899	83.19
249.133	76.19
249.366	89.19
249.599	67.19
249.832	73.19
250.066	86.19
250.299	92.19
250.532	80.19
250.765	77.19
250.998	53.19
251.231	81.19
251.465	64.19
251.698	74.19
251.931	77.19
252.164	82.19
252.397	79.19
252.63	87.19
252.863	74.19
253.096	80.19
253.329	83.19
253.562	100.19
253.795	92.19
254.028	98.19
254.261	75.19
254.494	72.19
254.727	91.19
254.96	74.19
255.193	69.19
255.426	84.19
255.659	81.19
255.892	104.19
256.124	79.19
256.357	83.19
256.59	82.19
256.823	90.19
257.056	85.19
257.289	89.19
257.521	78.19
257.754	82.19
257.987	84.19
258.22	83.19
258.452	76.19
258.685	78.19
258.918	90.19
259.151	81.19
259.383	91.19
259.616	77.19
259.849	71.19
260.081	96.19
260.314	92.19
260.547	87.19
260.779	90.19
261.012	76.19
261.244	87.19
261.477	71.19
261.71	67.19
261.942	88.19
262.175	78.19
262.407	80.19
262.64	85.19
262.872	77.19
263.105	83.19
263.337	85.19
263.57	85.19
263.802	88.19
264.035	80.19
264.267	83.19
264.499	74.19
264.732	85.19
264.964	87.19
265.197	87.19
265.429	93.19
265.661	69.19
265.894	71.19
266.126	84.19
266.358	85.19
266.591	79.19
266.823	75.19
267.055	82.19
267.287	74.19
267.52	74.19
267.752	89.19
267.984	82.19
268.216	75.19
268.448	77.19
268.681	81.19
268.913	82.19
269.145	86.19
269.377	89.19
269.609	78.19
269.841	81.19
270.073	78.19
270.306	86.19
270.538	91.19
270.77	83.19
271.002	88.19
271.234	89.19
271.466	77.19
271.698	77.19
271.93	75.19
272.162	88.19
272.394	87.19
272.626	69.19
272.858	78.19
273.09	82.19
273.322	94.19
273.553	82.19
273.785	89.19
274.017	89.19
274.249	90.19
274.481	97.19
274.713	80.19
274.945	72.19
275.176	76.19
275.408	78.19
275.64	87.19
275.872	80.19
276.104	90.19
276.335	88.19
276.567	88.19
276.799	82.19
277.031	81.19
277.262	87.19
277.494	92.19
277.726	83.19
277.957	84.19
278.189	94.19
278.421	76.19
278.652	92.19
278.884	81.19
279.115	74.19
279.347	90.19
279.579	75.19
279.81	81.19
280.042	95.19
280.273	85.19
280.505	78.19
280.736	85.19
280.968	76.19
281.199	89.19
281.431	89.19
281.662	88.19
281.894	83.19
282.125	77.19
282.356	89.19
282.588	74.19
282.819	78.19
283.051	87.19
283.282	109.19
283.513	86.19
283.745	73.19
283.976	81.19
284.207	75.19
284.439	87.19
284.67	85.19
284.901	92.19
285.132	68.19
285.364	74.19
285.595	83.19
285.826	81.19
286.057	84.19
286.288	83.19
286.52	84.19
286.751	72.19
286.982	83.19
287.213	83.19
287.444	84.19
287.675	87.19
287.906	82.19
288.138	82.19
288.369	87.19
288.6	77.19
288.831	80.19
289.062	87.19
289.293	83.19
289.524	73.19
289.755	84.19
289.986	94.19
290.217	100.19
290.448	95.19
290.679	81.19
290.91	84.19
291.141	87.19
291.371	91.19
291.602	83.19
291.833	88.19
292.064	92.19
292.295	84.19
292.526	93.19
292.757	92.19
292.987	86.19
293.218	90.19
293.449	88.19
293.68	97.19
293.91	80.19
294.141	90.19
294.372	99.19
294.603	95.19
294.833	69.19
295.064	91.19
295.295	94.19
295.525	84.19
295.756	96.19
295.987	83.19
296.217	81.19
296.448	85.19
296.679	82.19
296.909	91.19
297.14	87.19
297.37	83.19
297.601	99.19
297.831	85.19
298.062	78.19
298.292	93.19
298.523	91.19
298.753	73.19
298.984	76.19
299.214	77.19
299.445	84.19
299.675	96.19
299.905	91.19
300.136	91.19
300.366	84.19
300.597	83.19
300.827	95.19
301.057	103.19
301.288	89.19
301.518	92.19
301.748	84.19
301.979	81.19
302.209	91.19
302.439	83.19
302.669	69.19
302.9	77.19
303.13	75.19
303.36	84.19
303.59	85.19
303.82	75.19
304.051	80.19
304.281	89.19
304.511	86.19
304.741	84.19
304.971	80.19
305.201	86.19
305.431	77.19
305.661	85.19
305.891	80.19
306.121	76.19
306.352	74.19
306.582	85.19
306.812	73.19
307.042	82.19
307.272	69.19
307.502	90.19
307.731	75.19
307.961	79.19
308.191	81.19
308.421	89.19
308.651	105.19
308.881	87.19
309.111	93.19
309.341	76.19
309.571	88.19
309.8	83.19
310.03	84.19
310.26	89.19
310.49	81.19
310.72	81.19
310.949	107.19
311.179	78.19
311.409	79.19
311.639	83.19
311.868	82.19
312.098	95.19
312.328	96.19
312.557	99.19
312.787	86.19
313.017	93.19
313.246	97.19
313.476	84.19
313.706	89.19
313.935	93.19
314.165	82.19
314.394	83.19
314.624	81.19
314.853	76.19
315.083	79.19
315.312	83.19
315.542	76.19
315.771	71.19
316.001	76.19
316.23	90.19
316.46	84.19
316.689	88.19
316.919	87.19
317.148	86.19
317.377	95.19
317.607	85.19
317.836	87.19
318.065	90.19
318.295	91.19
318.524	82.19
318.753	93.19
318.983	89.19
319.212	87.19
319.441	103.19
319.67	91.19
319.9	84.19
320.129	66.19
320.358	72.19
320.587	89.19
320.816	82.19
321.046	79.19
321.275	101.19
321.504	99.19
321.733	83.19
321.962	89.19
322.191	89.19
322.42	90.19
322.649	77.19
322.878	83.19
323.108	85.19
323.337	93.19
323.566	82.19
323.795	89.19
324.024	83.19
324.253	77.19
324.482	89.19
324.71	88.19
324.939	94.19
325.168	88.19
325.397	84.19
325.626	98.19
325.855	87.19
326.084	85.19
326.313	88.19
326.542	98.19
326.77	83.19
326.999	90.19
327.228	92.19
327.457	76.19
327.686	72.19
327.914	78.19
328.143	86.19
328.372	85.19
328.6	88.19
328.829	92.19
329.058	78.19
329.287	81.19
329.515	78.19
329.744	80.19
329.972	90.19
330.201	77.19
330.43	94.19
330.658	88.19
330.887	89.19
331.115	102.19
331.344	111.19
331.572	85.19
331.801	71.19
332.03	83.19
332.258	79.19
332.486	94.19
332.715	89.19
332.943	91.19
333.172	82.19
333.4	84.19
333.629	90.19
333.857	63.19
334.085	76.19
334.314	84.19
334.542	92.19
334.771	84.19
334.999	94.19
335.227	92.19
335.455	81.19
335.684	74.19
335.912	74.19
336.14	82.19
336.369	87.19
336.597	87.19
336.825	87.19
337.053	81.19
337.281	84.19
337.51	82.19
337.738	92.19
337.966	85.19
338.194	84.19
338.422	81.19
338.65	88.19
338.878	105.19
339.106	90.19
339.334	71.19
339.562	80.19
339.79	94.19
340.018	87.19
340.246	84.19
340.474	85.19
340.702	76.19
340.93	77.19
341.158	84.19
341.386	103.19
341.614	92.19
341.842	85.19
342.07	95.19
342.298	81.19
342.526	85.19
342.754	76.19
342.981	83.19
343.209	88.19
343.437	90.19
343.665	81.19
343.893	95.19
344.12	77.19
344.348	71.19
344.576	98.19
344.804	75.19
345.031	89.19
345.259	90.19
345.487	90.19
345.714	88.19
345.942	92.19
346.17	95.19
346.397	93.19
346.625	84.19
346.853	82.19
347.08	81.19
347.308	80.19
347.535	83.19
347.763	86.19
347.99	88.19
348.218	85.19
348.445	90.19
348.673	76.19
348.9	85.19
349.128	76.19
349.355	78.19
349.583	82.19
349.81	76.19
350.037	87.19
350.265	77.19
350.492	95.19
350.72	92.19
350.947	92.19
351.174	90.19
351.402	89.19
351.629	93.19
351.856	78.19
352.083	100.19
352.311	91.19
352.538	76.19
352.765	93.19
352.992	92.19
353.22	89.19
353.447	86.19
353.674	82.19
353.901	69.19
354.128	99.19
354.355	95.19
354.583	79.19
354.81	92.19
355.037	83.19
355.264	99.19
355.491	80.19
355.718	96.19
355.945	99.19
356.172	83.19
356.399	84.19
356.626	78.19
356.853	82.19
357.08	80.19
357.307	72.19
357.534	85.19
357.761	85.19
357.988	84.19
358.215	79.19
358.441	93.19
358.668	78.19
358.895	89.19
359.122	83.19
359.349	88.19
359.576	100.19
359.802	87.19
360.029	89.19
360.256	84.19
360.483	78.19
360.709	89.19
360.936	80.19
361.163	99.19
361.39	91.19
361.616	90.19
361.843	75.19
362.07	87.19
362.296	83.19
362.523	71.19
362.749	88.19
362.976	85.19
363.203	79.19
363.429	86.19
363.656	97.19
363.882	99.19
364.109	87.19
364.335	91.19
364.562	81.19
364.788	73.19
365.015	89.19
365.241	82.19
365.468	87.19
365.694	87.19
365.92	85.19
366.147	85.19
366.373	82.19
366.599	85.19
366.826	89.19
367.052	84.19
367.278	81.19
367.505	91.19
367.731	90.19
367.957	97.19
368.184	72.19
368.41	90.19
368.636	83.19
368.862	97.19
369.089	82.19
369.315	97.19
369.541	91.19
369.767	78.19
369.993	85.19
370.219	79.19
370.445	83.19
370.672	88.19
370.898	86.19
371.124	90.19
371.35	87.19
371.576	92.19
371.802	79.19
372.028	74.19
372.254	89.19
372.48	90.19
372.706	86.19
372.932	87.19
373.158	69.19
373.384	78.19
373.61	83.19
373.835	80.19
374.061	88.19
374.287	79.19
374.513	70.19
374.739	82.19
374.965	92.19
375.191	93.19
375.416	92.19
375.642	101.19
375.868	87.19
376.094	90.19
376.319	90.19
376.545	81.19
376.771	86.19
376.997	74.19
377.222	77.19
377.448	92.19
377.674	88.19
377.899	83.19
378.125	89.19
378.35	80.19
378.576	80.19
378.802	84.19
379.027	82.19
379.253	89.19
379.478	88.19
379.704	77.19
379.929	77.19
380.155	86.19
380.38	93.19
380.606	80.19
380.831	88.19
381.057	87.19
381.282	81.19
381.507	91.19
381.733	95.19
381.958	90.19
382.184	101.19
382.409	93.19
382.634	91.19
382.86	76.19
383.085	87.19
383.31	81.19
383.535	89.19
383.761	93.19
383.986	84.19
384.211	94.19
384.436	100.19
384.662	78.19
384.887	98.19
385.112	97.19
385.337	73.19
385.562	92.19
385.787	97.19
386.013	89.19
386.238	101.19
386.463	94.19
386.688	92.19
386.913	94.19
387.138	89.19
387.363	82.19
387.588	90.19
387.813	81.19
388.038	91.19
388.263	87.19
388.488	91.19
388.713	89.19
388.938	69.19
389.163	103.19
389.387	95.19
389.612	69.19
389.837	77.19
390.062	93.19
390.287	97.19
390.512	80.19
390.736	95.19
390.961	92.19
391.186	72.19
391.411	77.19
391.636	81.19
391.86	85.19
392.085	84.19
392.31	84.19
392.534	78.19
392.759	93.19
392.984	88.19
393.208	86.19
393.433	91.19
393.658	95.19
393.882	77.19
394.107	80.19
394.331	69.19
394.556	72.19
394.78	83.19
395.005	86.19
395.229	85.19
395.454	92.19
395.678	88.19
395.903	84.19
396.127	95.19
396.352	73.19
396.576	96.19
396.801	80.19
397.025	87.19
397.249	97.19
397.474	90.19
397.698	99.19
397.922	96.19
398.147	67.19
398.371	93.19
398.595	103.19
398.82	78.19
399.044	87.19
399.268	100.19
399.492	83.19
399.717	91.19
399.941	90.19
400.165	95.19
400.389	79.19
400.613	90.19
400.837	88.19
401.062	92.19
401.286	96.19
401.51	82.19
401.734	94.19
401.958	86.19
402.182	88.19
402.406	89.19
402.63	77.19
402.854	95.19
403.078	88.19
403.302	89.19
403.526	108.19
403.75	83.19
403.974	92.19
404.198	94.19
404.422	80.19
404.645	75.19
404.869	88.19
405.093	82.19
405.317	86.19
405.541	96.19
405.765	92.19
405.988	91.19
406.212	92.19
406.436	93.19
406.66	88.19
406.883	98.19
407.107	95.19
407.331	100.19
407.555	96.19
407.778	96.19
408.002	81.19
408.226	77.19
408.449	97.19
408.673	82.19
408.896	90.19
409.12	93.19
409.344	96.19
409.567	109.19
409.791	87.19
410.014	87.19
410.238	81.19
410.461	93.19
410.685	93.19
410.908	92.19
411.132	107.19
411.355	108.19
411.578	93.19
411.802	112.19
412.025	101.19
412.249	80.19
412.472	88.19
412.695	88.19
412.919	88.19
413.142	80.19
413.365	94.19
413.589	81.19
413.812	81.19
414.035	85.19
414.258	77.19
414.482	81.19
414.705	89.19
414.928	76.19
415.151	92.19
415.374	81.19
415.597	93.19
415.821	108.19
416.044	100.19
416.267	103.19
416.49	99.19
416.713	88.19
416.936	97.19
417.159	94.19
417.382	92.19
417.605	77.19
417.828	83.19
418.051	88.19
418.274	103.19
418.497	88.19
418.72	82.19
418.943	111.19
419.166	95.19
419.389	104.19
419.611	101.19
419.834	97.19
420.057	95.19
420.28	83.19
420.503	96.19
420.726	94.19
420.948	82.19
421.171	85.19
421.394	91.19
421.617	107.19
421.839	103.19
422.062	102.19
422.285	94.19
422.507	88.19
422.73	95.19
422.953	86.19
423.175	98.19
423.398	102.19
423.621	98.19
423.843	93.19
424.066	85.19
424.288	96.19
424.511	77.19
424.733	105.19
424.956	98.19
425.178	101.19
425.401	91.19
425.623	89.19
425.846	103.19
426.068	102.19
426.291	97.19
426.513	97.19
426.735	86.19
426.958	85.19
427.18	106.19
427.402	96.19
427.625	91.19
427.847	93.19
428.069	94.19
428.292	95.19
428.514	94.19
428.736	93.19
428.958	91.19
429.181	93.19
429.403	79.19
429.625	86.19
429.847	94.19
430.069	105.19
430.292	97.19
430.514	101.19
430.736	93.19
430.958	97.19
431.18	88.19
431.402	96.19
431.624	93.19
431.846	86.19
432.068	83.19
432.29	76.19
432.512	88.19
432.734	101.19
432.956	97.19
433.178	93.19
433.4	108.19
433.622	90.19
433.844	74.19
434.066	84.19
434.287	93.19
434.509	87.19
434.731	94.19
434.953	84.19
435.175	88.19
435.397	73.19
435.618	95.19
435.84	97.19
436.062	98.19
436.284	83.19
436.505	96.19
436.727	80.19
436.949	100.19
437.17	95.19
437.392	85.19
437.614	83.19
437.835	95.19
438.057	82.19
438.278	67.19
438.5	91.19
438.721	100.19
438.943	77.19
439.165	98.19
439.386	92.19
439.608	103.19
439.829	105.19
440.05	101.19
440.272	91.19
440.493	94.19
440.715	103.19
440.936	83.19
441.158	116.19
441.379	96.19
441.6	97.19
441.822	110.19
442.043	102.19
442.264	100.19
442.486	90.19
442.707	99.19
442.928	99.19
443.149	83.19
443.371	99.19
443.592	100.19
443.813	104.19
444.034	92.19
444.255	97.19
444.476	101.19
444.698	87.19
444.919	91.19
445.14	232.19
445.361	145.19
445.582	90.19
445.803	116.19
446.024	99.19
446.245	93.19
446.466	114.19
446.687	103.19
446.908	100.19
447.129	107.19
447.35	99.19
447.571	95.19
447.792	92.19
448.013	87.19
448.234	83.19
448.455	95.19
448.675	108.19
448.896	97.19
449.117	105.19
449.338	93.19
449.559	109.19
449.779	100.19
450	93.19
450.221	114.19
450.442	103.19
450.662	95.19
450.883	84.19
451.104	109.19
451.324	97.19
451.545	96.19
451.766	97.19
451.986	85.19
452.207	92.19
452.428	99.19
452.648	90.19
452.869	97.19
453.089	94.19
453.31	95.19
453.53	104.19
453.751	71.19
453.971	88.19
454.192	90.19
454.412	92.19
454.633	87.19
454.853	98.19
455.073	99.19
455.294	91.19
455.514	91.19
455.734	88.19
455.955	93.19
456.175	92.19
456.395	79.19
456.616	100.19
456.836	90.19
457.056	76.19
457.276	73.19
457.497	79.19
457.717	87.19
457.937	91.19
458.157	87.19
458.377	95.19
458.598	98.19
458.818	89.19
459.038	102.19
459.258	100.19
459.478	83.19
459.698	89.19
459.918	88.19
460.138	75.19
460.358	83.19
460.578	100.19
460.798	97.19
461.018	93.19
461.238	90.19
461.458	88.19
461.678	106.19
461.898	87.19
462.118	95.19
462.338	95.19
462.558	102.19
462.777	80.19
462.997	84.19
463.217	100.19
463.437	93.19
463.657	92.19
463.876	91.19
464.096	73.19
464.316	83.19
464.536	71.19
464.755	86.19
464.975	87.19
465.195	79.19
465.414	84.19
465.634	103.19
465.854	90.19
466.073	99.19
466.293	89.19
466.512	106.19
466.732	98.19
466.951	101.19
467.171	112.19
467.391	98.19
467.61	97.19
467.829	106.19
468.049	105.19
468.268	95.19
468.488	98.19
468.707	103.19
468.927	93.19
469.146	96.19
469.365	97.19
469.585	98.19
469.804	96.19
470.023	95.19
470.243	89.19
470.462	91.19
470.681	94.19
470.901	106.19
471.12	98.19
471.339	95.19
471.558	99.19
471.777	104.19
471.997	86.19
472.216	93.19
472.435	96.19
472.654	85.19
472.873	96.19
473.092	96.19
473.311	112.19
473.53	89.19
473.749	99.19
473.968	92.19
474.187	96.19
474.406	102.19
474.625	81.19
474.844	96.19
475.063	80.19
475.282	102.19
475.501	92.19
475.72	96.19
475.939	88.19
476.158	106.19
476.377	89.19
476.596	89.19
476.814	90.19
477.033	81.19
477.252	86.19
477.471	87.19
477.69	92.19
477.908	91.19
478.127	96.19
478.346	104.19
478.564	96.19
478.783	89.19
479.002	113.19
479.22	92.19
479.439	101.19
479.658	100.19
479.876	91.19
480.095	74.19
480.313	98.19
480.532	105.19
480.751	82.19
480.969	93.19
481.188	81.19
481.406	89.19
481.624	78.19
481.843	81.19
482.061	86.19
482.28	96.19
482.498	86.19
482.717	91.19
482.935	98.19
483.153	103.19
483.372	100.19
483.59	104.19
483.808	111.19
484.027	111.19
484.245	115.19
484.463	99.19
484.681	113.19
484.9	97.19
485.118	104.19
485.336	93.19
485.554	105.19
485.772	90.19
485.99	88.19
486.209	92.19
486.427	98.19
486.645	98.19
486.863	96.19
487.081	101.19
487.299	103.19
487.517	101.19
487.735	101.19
487.953	128.19
488.171	124.19
488.389	118.19
488.607	108.19
488.825	99.19
489.043	99.19
489.261	103.19
489.479	96.19
489.696	99.19
489.914	99.19
490.132	102.19
490.35	103.19
490.568	108.19
490.786	100.19
491.003	100.19
491.221	118.19
491.439	123.19
491.657	113.19
491.874	125.19
492.092	125.19
492.31	118.19
492.527	123.19
492.745	114.19
492.963	119.19
493.18	133.19
493.398	112.19
493.615	118.19
493.833	112.19
494.05	114.19
494.268	95.19
494.485	95.19
494.703	101.19
494.92	116.19
495.138	100.19
495.355	98.19
495.573	123.19
495.79	95.19
496.008	111.19
496.225	101.19
496.442	85.19
496.66	98.19
496.877	90.19
497.094	93.19
497.312	120.19
497.529	91.19
497.746	103.19
497.963	108.19
498.181	95.19
498.398	101.19
498.615	99.19
498.832	107.19
499.049	91.19
499.267	98.19
499.484	98.19
499.701	116.19
499.918	98.19
500.135	120.19
500.352	101.19
500.569	98.19
500.786	97.19
501.003	90.19
501.22	88.19
501.437	95.19
501.654	95.19
501.871	96.19
502.088	97.19
502.305	88.19
502.522	108.19
502.739	110.19
502.956	99.19
503.172	100.19
503.389	108.19
503.606	85.19
503.823	87.19
504.04	85.19
504.256	97.19
504.473	107.19
504.69	107.19
504.907	93.19
505.123	92.19
505.34	101.19
505.557	97.19
505.773	101.19
505.99	76.19
506.207	97.19
506.423	90.19
506.64	103.19
506.856	90.19
507.073	83.19
507.289	87.19
507.506	91.19
507.722	102.19
507.939	101.19
508.155	97.19
508.372	101.19
508.588	103.19
508.805	98.19
509.021	89.19
509.238	90.19
509.454	93.19
509.67	72.19
509.887	82.19
510.103	88.19
510.319	91.19
510.536	92.19
510.752	86.19
510.968	92.19
511.184	83.19
511.401	89.19
511.617	88.19
511.833	89.19
512.049	72.19
512.265	106.19
512.481	91.19
512.698	99.19
512.914	85.19
513.13	92.19
513.346	91.19
513.562	97.19
513.778	74.19
513.994	91.19
514.21	95.19
514.426	96.19
514.642	94.19
514.858	97.19
515.074	75.19
515.29	76.19
515.506	78.19
515.721	85.19
515.937	90.19
516.153	85.19
516.369	65.19
516.585	82.19
516.801	84.19
517.016	88.19
517.232	74.19
