Data from Location4.07152019.Energy5.Lamp.07192019.3%Agarose_HRD10591_15-23-43-576.txt Node
Date: Fri Jul 19 15:23:43 EDT 2019
User: cochatt
Spectrometer: HR+D1059
Trigger mode: 1
Integration Time (sec): 1.000000E-1
Scans to average: 1
Electric dark correction enabled: true
Nonlinearity correction enabled: false
Boxcar width: 0
XAxis mode: Wavelengths
Number of Pixels in Spectrum: 2048
>>>>>Begin Spectral Data<<<<<
223.165	-11.12
223.4	-11.12
223.635	-11.12
223.869	-16.12
224.104	-20.12
224.338	-9.12
224.573	-26.12
224.808	0.88
225.042	-10.12
225.277	-31.12
225.511	0.88
225.746	3.88
225.98	9.88
226.215	11.88
226.449	6.88
226.683	17.88
226.918	34.88
227.152	36.88
227.387	36.88
227.621	31.88
227.856	39.88
228.09	43.88
228.324	46.88
228.559	44.88
228.793	62.88
229.027	71.88
229.262	67.88
229.496	62.88
229.73	62.88
229.964	55.88
230.199	75.88
230.433	81.88
230.667	70.88
230.901	72.88
231.136	80.88
231.37	83.88
231.604	71.88
231.838	80.88
232.072	64.88
232.306	80.88
232.541	86.88
232.775	81.88
233.009	53.88
233.243	92.88
233.477	82.88
233.711	67.88
233.945	63.88
234.179	76.88
234.413	84.88
234.647	72.88
234.881	80.88
235.115	77.88
235.349	83.88
235.583	73.88
235.817	81.88
236.051	84.88
236.285	70.88
236.519	78.88
236.753	89.88
236.987	85.88
237.221	84.88
237.455	85.88
237.689	68.88
237.922	70.88
238.156	71.88
238.39	83.88
238.624	76.88
238.858	68.88
239.091	63.88
239.325	76.88
239.559	81.88
239.793	80.88
240.027	75.88
240.26	76.88
240.494	75.88
240.728	75.88
240.961	83.88
241.195	83.88
241.429	86.88
241.662	80.88
241.896	73.88
242.13	76.88
242.363	71.88
242.597	77.88
242.83	79.88
243.064	70.88
243.298	83.88
243.531	82.88
243.765	92.88
243.998	76.88
244.232	72.88
244.465	80.88
244.699	74.88
244.932	84.88
245.166	83.88
245.399	72.88
245.633	79.88
245.866	76.88
246.099	80.88
246.333	73.88
246.566	66.88
246.8	74.88
247.033	76.88
247.266	78.88
247.5	75.88
247.733	84.88
247.966	76.88
248.2	73.88
248.433	78.88
248.666	77.88
248.899	81.88
249.133	82.88
249.366	75.88
249.599	69.88
249.832	82.88
250.066	82.88
250.299	80.88
250.532	67.88
250.765	80.88
250.998	82.88
251.231	66.88
251.465	77.88
251.698	66.88
251.931	86.88
252.164	83.88
252.397	74.88
252.63	79.88
252.863	72.88
253.096	87.88
253.329	80.88
253.562	80.88
253.795	67.88
254.028	78.88
254.261	72.88
254.494	82.88
254.727	70.88
254.96	83.88
255.193	77.88
255.426	70.88
255.659	75.88
255.892	83.88
256.124	97.88
256.357	73.88
256.59	89.88
256.823	78.88
257.056	73.88
257.289	82.88
257.521	67.88
257.754	82.88
257.987	80.88
258.22	89.88
258.452	89.88
258.685	81.88
258.918	67.88
259.151	76.88
259.383	64.88
259.616	81.88
259.849	88.88
260.081	89.88
260.314	96.88
260.547	79.88
260.779	71.88
261.012	84.88
261.244	75.88
261.477	82.88
261.71	77.88
261.942	88.88
262.175	85.88
262.407	72.88
262.64	76.88
262.872	75.88
263.105	79.88
263.337	85.88
263.57	80.88
263.802	82.88
264.035	100.88
264.267	86.88
264.499	86.88
264.732	76.88
264.964	81.88
265.197	80.88
265.429	85.88
265.661	96.88
265.894	80.88
266.126	80.88
266.358	86.88
266.591	78.88
266.823	84.88
267.055	81.88
267.287	80.88
267.52	77.88
267.752	95.88
267.984	79.88
268.216	79.88
268.448	72.88
268.681	73.88
268.913	75.88
269.145	76.88
269.377	76.88
269.609	73.88
269.841	77.88
270.073	92.88
270.306	93.88
270.538	91.88
270.77	67.88
271.002	73.88
271.234	88.88
271.466	86.88
271.698	81.88
271.93	92.88
272.162	76.88
272.394	78.88
272.626	80.88
272.858	66.88
273.09	84.88
273.322	89.88
273.553	78.88
273.785	97.88
274.017	69.88
274.249	82.88
274.481	81.88
274.713	85.88
274.945	69.88
275.176	67.88
275.408	87.88
275.64	83.88
275.872	82.88
276.104	94.88
276.335	96.88
276.567	92.88
276.799	71.88
277.031	94.88
277.262	80.88
277.494	82.88
277.726	74.88
277.957	75.88
278.189	87.88
278.421	80.88
278.652	91.88
278.884	85.88
279.115	87.88
279.347	93.88
279.579	73.88
279.81	78.88
280.042	71.88
280.273	82.88
280.505	78.88
280.736	92.88
280.968	99.88
281.199	78.88
281.431	92.88
281.662	88.88
281.894	80.88
282.125	92.88
282.356	82.88
282.588	86.88
282.819	86.88
283.051	81.88
283.282	67.88
283.513	89.88
283.745	82.88
283.976	83.88
284.207	91.88
284.439	85.88
284.67	81.88
284.901	80.88
285.132	84.88
285.364	82.88
285.595	98.88
285.826	66.88
286.057	86.88
286.288	98.88
286.52	73.88
286.751	87.88
286.982	80.88
287.213	78.88
287.444	87.88
287.675	74.88
287.906	90.88
288.138	91.88
288.369	79.88
288.6	80.88
288.831	73.88
289.062	78.88
289.293	88.88
289.524	83.88
289.755	82.88
289.986	88.88
290.217	84.88
290.448	76.88
290.679	76.88
290.91	82.88
291.141	97.88
291.371	82.88
291.602	82.88
291.833	83.88
292.064	87.88
292.295	87.88
292.526	74.88
292.757	89.88
292.987	91.88
293.218	82.88
293.449	86.88
293.68	75.88
293.91	83.88
294.141	67.88
294.372	79.88
294.603	88.88
294.833	71.88
295.064	86.88
295.295	79.88
295.525	60.88
295.756	91.88
295.987	106.88
296.217	83.88
296.448	84.88
296.679	90.88
296.909	103.88
297.14	81.88
297.37	97.88
297.601	82.88
297.831	90.88
298.062	78.88
298.292	90.88
298.523	85.88
298.753	87.88
298.984	75.88
299.214	85.88
299.445	84.88
299.675	73.88
299.905	95.88
300.136	79.88
300.366	74.88
300.597	64.88
300.827	83.88
301.057	102.88
301.288	74.88
301.518	91.88
301.748	90.88
301.979	85.88
302.209	90.88
302.439	82.88
302.669	68.88
302.9	75.88
303.13	87.88
303.36	88.88
303.59	68.88
303.82	98.88
304.051	90.88
304.281	90.88
304.511	78.88
304.741	85.88
304.971	83.88
305.201	87.88
305.431	90.88
305.661	76.88
305.891	70.88
306.121	84.88
306.352	90.88
306.582	82.88
306.812	86.88
307.042	72.88
307.272	88.88
307.502	91.88
307.731	84.88
307.961	88.88
308.191	82.88
308.421	76.88
308.651	77.88
308.881	75.88
309.111	75.88
309.341	85.88
309.571	83.88
309.8	91.88
310.03	76.88
310.26	83.88
310.49	106.88
310.72	81.88
310.949	82.88
311.179	76.88
311.409	94.88
311.639	79.88
311.868	83.88
312.098	83.88
312.328	87.88
312.557	83.88
312.787	76.88
313.017	82.88
313.246	98.88
313.476	79.88
313.706	70.88
313.935	95.88
314.165	80.88
314.394	94.88
314.624	83.88
314.853	81.88
315.083	90.88
315.312	80.88
315.542	80.88
315.771	75.88
316.001	83.88
316.23	66.88
316.46	84.88
316.689	76.88
316.919	83.88
317.148	95.88
317.377	83.88
317.607	83.88
317.836	88.88
318.065	77.88
318.295	74.88
318.524	86.88
318.753	87.88
318.983	86.88
319.212	84.88
319.441	78.88
319.67	101.88
319.9	86.88
320.129	79.88
320.358	83.88
320.587	94.88
320.816	81.88
321.046	85.88
321.275	89.88
321.504	85.88
321.733	96.88
321.962	96.88
322.191	86.88
322.42	97.88
322.649	86.88
322.878	91.88
323.108	89.88
323.337	80.88
323.566	79.88
323.795	90.88
324.024	87.88
324.253	79.88
324.482	86.88
324.71	79.88
324.939	90.88
325.168	87.88
325.397	77.88
325.626	89.88
325.855	88.88
326.084	82.88
326.313	85.88
326.542	76.88
326.77	76.88
326.999	78.88
327.228	70.88
327.457	79.88
327.686	80.88
327.914	72.88
328.143	84.88
328.372	95.88
328.6	72.88
328.829	87.88
329.058	87.88
329.287	80.88
329.515	86.88
329.744	79.88
329.972	82.88
330.201	95.88
330.43	91.88
330.658	74.88
330.887	74.88
331.115	81.88
331.344	70.88
331.572	92.88
331.801	82.88
332.03	76.88
332.258	86.88
332.486	89.88
332.715	67.88
332.943	78.88
333.172	75.88
333.4	65.88
333.629	83.88
333.857	81.88
334.085	94.88
334.314	80.88
334.542	76.88
334.771	85.88
334.999	79.88
335.227	82.88
335.455	86.88
335.684	81.88
335.912	84.88
336.14	79.88
336.369	70.88
336.597	79.88
336.825	75.88
337.053	76.88
337.281	89.88
337.51	73.88
337.738	85.88
337.966	83.88
338.194	68.88
338.422	82.88
338.65	90.88
338.878	88.88
339.106	73.88
339.334	79.88
339.562	75.88
339.79	89.88
340.018	81.88
340.246	80.88
340.474	81.88
340.702	81.88
340.93	93.88
341.158	89.88
341.386	67.88
341.614	90.88
341.842	81.88
342.07	95.88
342.298	90.88
342.526	83.88
342.754	83.88
342.981	91.88
343.209	76.88
343.437	85.88
343.665	76.88
343.893	79.88
344.12	85.88
344.348	85.88
344.576	75.88
344.804	72.88
345.031	87.88
345.259	86.88
345.487	84.88
345.714	73.88
345.942	60.88
346.17	76.88
346.397	84.88
346.625	74.88
346.853	84.88
347.08	80.88
347.308	81.88
347.535	78.88
347.763	62.88
347.99	78.88
348.218	71.88
348.445	65.88
348.673	84.88
348.9	73.88
349.128	86.88
349.355	73.88
349.583	93.88
349.81	84.88
350.037	83.88
350.265	86.88
350.492	83.88
350.72	79.88
350.947	96.88
351.174	84.88
351.402	83.88
351.629	90.88
351.856	92.88
352.083	92.88
352.311	77.88
352.538	90.88
352.765	80.88
352.992	96.88
353.22	91.88
353.447	81.88
353.674	86.88
353.901	85.88
354.128	86.88
354.355	83.88
354.583	83.88
354.81	90.88
355.037	80.88
355.264	78.88
355.491	71.88
355.718	71.88
355.945	87.88
356.172	102.88
356.399	81.88
356.626	87.88
356.853	82.88
357.08	73.88
357.307	67.88
357.534	95.88
357.761	91.88
357.988	84.88
358.215	66.88
358.441	77.88
358.668	83.88
358.895	87.88
359.122	83.88
359.349	91.88
359.576	87.88
359.802	82.88
360.029	86.88
360.256	78.88
360.483	88.88
360.709	80.88
360.936	74.88
361.163	69.88
361.39	86.88
361.616	97.88
361.843	86.88
362.07	89.88
362.296	80.88
362.523	85.88
362.749	91.88
362.976	90.88
363.203	85.88
363.429	80.88
363.656	82.88
363.882	80.88
364.109	92.88
364.335	76.88
364.562	77.88
364.788	76.88
365.015	83.88
365.241	89.88
365.468	74.88
365.694	82.88
365.92	82.88
366.147	91.88
366.373	88.88
366.599	86.88
366.826	71.88
367.052	88.88
367.278	90.88
367.505	82.88
367.731	86.88
367.957	90.88
368.184	78.88
368.41	77.88
368.636	89.88
368.862	87.88
369.089	92.88
369.315	88.88
369.541	69.88
369.767	87.88
369.993	81.88
370.219	101.88
370.445	90.88
370.672	83.88
370.898	85.88
371.124	79.88
371.35	87.88
371.576	91.88
371.802	81.88
372.028	71.88
372.254	83.88
372.48	90.88
372.706	77.88
372.932	83.88
373.158	83.88
373.384	88.88
373.61	78.88
373.835	89.88
374.061	84.88
374.287	88.88
374.513	71.88
374.739	72.88
374.965	85.88
375.191	87.88
375.416	81.88
375.642	75.88
375.868	74.88
376.094	93.88
376.319	63.88
376.545	70.88
376.771	87.88
376.997	78.88
377.222	85.88
377.448	87.88
377.674	74.88
377.899	68.88
378.125	92.88
378.35	97.88
378.576	81.88
378.802	78.88
379.027	80.88
379.253	71.88
379.478	90.88
379.704	79.88
379.929	91.88
380.155	81.88
380.38	92.88
380.606	84.88
380.831	76.88
381.057	91.88
381.282	82.88
381.507	85.88
381.733	78.88
381.958	95.88
382.184	75.88
382.409	82.88
382.634	93.88
382.86	89.88
383.085	78.88
383.31	82.88
383.535	84.88
383.761	80.88
383.986	86.88
384.211	75.88
384.436	88.88
384.662	89.88
384.887	88.88
385.112	94.88
385.337	82.88
385.562	80.88
385.787	91.88
386.013	86.88
386.238	76.88
386.463	75.88
386.688	85.88
386.913	82.88
387.138	73.88
387.363	77.88
387.588	85.88
387.813	89.88
388.038	68.88
388.263	84.88
388.488	84.88
388.713	79.88
388.938	92.88
389.163	73.88
389.387	82.88
389.612	89.88
389.837	85.88
390.062	82.88
390.287	86.88
390.512	91.88
390.736	74.88
390.961	61.88
391.186	86.88
391.411	81.88
391.636	91.88
391.86	79.88
392.085	79.88
392.31	92.88
392.534	81.88
392.759	88.88
392.984	80.88
393.208	85.88
393.433	97.88
393.658	82.88
393.882	93.88
394.107	94.88
394.331	87.88
394.556	90.88
394.78	81.88
395.005	86.88
395.229	94.88
395.454	99.88
395.678	77.88
395.903	87.88
396.127	74.88
396.352	72.88
396.576	78.88
396.801	73.88
397.025	82.88
397.249	91.88
397.474	86.88
397.698	91.88
397.922	95.88
398.147	86.88
398.371	90.88
398.595	83.88
398.82	86.88
399.044	86.88
399.268	94.88
399.492	80.88
399.717	83.88
399.941	94.88
400.165	94.88
400.389	81.88
400.613	82.88
400.837	90.88
401.062	84.88
401.286	86.88
401.51	91.88
401.734	82.88
401.958	84.88
402.182	86.88
402.406	82.88
402.63	85.88
402.854	88.88
403.078	68.88
403.302	83.88
403.526	82.88
403.75	83.88
403.974	83.88
404.198	87.88
404.422	87.88
404.645	87.88
404.869	76.88
405.093	112.88
405.317	90.88
405.541	75.88
405.765	84.88
405.988	92.88
406.212	91.88
406.436	84.88
406.66	96.88
406.883	94.88
407.107	91.88
407.331	89.88
407.555	92.88
407.778	98.88
408.002	82.88
408.226	104.88
408.449	76.88
408.673	82.88
408.896	79.88
409.12	89.88
409.344	94.88
409.567	89.88
409.791	86.88
410.014	99.88
410.238	92.88
410.461	96.88
410.685	92.88
410.908	100.88
411.132	94.88
411.355	89.88
411.578	77.88
411.802	104.88
412.025	91.88
412.249	101.88
412.472	81.88
412.695	84.88
412.919	83.88
413.142	91.88
413.365	93.88
413.589	97.88
413.812	88.88
414.035	91.88
414.258	81.88
414.482	107.88
414.705	94.88
414.928	91.88
415.151	91.88
415.374	95.88
415.597	77.88
415.821	86.88
416.044	87.88
416.267	99.88
416.49	81.88
416.713	86.88
416.936	81.88
417.159	91.88
417.382	86.88
417.605	82.88
417.828	93.88
418.051	88.88
418.274	91.88
418.497	90.88
418.72	95.88
418.943	97.88
419.166	89.88
419.389	88.88
419.611	83.88
419.834	93.88
420.057	97.88
420.28	87.88
420.503	92.88
420.726	99.88
420.948	92.88
421.171	98.88
421.394	90.88
421.617	95.88
421.839	86.88
422.062	106.88
422.285	95.88
422.507	83.88
422.73	87.88
422.953	81.88
423.175	99.88
423.398	85.88
423.621	85.88
423.843	92.88
424.066	89.88
424.288	85.88
424.511	97.88
424.733	89.88
424.956	91.88
425.178	84.88
425.401	84.88
425.623	102.88
425.846	90.88
426.068	96.88
426.291	84.88
426.513	102.88
426.735	77.88
426.958	88.88
427.18	95.88
427.402	96.88
427.625	85.88
427.847	87.88
428.069	100.88
428.292	91.88
428.514	86.88
428.736	91.88
428.958	87.88
429.181	82.88
429.403	82.88
429.625	89.88
429.847	97.88
430.069	103.88
430.292	94.88
430.514	81.88
430.736	79.88
430.958	99.88
431.18	87.88
431.402	91.88
431.624	105.88
431.846	87.88
432.068	83.88
432.29	88.88
432.512	80.88
432.734	80.88
432.956	99.88
433.178	84.88
433.4	104.88
433.622	92.88
433.844	99.88
434.066	90.88
434.287	86.88
434.509	77.88
434.731	85.88
434.953	84.88
435.175	92.88
435.397	96.88
435.618	102.88
435.84	102.88
436.062	95.88
436.284	102.88
436.505	89.88
436.727	79.88
436.949	99.88
437.17	97.88
437.392	91.88
437.614	87.88
437.835	67.88
438.057	75.88
438.278	87.88
438.5	83.88
438.721	85.88
438.943	92.88
439.165	105.88
439.386	87.88
439.608	115.88
439.829	103.88
440.05	96.88
440.272	93.88
440.493	83.88
440.715	92.88
440.936	102.88
441.158	112.88
441.379	100.88
441.6	100.88
441.822	97.88
442.043	87.88
442.264	87.88
442.486	103.88
442.707	104.88
442.928	90.88
443.149	82.88
443.371	90.88
443.592	89.88
443.813	103.88
444.034	98.88
444.255	89.88
444.476	87.88
444.698	100.88
444.919	95.88
445.14	165.88
445.361	143.88
445.582	96.88
445.803	84.88
446.024	90.88
446.245	102.88
446.466	97.88
446.687	102.88
446.908	94.88
447.129	115.88
447.35	103.88
447.571	92.88
447.792	99.88
448.013	98.88
448.234	91.88
448.455	80.88
448.675	100.88
448.896	91.88
449.117	92.88
449.338	95.88
449.559	91.88
449.779	98.88
450	89.88
450.221	78.88
450.442	91.88
450.662	93.88
450.883	89.88
451.104	92.88
451.324	89.88
451.545	97.88
451.766	87.88
451.986	84.88
452.207	98.88
452.428	97.88
452.648	95.88
452.869	86.88
453.089	76.88
453.31	66.88
453.53	82.88
453.751	76.88
453.971	84.88
454.192	79.88
454.412	87.88
454.633	91.88
454.853	91.88
455.073	94.88
455.294	87.88
455.514	107.88
455.734	95.88
455.955	77.88
456.175	104.88
456.395	102.88
456.616	87.88
456.836	96.88
457.056	86.88
457.276	112.88
457.497	87.88
457.717	99.88
457.937	95.88
458.157	84.88
458.377	66.88
458.598	82.88
458.818	60.88
459.038	84.88
459.258	62.88
459.478	90.88
459.698	70.88
459.918	84.88
460.138	98.88
460.358	92.88
460.578	92.88
460.798	86.88
461.018	95.88
461.238	95.88
461.458	89.88
461.678	91.88
461.898	92.88
462.118	88.88
462.338	89.88
462.558	89.88
462.777	87.88
462.997	98.88
463.217	92.88
463.437	94.88
463.657	86.88
463.876	76.88
464.096	103.88
464.316	83.88
464.536	92.88
464.755	88.88
464.975	98.88
465.195	72.88
465.414	88.88
465.634	84.88
465.854	91.88
466.073	84.88
466.293	85.88
466.512	94.88
466.732	95.88
466.951	92.88
467.171	93.88
467.391	81.88
467.61	94.88
467.829	89.88
468.049	80.88
468.268	100.88
468.488	86.88
468.707	84.88
468.927	90.88
469.146	95.88
469.365	103.88
469.585	105.88
469.804	95.88
470.023	101.88
470.243	115.88
470.462	103.88
470.681	104.88
470.901	84.88
471.12	101.88
471.339	101.88
471.558	95.88
471.777	99.88
471.997	96.88
472.216	89.88
472.435	84.88
472.654	84.88
472.873	94.88
473.092	80.88
473.311	86.88
473.53	87.88
473.749	87.88
473.968	97.88
474.187	93.88
474.406	81.88
474.625	93.88
474.844	96.88
475.063	84.88
475.282	86.88
475.501	92.88
475.72	88.88
475.939	75.88
476.158	88.88
476.377	94.88
476.596	104.88
476.814	97.88
477.033	98.88
477.252	88.88
477.471	94.88
477.69	99.88
477.908	80.88
478.127	99.88
478.346	86.88
478.564	86.88
478.783	82.88
479.002	87.88
479.22	90.88
479.439	91.88
479.658	87.88
479.876	98.88
480.095	91.88
480.313	92.88
480.532	96.88
480.751	94.88
480.969	84.88
481.188	79.88
481.406	88.88
481.624	75.88
481.843	80.88
482.061	73.88
482.28	76.88
482.498	79.88
482.717	87.88
482.935	80.88
483.153	93.88
483.372	99.88
483.59	95.88
483.808	92.88
484.027	101.88
484.245	101.88
484.463	98.88
484.681	96.88
484.9	100.88
485.118	91.88
485.336	94.88
485.554	97.88
485.772	93.88
485.99	83.88
486.209	79.88
486.427	82.88
486.645	78.88
486.863	88.88
487.081	117.88
487.299	102.88
487.517	94.88
487.735	92.88
487.953	103.88
488.171	118.88
488.389	105.88
488.607	94.88
488.825	94.88
489.043	92.88
489.261	88.88
489.479	92.88
489.696	97.88
489.914	99.88
490.132	97.88
490.35	97.88
490.568	108.88
490.786	117.88
491.003	107.88
491.221	100.88
491.439	110.88
491.657	116.88
491.874	134.88
492.092	128.88
492.31	125.88
492.527	120.88
492.745	134.88
492.963	118.88
493.18	122.88
493.398	108.88
493.615	114.88
493.833	94.88
494.05	105.88
494.268	102.88
494.485	115.88
494.703	102.88
494.92	97.88
495.138	117.88
495.355	114.88
495.573	117.88
495.79	115.88
496.008	111.88
496.225	100.88
496.442	94.88
496.66	115.88
496.877	115.88
497.094	113.88
497.312	98.88
497.529	104.88
497.746	89.88
497.963	103.88
498.181	79.88
498.398	96.88
498.615	88.88
498.832	84.88
499.049	108.88
499.267	97.88
499.484	90.88
499.701	95.88
499.918	99.88
500.135	101.88
500.352	93.88
500.569	100.88
500.786	113.88
501.003	104.88
501.22	84.88
501.437	101.88
501.654	100.88
501.871	92.88
502.088	87.88
502.305	102.88
502.522	90.88
502.739	97.88
502.956	100.88
503.172	98.88
503.389	82.88
503.606	76.88
503.823	107.88
504.04	97.88
504.256	95.88
504.473	96.88
504.69	79.88
504.907	90.88
505.123	97.88
505.34	92.88
505.557	102.88
505.773	101.88
505.99	96.88
506.207	93.88
506.423	81.88
506.64	90.88
506.856	103.88
507.073	93.88
507.289	93.88
507.506	91.88
507.722	83.88
507.939	93.88
508.155	86.88
508.372	92.88
508.588	92.88
508.805	77.88
509.021	79.88
509.238	87.88
509.454	94.88
509.67	86.88
509.887	82.88
510.103	92.88
510.319	86.88
510.536	82.88
510.752	92.88
510.968	84.88
511.184	78.88
511.401	87.88
511.617	66.88
511.833	66.88
512.049	75.88
512.265	83.88
512.481	83.88
512.698	83.88
512.914	76.88
513.13	76.88
513.346	81.88
513.562	83.88
513.778	75.88
513.994	75.88
514.21	76.88
514.426	83.88
514.642	82.88
514.858	82.88
515.074	80.88
515.29	88.88
515.506	85.88
515.721	73.88
515.937	76.88
516.153	69.88
516.369	82.88
516.585	80.88
516.801	88.88
517.016	82.88
517.232	83.88
517.448	82.88
517.664	102.88
517.879	88.88
518.095	86.88
