Data from Location4.07152019.Energy5.Lamp.07192019.3%Agarose_HRD10591_15-24-24-576.txt Node
Date: Fri Jul 19 15:24:24 EDT 2019
User: cochatt
Spectrometer: HR+D1059
Trigger mode: 1
Integration Time (sec): 1.000000E-1
Scans to average: 1
Electric dark correction enabled: true
Nonlinearity correction enabled: false
Boxcar width: 0
XAxis mode: Wavelengths
Number of Pixels in Spectrum: 2048
>>>>>Begin Spectral Data<<<<<
223.165	-33.38
223.4	-33.38
223.635	-33.38
223.869	-14.38
224.104	-15.38
224.338	-7.38
224.573	-27.38
224.808	-14.38
225.042	-8.38
225.277	-19.38
225.511	-0.38
225.746	17.62
225.98	9.62
226.215	0.62
226.449	17.62
226.683	24.62
226.918	30.62
227.152	39.62
227.387	26.62
227.621	31.62
227.856	39.62
228.09	57.62
228.324	42.62
228.559	71.62
228.793	53.62
229.027	74.62
229.262	73.62
229.496	59.62
229.73	78.62
229.964	74.62
230.199	64.62
230.433	89.62
230.667	83.62
230.901	71.62
231.136	72.62
231.37	79.62
231.604	77.62
231.838	81.62
232.072	80.62
232.306	73.62
232.541	76.62
232.775	84.62
233.009	73.62
233.243	68.62
233.477	75.62
233.711	101.62
233.945	89.62
234.179	69.62
234.413	89.62
234.647	88.62
234.881	84.62
235.115	88.62
235.349	82.62
235.583	70.62
235.817	72.62
236.051	86.62
236.285	77.62
236.519	81.62
236.753	78.62
236.987	77.62
237.221	94.62
237.455	74.62
237.689	83.62
237.922	70.62
238.156	89.62
238.39	63.62
238.624	68.62
238.858	85.62
239.091	76.62
239.325	74.62
239.559	69.62
239.793	58.62
240.027	82.62
240.26	85.62
240.494	75.62
240.728	67.62
240.961	71.62
241.195	76.62
241.429	82.62
241.662	66.62
241.896	81.62
242.13	85.62
242.363	79.62
242.597	90.62
242.83	71.62
243.064	75.62
243.298	79.62
243.531	76.62
243.765	69.62
243.998	79.62
244.232	89.62
244.465	83.62
244.699	85.62
244.932	77.62
245.166	71.62
245.399	76.62
245.633	80.62
245.866	74.62
246.099	79.62
246.333	67.62
246.566	79.62
246.8	79.62
247.033	84.62
247.266	65.62
247.5	75.62
247.733	72.62
247.966	84.62
248.2	79.62
248.433	85.62
248.666	85.62
248.899	87.62
249.133	84.62
249.366	84.62
249.599	81.62
249.832	85.62
250.066	75.62
250.299	59.62
250.532	82.62
250.765	79.62
250.998	72.62
251.231	81.62
251.465	75.62
251.698	76.62
251.931	77.62
252.164	82.62
252.397	76.62
252.63	72.62
252.863	89.62
253.096	90.62
253.329	80.62
253.562	85.62
253.795	89.62
254.028	91.62
254.261	84.62
254.494	75.62
254.727	88.62
254.96	68.62
255.193	69.62
255.426	84.62
255.659	75.62
255.892	73.62
256.124	73.62
256.357	94.62
256.59	72.62
256.823	64.62
257.056	71.62
257.289	85.62
257.521	77.62
257.754	73.62
257.987	87.62
258.22	78.62
258.452	80.62
258.685	74.62
258.918	82.62
259.151	87.62
259.383	87.62
259.616	81.62
259.849	71.62
260.081	83.62
260.314	78.62
260.547	87.62
260.779	92.62
261.012	78.62
261.244	84.62
261.477	81.62
261.71	66.62
261.942	90.62
262.175	78.62
262.407	91.62
262.64	90.62
262.872	84.62
263.105	77.62
263.337	90.62
263.57	86.62
263.802	80.62
264.035	75.62
264.267	83.62
264.499	83.62
264.732	81.62
264.964	69.62
265.197	74.62
265.429	83.62
265.661	79.62
265.894	76.62
266.126	95.62
266.358	68.62
266.591	69.62
266.823	72.62
267.055	81.62
267.287	93.62
267.52	75.62
267.752	86.62
267.984	91.62
268.216	101.62
268.448	88.62
268.681	91.62
268.913	84.62
269.145	82.62
269.377	83.62
269.609	68.62
269.841	79.62
270.073	76.62
270.306	86.62
270.538	77.62
270.77	82.62
271.002	63.62
271.234	79.62
271.466	81.62
271.698	74.62
271.93	84.62
272.162	96.62
272.394	80.62
272.626	76.62
272.858	96.62
273.09	87.62
273.322	88.62
273.553	70.62
273.785	81.62
274.017	84.62
274.249	84.62
274.481	70.62
274.713	78.62
274.945	73.62
275.176	81.62
275.408	88.62
275.64	96.62
275.872	80.62
276.104	93.62
276.335	77.62
276.567	78.62
276.799	74.62
277.031	81.62
277.262	81.62
277.494	91.62
277.726	88.62
277.957	94.62
278.189	80.62
278.421	96.62
278.652	90.62
278.884	90.62
279.115	59.62
279.347	83.62
279.579	87.62
279.81	75.62
280.042	74.62
280.273	84.62
280.505	103.62
280.736	87.62
280.968	83.62
281.199	89.62
281.431	93.62
281.662	84.62
281.894	86.62
282.125	88.62
282.356	77.62
282.588	89.62
282.819	78.62
283.051	90.62
283.282	84.62
283.513	101.62
283.745	81.62
283.976	88.62
284.207	89.62
284.439	75.62
284.67	82.62
284.901	81.62
285.132	84.62
285.364	79.62
285.595	86.62
285.826	80.62
286.057	84.62
286.288	88.62
286.52	76.62
286.751	73.62
286.982	100.62
287.213	85.62
287.444	99.62
287.675	82.62
287.906	91.62
288.138	92.62
288.369	80.62
288.6	91.62
288.831	79.62
289.062	77.62
289.293	95.62
289.524	77.62
289.755	92.62
289.986	83.62
290.217	79.62
290.448	84.62
290.679	81.62
290.91	74.62
291.141	77.62
291.371	95.62
291.602	71.62
291.833	82.62
292.064	67.62
292.295	84.62
292.526	81.62
292.757	73.62
292.987	73.62
293.218	86.62
293.449	89.62
293.68	89.62
293.91	79.62
294.141	89.62
294.372	86.62
294.603	86.62
294.833	77.62
295.064	79.62
295.295	77.62
295.525	87.62
295.756	87.62
295.987	90.62
296.217	77.62
296.448	85.62
296.679	76.62
296.909	86.62
297.14	77.62
297.37	90.62
297.601	85.62
297.831	96.62
298.062	76.62
298.292	102.62
298.523	83.62
298.753	75.62
298.984	91.62
299.214	91.62
299.445	67.62
299.675	84.62
299.905	83.62
300.136	91.62
300.366	81.62
300.597	84.62
300.827	76.62
301.057	88.62
301.288	83.62
301.518	97.62
301.748	95.62
301.979	80.62
302.209	87.62
302.439	89.62
302.669	90.62
302.9	85.62
303.13	68.62
303.36	84.62
303.59	82.62
303.82	90.62
304.051	91.62
304.281	90.62
304.511	80.62
304.741	92.62
304.971	91.62
305.201	90.62
305.431	84.62
305.661	77.62
305.891	73.62
306.121	88.62
306.352	74.62
306.582	91.62
306.812	75.62
307.042	84.62
307.272	83.62
307.502	69.62
307.731	90.62
307.961	81.62
308.191	77.62
308.421	83.62
308.651	83.62
308.881	96.62
309.111	90.62
309.341	82.62
309.571	83.62
309.8	81.62
310.03	85.62
310.26	107.62
310.49	95.62
310.72	89.62
310.949	83.62
311.179	104.62
311.409	85.62
311.639	85.62
311.868	88.62
312.098	91.62
312.328	92.62
312.557	85.62
312.787	91.62
313.017	82.62
313.246	95.62
313.476	85.62
313.706	85.62
313.935	94.62
314.165	85.62
314.394	86.62
314.624	92.62
314.853	90.62
315.083	85.62
315.312	114.62
315.542	83.62
315.771	100.62
316.001	86.62
316.23	91.62
316.46	89.62
316.689	74.62
316.919	83.62
317.148	92.62
317.377	89.62
317.607	88.62
317.836	91.62
318.065	90.62
318.295	84.62
318.524	96.62
318.753	82.62
318.983	95.62
319.212	79.62
319.441	93.62
319.67	95.62
319.9	79.62
320.129	93.62
320.358	92.62
320.587	88.62
320.816	83.62
321.046	76.62
321.275	74.62
321.504	79.62
321.733	90.62
321.962	91.62
322.191	74.62
322.42	87.62
322.649	89.62
322.878	89.62
323.108	87.62
323.337	83.62
323.566	68.62
323.795	89.62
324.024	87.62
324.253	76.62
324.482	90.62
324.71	84.62
324.939	80.62
325.168	86.62
325.397	75.62
325.626	82.62
325.855	91.62
326.084	87.62
326.313	88.62
326.542	81.62
326.77	80.62
326.999	77.62
327.228	100.62
327.457	95.62
327.686	97.62
327.914	86.62
328.143	91.62
328.372	83.62
328.6	96.62
328.829	78.62
329.058	85.62
329.287	99.62
329.515	77.62
329.744	97.62
329.972	77.62
330.201	95.62
330.43	81.62
330.658	89.62
330.887	88.62
331.115	84.62
331.344	87.62
331.572	90.62
331.801	108.62
332.03	64.62
332.258	80.62
332.486	83.62
332.715	81.62
332.943	69.62
333.172	68.62
333.4	94.62
333.629	83.62
333.857	84.62
334.085	89.62
334.314	95.62
334.542	69.62
334.771	79.62
334.999	85.62
335.227	88.62
335.455	96.62
335.684	94.62
335.912	77.62
336.14	76.62
336.369	98.62
336.597	83.62
336.825	89.62
337.053	84.62
337.281	88.62
337.51	87.62
337.738	87.62
337.966	65.62
338.194	84.62
338.422	100.62
338.65	94.62
338.878	104.62
339.106	79.62
339.334	91.62
339.562	87.62
339.79	85.62
340.018	88.62
340.246	79.62
340.474	83.62
340.702	88.62
340.93	81.62
341.158	73.62
341.386	92.62
341.614	91.62
341.842	90.62
342.07	82.62
342.298	77.62
342.526	87.62
342.754	74.62
342.981	73.62
343.209	97.62
343.437	83.62
343.665	77.62
343.893	76.62
344.12	87.62
344.348	86.62
344.576	83.62
344.804	99.62
345.031	73.62
345.259	83.62
345.487	88.62
345.714	70.62
345.942	97.62
346.17	80.62
346.397	81.62
346.625	82.62
346.853	92.62
347.08	91.62
347.308	92.62
347.535	75.62
347.763	111.62
347.99	76.62
348.218	93.62
348.445	89.62
348.673	91.62
348.9	95.62
349.128	84.62
349.355	90.62
349.583	86.62
349.81	81.62
350.037	77.62
350.265	81.62
350.492	70.62
350.72	87.62
350.947	75.62
351.174	79.62
351.402	77.62
351.629	90.62
351.856	91.62
352.083	95.62
352.311	88.62
352.538	79.62
352.765	87.62
352.992	79.62
353.22	84.62
353.447	91.62
353.674	88.62
353.901	85.62
354.128	74.62
354.355	82.62
354.583	77.62
354.81	77.62
355.037	90.62
355.264	79.62
355.491	91.62
355.718	103.62
355.945	83.62
356.172	81.62
356.399	78.62
356.626	77.62
356.853	71.62
357.08	90.62
357.307	85.62
357.534	83.62
357.761	84.62
357.988	90.62
358.215	75.62
358.441	85.62
358.668	74.62
358.895	91.62
359.122	81.62
359.349	81.62
359.576	83.62
359.802	90.62
360.029	80.62
360.256	89.62
360.483	88.62
360.709	76.62
360.936	84.62
361.163	75.62
361.39	88.62
361.616	87.62
361.843	78.62
362.07	71.62
362.296	96.62
362.523	85.62
362.749	85.62
362.976	90.62
363.203	84.62
363.429	82.62
363.656	86.62
363.882	86.62
364.109	77.62
364.335	70.62
364.562	81.62
364.788	87.62
365.015	69.62
365.241	85.62
365.468	88.62
365.694	93.62
365.92	87.62
366.147	75.62
366.373	83.62
366.599	86.62
366.826	81.62
367.052	82.62
367.278	83.62
367.505	94.62
367.731	86.62
367.957	81.62
368.184	84.62
368.41	72.62
368.636	93.62
368.862	87.62
369.089	82.62
369.315	76.62
369.541	92.62
369.767	103.62
369.993	90.62
370.219	84.62
370.445	74.62
370.672	84.62
370.898	75.62
371.124	90.62
371.35	82.62
371.576	83.62
371.802	67.62
372.028	87.62
372.254	83.62
372.48	72.62
372.706	93.62
372.932	85.62
373.158	88.62
373.384	97.62
373.61	99.62
373.835	88.62
374.061	73.62
374.287	91.62
374.513	83.62
374.739	96.62
374.965	78.62
375.191	93.62
375.416	77.62
375.642	89.62
375.868	99.62
376.094	93.62
376.319	85.62
376.545	85.62
376.771	97.62
376.997	92.62
377.222	78.62
377.448	91.62
377.674	95.62
377.899	81.62
378.125	84.62
378.35	83.62
378.576	84.62
378.802	86.62
379.027	84.62
379.253	84.62
379.478	83.62
379.704	94.62
379.929	93.62
380.155	89.62
380.38	90.62
380.606	83.62
380.831	83.62
381.057	81.62
381.282	89.62
381.507	89.62
381.733	86.62
381.958	87.62
382.184	88.62
382.409	94.62
382.634	66.62
382.86	76.62
383.085	93.62
383.31	84.62
383.535	92.62
383.761	88.62
383.986	93.62
384.211	88.62
384.436	102.62
384.662	88.62
384.887	90.62
385.112	84.62
385.337	99.62
385.562	88.62
385.787	86.62
386.013	104.62
386.238	95.62
386.463	100.62
386.688	94.62
386.913	86.62
387.138	92.62
387.363	86.62
387.588	97.62
387.813	93.62
388.038	71.62
388.263	76.62
388.488	86.62
388.713	94.62
388.938	78.62
389.163	83.62
389.387	92.62
389.612	76.62
389.837	91.62
390.062	90.62
390.287	90.62
390.512	91.62
390.736	90.62
390.961	93.62
391.186	88.62
391.411	83.62
391.636	81.62
391.86	103.62
392.085	73.62
392.31	84.62
392.534	88.62
392.759	90.62
392.984	80.62
393.208	101.62
393.433	89.62
393.658	99.62
393.882	94.62
394.107	79.62
394.331	83.62
394.556	92.62
394.78	83.62
395.005	86.62
395.229	93.62
395.454	102.62
395.678	78.62
395.903	67.62
396.127	98.62
396.352	83.62
396.576	85.62
396.801	85.62
397.025	91.62
397.249	104.62
397.474	75.62
397.698	77.62
397.922	89.62
398.147	96.62
398.371	84.62
398.595	84.62
398.82	73.62
399.044	84.62
399.268	91.62
399.492	96.62
399.717	89.62
399.941	89.62
400.165	80.62
400.389	81.62
400.613	82.62
400.837	93.62
401.062	91.62
401.286	92.62
401.51	95.62
401.734	83.62
401.958	94.62
402.182	94.62
402.406	102.62
402.63	97.62
402.854	88.62
403.078	90.62
403.302	90.62
403.526	98.62
403.75	91.62
403.974	82.62
404.198	89.62
404.422	83.62
404.645	91.62
404.869	90.62
405.093	85.62
405.317	91.62
405.541	90.62
405.765	88.62
405.988	81.62
406.212	100.62
406.436	89.62
406.66	91.62
406.883	99.62
407.107	96.62
407.331	100.62
407.555	87.62
407.778	103.62
408.002	72.62
408.226	84.62
408.449	88.62
408.673	82.62
408.896	97.62
409.12	92.62
409.344	88.62
409.567	88.62
409.791	81.62
410.014	95.62
410.238	89.62
410.461	94.62
410.685	84.62
410.908	95.62
411.132	97.62
411.355	92.62
411.578	100.62
411.802	99.62
412.025	94.62
412.249	89.62
412.472	89.62
412.695	91.62
412.919	94.62
413.142	88.62
413.365	88.62
413.589	89.62
413.812	89.62
414.035	93.62
414.258	95.62
414.482	95.62
414.705	92.62
414.928	89.62
415.151	87.62
415.374	98.62
415.597	85.62
415.821	83.62
416.044	95.62
416.267	87.62
416.49	81.62
416.713	84.62
416.936	96.62
417.159	83.62
417.382	82.62
417.605	102.62
417.828	99.62
418.051	77.62
418.274	91.62
418.497	89.62
418.72	92.62
418.943	103.62
419.166	100.62
419.389	87.62
419.611	99.62
419.834	91.62
420.057	86.62
420.28	107.62
420.503	106.62
420.726	102.62
420.948	85.62
421.171	99.62
421.394	77.62
421.617	97.62
421.839	101.62
422.062	96.62
422.285	105.62
422.507	88.62
422.73	101.62
422.953	101.62
423.175	84.62
423.398	88.62
423.621	89.62
423.843	98.62
424.066	92.62
424.288	90.62
424.511	98.62
424.733	91.62
424.956	104.62
425.178	104.62
425.401	92.62
425.623	103.62
425.846	71.62
426.068	90.62
426.291	93.62
426.513	90.62
426.735	100.62
426.958	93.62
427.18	90.62
427.402	92.62
427.625	101.62
427.847	76.62
428.069	98.62
428.292	97.62
428.514	88.62
428.736	86.62
428.958	98.62
429.181	107.62
429.403	106.62
429.625	82.62
429.847	94.62
430.069	88.62
430.292	96.62
430.514	97.62
430.736	83.62
430.958	95.62
431.18	89.62
431.402	86.62
431.624	95.62
431.846	83.62
432.068	87.62
432.29	84.62
432.512	89.62
432.734	87.62
432.956	106.62
433.178	82.62
433.4	88.62
433.622	105.62
433.844	94.62
434.066	77.62
434.287	92.62
434.509	84.62
434.731	75.62
434.953	90.62
435.175	84.62
435.397	87.62
435.618	99.62
435.84	92.62
436.062	92.62
436.284	90.62
436.505	98.62
436.727	94.62
436.949	95.62
437.17	88.62
437.392	95.62
437.614	97.62
437.835	76.62
438.057	81.62
438.278	81.62
438.5	77.62
438.721	99.62
438.943	90.62
439.165	98.62
439.386	95.62
439.608	119.62
439.829	96.62
440.05	88.62
440.272	100.62
440.493	99.62
440.715	95.62
440.936	106.62
441.158	85.62
441.379	89.62
441.6	82.62
441.822	87.62
442.043	101.62
442.264	102.62
442.486	87.62
442.707	97.62
442.928	96.62
443.149	93.62
443.371	91.62
443.592	98.62
443.813	96.62
444.034	102.62
444.255	103.62
444.476	89.62
444.698	103.62
444.919	92.62
445.14	185.62
445.361	136.62
445.582	95.62
445.803	96.62
446.024	102.62
446.245	105.62
446.466	91.62
446.687	105.62
446.908	104.62
447.129	99.62
447.35	93.62
447.571	101.62
447.792	100.62
448.013	84.62
448.234	87.62
448.455	105.62
448.675	99.62
448.896	89.62
449.117	97.62
449.338	72.62
449.559	103.62
449.779	99.62
450	104.62
450.221	90.62
450.442	82.62
450.662	106.62
450.883	82.62
451.104	98.62
451.324	81.62
451.545	92.62
451.766	89.62
451.986	100.62
452.207	93.62
452.428	97.62
452.648	82.62
452.869	103.62
453.089	104.62
453.31	99.62
453.53	80.62
453.751	78.62
453.971	88.62
454.192	84.62
454.412	91.62
454.633	99.62
454.853	90.62
455.073	102.62
455.294	93.62
455.514	90.62
455.734	98.62
455.955	85.62
456.175	81.62
456.395	74.62
456.616	87.62
456.836	97.62
457.056	83.62
457.276	85.62
457.497	74.62
457.717	88.62
457.937	92.62
458.157	85.62
458.377	93.62
458.598	80.62
458.818	87.62
459.038	77.62
459.258	74.62
459.478	78.62
459.698	81.62
459.918	89.62
460.138	96.62
460.358	83.62
460.578	89.62
460.798	72.62
461.018	80.62
461.238	91.62
461.458	92.62
461.678	91.62
461.898	107.62
462.118	83.62
462.338	86.62
462.558	85.62
462.777	88.62
462.997	87.62
463.217	89.62
463.437	93.62
463.657	93.62
463.876	88.62
464.096	90.62
464.316	88.62
464.536	84.62
464.755	99.62
464.975	90.62
465.195	90.62
465.414	83.62
465.634	80.62
465.854	84.62
466.073	87.62
466.293	99.62
466.512	97.62
466.732	80.62
466.951	89.62
467.171	86.62
467.391	102.62
467.61	82.62
467.829	99.62
468.049	90.62
468.268	100.62
468.488	101.62
468.707	112.62
468.927	101.62
469.146	93.62
469.365	93.62
469.585	97.62
469.804	94.62
470.023	89.62
470.243	90.62
470.462	91.62
470.681	97.62
470.901	113.62
471.12	97.62
471.339	111.62
471.558	90.62
471.777	106.62
471.997	92.62
472.216	103.62
472.435	92.62
472.654	103.62
472.873	81.62
473.092	90.62
473.311	99.62
473.53	84.62
473.749	116.62
473.968	96.62
474.187	92.62
474.406	83.62
474.625	99.62
474.844	96.62
475.063	102.62
475.282	90.62
475.501	96.62
475.72	88.62
475.939	97.62
476.158	102.62
476.377	111.62
476.596	79.62
476.814	88.62
477.033	88.62
477.252	88.62
477.471	85.62
477.69	98.62
477.908	121.62
478.127	111.62
478.346	95.62
478.564	106.62
478.783	90.62
479.002	95.62
479.22	95.62
479.439	101.62
479.658	92.62
479.876	93.62
480.095	92.62
480.313	87.62
480.532	98.62
480.751	100.62
480.969	62.62
481.188	90.62
481.406	77.62
481.624	75.62
481.843	80.62
482.061	84.62
482.28	90.62
482.498	97.62
482.717	91.62
482.935	96.62
483.153	100.62
483.372	103.62
483.59	105.62
483.808	104.62
484.027	97.62
484.245	96.62
484.463	99.62
484.681	106.62
484.9	106.62
485.118	91.62
485.336	84.62
485.554	87.62
485.772	88.62
485.99	88.62
486.209	91.62
486.427	89.62
486.645	69.62
486.863	80.62
487.081	86.62
487.299	104.62
487.517	88.62
487.735	105.62
487.953	116.62
488.171	119.62
488.389	126.62
488.607	103.62
488.825	96.62
489.043	87.62
489.261	77.62
489.479	94.62
489.696	92.62
489.914	89.62
490.132	94.62
490.35	97.62
490.568	108.62
490.786	110.62
491.003	112.62
491.221	116.62
491.439	101.62
491.657	111.62
491.874	104.62
492.092	108.62
492.31	133.62
492.527	126.62
492.745	130.62
492.963	124.62
493.18	115.62
493.398	106.62
493.615	123.62
493.833	118.62
494.05	111.62
494.268	109.62
494.485	111.62
494.703	108.62
494.92	102.62
495.138	97.62
495.355	104.62
495.573	115.62
495.79	97.62
496.008	125.62
496.225	123.62
496.442	115.62
496.66	113.62
496.877	100.62
497.094	113.62
497.312	100.62
497.529	98.62
497.746	112.62
497.963	102.62
498.181	98.62
498.398	84.62
498.615	83.62
498.832	94.62
499.049	95.62
499.267	91.62
499.484	92.62
499.701	92.62
499.918	100.62
500.135	92.62
500.352	98.62
500.569	96.62
500.786	92.62
501.003	88.62
501.22	101.62
501.437	89.62
501.654	92.62
501.871	93.62
502.088	97.62
502.305	104.62
502.522	91.62
502.739	109.62
502.956	77.62
503.172	95.62
503.389	113.62
503.606	103.62
503.823	98.62
504.04	104.62
504.256	99.62
504.473	96.62
504.69	81.62
504.907	84.62
505.123	101.62
505.34	90.62
505.557	87.62
505.773	95.62
505.99	90.62
506.207	94.62
506.423	97.62
506.64	95.62
506.856	92.62
507.073	93.62
507.289	102.62
507.506	91.62
507.722	99.62
507.939	101.62
508.155	89.62
508.372	87.62
508.588	91.62
508.805	94.62
509.021	98.62
509.238	96.62
509.454	87.62
509.67	81.62
509.887	88.62
510.103	86.62
510.319	88.62
510.536	95.62
510.752	77.62
510.968	81.62
511.184	87.62
511.401	81.62
511.617	75.62
511.833	79.62
512.049	75.62
512.265	102.62
512.481	87.62
512.698	89.62
512.914	106.62
513.13	96.62
513.346	89.62
513.562	93.62
513.778	92.62
513.994	92.62
514.21	81.62
514.426	83.62
514.642	91.62
514.858	87.62
515.074	86.62
515.29	83.62
515.506	88.62
515.721	94.62
515.937	77.62
516.153	89.62
516.369	85.62
516.585	71.62
516.801	84.62
517.016	81.62
517.232	85.62
517.448	96.62
