Data from Location4.07152019.Energy5.Lamp.07192019.3%Agarose_HRD10591_15-24-07-576.txt Node
Date: Fri Jul 19 15:24:07 EDT 2019
User: cochatt
Spectrometer: HR+D1059
Trigger mode: 1
Integration Time (sec): 1.000000E-1
Scans to average: 1
Electric dark correction enabled: true
Nonlinearity correction enabled: false
Boxcar width: 0
XAxis mode: Wavelengths
Number of Pixels in Spectrum: 2048
>>>>>Begin Spectral Data<<<<<
223.165	-6.5
223.4	-6.5
223.635	-6.5
223.869	-23.5
224.104	-15.5
224.338	-10.5
224.573	-27.5
224.808	-9.5
225.042	-18.5
225.277	-10.5
225.511	3.5
225.746	14.5
225.98	2.5
226.215	5.5
226.449	22.5
226.683	25.5
226.918	23.5
227.152	24.5
227.387	22.5
227.621	32.5
227.856	35.5
228.09	49.5
228.324	52.5
228.559	50.5
228.793	48.5
229.027	57.5
229.262	50.5
229.496	73.5
229.73	51.5
229.964	62.5
230.199	74.5
230.433	77.5
230.667	82.5
230.901	86.5
231.136	79.5
231.37	71.5
231.604	79.5
231.838	74.5
232.072	85.5
232.306	75.5
232.541	80.5
232.775	85.5
233.009	79.5
233.243	88.5
233.477	83.5
233.711	82.5
233.945	78.5
234.179	87.5
234.413	84.5
234.647	90.5
234.881	88.5
235.115	73.5
235.349	91.5
235.583	84.5
235.817	81.5
236.051	77.5
236.285	72.5
236.519	77.5
236.753	82.5
236.987	60.5
237.221	66.5
237.455	88.5
237.689	74.5
237.922	78.5
238.156	74.5
238.39	73.5
238.624	75.5
238.858	75.5
239.091	65.5
239.325	86.5
239.559	87.5
239.793	88.5
240.027	78.5
240.26	76.5
240.494	96.5
240.728	71.5
240.961	79.5
241.195	64.5
241.429	67.5
241.662	66.5
241.896	70.5
242.13	94.5
242.363	70.5
242.597	69.5
242.83	81.5
243.064	80.5
243.298	55.5
243.531	62.5
243.765	74.5
243.998	79.5
244.232	70.5
244.465	87.5
244.699	86.5
244.932	74.5
245.166	72.5
245.399	59.5
245.633	77.5
245.866	77.5
246.099	73.5
246.333	78.5
246.566	98.5
246.8	64.5
247.033	85.5
247.266	78.5
247.5	87.5
247.733	71.5
247.966	66.5
248.2	80.5
248.433	69.5
248.666	74.5
248.899	85.5
249.133	74.5
249.366	79.5
249.599	66.5
249.832	80.5
250.066	88.5
250.299	70.5
250.532	62.5
250.765	73.5
250.998	76.5
251.231	79.5
251.465	74.5
251.698	80.5
251.931	80.5
252.164	85.5
252.397	75.5
252.63	79.5
252.863	68.5
253.096	73.5
253.329	85.5
253.562	91.5
253.795	75.5
254.028	82.5
254.261	87.5
254.494	66.5
254.727	76.5
254.96	91.5
255.193	71.5
255.426	71.5
255.659	74.5
255.892	88.5
256.124	83.5
256.357	70.5
256.59	87.5
256.823	82.5
257.056	88.5
257.289	74.5
257.521	94.5
257.754	90.5
257.987	74.5
258.22	84.5
258.452	77.5
258.685	82.5
258.918	90.5
259.151	80.5
259.383	88.5
259.616	84.5
259.849	81.5
260.081	82.5
260.314	85.5
260.547	97.5
260.779	73.5
261.012	77.5
261.244	82.5
261.477	82.5
261.71	90.5
261.942	85.5
262.175	76.5
262.407	68.5
262.64	71.5
262.872	87.5
263.105	94.5
263.337	98.5
263.57	89.5
263.802	80.5
264.035	65.5
264.267	72.5
264.499	87.5
264.732	73.5
264.964	72.5
265.197	84.5
265.429	84.5
265.661	78.5
265.894	78.5
266.126	87.5
266.358	89.5
266.591	73.5
266.823	87.5
267.055	87.5
267.287	69.5
267.52	92.5
267.752	74.5
267.984	81.5
268.216	87.5
268.448	84.5
268.681	93.5
268.913	92.5
269.145	95.5
269.377	86.5
269.609	88.5
269.841	85.5
270.073	84.5
270.306	76.5
270.538	67.5
270.77	81.5
271.002	81.5
271.234	68.5
271.466	86.5
271.698	78.5
271.93	80.5
272.162	90.5
272.394	82.5
272.626	94.5
272.858	90.5
273.09	75.5
273.322	72.5
273.553	79.5
273.785	90.5
274.017	76.5
274.249	70.5
274.481	82.5
274.713	88.5
274.945	88.5
275.176	86.5
275.408	97.5
275.64	87.5
275.872	68.5
276.104	85.5
276.335	78.5
276.567	89.5
276.799	86.5
277.031	88.5
277.262	83.5
277.494	89.5
277.726	85.5
277.957	74.5
278.189	76.5
278.421	61.5
278.652	84.5
278.884	79.5
279.115	82.5
279.347	76.5
279.579	89.5
279.81	79.5
280.042	99.5
280.273	72.5
280.505	67.5
280.736	81.5
280.968	79.5
281.199	73.5
281.431	74.5
281.662	83.5
281.894	97.5
282.125	82.5
282.356	89.5
282.588	76.5
282.819	83.5
283.051	78.5
283.282	81.5
283.513	82.5
283.745	76.5
283.976	70.5
284.207	78.5
284.439	94.5
284.67	92.5
284.901	76.5
285.132	83.5
285.364	74.5
285.595	74.5
285.826	85.5
286.057	97.5
286.288	87.5
286.52	84.5
286.751	90.5
286.982	86.5
287.213	73.5
287.444	82.5
287.675	72.5
287.906	68.5
288.138	95.5
288.369	92.5
288.6	83.5
288.831	69.5
289.062	90.5
289.293	88.5
289.524	90.5
289.755	82.5
289.986	83.5
290.217	83.5
290.448	88.5
290.679	92.5
290.91	91.5
291.141	81.5
291.371	78.5
291.602	81.5
291.833	75.5
292.064	86.5
292.295	89.5
292.526	104.5
292.757	102.5
292.987	91.5
293.218	86.5
293.449	93.5
293.68	79.5
293.91	78.5
294.141	71.5
294.372	80.5
294.603	79.5
294.833	95.5
295.064	97.5
295.295	94.5
295.525	84.5
295.756	75.5
295.987	86.5
296.217	84.5
296.448	81.5
296.679	70.5
296.909	88.5
297.14	94.5
297.37	87.5
297.601	96.5
297.831	78.5
298.062	90.5
298.292	80.5
298.523	77.5
298.753	85.5
298.984	79.5
299.214	79.5
299.445	95.5
299.675	91.5
299.905	82.5
300.136	81.5
300.366	78.5
300.597	65.5
300.827	77.5
301.057	72.5
301.288	94.5
301.518	93.5
301.748	82.5
301.979	83.5
302.209	79.5
302.439	85.5
302.669	96.5
302.9	80.5
303.13	83.5
303.36	90.5
303.59	97.5
303.82	90.5
304.051	101.5
304.281	83.5
304.511	95.5
304.741	86.5
304.971	77.5
305.201	97.5
305.431	80.5
305.661	75.5
305.891	97.5
306.121	83.5
306.352	76.5
306.582	68.5
306.812	82.5
307.042	71.5
307.272	80.5
307.502	71.5
307.731	84.5
307.961	82.5
308.191	76.5
308.421	80.5
308.651	94.5
308.881	84.5
309.111	89.5
309.341	80.5
309.571	91.5
309.8	93.5
310.03	95.5
310.26	89.5
310.49	77.5
310.72	86.5
310.949	91.5
311.179	78.5
311.409	86.5
311.639	90.5
311.868	78.5
312.098	90.5
312.328	76.5
312.557	94.5
312.787	89.5
313.017	80.5
313.246	102.5
313.476	99.5
313.706	70.5
313.935	91.5
314.165	85.5
314.394	72.5
314.624	84.5
314.853	91.5
315.083	82.5
315.312	75.5
315.542	81.5
315.771	91.5
316.001	96.5
316.23	97.5
316.46	83.5
316.689	94.5
316.919	93.5
317.148	86.5
317.377	76.5
317.607	87.5
317.836	70.5
318.065	83.5
318.295	90.5
318.524	92.5
318.753	89.5
318.983	87.5
319.212	87.5
319.441	111.5
319.67	85.5
319.9	89.5
320.129	88.5
320.358	100.5
320.587	96.5
320.816	90.5
321.046	70.5
321.275	96.5
321.504	85.5
321.733	86.5
321.962	74.5
322.191	84.5
322.42	84.5
322.649	101.5
322.878	81.5
323.108	81.5
323.337	91.5
323.566	84.5
323.795	82.5
324.024	86.5
324.253	84.5
324.482	82.5
324.71	86.5
324.939	86.5
325.168	80.5
325.397	89.5
325.626	86.5
325.855	87.5
326.084	84.5
326.313	73.5
326.542	89.5
326.77	85.5
326.999	78.5
327.228	79.5
327.457	88.5
327.686	85.5
327.914	91.5
328.143	88.5
328.372	83.5
328.6	84.5
328.829	79.5
329.058	76.5
329.287	59.5
329.515	81.5
329.744	83.5
329.972	67.5
330.201	86.5
330.43	77.5
330.658	83.5
330.887	74.5
331.115	72.5
331.344	75.5
331.572	74.5
331.801	64.5
332.03	83.5
332.258	86.5
332.486	83.5
332.715	81.5
332.943	92.5
333.172	72.5
333.4	88.5
333.629	84.5
333.857	78.5
334.085	80.5
334.314	89.5
334.542	85.5
334.771	89.5
334.999	70.5
335.227	87.5
335.455	79.5
335.684	93.5
335.912	71.5
336.14	77.5
336.369	95.5
336.597	98.5
336.825	91.5
337.053	86.5
337.281	93.5
337.51	90.5
337.738	100.5
337.966	81.5
338.194	88.5
338.422	97.5
338.65	87.5
338.878	88.5
339.106	85.5
339.334	93.5
339.562	83.5
339.79	85.5
340.018	90.5
340.246	85.5
340.474	89.5
340.702	90.5
340.93	96.5
341.158	90.5
341.386	93.5
341.614	90.5
341.842	73.5
342.07	82.5
342.298	82.5
342.526	85.5
342.754	67.5
342.981	81.5
343.209	97.5
343.437	83.5
343.665	82.5
343.893	81.5
344.12	83.5
344.348	81.5
344.576	68.5
344.804	96.5
345.031	79.5
345.259	77.5
345.487	95.5
345.714	88.5
345.942	91.5
346.17	97.5
346.397	76.5
346.625	80.5
346.853	76.5
347.08	81.5
347.308	83.5
347.535	80.5
347.763	71.5
347.99	92.5
348.218	91.5
348.445	87.5
348.673	86.5
348.9	97.5
349.128	87.5
349.355	96.5
349.583	83.5
349.81	71.5
350.037	94.5
350.265	88.5
350.492	75.5
350.72	91.5
350.947	86.5
351.174	91.5
351.402	82.5
351.629	80.5
351.856	78.5
352.083	85.5
352.311	98.5
352.538	87.5
352.765	65.5
352.992	81.5
353.22	94.5
353.447	78.5
353.674	88.5
353.901	91.5
354.128	85.5
354.355	74.5
354.583	89.5
354.81	87.5
355.037	70.5
355.264	72.5
355.491	77.5
355.718	75.5
355.945	87.5
356.172	75.5
356.399	85.5
356.626	86.5
356.853	92.5
357.08	84.5
357.307	89.5
357.534	82.5
357.761	86.5
357.988	90.5
358.215	87.5
358.441	83.5
358.668	83.5
358.895	86.5
359.122	90.5
359.349	82.5
359.576	75.5
359.802	83.5
360.029	68.5
360.256	74.5
360.483	91.5
360.709	93.5
360.936	89.5
361.163	96.5
361.39	95.5
361.616	77.5
361.843	98.5
362.07	73.5
362.296	76.5
362.523	83.5
362.749	80.5
362.976	82.5
363.203	88.5
363.429	90.5
363.656	87.5
363.882	82.5
364.109	80.5
364.335	89.5
364.562	82.5
364.788	92.5
365.015	82.5
365.241	78.5
365.468	86.5
365.694	85.5
365.92	75.5
366.147	80.5
366.373	85.5
366.599	96.5
366.826	98.5
367.052	77.5
367.278	79.5
367.505	80.5
367.731	84.5
367.957	86.5
368.184	82.5
368.41	83.5
368.636	77.5
368.862	84.5
369.089	74.5
369.315	88.5
369.541	87.5
369.767	81.5
369.993	88.5
370.219	104.5
370.445	80.5
370.672	70.5
370.898	84.5
371.124	97.5
371.35	71.5
371.576	83.5
371.802	92.5
372.028	76.5
372.254	94.5
372.48	88.5
372.706	69.5
372.932	91.5
373.158	79.5
373.384	103.5
373.61	83.5
373.835	96.5
374.061	94.5
374.287	79.5
374.513	84.5
374.739	84.5
374.965	79.5
375.191	83.5
375.416	87.5
375.642	89.5
375.868	87.5
376.094	90.5
376.319	94.5
376.545	94.5
376.771	95.5
376.997	98.5
377.222	80.5
377.448	93.5
377.674	73.5
377.899	68.5
378.125	75.5
378.35	93.5
378.576	78.5
378.802	85.5
379.027	92.5
379.253	84.5
379.478	87.5
379.704	78.5
379.929	98.5
380.155	94.5
380.38	87.5
380.606	84.5
380.831	82.5
381.057	88.5
381.282	91.5
381.507	63.5
381.733	89.5
381.958	87.5
382.184	98.5
382.409	88.5
382.634	89.5
382.86	82.5
383.085	90.5
383.31	79.5
383.535	81.5
383.761	76.5
383.986	88.5
384.211	72.5
384.436	82.5
384.662	83.5
384.887	83.5
385.112	94.5
385.337	76.5
385.562	93.5
385.787	83.5
386.013	97.5
386.238	90.5
386.463	84.5
386.688	76.5
386.913	96.5
387.138	76.5
387.363	84.5
387.588	82.5
387.813	90.5
388.038	91.5
388.263	88.5
388.488	84.5
388.713	80.5
388.938	88.5
389.163	79.5
389.387	88.5
389.612	97.5
389.837	82.5
390.062	73.5
390.287	90.5
390.512	89.5
390.736	73.5
390.961	86.5
391.186	96.5
391.411	78.5
391.636	83.5
391.86	83.5
392.085	83.5
392.31	84.5
392.534	76.5
392.759	85.5
392.984	86.5
393.208	84.5
393.433	101.5
393.658	93.5
393.882	97.5
394.107	84.5
394.331	89.5
394.556	86.5
394.78	87.5
395.005	97.5
395.229	79.5
395.454	78.5
395.678	83.5
395.903	84.5
396.127	96.5
396.352	92.5
396.576	90.5
396.801	83.5
397.025	95.5
397.249	74.5
397.474	90.5
397.698	83.5
397.922	103.5
398.147	89.5
398.371	93.5
398.595	86.5
398.82	86.5
399.044	89.5
399.268	84.5
399.492	98.5
399.717	81.5
399.941	76.5
400.165	95.5
400.389	88.5
400.613	83.5
400.837	81.5
401.062	94.5
401.286	77.5
401.51	82.5
401.734	91.5
401.958	87.5
402.182	77.5
402.406	96.5
402.63	88.5
402.854	85.5
403.078	85.5
403.302	97.5
403.526	106.5
403.75	90.5
403.974	101.5
404.198	74.5
404.422	86.5
404.645	75.5
404.869	95.5
405.093	89.5
405.317	95.5
405.541	87.5
405.765	89.5
405.988	86.5
406.212	94.5
406.436	84.5
406.66	96.5
406.883	86.5
407.107	95.5
407.331	94.5
407.555	99.5
407.778	106.5
408.002	89.5
408.226	92.5
408.449	94.5
408.673	87.5
408.896	87.5
409.12	85.5
409.344	74.5
409.567	78.5
409.791	90.5
410.014	101.5
410.238	101.5
410.461	85.5
410.685	106.5
410.908	92.5
411.132	97.5
411.355	96.5
411.578	95.5
411.802	90.5
412.025	86.5
412.249	91.5
412.472	91.5
412.695	91.5
412.919	74.5
413.142	99.5
413.365	94.5
413.589	90.5
413.812	107.5
414.035	95.5
414.258	68.5
414.482	75.5
414.705	80.5
414.928	89.5
415.151	85.5
415.374	90.5
415.597	79.5
415.821	92.5
416.044	95.5
416.267	87.5
416.49	97.5
416.713	100.5
416.936	85.5
417.159	89.5
417.382	89.5
417.605	89.5
417.828	103.5
418.051	73.5
418.274	99.5
418.497	100.5
418.72	104.5
418.943	103.5
419.166	101.5
419.389	78.5
419.611	99.5
419.834	100.5
420.057	95.5
420.28	98.5
420.503	92.5
420.726	84.5
420.948	104.5
421.171	109.5
421.394	96.5
421.617	90.5
421.839	96.5
422.062	102.5
422.285	75.5
422.507	77.5
422.73	97.5
422.953	96.5
423.175	91.5
423.398	94.5
423.621	95.5
423.843	83.5
424.066	95.5
424.288	89.5
424.511	92.5
424.733	98.5
424.956	87.5
425.178	92.5
425.401	97.5
425.623	99.5
425.846	94.5
426.068	102.5
426.291	88.5
426.513	88.5
426.735	83.5
426.958	86.5
427.18	91.5
427.402	80.5
427.625	91.5
427.847	116.5
428.069	86.5
428.292	98.5
428.514	90.5
428.736	87.5
428.958	100.5
429.181	106.5
429.403	102.5
429.625	104.5
429.847	92.5
430.069	101.5
430.292	103.5
430.514	94.5
430.736	105.5
430.958	103.5
431.18	102.5
431.402	79.5
431.624	90.5
431.846	82.5
432.068	81.5
432.29	84.5
432.512	92.5
432.734	89.5
432.956	81.5
433.178	106.5
433.4	110.5
433.622	92.5
433.844	104.5
434.066	88.5
434.287	82.5
434.509	91.5
434.731	91.5
434.953	92.5
435.175	88.5
435.397	78.5
435.618	90.5
435.84	90.5
436.062	84.5
436.284	99.5
436.505	96.5
436.727	93.5
436.949	86.5
437.17	100.5
437.392	91.5
437.614	85.5
437.835	88.5
438.057	102.5
438.278	77.5
438.5	84.5
438.721	93.5
438.943	101.5
439.165	112.5
439.386	95.5
439.608	96.5
439.829	100.5
440.05	74.5
440.272	104.5
440.493	96.5
440.715	105.5
440.936	113.5
441.158	101.5
441.379	100.5
441.6	93.5
441.822	103.5
442.043	102.5
442.264	89.5
442.486	104.5
442.707	89.5
442.928	102.5
443.149	95.5
443.371	106.5
443.592	105.5
443.813	82.5
444.034	96.5
444.255	99.5
444.476	91.5
444.698	97.5
444.919	106.5
445.14	222.5
445.361	146.5
445.582	104.5
445.803	94.5
446.024	101.5
446.245	99.5
446.466	106.5
446.687	104.5
446.908	94.5
447.129	108.5
447.35	95.5
447.571	100.5
447.792	120.5
448.013	92.5
448.234	85.5
448.455	96.5
448.675	100.5
448.896	101.5
449.117	108.5
449.338	101.5
449.559	114.5
449.779	100.5
450	91.5
450.221	88.5
450.442	105.5
450.662	106.5
450.883	94.5
451.104	104.5
451.324	86.5
451.545	92.5
451.766	103.5
451.986	90.5
452.207	102.5
452.428	85.5
452.648	87.5
452.869	89.5
453.089	93.5
453.31	91.5
453.53	85.5
453.751	83.5
453.971	83.5
454.192	95.5
454.412	89.5
454.633	98.5
454.853	84.5
455.073	88.5
455.294	89.5
455.514	99.5
455.734	85.5
455.955	102.5
456.175	89.5
456.395	86.5
456.616	83.5
456.836	95.5
457.056	83.5
457.276	86.5
457.497	87.5
457.717	94.5
457.937	80.5
458.157	94.5
458.377	91.5
458.598	87.5
458.818	87.5
459.038	62.5
459.258	80.5
459.478	85.5
459.698	76.5
459.918	91.5
460.138	91.5
460.358	76.5
460.578	84.5
460.798	90.5
461.018	100.5
461.238	87.5
461.458	94.5
461.678	91.5
461.898	98.5
462.118	85.5
462.338	78.5
462.558	97.5
462.777	91.5
462.997	90.5
463.217	88.5
463.437	94.5
463.657	69.5
463.876	89.5
464.096	86.5
464.316	101.5
464.536	80.5
464.755	103.5
464.975	98.5
465.195	95.5
465.414	97.5
465.634	99.5
465.854	94.5
466.073	102.5
466.293	82.5
466.512	99.5
466.732	93.5
466.951	86.5
467.171	98.5
467.391	91.5
467.61	88.5
467.829	87.5
468.049	93.5
468.268	91.5
468.488	109.5
468.707	111.5
468.927	112.5
469.146	88.5
469.365	96.5
469.585	89.5
469.804	92.5
470.023	97.5
470.243	110.5
470.462	108.5
470.681	96.5
470.901	100.5
471.12	84.5
471.339	103.5
471.558	99.5
471.777	105.5
471.997	94.5
472.216	91.5
472.435	92.5
472.654	74.5
472.873	84.5
473.092	89.5
473.311	96.5
473.53	98.5
473.749	103.5
473.968	95.5
474.187	102.5
474.406	89.5
474.625	97.5
474.844	97.5
475.063	85.5
475.282	93.5
475.501	84.5
475.72	91.5
475.939	92.5
476.158	96.5
476.377	89.5
476.596	87.5
476.814	97.5
477.033	90.5
477.252	92.5
477.471	89.5
477.69	94.5
477.908	99.5
478.127	104.5
478.346	91.5
478.564	113.5
478.783	94.5
479.002	110.5
479.22	102.5
479.439	94.5
479.658	95.5
479.876	91.5
480.095	85.5
480.313	87.5
480.532	82.5
480.751	94.5
480.969	79.5
481.188	86.5
481.406	87.5
481.624	90.5
481.843	78.5
482.061	82.5
482.28	80.5
482.498	86.5
482.717	83.5
482.935	85.5
483.153	104.5
483.372	113.5
483.59	88.5
483.808	89.5
484.027	104.5
484.245	85.5
484.463	103.5
484.681	100.5
484.9	99.5
485.118	111.5
485.336	92.5
485.554	82.5
485.772	82.5
485.99	91.5
486.209	93.5
486.427	73.5
486.645	88.5
486.863	86.5
487.081	91.5
487.299	86.5
487.517	104.5
487.735	110.5
487.953	122.5
488.171	117.5
488.389	102.5
488.607	103.5
488.825	103.5
489.043	97.5
489.261	108.5
489.479	103.5
489.696	103.5
489.914	113.5
490.132	97.5
490.35	113.5
490.568	103.5
490.786	91.5
491.003	112.5
491.221	111.5
491.439	113.5
491.657	117.5
491.874	112.5
492.092	119.5
492.31	140.5
492.527	124.5
492.745	123.5
492.963	124.5
493.18	116.5
493.398	125.5
493.615	99.5
493.833	112.5
494.05	115.5
494.268	105.5
494.485	104.5
494.703	126.5
494.92	114.5
495.138	117.5
495.355	99.5
495.573	98.5
495.79	105.5
496.008	105.5
496.225	122.5
496.442	105.5
496.66	113.5
496.877	106.5
497.094	106.5
497.312	100.5
497.529	116.5
497.746	100.5
497.963	95.5
498.181	104.5
498.398	101.5
498.615	94.5
498.832	100.5
499.049	100.5
499.267	104.5
499.484	85.5
499.701	112.5
499.918	106.5
500.135	102.5
500.352	91.5
500.569	86.5
500.786	106.5
501.003	98.5
501.22	86.5
501.437	113.5
501.654	90.5
501.871	106.5
502.088	99.5
502.305	105.5
502.522	112.5
502.739	92.5
502.956	99.5
503.172	98.5
503.389	81.5
503.606	81.5
503.823	89.5
504.04	102.5
504.256	86.5
504.473	99.5
504.69	108.5
504.907	105.5
505.123	102.5
505.34	97.5
505.557	94.5
505.773	100.5
505.99	98.5
506.207	87.5
506.423	103.5
506.64	99.5
506.856	89.5
507.073	91.5
507.289	83.5
507.506	95.5
507.722	90.5
507.939	91.5
508.155	92.5
508.372	95.5
508.588	114.5
508.805	92.5
509.021	93.5
509.238	92.5
509.454	91.5
509.67	96.5
509.887	93.5
510.103	76.5
510.319	75.5
510.536	93.5
510.752	94.5
510.968	76.5
511.184	93.5
511.401	96.5
511.617	92.5
511.833	83.5
512.049	91.5
512.265	95.5
512.481	88.5
512.698	89.5
512.914	93.5
513.13	77.5
513.346	84.5
513.562	82.5
513.778	83.5
513.994	79.5
514.21	81.5
514.426	92.5
514.642	85.5
514.858	82.5
515.074	79.5
515.29	90.5
515.506	75.5
515.721	83.5
515.937	80.5
516.153	89.5
516.369	79.5
516.585	73.5
516.801	81.5
517.016	91.5
517.232	98.5
517.448	99.5
517.664	90.5
517.879	80.5
518.095	87.5
518.311	73.5
518.527	91.5
518.742	87.5
518.958	90.5
519.173	106.5
519.389	88.5
519.605	86.5
519.82	89.5
520.036	106.5
520.251	97.5
520.467	110.5
520.682	88.5
520.898	79.5
521.113	88.5
521.329	83.5
521.544	75.5
521.76	89.5
521.975	79.5
522.19	100.5
522.406	89.5
522.621	89.5
522.836	76.5
523.052	84.5
523.267	79.5
523.482	80.5
523.698	93.5
523.913	80.5
524.128	90.5
524.343	102.5
524.559	92.5
524.774	94.5
524.989	112.5
525.204	96.5
525.419	88.5
525.634	93.5
525.849	70.5
526.064	84.5
526.28	102.5
526.495	79.5
526.71	82.5
526.925	90.5
527.14	82.5
527.355	84.5
527.57	80.5
527.785	82.5
527.999	67.5
528.214	92.5
528.429	85.5
528.644	88.5
528.859	107.5
529.074	106.5
529.289	112.5
529.503	99.5
529.718	92.5
529.933	108.5
530.148	67.5
530.363	92.5
530.577	81.5
530.792	74.5
531.007	75.5
531.221	78.5
531.436	84.5
531.651	84.5
531.865	94.5
532.08	79.5
532.295	99.5
532.509	90.5
532.724	94.5
532.938	89.5
533.153	86.5
533.367	82.5
533.582	84.5
533.796	88.5
534.011	93.5
534.225	86.5
534.44	100.5
534.654	74.5
534.868	81.5
535.083	89.5
535.297	81.5
535.511	89.5
535.726	81.5
535.94	83.5
536.154	89.5
536.369	94.5
536.583	89.5
536.797	85.5
537.011	87.5
537.225	96.5
