Data from Location4.07152019.Energy5.Lamp.07192019.3%Agarose_HRD10591_15-25-36-579.txt Node
Date: Fri Jul 19 15:25:36 EDT 2019
User: cochatt
Spectrometer: HR+D1059
Trigger mode: 1
Integration Time (sec): 1.000000E-1
Scans to average: 1
Electric dark correction enabled: true
Nonlinearity correction enabled: false
Boxcar width: 0
XAxis mode: Wavelengths
Number of Pixels in Spectrum: 2048
>>>>>Begin Spectral Data<<<<<
223.165	-20.75
223.4	-20.75
223.635	-20.75
223.869	-26.75
224.104	-13.75
224.338	-21.75
224.573	-16.75
224.808	-22.75
225.042	-12.75
225.277	7.25
225.511	3.25
225.746	9.25
225.98	12.25
226.215	3.25
226.449	14.25
226.683	36.25
226.918	27.25
227.152	22.25
227.387	50.25
227.621	46.25
227.856	47.25
228.09	43.25
228.324	30.25
228.559	51.25
228.793	48.25
229.027	63.25
229.262	69.25
229.496	61.25
229.73	71.25
229.964	71.25
230.199	75.25
230.433	79.25
230.667	91.25
230.901	76.25
231.136	89.25
231.37	79.25
231.604	88.25
231.838	88.25
232.072	78.25
232.306	90.25
232.541	89.25
232.775	80.25
233.009	78.25
233.243	87.25
233.477	80.25
233.711	92.25
233.945	85.25
234.179	104.25
234.413	83.25
234.647	91.25
234.881	83.25
235.115	89.25
235.349	79.25
235.583	80.25
235.817	71.25
236.051	75.25
236.285	65.25
236.519	81.25
236.753	78.25
236.987	64.25
237.221	80.25
237.455	87.25
237.689	73.25
237.922	85.25
238.156	86.25
238.39	77.25
238.624	72.25
238.858	71.25
239.091	77.25
239.325	73.25
239.559	64.25
239.793	85.25
240.027	71.25
240.26	76.25
240.494	76.25
240.728	70.25
240.961	81.25
241.195	77.25
241.429	88.25
241.662	83.25
241.896	81.25
242.13	64.25
242.363	82.25
242.597	72.25
242.83	79.25
243.064	63.25
243.298	79.25
243.531	73.25
243.765	78.25
243.998	66.25
244.232	76.25
244.465	68.25
244.699	87.25
244.932	81.25
245.166	71.25
245.399	80.25
245.633	76.25
245.866	84.25
246.099	83.25
246.333	81.25
246.566	66.25
246.8	67.25
247.033	65.25
247.266	85.25
247.5	66.25
247.733	73.25
247.966	82.25
248.2	74.25
248.433	91.25
248.666	83.25
248.899	89.25
249.133	86.25
249.366	88.25
249.599	77.25
249.832	83.25
250.066	84.25
250.299	79.25
250.532	81.25
250.765	78.25
250.998	79.25
251.231	76.25
251.465	89.25
251.698	81.25
251.931	81.25
252.164	82.25
252.397	74.25
252.63	72.25
252.863	88.25
253.096	81.25
253.329	95.25
253.562	80.25
253.795	86.25
254.028	71.25
254.261	81.25
254.494	74.25
254.727	96.25
254.96	87.25
255.193	73.25
255.426	82.25
255.659	77.25
255.892	79.25
256.124	82.25
256.357	81.25
256.59	84.25
256.823	88.25
257.056	86.25
257.289	65.25
257.521	78.25
257.754	89.25
257.987	78.25
258.22	87.25
258.452	80.25
258.685	72.25
258.918	76.25
259.151	80.25
259.383	84.25
259.616	78.25
259.849	80.25
260.081	77.25
260.314	81.25
260.547	77.25
260.779	77.25
261.012	90.25
261.244	81.25
261.477	77.25
261.71	79.25
261.942	72.25
262.175	84.25
262.407	91.25
262.64	78.25
262.872	81.25
263.105	76.25
263.337	84.25
263.57	92.25
263.802	88.25
264.035	78.25
264.267	76.25
264.499	80.25
264.732	84.25
264.964	84.25
265.197	75.25
265.429	87.25
265.661	89.25
265.894	98.25
266.126	87.25
266.358	99.25
266.591	85.25
266.823	82.25
267.055	74.25
267.287	65.25
267.52	79.25
267.752	95.25
267.984	82.25
268.216	92.25
268.448	83.25
268.681	76.25
268.913	75.25
269.145	87.25
269.377	78.25
269.609	82.25
269.841	72.25
270.073	83.25
270.306	83.25
270.538	87.25
270.77	90.25
271.002	89.25
271.234	83.25
271.466	85.25
271.698	72.25
271.93	79.25
272.162	73.25
272.394	77.25
272.626	72.25
272.858	83.25
273.09	78.25
273.322	79.25
273.553	79.25
273.785	75.25
274.017	79.25
274.249	76.25
274.481	73.25
274.713	95.25
274.945	95.25
275.176	84.25
275.408	81.25
275.64	91.25
275.872	77.25
276.104	85.25
276.335	79.25
276.567	76.25
276.799	82.25
277.031	85.25
277.262	86.25
277.494	92.25
277.726	89.25
277.957	74.25
278.189	79.25
278.421	79.25
278.652	75.25
278.884	91.25
279.115	80.25
279.347	80.25
279.579	87.25
279.81	77.25
280.042	83.25
280.273	85.25
280.505	77.25
280.736	81.25
280.968	90.25
281.199	81.25
281.431	77.25
281.662	76.25
281.894	88.25
282.125	68.25
282.356	87.25
282.588	77.25
282.819	70.25
283.051	83.25
283.282	77.25
283.513	83.25
283.745	90.25
283.976	79.25
284.207	83.25
284.439	91.25
284.67	98.25
284.901	95.25
285.132	83.25
285.364	91.25
285.595	92.25
285.826	85.25
286.057	84.25
286.288	82.25
286.52	99.25
286.751	84.25
286.982	85.25
287.213	88.25
287.444	75.25
287.675	85.25
287.906	85.25
288.138	90.25
288.369	83.25
288.6	81.25
288.831	84.25
289.062	85.25
289.293	68.25
289.524	84.25
289.755	93.25
289.986	89.25
290.217	80.25
290.448	92.25
290.679	83.25
290.91	93.25
291.141	87.25
291.371	75.25
291.602	84.25
291.833	92.25
292.064	86.25
292.295	94.25
292.526	83.25
292.757	98.25
292.987	91.25
293.218	95.25
293.449	95.25
293.68	81.25
293.91	106.25
294.141	74.25
294.372	77.25
294.603	76.25
294.833	73.25
295.064	80.25
295.295	81.25
295.525	88.25
295.756	97.25
295.987	81.25
296.217	84.25
296.448	86.25
296.679	93.25
296.909	80.25
297.14	76.25
297.37	87.25
297.601	85.25
297.831	66.25
298.062	83.25
298.292	84.25
298.523	95.25
298.753	96.25
298.984	82.25
299.214	63.25
299.445	88.25
299.675	87.25
299.905	98.25
300.136	84.25
300.366	81.25
300.597	80.25
300.827	90.25
301.057	83.25
301.288	94.25
301.518	82.25
301.748	78.25
301.979	114.25
302.209	83.25
302.439	95.25
302.669	86.25
302.9	92.25
303.13	101.25
303.36	81.25
303.59	86.25
303.82	97.25
304.051	86.25
304.281	94.25
304.511	104.25
304.741	96.25
304.971	88.25
305.201	85.25
305.431	103.25
305.661	81.25
305.891	75.25
306.121	82.25
306.352	81.25
306.582	83.25
306.812	84.25
307.042	88.25
307.272	87.25
307.502	87.25
307.731	88.25
307.961	77.25
308.191	97.25
308.421	76.25
308.651	85.25
308.881	93.25
309.111	74.25
309.341	72.25
309.571	83.25
309.8	98.25
310.03	75.25
310.26	83.25
310.49	79.25
310.72	77.25
310.949	73.25
311.179	77.25
311.409	91.25
311.639	79.25
311.868	87.25
312.098	85.25
312.328	87.25
312.557	100.25
312.787	88.25
313.017	84.25
313.246	78.25
313.476	91.25
313.706	78.25
313.935	89.25
314.165	84.25
314.394	79.25
314.624	97.25
314.853	88.25
315.083	64.25
315.312	79.25
315.542	69.25
315.771	81.25
316.001	92.25
316.23	67.25
316.46	74.25
316.689	94.25
316.919	94.25
317.148	96.25
317.377	91.25
317.607	96.25
317.836	90.25
318.065	75.25
318.295	71.25
318.524	81.25
318.753	73.25
318.983	76.25
319.212	88.25
319.441	82.25
319.67	86.25
319.9	91.25
320.129	75.25
320.358	77.25
320.587	89.25
320.816	89.25
321.046	84.25
321.275	79.25
321.504	84.25
321.733	82.25
321.962	88.25
322.191	83.25
322.42	87.25
322.649	92.25
322.878	82.25
323.108	80.25
323.337	75.25
323.566	88.25
323.795	70.25
324.024	85.25
324.253	70.25
324.482	79.25
324.71	83.25
324.939	86.25
325.168	85.25
325.397	67.25
325.626	75.25
325.855	91.25
326.084	90.25
326.313	84.25
326.542	98.25
326.77	78.25
326.999	86.25
327.228	91.25
327.457	80.25
327.686	86.25
327.914	81.25
328.143	77.25
328.372	100.25
328.6	78.25
328.829	71.25
329.058	83.25
329.287	73.25
329.515	84.25
329.744	88.25
329.972	87.25
330.201	87.25
330.43	82.25
330.658	80.25
330.887	97.25
331.115	88.25
331.344	69.25
331.572	86.25
331.801	84.25
332.03	85.25
332.258	72.25
332.486	82.25
332.715	90.25
332.943	87.25
333.172	68.25
333.4	80.25
333.629	85.25
333.857	85.25
334.085	90.25
334.314	76.25
334.542	82.25
334.771	81.25
334.999	91.25
335.227	82.25
335.455	78.25
335.684	92.25
335.912	82.25
336.14	78.25
336.369	96.25
336.597	94.25
336.825	89.25
337.053	87.25
337.281	88.25
337.51	79.25
337.738	100.25
337.966	92.25
338.194	77.25
338.422	85.25
338.65	104.25
338.878	83.25
339.106	76.25
339.334	92.25
339.562	72.25
339.79	79.25
340.018	78.25
340.246	79.25
340.474	82.25
340.702	82.25
340.93	93.25
341.158	90.25
341.386	90.25
341.614	69.25
341.842	86.25
342.07	73.25
342.298	86.25
342.526	87.25
342.754	85.25
342.981	82.25
343.209	87.25
343.437	87.25
343.665	81.25
343.893	98.25
344.12	83.25
344.348	96.25
344.576	80.25
344.804	97.25
345.031	97.25
345.259	78.25
345.487	83.25
345.714	89.25
345.942	87.25
346.17	76.25
346.397	82.25
346.625	88.25
346.853	80.25
347.08	86.25
347.308	99.25
347.535	83.25
347.763	84.25
347.99	76.25
348.218	88.25
348.445	77.25
348.673	85.25
348.9	89.25
349.128	79.25
349.355	89.25
349.583	87.25
349.81	77.25
350.037	92.25
350.265	85.25
350.492	93.25
350.72	91.25
350.947	95.25
351.174	80.25
351.402	92.25
351.629	90.25
351.856	79.25
352.083	81.25
352.311	84.25
352.538	88.25
352.765	89.25
352.992	80.25
353.22	83.25
353.447	71.25
353.674	97.25
353.901	91.25
354.128	92.25
354.355	81.25
354.583	87.25
354.81	105.25
355.037	87.25
355.264	86.25
355.491	104.25
355.718	77.25
355.945	89.25
356.172	71.25
356.399	88.25
356.626	88.25
356.853	85.25
357.08	83.25
357.307	82.25
357.534	87.25
357.761	74.25
357.988	75.25
358.215	75.25
358.441	84.25
358.668	77.25
358.895	82.25
359.122	91.25
359.349	77.25
359.576	95.25
359.802	77.25
360.029	76.25
360.256	88.25
360.483	79.25
360.709	86.25
360.936	84.25
361.163	80.25
361.39	88.25
361.616	100.25
361.843	79.25
362.07	95.25
362.296	74.25
362.523	71.25
362.749	89.25
362.976	78.25
363.203	90.25
363.429	86.25
363.656	81.25
363.882	89.25
364.109	86.25
364.335	93.25
364.562	81.25
364.788	79.25
365.015	77.25
365.241	74.25
365.468	93.25
365.694	88.25
365.92	83.25
366.147	85.25
366.373	81.25
366.599	84.25
366.826	78.25
367.052	93.25
367.278	84.25
367.505	90.25
367.731	87.25
367.957	84.25
368.184	73.25
368.41	79.25
368.636	74.25
368.862	81.25
369.089	87.25
369.315	92.25
369.541	73.25
369.767	84.25
369.993	88.25
370.219	90.25
370.445	89.25
370.672	88.25
370.898	72.25
371.124	88.25
371.35	88.25
371.576	80.25
371.802	94.25
372.028	88.25
372.254	81.25
372.48	77.25
372.706	82.25
372.932	88.25
373.158	86.25
373.384	93.25
373.61	89.25
373.835	85.25
374.061	78.25
374.287	75.25
374.513	77.25
374.739	76.25
374.965	85.25
375.191	98.25
375.416	94.25
375.642	76.25
375.868	82.25
376.094	79.25
376.319	87.25
376.545	76.25
376.771	81.25
376.997	91.25
377.222	86.25
377.448	80.25
377.674	84.25
377.899	86.25
378.125	81.25
378.35	83.25
378.576	83.25
378.802	82.25
379.027	75.25
379.253	90.25
379.478	93.25
379.704	68.25
379.929	85.25
380.155	76.25
380.38	77.25
380.606	88.25
380.831	79.25
381.057	83.25
381.282	95.25
381.507	75.25
381.733	98.25
381.958	96.25
382.184	80.25
382.409	78.25
382.634	80.25
382.86	74.25
383.085	81.25
383.31	81.25
383.535	92.25
383.761	77.25
383.986	82.25
384.211	97.25
384.436	81.25
384.662	87.25
384.887	71.25
385.112	84.25
385.337	89.25
385.562	81.25
385.787	93.25
386.013	95.25
386.238	87.25
386.463	85.25
386.688	83.25
386.913	78.25
387.138	75.25
387.363	96.25
387.588	85.25
387.813	85.25
388.038	76.25
388.263	90.25
388.488	89.25
388.713	77.25
388.938	84.25
389.163	86.25
389.387	68.25
389.612	72.25
389.837	88.25
390.062	90.25
390.287	91.25
390.512	84.25
390.736	80.25
390.961	96.25
391.186	80.25
391.411	83.25
391.636	94.25
391.86	95.25
392.085	77.25
392.31	103.25
392.534	79.25
392.759	88.25
392.984	103.25
393.208	103.25
393.433	81.25
393.658	83.25
393.882	84.25
394.107	79.25
394.331	102.25
394.556	68.25
394.78	85.25
395.005	98.25
395.229	82.25
395.454	90.25
395.678	78.25
395.903	67.25
396.127	93.25
396.352	88.25
396.576	93.25
396.801	75.25
397.025	70.25
397.249	75.25
397.474	92.25
397.698	89.25
397.922	89.25
398.147	80.25
398.371	80.25
398.595	81.25
398.82	91.25
399.044	83.25
399.268	87.25
399.492	82.25
399.717	96.25
399.941	91.25
400.165	88.25
400.389	77.25
400.613	85.25
400.837	90.25
401.062	75.25
401.286	91.25
401.51	92.25
401.734	93.25
401.958	85.25
402.182	93.25
402.406	85.25
402.63	84.25
402.854	90.25
403.078	83.25
403.302	77.25
403.526	80.25
403.75	89.25
403.974	85.25
404.198	84.25
404.422	84.25
404.645	93.25
404.869	99.25
405.093	96.25
405.317	92.25
405.541	84.25
405.765	114.25
405.988	97.25
406.212	109.25
406.436	99.25
406.66	97.25
406.883	84.25
407.107	83.25
407.331	91.25
407.555	94.25
407.778	105.25
408.002	70.25
408.226	87.25
408.449	88.25
408.673	89.25
408.896	101.25
409.12	95.25
409.344	93.25
409.567	95.25
409.791	87.25
410.014	81.25
410.238	95.25
410.461	101.25
410.685	98.25
410.908	84.25
411.132	92.25
411.355	104.25
411.578	96.25
411.802	88.25
412.025	86.25
412.249	84.25
412.472	91.25
412.695	85.25
412.919	93.25
413.142	92.25
413.365	81.25
413.589	86.25
413.812	89.25
414.035	107.25
414.258	81.25
414.482	89.25
414.705	87.25
414.928	102.25
415.151	83.25
415.374	103.25
415.597	93.25
415.821	90.25
416.044	89.25
416.267	96.25
416.49	93.25
416.713	84.25
416.936	80.25
417.159	95.25
417.382	111.25
417.605	92.25
417.828	84.25
418.051	79.25
418.274	92.25
418.497	90.25
418.72	79.25
418.943	100.25
419.166	97.25
419.389	102.25
419.611	95.25
419.834	92.25
420.057	101.25
420.28	82.25
420.503	81.25
420.726	95.25
420.948	87.25
421.171	93.25
421.394	96.25
421.617	102.25
421.839	94.25
422.062	113.25
422.285	93.25
422.507	93.25
422.73	89.25
422.953	98.25
423.175	104.25
423.398	93.25
423.621	96.25
423.843	111.25
424.066	101.25
424.288	111.25
424.511	110.25
424.733	108.25
424.956	91.25
425.178	97.25
425.401	92.25
425.623	95.25
425.846	83.25
426.068	95.25
426.291	91.25
426.513	93.25
426.735	104.25
426.958	100.25
427.18	88.25
427.402	89.25
427.625	107.25
427.847	92.25
428.069	100.25
428.292	79.25
428.514	94.25
428.736	102.25
428.958	85.25
429.181	94.25
429.403	81.25
429.625	104.25
429.847	97.25
430.069	95.25
430.292	106.25
430.514	91.25
430.736	99.25
430.958	108.25
431.18	92.25
431.402	92.25
431.624	87.25
431.846	86.25
432.068	79.25
432.29	88.25
432.512	96.25
432.734	88.25
432.956	82.25
433.178	87.25
433.4	103.25
433.622	91.25
433.844	97.25
434.066	77.25
434.287	96.25
434.509	90.25
434.731	86.25
434.953	81.25
435.175	82.25
435.397	97.25
435.618	84.25
435.84	85.25
436.062	77.25
436.284	92.25
436.505	80.25
436.727	84.25
436.949	103.25
437.17	102.25
437.392	104.25
437.614	85.25
437.835	92.25
438.057	88.25
438.278	79.25
438.5	97.25
438.721	106.25
438.943	91.25
439.165	112.25
439.386	85.25
439.608	97.25
439.829	97.25
440.05	101.25
440.272	107.25
440.493	98.25
440.715	113.25
440.936	98.25
441.158	100.25
441.379	113.25
441.6	93.25
441.822	86.25
442.043	101.25
442.264	97.25
442.486	99.25
442.707	106.25
442.928	103.25
443.149	75.25
443.371	78.25
443.592	101.25
443.813	104.25
444.034	101.25
444.255	90.25
444.476	95.25
444.698	87.25
444.919	94.25
445.14	218.25
445.361	159.25
445.582	96.25
445.803	92.25
446.024	104.25
446.245	97.25
446.466	114.25
446.687	101.25
446.908	97.25
447.129	104.25
447.35	97.25
447.571	107.25
447.792	93.25
448.013	116.25
448.234	103.25
448.455	106.25
448.675	96.25
448.896	102.25
449.117	117.25
449.338	98.25
449.559	107.25
449.779	107.25
450	93.25
450.221	95.25
450.442	101.25
450.662	101.25
450.883	92.25
451.104	102.25
451.324	92.25
451.545	96.25
451.766	117.25
451.986	99.25
452.207	97.25
452.428	91.25
452.648	98.25
452.869	105.25
453.089	89.25
453.31	90.25
453.53	101.25
453.751	99.25
453.971	91.25
454.192	99.25
454.412	100.25
454.633	100.25
454.853	100.25
455.073	91.25
455.294	89.25
455.514	94.25
455.734	95.25
455.955	92.25
456.175	98.25
456.395	89.25
456.616	82.25
456.836	101.25
457.056	90.25
457.276	85.25
457.497	99.25
457.717	71.25
457.937	88.25
458.157	99.25
458.377	92.25
458.598	95.25
458.818	103.25
459.038	91.25
459.258	90.25
459.478	97.25
459.698	92.25
459.918	79.25
460.138	94.25
460.358	84.25
460.578	96.25
460.798	99.25
461.018	93.25
461.238	89.25
461.458	101.25
461.678	87.25
461.898	85.25
462.118	88.25
462.338	85.25
462.558	86.25
462.777	82.25
462.997	85.25
463.217	85.25
463.437	70.25
463.657	86.25
463.876	82.25
464.096	90.25
464.316	107.25
464.536	97.25
464.755	79.25
464.975	73.25
465.195	90.25
465.414	83.25
465.634	85.25
465.854	91.25
466.073	111.25
466.293	97.25
466.512	88.25
466.732	102.25
466.951	91.25
467.171	91.25
467.391	96.25
467.61	100.25
467.829	100.25
468.049	86.25
468.268	86.25
468.488	81.25
468.707	83.25
468.927	103.25
469.146	105.25
469.365	105.25
469.585	105.25
469.804	87.25
470.023	105.25
470.243	94.25
470.462	97.25
470.681	96.25
470.901	100.25
471.12	86.25
471.339	108.25
471.558	106.25
471.777	93.25
471.997	94.25
472.216	92.25
472.435	85.25
472.654	101.25
472.873	98.25
473.092	87.25
473.311	98.25
473.53	81.25
473.749	92.25
473.968	87.25
474.187	99.25
474.406	102.25
474.625	107.25
474.844	99.25
475.063	94.25
475.282	95.25
475.501	92.25
475.72	97.25
475.939	99.25
476.158	89.25
476.377	89.25
476.596	98.25
476.814	81.25
477.033	84.25
477.252	83.25
477.471	90.25
477.69	104.25
477.908	95.25
478.127	97.25
478.346	96.25
478.564	98.25
478.783	106.25
479.002	96.25
479.22	90.25
479.439	90.25
479.658	87.25
479.876	81.25
480.095	74.25
480.313	93.25
480.532	100.25
480.751	99.25
480.969	92.25
481.188	71.25
481.406	76.25
481.624	84.25
481.843	87.25
482.061	87.25
482.28	97.25
482.498	84.25
482.717	82.25
482.935	88.25
483.153	104.25
483.372	108.25
483.59	98.25
483.808	113.25
484.027	87.25
484.245	95.25
484.463	98.25
484.681	109.25
484.9	97.25
485.118	88.25
485.336	86.25
485.554	97.25
485.772	90.25
485.99	76.25
486.209	94.25
486.427	83.25
486.645	86.25
486.863	98.25
487.081	105.25
487.299	100.25
487.517	101.25
487.735	105.25
487.953	97.25
488.171	105.25
488.389	123.25
488.607	103.25
488.825	102.25
489.043	103.25
489.261	95.25
489.479	92.25
489.696	96.25
489.914	91.25
490.132	99.25
490.35	103.25
490.568	105.25
490.786	105.25
491.003	114.25
491.221	127.25
491.439	113.25
491.657	117.25
491.874	120.25
492.092	131.25
492.31	131.25
492.527	122.25
492.745	106.25
492.963	122.25
493.18	125.25
493.398	114.25
493.615	120.25
493.833	113.25
494.05	108.25
494.268	113.25
494.485	118.25
494.703	110.25
494.92	116.25
495.138	109.25
495.355	111.25
495.573	116.25
495.79	117.25
496.008	115.25
496.225	91.25
496.442	117.25
496.66	123.25
496.877	104.25
497.094	115.25
497.312	97.25
497.529	113.25
497.746	99.25
497.963	85.25
498.181	97.25
498.398	95.25
498.615	108.25
498.832	98.25
499.049	101.25
499.267	90.25
499.484	101.25
499.701	91.25
499.918	92.25
500.135	94.25
500.352	95.25
500.569	98.25
500.786	103.25
501.003	105.25
501.22	101.25
501.437	95.25
501.654	102.25
501.871	93.25
502.088	101.25
502.305	85.25
502.522	90.25
502.739	93.25
502.956	102.25
503.172	97.25
503.389	99.25
503.606	98.25
503.823	88.25
504.04	99.25
504.256	95.25
504.473	87.25
504.69	100.25
504.907	99.25
505.123	101.25
505.34	87.25
505.557	104.25
505.773	92.25
505.99	97.25
506.207	85.25
506.423	95.25
506.64	96.25
506.856	92.25
507.073	95.25
507.289	86.25
507.506	95.25
507.722	83.25
507.939	86.25
508.155	85.25
508.372	94.25
508.588	82.25
508.805	86.25
509.021	92.25
509.238	88.25
509.454	92.25
509.67	94.25
509.887	75.25
510.103	84.25
510.319	91.25
510.536	88.25
510.752	91.25
510.968	83.25
511.184	77.25
511.401	75.25
511.617	92.25
511.833	105.25
512.049	89.25
512.265	92.25
512.481	95.25
512.698	81.25
512.914	95.25
513.13	73.25
513.346	92.25
513.562	80.25
513.778	92.25
513.994	93.25
514.21	78.25
514.426	90.25
514.642	83.25
514.858	76.25
515.074	92.25
515.29	78.25
515.506	87.25
515.721	73.25
515.937	89.25
516.153	75.25
516.369	93.25
516.585	95.25
516.801	85.25
517.016	101.25
517.232	82.25
