Data from Location4.07152019.Energy5.Lamp.07192019.3%Agarose_HRD10591_15-25-21-577.txt Node
Date: Fri Jul 19 15:25:21 EDT 2019
User: cochatt
Spectrometer: HR+D1059
Trigger mode: 1
Integration Time (sec): 1.000000E-1
Scans to average: 1
Electric dark correction enabled: true
Nonlinearity correction enabled: false
Boxcar width: 0
XAxis mode: Wavelengths
Number of Pixels in Spectrum: 2048
>>>>>Begin Spectral Data<<<<<
223.165	3.12
223.4	3.12
223.635	3.12
223.869	-11.88
224.104	-11.88
224.338	-14.88
224.573	-11.88
224.808	-13.88
225.042	-5.88
225.277	-20.88
225.511	-11.88
225.746	6.12
225.98	0.12
226.215	10.12
226.449	10.12
226.683	13.12
226.918	29.12
227.152	31.12
227.387	39.12
227.621	28.12
227.856	55.12
228.09	44.12
228.324	48.12
228.559	56.12
228.793	54.12
229.027	59.12
229.262	65.12
229.496	66.12
229.73	72.12
229.964	67.12
230.199	71.12
230.433	78.12
230.667	85.12
230.901	80.12
231.136	91.12
231.37	76.12
231.604	80.12
231.838	74.12
232.072	73.12
232.306	76.12
232.541	88.12
232.775	84.12
233.009	78.12
233.243	84.12
233.477	81.12
233.711	83.12
233.945	82.12
234.179	90.12
234.413	57.12
234.647	86.12
234.881	88.12
235.115	82.12
235.349	75.12
235.583	85.12
235.817	88.12
236.051	71.12
236.285	81.12
236.519	82.12
236.753	73.12
236.987	64.12
237.221	72.12
237.455	73.12
237.689	64.12
237.922	78.12
238.156	83.12
238.39	77.12
238.624	84.12
238.858	75.12
239.091	72.12
239.325	84.12
239.559	80.12
239.793	66.12
240.027	82.12
240.26	77.12
240.494	80.12
240.728	64.12
240.961	60.12
241.195	70.12
241.429	71.12
241.662	66.12
241.896	76.12
242.13	75.12
242.363	79.12
242.597	73.12
242.83	70.12
243.064	79.12
243.298	76.12
243.531	86.12
243.765	79.12
243.998	83.12
244.232	76.12
244.465	74.12
244.699	81.12
244.932	69.12
245.166	66.12
245.399	80.12
245.633	80.12
245.866	73.12
246.099	77.12
246.333	66.12
246.566	74.12
246.8	74.12
247.033	73.12
247.266	79.12
247.5	69.12
247.733	79.12
247.966	68.12
248.2	74.12
248.433	84.12
248.666	88.12
248.899	74.12
249.133	63.12
249.366	70.12
249.599	86.12
249.832	77.12
250.066	90.12
250.299	87.12
250.532	69.12
250.765	79.12
250.998	83.12
251.231	76.12
251.465	81.12
251.698	77.12
251.931	74.12
252.164	79.12
252.397	85.12
252.63	80.12
252.863	88.12
253.096	73.12
253.329	96.12
253.562	73.12
253.795	72.12
254.028	92.12
254.261	79.12
254.494	82.12
254.727	83.12
254.96	89.12
255.193	77.12
255.426	76.12
255.659	96.12
255.892	74.12
256.124	82.12
256.357	83.12
256.59	77.12
256.823	74.12
257.056	66.12
257.289	70.12
257.521	87.12
257.754	75.12
257.987	79.12
258.22	76.12
258.452	67.12
258.685	75.12
258.918	69.12
259.151	96.12
259.383	82.12
259.616	86.12
259.849	75.12
260.081	81.12
260.314	88.12
260.547	86.12
260.779	90.12
261.012	65.12
261.244	74.12
261.477	79.12
261.71	86.12
261.942	77.12
262.175	72.12
262.407	76.12
262.64	82.12
262.872	78.12
263.105	92.12
263.337	91.12
263.57	91.12
263.802	74.12
264.035	105.12
264.267	81.12
264.499	79.12
264.732	79.12
264.964	82.12
265.197	88.12
265.429	94.12
265.661	95.12
265.894	76.12
266.126	78.12
266.358	90.12
266.591	73.12
266.823	90.12
267.055	84.12
267.287	80.12
267.52	80.12
267.752	63.12
267.984	85.12
268.216	86.12
268.448	80.12
268.681	88.12
268.913	81.12
269.145	87.12
269.377	83.12
269.609	91.12
269.841	86.12
270.073	75.12
270.306	90.12
270.538	93.12
270.77	80.12
271.002	96.12
271.234	88.12
271.466	90.12
271.698	69.12
271.93	83.12
272.162	88.12
272.394	85.12
272.626	92.12
272.858	89.12
273.09	97.12
273.322	81.12
273.553	89.12
273.785	85.12
274.017	86.12
274.249	88.12
274.481	85.12
274.713	88.12
274.945	88.12
275.176	86.12
275.408	83.12
275.64	76.12
275.872	79.12
276.104	76.12
276.335	104.12
276.567	81.12
276.799	78.12
277.031	79.12
277.262	91.12
277.494	82.12
277.726	89.12
277.957	78.12
278.189	96.12
278.421	90.12
278.652	82.12
278.884	86.12
279.115	79.12
279.347	83.12
279.579	96.12
279.81	74.12
280.042	83.12
280.273	75.12
280.505	80.12
280.736	88.12
280.968	77.12
281.199	86.12
281.431	84.12
281.662	90.12
281.894	78.12
282.125	81.12
282.356	84.12
282.588	92.12
282.819	77.12
283.051	85.12
283.282	84.12
283.513	87.12
283.745	74.12
283.976	85.12
284.207	87.12
284.439	99.12
284.67	94.12
284.901	87.12
285.132	93.12
285.364	92.12
285.595	99.12
285.826	77.12
286.057	92.12
286.288	95.12
286.52	82.12
286.751	84.12
286.982	83.12
287.213	85.12
287.444	93.12
287.675	79.12
287.906	91.12
288.138	74.12
288.369	93.12
288.6	85.12
288.831	94.12
289.062	84.12
289.293	73.12
289.524	88.12
289.755	88.12
289.986	83.12
290.217	87.12
290.448	84.12
290.679	87.12
290.91	85.12
291.141	79.12
291.371	93.12
291.602	91.12
291.833	80.12
292.064	86.12
292.295	77.12
292.526	90.12
292.757	100.12
292.987	88.12
293.218	96.12
293.449	82.12
293.68	91.12
293.91	72.12
294.141	84.12
294.372	77.12
294.603	80.12
294.833	82.12
295.064	82.12
295.295	63.12
295.525	94.12
295.756	88.12
295.987	88.12
296.217	82.12
296.448	88.12
296.679	93.12
296.909	80.12
297.14	91.12
297.37	92.12
297.601	110.12
297.831	86.12
298.062	91.12
298.292	76.12
298.523	80.12
298.753	78.12
298.984	74.12
299.214	84.12
299.445	91.12
299.675	86.12
299.905	82.12
300.136	84.12
300.366	76.12
300.597	86.12
300.827	90.12
301.057	94.12
301.288	91.12
301.518	84.12
301.748	87.12
301.979	88.12
302.209	82.12
302.439	85.12
302.669	85.12
302.9	76.12
303.13	87.12
303.36	92.12
303.59	74.12
303.82	91.12
304.051	91.12
304.281	84.12
304.511	88.12
304.741	91.12
304.971	86.12
305.201	88.12
305.431	95.12
305.661	77.12
305.891	93.12
306.121	98.12
306.352	88.12
306.582	96.12
306.812	86.12
307.042	90.12
307.272	92.12
307.502	95.12
307.731	91.12
307.961	85.12
308.191	82.12
308.421	82.12
308.651	87.12
308.881	82.12
309.111	92.12
309.341	77.12
309.571	88.12
309.8	87.12
310.03	90.12
310.26	84.12
310.49	79.12
310.72	76.12
310.949	82.12
311.179	75.12
311.409	81.12
311.639	76.12
311.868	89.12
312.098	85.12
312.328	82.12
312.557	82.12
312.787	77.12
313.017	68.12
313.246	90.12
313.476	80.12
313.706	79.12
313.935	83.12
314.165	78.12
314.394	95.12
314.624	80.12
314.853	86.12
315.083	80.12
315.312	76.12
315.542	84.12
315.771	84.12
316.001	76.12
316.23	89.12
316.46	98.12
316.689	91.12
316.919	84.12
317.148	80.12
317.377	89.12
317.607	96.12
317.836	83.12
318.065	94.12
318.295	84.12
318.524	79.12
318.753	81.12
318.983	78.12
319.212	89.12
319.441	71.12
319.67	81.12
319.9	85.12
320.129	80.12
320.358	83.12
320.587	85.12
320.816	78.12
321.046	94.12
321.275	99.12
321.504	91.12
321.733	89.12
321.962	92.12
322.191	84.12
322.42	93.12
322.649	86.12
322.878	84.12
323.108	90.12
323.337	92.12
323.566	80.12
323.795	90.12
324.024	76.12
324.253	97.12
324.482	79.12
324.71	87.12
324.939	82.12
325.168	99.12
325.397	91.12
325.626	87.12
325.855	92.12
326.084	94.12
326.313	85.12
326.542	91.12
326.77	95.12
326.999	75.12
327.228	75.12
327.457	92.12
327.686	86.12
327.914	91.12
328.143	103.12
328.372	101.12
328.6	83.12
328.829	85.12
329.058	96.12
329.287	82.12
329.515	90.12
329.744	87.12
329.972	79.12
330.201	94.12
330.43	75.12
330.658	96.12
330.887	91.12
331.115	91.12
331.344	67.12
331.572	75.12
331.801	89.12
332.03	89.12
332.258	83.12
332.486	82.12
332.715	82.12
332.943	75.12
333.172	80.12
333.4	81.12
333.629	91.12
333.857	74.12
334.085	84.12
334.314	91.12
334.542	85.12
334.771	67.12
334.999	86.12
335.227	98.12
335.455	89.12
335.684	86.12
335.912	70.12
336.14	81.12
336.369	85.12
336.597	65.12
336.825	83.12
337.053	66.12
337.281	78.12
337.51	87.12
337.738	87.12
337.966	79.12
338.194	84.12
338.422	80.12
338.65	75.12
338.878	83.12
339.106	79.12
339.334	81.12
339.562	76.12
339.79	86.12
340.018	81.12
340.246	78.12
340.474	91.12
340.702	87.12
340.93	80.12
341.158	89.12
341.386	73.12
341.614	86.12
341.842	71.12
342.07	92.12
342.298	89.12
342.526	84.12
342.754	105.12
342.981	94.12
343.209	96.12
343.437	83.12
343.665	77.12
343.893	83.12
344.12	85.12
344.348	68.12
344.576	78.12
344.804	90.12
345.031	71.12
345.259	92.12
345.487	86.12
345.714	93.12
345.942	80.12
346.17	88.12
346.397	80.12
346.625	85.12
346.853	79.12
347.08	80.12
347.308	73.12
347.535	71.12
347.763	93.12
347.99	85.12
348.218	80.12
348.445	79.12
348.673	79.12
348.9	82.12
349.128	89.12
349.355	78.12
349.583	71.12
349.81	70.12
350.037	83.12
350.265	80.12
350.492	81.12
350.72	100.12
350.947	81.12
351.174	83.12
351.402	81.12
351.629	90.12
351.856	78.12
352.083	81.12
352.311	75.12
352.538	84.12
352.765	74.12
352.992	80.12
353.22	86.12
353.447	88.12
353.674	81.12
353.901	88.12
354.128	87.12
354.355	82.12
354.583	88.12
354.81	80.12
355.037	66.12
355.264	82.12
355.491	85.12
355.718	79.12
355.945	88.12
356.172	68.12
356.399	89.12
356.626	89.12
356.853	94.12
357.08	89.12
357.307	85.12
357.534	70.12
357.761	77.12
357.988	83.12
358.215	88.12
358.441	73.12
358.668	81.12
358.895	92.12
359.122	75.12
359.349	79.12
359.576	98.12
359.802	65.12
360.029	73.12
360.256	87.12
360.483	80.12
360.709	97.12
360.936	80.12
361.163	87.12
361.39	76.12
361.616	91.12
361.843	83.12
362.07	90.12
362.296	94.12
362.523	79.12
362.749	86.12
362.976	76.12
363.203	92.12
363.429	84.12
363.656	79.12
363.882	85.12
364.109	84.12
364.335	71.12
364.562	80.12
364.788	73.12
365.015	83.12
365.241	71.12
365.468	90.12
365.694	82.12
365.92	90.12
366.147	88.12
366.373	87.12
366.599	75.12
366.826	76.12
367.052	81.12
367.278	84.12
367.505	87.12
367.731	94.12
367.957	64.12
368.184	77.12
368.41	85.12
368.636	79.12
368.862	103.12
369.089	79.12
369.315	81.12
369.541	82.12
369.767	92.12
369.993	91.12
370.219	90.12
370.445	67.12
370.672	76.12
370.898	86.12
371.124	91.12
371.35	84.12
371.576	80.12
371.802	75.12
372.028	83.12
372.254	76.12
372.48	86.12
372.706	92.12
372.932	78.12
373.158	77.12
373.384	96.12
373.61	96.12
373.835	81.12
374.061	77.12
374.287	87.12
374.513	71.12
374.739	78.12
374.965	84.12
375.191	81.12
375.416	96.12
375.642	99.12
375.868	89.12
376.094	89.12
376.319	86.12
376.545	93.12
376.771	84.12
376.997	86.12
377.222	87.12
377.448	83.12
377.674	85.12
377.899	83.12
378.125	77.12
378.35	88.12
378.576	107.12
378.802	98.12
379.027	95.12
379.253	89.12
379.478	84.12
379.704	98.12
379.929	83.12
380.155	76.12
380.38	84.12
380.606	87.12
380.831	86.12
381.057	95.12
381.282	87.12
381.507	87.12
381.733	87.12
381.958	88.12
382.184	83.12
382.409	82.12
382.634	73.12
382.86	77.12
383.085	90.12
383.31	80.12
383.535	87.12
383.761	86.12
383.986	90.12
384.211	87.12
384.436	87.12
384.662	96.12
384.887	75.12
385.112	86.12
385.337	89.12
385.562	79.12
385.787	84.12
386.013	88.12
386.238	85.12
386.463	90.12
386.688	80.12
386.913	72.12
387.138	75.12
387.363	77.12
387.588	100.12
387.813	80.12
388.038	95.12
388.263	83.12
388.488	92.12
388.713	83.12
388.938	77.12
389.163	88.12
389.387	93.12
389.612	81.12
389.837	96.12
390.062	84.12
390.287	89.12
390.512	91.12
390.736	98.12
390.961	105.12
391.186	92.12
391.411	83.12
391.636	92.12
391.86	81.12
392.085	78.12
392.31	79.12
392.534	86.12
392.759	89.12
392.984	77.12
393.208	99.12
393.433	85.12
393.658	73.12
393.882	102.12
394.107	73.12
394.331	80.12
394.556	83.12
394.78	76.12
395.005	81.12
395.229	86.12
395.454	98.12
395.678	75.12
395.903	87.12
396.127	86.12
396.352	69.12
396.576	87.12
396.801	79.12
397.025	87.12
397.249	74.12
397.474	85.12
397.698	82.12
397.922	73.12
398.147	85.12
398.371	89.12
398.595	95.12
398.82	84.12
399.044	103.12
399.268	84.12
399.492	89.12
399.717	90.12
399.941	95.12
400.165	96.12
400.389	91.12
400.613	88.12
400.837	92.12
401.062	93.12
401.286	77.12
401.51	86.12
401.734	87.12
401.958	84.12
402.182	86.12
402.406	93.12
402.63	88.12
402.854	76.12
403.078	83.12
403.302	94.12
403.526	90.12
403.75	83.12
403.974	87.12
404.198	90.12
404.422	102.12
404.645	82.12
404.869	92.12
405.093	89.12
405.317	88.12
405.541	82.12
405.765	82.12
405.988	85.12
406.212	89.12
406.436	101.12
406.66	92.12
406.883	95.12
407.107	94.12
407.331	83.12
407.555	98.12
407.778	100.12
408.002	97.12
408.226	91.12
408.449	87.12
408.673	86.12
408.896	83.12
409.12	94.12
409.344	72.12
409.567	89.12
409.791	82.12
410.014	92.12
410.238	97.12
410.461	73.12
410.685	79.12
410.908	94.12
411.132	88.12
411.355	92.12
411.578	90.12
411.802	81.12
412.025	84.12
412.249	86.12
412.472	86.12
412.695	85.12
412.919	97.12
413.142	94.12
413.365	103.12
413.589	108.12
413.812	93.12
414.035	92.12
414.258	85.12
414.482	89.12
414.705	93.12
414.928	87.12
415.151	96.12
415.374	105.12
415.597	81.12
415.821	89.12
416.044	95.12
416.267	88.12
416.49	84.12
416.713	87.12
416.936	97.12
417.159	106.12
417.382	102.12
417.605	92.12
417.828	87.12
418.051	81.12
418.274	100.12
418.497	94.12
418.72	80.12
418.943	100.12
419.166	77.12
419.389	96.12
419.611	98.12
419.834	76.12
420.057	100.12
420.28	94.12
420.503	92.12
420.726	90.12
420.948	94.12
421.171	86.12
421.394	87.12
421.617	87.12
421.839	95.12
422.062	96.12
422.285	97.12
422.507	95.12
422.73	76.12
422.953	97.12
423.175	99.12
423.398	90.12
423.621	78.12
423.843	92.12
424.066	96.12
424.288	90.12
424.511	93.12
424.733	86.12
424.956	86.12
425.178	98.12
425.401	99.12
425.623	100.12
425.846	92.12
426.068	90.12
426.291	87.12
426.513	86.12
426.735	83.12
426.958	94.12
427.18	92.12
427.402	91.12
427.625	87.12
427.847	84.12
428.069	72.12
428.292	87.12
428.514	86.12
428.736	83.12
428.958	103.12
429.181	95.12
429.403	94.12
429.625	83.12
429.847	95.12
430.069	83.12
430.292	96.12
430.514	94.12
430.736	96.12
430.958	100.12
431.18	86.12
431.402	95.12
431.624	91.12
431.846	74.12
432.068	81.12
432.29	75.12
432.512	100.12
432.734	95.12
432.956	86.12
433.178	105.12
433.4	95.12
433.622	90.12
433.844	113.12
434.066	76.12
434.287	75.12
434.509	92.12
434.731	87.12
434.953	83.12
435.175	82.12
435.397	103.12
435.618	84.12
435.84	86.12
436.062	89.12
436.284	79.12
436.505	92.12
436.727	83.12
436.949	90.12
437.17	106.12
437.392	94.12
437.614	94.12
437.835	79.12
438.057	96.12
438.278	93.12
438.5	91.12
438.721	95.12
438.943	102.12
439.165	89.12
439.386	86.12
439.608	103.12
439.829	95.12
440.05	98.12
440.272	87.12
440.493	92.12
440.715	97.12
440.936	109.12
441.158	97.12
441.379	100.12
441.6	84.12
441.822	97.12
442.043	96.12
442.264	92.12
442.486	96.12
442.707	91.12
442.928	83.12
443.149	99.12
443.371	107.12
443.592	98.12
443.813	88.12
444.034	90.12
444.255	97.12
444.476	105.12
444.698	112.12
444.919	99.12
445.14	240.12
445.361	159.12
445.582	92.12
445.803	99.12
446.024	95.12
446.245	91.12
446.466	101.12
446.687	84.12
446.908	83.12
447.129	98.12
447.35	87.12
447.571	109.12
447.792	110.12
448.013	106.12
448.234	107.12
448.455	95.12
448.675	83.12
448.896	90.12
449.117	85.12
449.338	88.12
449.559	107.12
449.779	106.12
450	78.12
450.221	77.12
450.442	104.12
450.662	97.12
450.883	98.12
451.104	97.12
451.324	86.12
451.545	75.12
451.766	105.12
451.986	93.12
452.207	86.12
452.428	97.12
452.648	95.12
452.869	88.12
453.089	97.12
453.31	81.12
453.53	88.12
453.751	96.12
453.971	86.12
454.192	84.12
454.412	95.12
454.633	89.12
454.853	102.12
455.073	82.12
455.294	105.12
455.514	105.12
455.734	91.12
455.955	86.12
456.175	92.12
456.395	86.12
456.616	76.12
456.836	79.12
457.056	84.12
457.276	91.12
457.497	84.12
457.717	71.12
457.937	84.12
458.157	80.12
458.377	74.12
458.598	94.12
458.818	79.12
459.038	76.12
459.258	76.12
459.478	86.12
459.698	97.12
459.918	67.12
460.138	70.12
460.358	100.12
460.578	81.12
460.798	88.12
461.018	77.12
461.238	84.12
461.458	94.12
461.678	77.12
461.898	91.12
462.118	88.12
462.338	97.12
462.558	91.12
462.777	88.12
462.997	84.12
463.217	84.12
463.437	95.12
463.657	101.12
463.876	82.12
464.096	94.12
464.316	84.12
464.536	106.12
464.755	101.12
464.975	96.12
465.195	103.12
465.414	82.12
465.634	85.12
465.854	88.12
466.073	70.12
466.293	84.12
466.512	80.12
466.732	111.12
466.951	94.12
467.171	89.12
467.391	96.12
467.61	89.12
467.829	95.12
468.049	87.12
468.268	99.12
468.488	87.12
468.707	95.12
468.927	96.12
469.146	97.12
469.365	94.12
469.585	86.12
469.804	90.12
470.023	102.12
470.243	99.12
470.462	110.12
470.681	101.12
470.901	99.12
471.12	93.12
471.339	87.12
471.558	105.12
471.777	74.12
471.997	93.12
472.216	103.12
472.435	94.12
472.654	81.12
472.873	85.12
473.092	95.12
473.311	85.12
473.53	80.12
473.749	91.12
473.968	96.12
474.187	82.12
474.406	77.12
474.625	105.12
474.844	91.12
475.063	84.12
475.282	92.12
475.501	92.12
475.72	98.12
475.939	98.12
476.158	86.12
476.377	81.12
476.596	89.12
476.814	88.12
477.033	93.12
477.252	93.12
477.471	82.12
477.69	101.12
477.908	108.12
478.127	97.12
478.346	87.12
478.564	103.12
478.783	96.12
479.002	89.12
479.22	102.12
479.439	82.12
479.658	96.12
479.876	91.12
480.095	85.12
480.313	84.12
480.532	99.12
480.751	102.12
480.969	87.12
481.188	91.12
481.406	84.12
481.624	67.12
481.843	90.12
482.061	83.12
482.28	90.12
482.498	97.12
482.717	92.12
482.935	84.12
483.153	107.12
483.372	93.12
483.59	98.12
483.808	113.12
484.027	110.12
484.245	99.12
484.463	99.12
484.681	111.12
484.9	104.12
485.118	96.12
485.336	88.12
485.554	89.12
485.772	97.12
485.99	89.12
486.209	92.12
486.427	86.12
486.645	96.12
486.863	97.12
487.081	101.12
487.299	82.12
487.517	97.12
487.735	99.12
487.953	99.12
488.171	110.12
488.389	96.12
488.607	109.12
488.825	85.12
489.043	91.12
489.261	96.12
489.479	90.12
489.696	96.12
489.914	104.12
490.132	96.12
490.35	98.12
490.568	110.12
490.786	112.12
491.003	118.12
491.221	98.12
491.439	99.12
491.657	104.12
491.874	90.12
492.092	130.12
492.31	113.12
492.527	115.12
492.745	125.12
492.963	120.12
493.18	122.12
493.398	115.12
493.615	103.12
493.833	107.12
494.05	101.12
494.268	111.12
494.485	102.12
494.703	105.12
494.92	99.12
495.138	89.12
495.355	107.12
495.573	103.12
495.79	115.12
496.008	103.12
496.225	96.12
496.442	94.12
496.66	105.12
496.877	94.12
497.094	119.12
497.312	107.12
497.529	101.12
497.746	104.12
497.963	113.12
498.181	92.12
498.398	97.12
498.615	79.12
498.832	95.12
499.049	91.12
499.267	93.12
499.484	92.12
499.701	104.12
499.918	92.12
500.135	98.12
500.352	90.12
500.569	88.12
500.786	107.12
501.003	88.12
501.22	91.12
501.437	93.12
501.654	83.12
501.871	100.12
502.088	86.12
502.305	88.12
502.522	112.12
502.739	99.12
502.956	97.12
503.172	91.12
503.389	94.12
503.606	102.12
503.823	98.12
504.04	94.12
504.256	91.12
504.473	100.12
504.69	90.12
504.907	89.12
505.123	101.12
505.34	84.12
505.557	99.12
505.773	90.12
505.99	91.12
506.207	87.12
506.423	91.12
506.64	86.12
506.856	92.12
507.073	93.12
507.289	89.12
507.506	90.12
507.722	102.12
507.939	88.12
508.155	103.12
508.372	89.12
508.588	90.12
508.805	90.12
509.021	86.12
509.238	84.12
509.454	91.12
509.67	80.12
509.887	99.12
510.103	76.12
510.319	92.12
510.536	81.12
510.752	97.12
510.968	92.12
511.184	84.12
511.401	89.12
511.617	87.12
511.833	85.12
512.049	92.12
512.265	101.12
512.481	86.12
512.698	84.12
512.914	77.12
513.13	82.12
513.346	80.12
513.562	86.12
513.778	88.12
513.994	80.12
514.21	86.12
514.426	87.12
514.642	90.12
514.858	81.12
515.074	89.12
515.29	92.12
515.506	85.12
515.721	82.12
515.937	72.12
516.153	88.12
516.369	89.12
516.585	69.12
516.801	74.12
517.016	87.12
517.232	67.12
517.448	87.12
517.664	79.12
517.879	90.12
