Data from Location4.07152019.Energy5.Lamp.07192019.3%Agarose_HRD10591_15-25-17-577.txt Node
Date: Fri Jul 19 15:25:17 EDT 2019
User: cochatt
Spectrometer: HR+D1059
Trigger mode: 1
Integration Time (sec): 1.000000E-1
Scans to average: 1
Electric dark correction enabled: true
Nonlinearity correction enabled: false
Boxcar width: 0
XAxis mode: Wavelengths
Number of Pixels in Spectrum: 2048
>>>>>Begin Spectral Data<<<<<
223.165	-8.69
223.4	-8.69
223.635	-8.69
223.869	-24.69
224.104	-18.69
224.338	-14.69
224.573	-25.69
224.808	-4.69
225.042	2.31
225.277	-1.69
225.511	-7.69
225.746	0.31
225.98	8.31
226.215	12.31
226.449	13.31
226.683	23.31
226.918	20.31
227.152	26.31
227.387	33.31
227.621	39.31
227.856	49.31
228.09	47.31
228.324	54.31
228.559	52.31
228.793	41.31
229.027	70.31
229.262	76.31
229.496	80.31
229.73	60.31
229.964	68.31
230.199	77.31
230.433	80.31
230.667	77.31
230.901	82.31
231.136	67.31
231.37	85.31
231.604	77.31
231.838	72.31
232.072	78.31
232.306	61.31
232.541	80.31
232.775	78.31
233.009	73.31
233.243	72.31
233.477	68.31
233.711	90.31
233.945	78.31
234.179	85.31
234.413	93.31
234.647	89.31
234.881	88.31
235.115	69.31
235.349	89.31
235.583	79.31
235.817	81.31
236.051	82.31
236.285	74.31
236.519	76.31
236.753	77.31
236.987	72.31
237.221	74.31
237.455	69.31
237.689	91.31
237.922	82.31
238.156	76.31
238.39	82.31
238.624	73.31
238.858	78.31
239.091	87.31
239.325	63.31
239.559	68.31
239.793	80.31
240.027	83.31
240.26	71.31
240.494	84.31
240.728	79.31
240.961	74.31
241.195	71.31
241.429	90.31
241.662	68.31
241.896	55.31
242.13	80.31
242.363	76.31
242.597	93.31
242.83	80.31
243.064	76.31
243.298	68.31
243.531	79.31
243.765	77.31
243.998	66.31
244.232	66.31
244.465	80.31
244.699	80.31
244.932	68.31
245.166	73.31
245.399	69.31
245.633	67.31
245.866	66.31
246.099	70.31
246.333	80.31
246.566	81.31
246.8	76.31
247.033	78.31
247.266	81.31
247.5	80.31
247.733	79.31
247.966	79.31
248.2	77.31
248.433	72.31
248.666	65.31
248.899	72.31
249.133	79.31
249.366	88.31
249.599	73.31
249.832	84.31
250.066	97.31
250.299	84.31
250.532	70.31
250.765	84.31
250.998	80.31
251.231	62.31
251.465	85.31
251.698	84.31
251.931	78.31
252.164	80.31
252.397	67.31
252.63	58.31
252.863	82.31
253.096	78.31
253.329	86.31
253.562	71.31
253.795	85.31
254.028	70.31
254.261	73.31
254.494	66.31
254.727	80.31
254.96	84.31
255.193	72.31
255.426	67.31
255.659	87.31
255.892	76.31
256.124	83.31
256.357	92.31
256.59	90.31
256.823	76.31
257.056	91.31
257.289	81.31
257.521	88.31
257.754	77.31
257.987	76.31
258.22	87.31
258.452	82.31
258.685	89.31
258.918	74.31
259.151	73.31
259.383	87.31
259.616	92.31
259.849	84.31
260.081	70.31
260.314	78.31
260.547	70.31
260.779	71.31
261.012	71.31
261.244	77.31
261.477	92.31
261.71	80.31
261.942	92.31
262.175	69.31
262.407	92.31
262.64	63.31
262.872	70.31
263.105	80.31
263.337	72.31
263.57	74.31
263.802	96.31
264.035	100.31
264.267	83.31
264.499	75.31
264.732	89.31
264.964	79.31
265.197	78.31
265.429	83.31
265.661	77.31
265.894	84.31
266.126	78.31
266.358	81.31
266.591	82.31
266.823	73.31
267.055	76.31
267.287	72.31
267.52	78.31
267.752	78.31
267.984	80.31
268.216	96.31
268.448	87.31
268.681	84.31
268.913	82.31
269.145	70.31
269.377	79.31
269.609	79.31
269.841	97.31
270.073	92.31
270.306	77.31
270.538	82.31
270.77	111.31
271.002	88.31
271.234	80.31
271.466	92.31
271.698	80.31
271.93	83.31
272.162	86.31
272.394	96.31
272.626	80.31
272.858	72.31
273.09	82.31
273.322	84.31
273.553	83.31
273.785	81.31
274.017	83.31
274.249	92.31
274.481	84.31
274.713	78.31
274.945	80.31
275.176	79.31
275.408	83.31
275.64	92.31
275.872	85.31
276.104	81.31
276.335	85.31
276.567	77.31
276.799	78.31
277.031	83.31
277.262	81.31
277.494	71.31
277.726	79.31
277.957	78.31
278.189	72.31
278.421	86.31
278.652	74.31
278.884	87.31
279.115	74.31
279.347	78.31
279.579	83.31
279.81	72.31
280.042	94.31
280.273	93.31
280.505	83.31
280.736	80.31
280.968	85.31
281.199	68.31
281.431	71.31
281.662	95.31
281.894	72.31
282.125	76.31
282.356	92.31
282.588	84.31
282.819	85.31
283.051	90.31
283.282	82.31
283.513	85.31
283.745	78.31
283.976	81.31
284.207	86.31
284.439	87.31
284.67	70.31
284.901	82.31
285.132	82.31
285.364	87.31
285.595	88.31
285.826	97.31
286.057	71.31
286.288	79.31
286.52	94.31
286.751	83.31
286.982	71.31
287.213	72.31
287.444	79.31
287.675	84.31
287.906	82.31
288.138	72.31
288.369	86.31
288.6	91.31
288.831	70.31
289.062	77.31
289.293	75.31
289.524	80.31
289.755	72.31
289.986	75.31
290.217	94.31
290.448	80.31
290.679	98.31
290.91	95.31
291.141	94.31
291.371	92.31
291.602	81.31
291.833	72.31
292.064	85.31
292.295	86.31
292.526	87.31
292.757	71.31
292.987	84.31
293.218	76.31
293.449	86.31
293.68	89.31
293.91	93.31
294.141	81.31
294.372	95.31
294.603	76.31
294.833	74.31
295.064	93.31
295.295	93.31
295.525	77.31
295.756	101.31
295.987	87.31
296.217	84.31
296.448	80.31
296.679	75.31
296.909	86.31
297.14	90.31
297.37	81.31
297.601	85.31
297.831	81.31
298.062	92.31
298.292	74.31
298.523	80.31
298.753	92.31
298.984	81.31
299.214	92.31
299.445	82.31
299.675	74.31
299.905	84.31
300.136	93.31
300.366	82.31
300.597	81.31
300.827	74.31
301.057	83.31
301.288	88.31
301.518	86.31
301.748	68.31
301.979	73.31
302.209	71.31
302.439	83.31
302.669	81.31
302.9	83.31
303.13	92.31
303.36	82.31
303.59	83.31
303.82	75.31
304.051	88.31
304.281	86.31
304.511	85.31
304.741	84.31
304.971	90.31
305.201	91.31
305.431	98.31
305.661	78.31
305.891	84.31
306.121	86.31
306.352	87.31
306.582	86.31
306.812	71.31
307.042	81.31
307.272	78.31
307.502	88.31
307.731	88.31
307.961	85.31
308.191	83.31
308.421	77.31
308.651	81.31
308.881	72.31
309.111	81.31
309.341	88.31
309.571	94.31
309.8	79.31
310.03	86.31
310.26	87.31
310.49	82.31
310.72	78.31
310.949	80.31
311.179	70.31
311.409	95.31
311.639	84.31
311.868	69.31
312.098	94.31
312.328	85.31
312.557	90.31
312.787	84.31
313.017	94.31
313.246	75.31
313.476	74.31
313.706	69.31
313.935	76.31
314.165	86.31
314.394	95.31
314.624	84.31
314.853	83.31
315.083	69.31
315.312	73.31
315.542	76.31
315.771	85.31
316.001	84.31
316.23	92.31
316.46	69.31
316.689	74.31
316.919	79.31
317.148	83.31
317.377	86.31
317.607	88.31
317.836	78.31
318.065	66.31
318.295	88.31
318.524	62.31
318.753	99.31
318.983	100.31
319.212	95.31
319.441	80.31
319.67	89.31
319.9	85.31
320.129	85.31
320.358	85.31
320.587	78.31
320.816	76.31
321.046	80.31
321.275	98.31
321.504	98.31
321.733	78.31
321.962	59.31
322.191	86.31
322.42	85.31
322.649	91.31
322.878	87.31
323.108	75.31
323.337	87.31
323.566	77.31
323.795	84.31
324.024	85.31
324.253	82.31
324.482	88.31
324.71	77.31
324.939	80.31
325.168	96.31
325.397	85.31
325.626	78.31
325.855	64.31
326.084	85.31
326.313	76.31
326.542	77.31
326.77	88.31
326.999	75.31
327.228	82.31
327.457	86.31
327.686	86.31
327.914	95.31
328.143	83.31
328.372	68.31
328.6	80.31
328.829	75.31
329.058	85.31
329.287	75.31
329.515	84.31
329.744	87.31
329.972	96.31
330.201	84.31
330.43	67.31
330.658	69.31
330.887	82.31
331.115	83.31
331.344	73.31
331.572	90.31
331.801	88.31
332.03	87.31
332.258	93.31
332.486	90.31
332.715	91.31
332.943	74.31
333.172	85.31
333.4	70.31
333.629	78.31
333.857	91.31
334.085	91.31
334.314	80.31
334.542	86.31
334.771	84.31
334.999	70.31
335.227	93.31
335.455	83.31
335.684	80.31
335.912	101.31
336.14	80.31
336.369	82.31
336.597	85.31
336.825	86.31
337.053	80.31
337.281	71.31
337.51	78.31
337.738	74.31
337.966	75.31
338.194	79.31
338.422	89.31
338.65	72.31
338.878	80.31
339.106	92.31
339.334	85.31
339.562	72.31
339.79	81.31
340.018	74.31
340.246	85.31
340.474	93.31
340.702	81.31
340.93	93.31
341.158	84.31
341.386	79.31
341.614	92.31
341.842	90.31
342.07	78.31
342.298	86.31
342.526	85.31
342.754	91.31
342.981	95.31
343.209	80.31
343.437	78.31
343.665	82.31
343.893	69.31
344.12	73.31
344.348	74.31
344.576	87.31
344.804	87.31
345.031	71.31
345.259	74.31
345.487	72.31
345.714	86.31
345.942	76.31
346.17	94.31
346.397	67.31
346.625	71.31
346.853	73.31
347.08	74.31
347.308	75.31
347.535	79.31
347.763	80.31
347.99	74.31
348.218	84.31
348.445	68.31
348.673	86.31
348.9	84.31
349.128	83.31
349.355	73.31
349.583	84.31
349.81	100.31
350.037	83.31
350.265	84.31
350.492	75.31
350.72	73.31
350.947	82.31
351.174	78.31
351.402	69.31
351.629	79.31
351.856	89.31
352.083	72.31
352.311	71.31
352.538	84.31
352.765	87.31
352.992	82.31
353.22	85.31
353.447	87.31
353.674	87.31
353.901	94.31
354.128	84.31
354.355	86.31
354.583	64.31
354.81	88.31
355.037	86.31
355.264	77.31
355.491	78.31
355.718	78.31
355.945	73.31
356.172	83.31
356.399	92.31
356.626	69.31
356.853	80.31
357.08	80.31
357.307	64.31
357.534	80.31
357.761	84.31
357.988	83.31
358.215	87.31
358.441	67.31
358.668	78.31
358.895	89.31
359.122	94.31
359.349	77.31
359.576	68.31
359.802	85.31
360.029	84.31
360.256	83.31
360.483	82.31
360.709	84.31
360.936	89.31
361.163	89.31
361.39	97.31
361.616	86.31
361.843	83.31
362.07	77.31
362.296	70.31
362.523	61.31
362.749	79.31
362.976	79.31
363.203	80.31
363.429	81.31
363.656	82.31
363.882	77.31
364.109	73.31
364.335	88.31
364.562	87.31
364.788	79.31
365.015	82.31
365.241	89.31
365.468	79.31
365.694	72.31
365.92	70.31
366.147	71.31
366.373	69.31
366.599	72.31
366.826	76.31
367.052	89.31
367.278	80.31
367.505	77.31
367.731	84.31
367.957	81.31
368.184	66.31
368.41	80.31
368.636	83.31
368.862	67.31
369.089	83.31
369.315	82.31
369.541	66.31
369.767	88.31
369.993	76.31
370.219	83.31
370.445	78.31
370.672	81.31
370.898	79.31
371.124	87.31
371.35	84.31
371.576	84.31
371.802	78.31
372.028	83.31
372.254	76.31
372.48	87.31
372.706	86.31
372.932	69.31
373.158	84.31
373.384	93.31
373.61	86.31
373.835	75.31
374.061	71.31
374.287	76.31
374.513	79.31
374.739	83.31
374.965	103.31
375.191	78.31
375.416	85.31
375.642	77.31
375.868	92.31
376.094	82.31
376.319	89.31
376.545	86.31
376.771	87.31
376.997	102.31
377.222	83.31
377.448	73.31
377.674	83.31
377.899	74.31
378.125	75.31
378.35	74.31
378.576	80.31
378.802	78.31
379.027	86.31
379.253	88.31
379.478	90.31
379.704	65.31
379.929	87.31
380.155	87.31
380.38	73.31
380.606	73.31
380.831	85.31
381.057	71.31
381.282	78.31
381.507	89.31
381.733	74.31
381.958	76.31
382.184	80.31
382.409	85.31
382.634	84.31
382.86	80.31
383.085	78.31
383.31	76.31
383.535	81.31
383.761	93.31
383.986	89.31
384.211	82.31
384.436	87.31
384.662	66.31
384.887	83.31
385.112	87.31
385.337	90.31
385.562	84.31
385.787	88.31
386.013	92.31
386.238	90.31
386.463	90.31
386.688	97.31
386.913	82.31
387.138	88.31
387.363	77.31
387.588	89.31
387.813	91.31
388.038	99.31
388.263	85.31
388.488	85.31
388.713	83.31
388.938	81.31
389.163	90.31
389.387	93.31
389.612	80.31
389.837	81.31
390.062	62.31
390.287	86.31
390.512	90.31
390.736	81.31
390.961	76.31
391.186	82.31
391.411	93.31
391.636	80.31
391.86	80.31
392.085	68.31
392.31	85.31
392.534	90.31
392.759	92.31
392.984	82.31
393.208	98.31
393.433	83.31
393.658	89.31
393.882	86.31
394.107	77.31
394.331	83.31
394.556	85.31
394.78	85.31
395.005	93.31
395.229	77.31
395.454	80.31
395.678	73.31
395.903	76.31
396.127	82.31
396.352	78.31
396.576	77.31
396.801	89.31
397.025	79.31
397.249	81.31
397.474	79.31
397.698	79.31
397.922	86.31
398.147	84.31
398.371	84.31
398.595	94.31
398.82	86.31
399.044	85.31
399.268	89.31
399.492	95.31
399.717	88.31
399.941	87.31
400.165	83.31
400.389	77.31
400.613	87.31
400.837	98.31
401.062	88.31
401.286	87.31
401.51	94.31
401.734	82.31
401.958	74.31
402.182	84.31
402.406	73.31
402.63	83.31
402.854	65.31
403.078	80.31
403.302	93.31
403.526	96.31
403.75	82.31
403.974	77.31
404.198	95.31
404.422	76.31
404.645	70.31
404.869	81.31
405.093	88.31
405.317	97.31
405.541	87.31
405.765	83.31
405.988	95.31
406.212	98.31
406.436	81.31
406.66	90.31
406.883	90.31
407.107	93.31
407.331	87.31
407.555	90.31
407.778	87.31
408.002	96.31
408.226	86.31
408.449	94.31
408.673	84.31
408.896	89.31
409.12	88.31
409.344	88.31
409.567	88.31
409.791	80.31
410.014	90.31
410.238	95.31
410.461	101.31
410.685	91.31
410.908	110.31
411.132	88.31
411.355	76.31
411.578	86.31
411.802	98.31
412.025	87.31
412.249	84.31
412.472	79.31
412.695	79.31
412.919	96.31
413.142	76.31
413.365	101.31
413.589	88.31
413.812	87.31
414.035	90.31
414.258	80.31
414.482	84.31
414.705	87.31
414.928	96.31
415.151	85.31
415.374	88.31
415.597	98.31
415.821	98.31
416.044	95.31
416.267	101.31
416.49	97.31
416.713	95.31
416.936	94.31
417.159	83.31
417.382	82.31
417.605	97.31
417.828	102.31
418.051	98.31
418.274	98.31
418.497	78.31
418.72	89.31
418.943	91.31
419.166	100.31
419.389	92.31
419.611	106.31
419.834	90.31
420.057	88.31
420.28	85.31
420.503	92.31
420.726	116.31
420.948	104.31
421.171	82.31
421.394	98.31
421.617	92.31
421.839	91.31
422.062	97.31
422.285	90.31
422.507	88.31
422.73	92.31
422.953	96.31
423.175	100.31
423.398	94.31
423.621	86.31
423.843	80.31
424.066	94.31
424.288	96.31
424.511	84.31
424.733	85.31
424.956	93.31
425.178	93.31
425.401	89.31
425.623	81.31
425.846	96.31
426.068	99.31
426.291	83.31
426.513	89.31
426.735	95.31
426.958	88.31
427.18	94.31
427.402	81.31
427.625	84.31
427.847	82.31
428.069	79.31
428.292	80.31
428.514	82.31
428.736	81.31
428.958	97.31
429.181	95.31
429.403	90.31
429.625	94.31
429.847	93.31
430.069	97.31
430.292	93.31
430.514	89.31
430.736	82.31
430.958	87.31
431.18	93.31
431.402	96.31
431.624	83.31
431.846	94.31
432.068	86.31
432.29	89.31
432.512	91.31
432.734	86.31
432.956	93.31
433.178	85.31
433.4	80.31
433.622	96.31
433.844	97.31
434.066	86.31
434.287	82.31
434.509	77.31
434.731	86.31
434.953	85.31
435.175	88.31
435.397	81.31
435.618	82.31
435.84	87.31
436.062	87.31
436.284	81.31
436.505	88.31
436.727	78.31
436.949	94.31
437.17	92.31
437.392	93.31
437.614	89.31
437.835	83.31
438.057	87.31
438.278	85.31
438.5	105.31
438.721	99.31
438.943	99.31
439.165	82.31
439.386	88.31
439.608	74.31
439.829	94.31
440.05	102.31
440.272	86.31
440.493	102.31
440.715	92.31
440.936	99.31
441.158	81.31
441.379	95.31
441.6	98.31
441.822	93.31
442.043	106.31
442.264	96.31
442.486	93.31
442.707	93.31
442.928	98.31
443.149	93.31
443.371	94.31
443.592	98.31
443.813	87.31
444.034	88.31
444.255	83.31
444.476	88.31
444.698	98.31
444.919	90.31
445.14	231.31
445.361	152.31
445.582	120.31
445.803	94.31
446.024	99.31
446.245	89.31
446.466	97.31
446.687	105.31
446.908	104.31
447.129	96.31
447.35	89.31
447.571	99.31
447.792	72.31
448.013	90.31
448.234	104.31
448.455	88.31
448.675	83.31
448.896	91.31
449.117	89.31
449.338	87.31
449.559	100.31
449.779	80.31
450	83.31
450.221	78.31
450.442	82.31
450.662	98.31
450.883	92.31
451.104	83.31
451.324	73.31
451.545	95.31
451.766	88.31
451.986	89.31
452.207	88.31
452.428	94.31
452.648	95.31
452.869	81.31
453.089	77.31
453.31	84.31
453.53	97.31
453.751	93.31
453.971	90.31
454.192	76.31
454.412	86.31
454.633	94.31
454.853	78.31
455.073	88.31
455.294	87.31
455.514	92.31
455.734	100.31
455.955	96.31
456.175	82.31
456.395	84.31
456.616	76.31
456.836	81.31
457.056	86.31
457.276	92.31
457.497	82.31
457.717	76.31
457.937	71.31
458.157	92.31
458.377	80.31
458.598	73.31
458.818	94.31
459.038	83.31
459.258	90.31
459.478	77.31
459.698	80.31
459.918	79.31
460.138	79.31
460.358	90.31
460.578	86.31
460.798	86.31
461.018	77.31
461.238	89.31
461.458	105.31
461.678	83.31
461.898	103.31
462.118	93.31
462.338	96.31
462.558	91.31
462.777	85.31
462.997	72.31
463.217	80.31
463.437	84.31
463.657	85.31
463.876	87.31
464.096	89.31
464.316	82.31
464.536	69.31
464.755	94.31
464.975	100.31
465.195	95.31
465.414	96.31
465.634	86.31
465.854	77.31
466.073	94.31
466.293	88.31
466.512	91.31
466.732	100.31
466.951	87.31
467.171	86.31
467.391	82.31
467.61	86.31
467.829	80.31
468.049	76.31
468.268	80.31
468.488	99.31
468.707	96.31
468.927	90.31
469.146	87.31
469.365	105.31
469.585	94.31
469.804	94.31
470.023	100.31
470.243	100.31
470.462	97.31
470.681	102.31
470.901	89.31
471.12	92.31
471.339	102.31
471.558	102.31
471.777	85.31
471.997	82.31
472.216	87.31
472.435	92.31
472.654	77.31
472.873	87.31
473.092	78.31
473.311	98.31
473.53	99.31
473.749	100.31
473.968	101.31
474.187	85.31
474.406	84.31
474.625	81.31
474.844	99.31
475.063	87.31
475.282	95.31
475.501	104.31
475.72	80.31
475.939	86.31
476.158	89.31
476.377	87.31
476.596	80.31
476.814	88.31
477.033	89.31
477.252	94.31
477.471	92.31
477.69	87.31
477.908	89.31
478.127	88.31
478.346	105.31
478.564	80.31
478.783	88.31
479.002	66.31
479.22	92.31
479.439	91.31
479.658	93.31
479.876	70.31
480.095	87.31
480.313	97.31
480.532	76.31
480.751	80.31
480.969	93.31
481.188	75.31
481.406	81.31
481.624	84.31
481.843	88.31
482.061	83.31
482.28	87.31
482.498	102.31
482.717	80.31
482.935	87.31
483.153	102.31
483.372	109.31
483.59	87.31
483.808	97.31
484.027	97.31
484.245	91.31
484.463	102.31
484.681	108.31
484.9	110.31
485.118	71.31
485.336	91.31
485.554	97.31
485.772	78.31
485.99	88.31
486.209	85.31
486.427	94.31
486.645	95.31
486.863	97.31
487.081	85.31
487.299	99.31
487.517	100.31
487.735	114.31
487.953	123.31
488.171	127.31
488.389	119.31
488.607	100.31
488.825	82.31
489.043	89.31
489.261	98.31
489.479	82.31
489.696	98.31
489.914	99.31
490.132	108.31
490.35	93.31
490.568	97.31
490.786	91.31
491.003	106.31
491.221	109.31
491.439	97.31
491.657	108.31
491.874	108.31
492.092	117.31
492.31	117.31
492.527	112.31
492.745	96.31
492.963	118.31
493.18	110.31
493.398	108.31
493.615	94.31
493.833	96.31
494.05	97.31
494.268	101.31
494.485	113.31
494.703	110.31
494.92	104.31
495.138	105.31
495.355	117.31
495.573	98.31
495.79	105.31
496.008	101.31
496.225	100.31
496.442	111.31
496.66	114.31
496.877	100.31
497.094	112.31
497.312	109.31
497.529	106.31
497.746	98.31
497.963	94.31
498.181	78.31
498.398	89.31
498.615	92.31
498.832	78.31
499.049	93.31
499.267	82.31
499.484	88.31
499.701	100.31
499.918	108.31
500.135	89.31
500.352	99.31
500.569	105.31
500.786	110.31
501.003	92.31
501.22	85.31
501.437	95.31
501.654	102.31
501.871	98.31
502.088	81.31
502.305	103.31
502.522	90.31
502.739	91.31
502.956	101.31
503.172	101.31
503.389	93.31
503.606	99.31
503.823	90.31
504.04	96.31
504.256	97.31
504.473	88.31
504.69	86.31
504.907	100.31
505.123	100.31
505.34	100.31
505.557	86.31
505.773	84.31
505.99	100.31
506.207	85.31
506.423	85.31
506.64	76.31
506.856	96.31
507.073	86.31
507.289	83.31
507.506	95.31
507.722	92.31
507.939	88.31
508.155	91.31
508.372	88.31
508.588	85.31
508.805	81.31
509.021	94.31
509.238	89.31
509.454	93.31
509.67	92.31
509.887	89.31
510.103	83.31
510.319	88.31
510.536	82.31
510.752	91.31
510.968	88.31
511.184	80.31
511.401	60.31
511.617	93.31
511.833	84.31
512.049	83.31
512.265	90.31
512.481	76.31
512.698	90.31
512.914	82.31
513.13	93.31
513.346	82.31
513.562	90.31
513.778	80.31
513.994	75.31
514.21	80.31
514.426	71.31
514.642	94.31
514.858	84.31
515.074	77.31
515.29	78.31
515.506	83.31
515.721	96.31
515.937	98.31
516.153	81.31
516.369	96.31
516.585	83.31
516.801	82.31
517.016	94.31
517.232	84.31
517.448	83.31
517.664	88.31
517.879	89.31
518.095	80.31
518.311	93.31
