Data from Location4.07152019.Energy5.Lamp.07192019.3%Agarose_HRD10591_15-25-32-577.txt Node
Date: Fri Jul 19 15:25:32 EDT 2019
User: cochatt
Spectrometer: HR+D1059
Trigger mode: 1
Integration Time (sec): 1.000000E-1
Scans to average: 1
Electric dark correction enabled: true
Nonlinearity correction enabled: false
Boxcar width: 0
XAxis mode: Wavelengths
Number of Pixels in Spectrum: 2048
>>>>>Begin Spectral Data<<<<<
223.165	-32.06
223.4	-32.06
223.635	-32.06
223.869	-10.06
224.104	-17.06
224.338	-12.06
224.573	-24.06
224.808	-3.06
225.042	4.94
225.277	4.94
225.511	-12.06
225.746	-0.06
225.98	-14.06
226.215	14.94
226.449	16.94
226.683	26.94
226.918	28.94
227.152	26.94
227.387	34.94
227.621	28.94
227.856	44.94
228.09	46.94
228.324	65.94
228.559	38.94
228.793	46.94
229.027	67.94
229.262	54.94
229.496	72.94
229.73	62.94
229.964	68.94
230.199	57.94
230.433	79.94
230.667	82.94
230.901	76.94
231.136	70.94
231.37	75.94
231.604	82.94
231.838	82.94
232.072	71.94
232.306	86.94
232.541	68.94
232.775	77.94
233.009	92.94
233.243	76.94
233.477	84.94
233.711	88.94
233.945	81.94
234.179	79.94
234.413	87.94
234.647	76.94
234.881	92.94
235.115	76.94
235.349	79.94
235.583	77.94
235.817	65.94
236.051	78.94
236.285	78.94
236.519	82.94
236.753	81.94
236.987	74.94
237.221	82.94
237.455	73.94
237.689	81.94
237.922	86.94
238.156	69.94
238.39	64.94
238.624	83.94
238.858	71.94
239.091	57.94
239.325	80.94
239.559	71.94
239.793	84.94
240.027	84.94
240.26	81.94
240.494	77.94
240.728	54.94
240.961	71.94
241.195	75.94
241.429	54.94
241.662	76.94
241.896	86.94
242.13	64.94
242.363	71.94
242.597	74.94
242.83	74.94
243.064	77.94
243.298	84.94
243.531	68.94
243.765	63.94
243.998	67.94
244.232	78.94
244.465	59.94
244.699	78.94
244.932	77.94
245.166	84.94
245.399	71.94
245.633	76.94
245.866	73.94
246.099	66.94
246.333	80.94
246.566	73.94
246.8	79.94
247.033	84.94
247.266	69.94
247.5	87.94
247.733	82.94
247.966	85.94
248.2	75.94
248.433	76.94
248.666	72.94
248.899	76.94
249.133	72.94
249.366	83.94
249.599	90.94
249.832	96.94
250.066	78.94
250.299	68.94
250.532	64.94
250.765	78.94
250.998	88.94
251.231	74.94
251.465	72.94
251.698	89.94
251.931	80.94
252.164	67.94
252.397	73.94
252.63	74.94
252.863	99.94
253.096	84.94
253.329	68.94
253.562	74.94
253.795	89.94
254.028	82.94
254.261	81.94
254.494	71.94
254.727	79.94
254.96	79.94
255.193	77.94
255.426	75.94
255.659	81.94
255.892	92.94
256.124	80.94
256.357	72.94
256.59	70.94
256.823	67.94
257.056	82.94
257.289	84.94
257.521	76.94
257.754	82.94
257.987	70.94
258.22	77.94
258.452	70.94
258.685	80.94
258.918	74.94
259.151	77.94
259.383	87.94
259.616	90.94
259.849	82.94
260.081	68.94
260.314	77.94
260.547	72.94
260.779	83.94
261.012	67.94
261.244	72.94
261.477	87.94
261.71	80.94
261.942	66.94
262.175	67.94
262.407	79.94
262.64	86.94
262.872	77.94
263.105	83.94
263.337	94.94
263.57	81.94
263.802	65.94
264.035	89.94
264.267	72.94
264.499	88.94
264.732	77.94
264.964	85.94
265.197	81.94
265.429	79.94
265.661	77.94
265.894	73.94
266.126	80.94
266.358	79.94
266.591	88.94
266.823	84.94
267.055	77.94
267.287	78.94
267.52	88.94
267.752	92.94
267.984	79.94
268.216	81.94
268.448	70.94
268.681	79.94
268.913	69.94
269.145	78.94
269.377	72.94
269.609	82.94
269.841	79.94
270.073	67.94
270.306	82.94
270.538	66.94
270.77	71.94
271.002	72.94
271.234	74.94
271.466	82.94
271.698	79.94
271.93	80.94
272.162	91.94
272.394	95.94
272.626	88.94
272.858	76.94
273.09	92.94
273.322	76.94
273.553	90.94
273.785	85.94
274.017	80.94
274.249	93.94
274.481	75.94
274.713	74.94
274.945	72.94
275.176	86.94
275.408	84.94
275.64	85.94
275.872	57.94
276.104	79.94
276.335	75.94
276.567	77.94
276.799	73.94
277.031	77.94
277.262	87.94
277.494	80.94
277.726	82.94
277.957	93.94
278.189	85.94
278.421	74.94
278.652	103.94
278.884	88.94
279.115	89.94
279.347	74.94
279.579	79.94
279.81	59.94
280.042	83.94
280.273	79.94
280.505	83.94
280.736	82.94
280.968	74.94
281.199	75.94
281.431	94.94
281.662	86.94
281.894	68.94
282.125	81.94
282.356	96.94
282.588	80.94
282.819	88.94
283.051	80.94
283.282	76.94
283.513	94.94
283.745	83.94
283.976	86.94
284.207	90.94
284.439	94.94
284.67	82.94
284.901	69.94
285.132	83.94
285.364	72.94
285.595	84.94
285.826	78.94
286.057	81.94
286.288	67.94
286.52	62.94
286.751	83.94
286.982	85.94
287.213	78.94
287.444	76.94
287.675	82.94
287.906	94.94
288.138	98.94
288.369	84.94
288.6	80.94
288.831	86.94
289.062	76.94
289.293	95.94
289.524	79.94
289.755	78.94
289.986	75.94
290.217	76.94
290.448	81.94
290.679	90.94
290.91	74.94
291.141	80.94
291.371	93.94
291.602	85.94
291.833	81.94
292.064	83.94
292.295	84.94
292.526	82.94
292.757	89.94
292.987	90.94
293.218	87.94
293.449	82.94
293.68	85.94
293.91	74.94
294.141	79.94
294.372	78.94
294.603	78.94
294.833	91.94
295.064	81.94
295.295	74.94
295.525	80.94
295.756	87.94
295.987	68.94
296.217	81.94
296.448	82.94
296.679	76.94
296.909	89.94
297.14	85.94
297.37	90.94
297.601	88.94
297.831	84.94
298.062	72.94
298.292	82.94
298.523	84.94
298.753	85.94
298.984	94.94
299.214	83.94
299.445	80.94
299.675	96.94
299.905	81.94
300.136	103.94
300.366	81.94
300.597	71.94
300.827	85.94
301.057	64.94
301.288	92.94
301.518	92.94
301.748	90.94
301.979	93.94
302.209	94.94
302.439	93.94
302.669	73.94
302.9	65.94
303.13	91.94
303.36	84.94
303.59	84.94
303.82	96.94
304.051	92.94
304.281	90.94
304.511	90.94
304.741	74.94
304.971	88.94
305.201	96.94
305.431	89.94
305.661	78.94
305.891	80.94
306.121	80.94
306.352	82.94
306.582	69.94
306.812	76.94
307.042	90.94
307.272	79.94
307.502	88.94
307.731	92.94
307.961	91.94
308.191	77.94
308.421	68.94
308.651	79.94
308.881	78.94
309.111	82.94
309.341	78.94
309.571	87.94
309.8	62.94
310.03	71.94
310.26	90.94
310.49	75.94
310.72	81.94
310.949	85.94
311.179	85.94
311.409	86.94
311.639	87.94
311.868	89.94
312.098	93.94
312.328	92.94
312.557	80.94
312.787	73.94
313.017	93.94
313.246	88.94
313.476	97.94
313.706	75.94
313.935	79.94
314.165	89.94
314.394	98.94
314.624	89.94
314.853	74.94
315.083	79.94
315.312	74.94
315.542	89.94
315.771	84.94
316.001	68.94
316.23	89.94
316.46	80.94
316.689	69.94
316.919	88.94
317.148	93.94
317.377	86.94
317.607	80.94
317.836	94.94
318.065	81.94
318.295	96.94
318.524	80.94
318.753	86.94
318.983	91.94
319.212	84.94
319.441	69.94
319.67	80.94
319.9	78.94
320.129	77.94
320.358	82.94
320.587	71.94
320.816	67.94
321.046	77.94
321.275	89.94
321.504	89.94
321.733	69.94
321.962	82.94
322.191	80.94
322.42	72.94
322.649	84.94
322.878	80.94
323.108	86.94
323.337	85.94
323.566	88.94
323.795	79.94
324.024	84.94
324.253	82.94
324.482	92.94
324.71	91.94
324.939	81.94
325.168	75.94
325.397	92.94
325.626	89.94
325.855	70.94
326.084	95.94
326.313	73.94
326.542	78.94
326.77	87.94
326.999	89.94
327.228	94.94
327.457	90.94
327.686	82.94
327.914	81.94
328.143	85.94
328.372	81.94
328.6	75.94
328.829	84.94
329.058	80.94
329.287	81.94
329.515	92.94
329.744	72.94
329.972	85.94
330.201	85.94
330.43	72.94
330.658	82.94
330.887	81.94
331.115	89.94
331.344	76.94
331.572	78.94
331.801	75.94
332.03	93.94
332.258	82.94
332.486	79.94
332.715	70.94
332.943	77.94
333.172	71.94
333.4	71.94
333.629	85.94
333.857	73.94
334.085	68.94
334.314	77.94
334.542	72.94
334.771	74.94
334.999	84.94
335.227	69.94
335.455	84.94
335.684	94.94
335.912	88.94
336.14	89.94
336.369	77.94
336.597	89.94
336.825	79.94
337.053	80.94
337.281	98.94
337.51	82.94
337.738	84.94
337.966	90.94
338.194	84.94
338.422	74.94
338.65	87.94
338.878	81.94
339.106	82.94
339.334	83.94
339.562	79.94
339.79	97.94
340.018	87.94
340.246	85.94
340.474	80.94
340.702	90.94
340.93	94.94
341.158	97.94
341.386	92.94
341.614	93.94
341.842	90.94
342.07	87.94
342.298	80.94
342.526	79.94
342.754	91.94
342.981	77.94
343.209	81.94
343.437	83.94
343.665	85.94
343.893	87.94
344.12	71.94
344.348	78.94
344.576	79.94
344.804	83.94
345.031	92.94
345.259	89.94
345.487	61.94
345.714	83.94
345.942	80.94
346.17	90.94
346.397	84.94
346.625	87.94
346.853	83.94
347.08	80.94
347.308	79.94
347.535	92.94
347.763	88.94
347.99	95.94
348.218	92.94
348.445	86.94
348.673	76.94
348.9	79.94
349.128	88.94
349.355	72.94
349.583	81.94
349.81	89.94
350.037	77.94
350.265	87.94
350.492	76.94
350.72	87.94
350.947	95.94
351.174	95.94
351.402	93.94
351.629	76.94
351.856	90.94
352.083	74.94
352.311	87.94
352.538	83.94
352.765	94.94
352.992	84.94
353.22	88.94
353.447	78.94
353.674	88.94
353.901	87.94
354.128	77.94
354.355	73.94
354.583	74.94
354.81	68.94
355.037	63.94
355.264	88.94
355.491	73.94
355.718	87.94
355.945	77.94
356.172	75.94
356.399	86.94
356.626	75.94
356.853	78.94
357.08	70.94
357.307	76.94
357.534	65.94
357.761	84.94
357.988	80.94
358.215	87.94
358.441	81.94
358.668	79.94
358.895	79.94
359.122	87.94
359.349	93.94
359.576	88.94
359.802	74.94
360.029	74.94
360.256	82.94
360.483	84.94
360.709	78.94
360.936	84.94
361.163	85.94
361.39	81.94
361.616	81.94
361.843	79.94
362.07	94.94
362.296	75.94
362.523	74.94
362.749	74.94
362.976	96.94
363.203	80.94
363.429	84.94
363.656	89.94
363.882	93.94
364.109	81.94
364.335	90.94
364.562	91.94
364.788	88.94
365.015	85.94
365.241	84.94
365.468	82.94
365.694	75.94
365.92	70.94
366.147	80.94
366.373	86.94
366.599	85.94
366.826	83.94
367.052	81.94
367.278	82.94
367.505	83.94
367.731	79.94
367.957	73.94
368.184	82.94
368.41	90.94
368.636	85.94
368.862	93.94
369.089	88.94
369.315	80.94
369.541	74.94
369.767	94.94
369.993	92.94
370.219	68.94
370.445	74.94
370.672	94.94
370.898	81.94
371.124	85.94
371.35	81.94
371.576	77.94
371.802	86.94
372.028	83.94
372.254	78.94
372.48	79.94
372.706	90.94
372.932	90.94
373.158	85.94
373.384	83.94
373.61	80.94
373.835	79.94
374.061	73.94
374.287	80.94
374.513	84.94
374.739	82.94
374.965	82.94
375.191	81.94
375.416	73.94
375.642	88.94
375.868	84.94
376.094	81.94
376.319	86.94
376.545	80.94
376.771	79.94
376.997	80.94
377.222	78.94
377.448	72.94
377.674	81.94
377.899	80.94
378.125	86.94
378.35	93.94
378.576	88.94
378.802	82.94
379.027	78.94
379.253	72.94
379.478	79.94
379.704	84.94
379.929	89.94
380.155	84.94
380.38	104.94
380.606	82.94
380.831	81.94
381.057	88.94
381.282	86.94
381.507	98.94
381.733	72.94
381.958	79.94
382.184	83.94
382.409	75.94
382.634	83.94
382.86	89.94
383.085	92.94
383.31	84.94
383.535	85.94
383.761	80.94
383.986	82.94
384.211	79.94
384.436	94.94
384.662	84.94
384.887	91.94
385.112	88.94
385.337	84.94
385.562	86.94
385.787	81.94
386.013	79.94
386.238	84.94
386.463	80.94
386.688	75.94
386.913	93.94
387.138	90.94
387.363	94.94
387.588	85.94
387.813	75.94
388.038	87.94
388.263	91.94
388.488	86.94
388.713	80.94
388.938	80.94
389.163	90.94
389.387	84.94
389.612	79.94
389.837	92.94
390.062	89.94
390.287	80.94
390.512	90.94
390.736	95.94
390.961	77.94
391.186	84.94
391.411	81.94
391.636	77.94
391.86	84.94
392.085	81.94
392.31	78.94
392.534	86.94
392.759	76.94
392.984	87.94
393.208	83.94
393.433	81.94
393.658	74.94
393.882	90.94
394.107	100.94
394.331	79.94
394.556	92.94
394.78	82.94
395.005	85.94
395.229	73.94
395.454	93.94
395.678	78.94
395.903	80.94
396.127	86.94
396.352	89.94
396.576	84.94
396.801	87.94
397.025	88.94
397.249	96.94
397.474	88.94
397.698	74.94
397.922	89.94
398.147	85.94
398.371	82.94
398.595	83.94
398.82	72.94
399.044	90.94
399.268	88.94
399.492	90.94
399.717	84.94
399.941	80.94
400.165	82.94
400.389	77.94
400.613	92.94
400.837	80.94
401.062	100.94
401.286	83.94
401.51	87.94
401.734	77.94
401.958	74.94
402.182	93.94
402.406	76.94
402.63	81.94
402.854	94.94
403.078	81.94
403.302	86.94
403.526	77.94
403.75	82.94
403.974	81.94
404.198	88.94
404.422	69.94
404.645	80.94
404.869	90.94
405.093	83.94
405.317	93.94
405.541	75.94
405.765	86.94
405.988	85.94
406.212	82.94
406.436	74.94
406.66	100.94
406.883	101.94
407.107	96.94
407.331	94.94
407.555	90.94
407.778	84.94
408.002	78.94
408.226	82.94
408.449	98.94
408.673	92.94
408.896	83.94
409.12	81.94
409.344	93.94
409.567	79.94
409.791	92.94
410.014	91.94
410.238	94.94
410.461	80.94
410.685	88.94
410.908	94.94
411.132	80.94
411.355	86.94
411.578	90.94
411.802	87.94
412.025	96.94
412.249	78.94
412.472	81.94
412.695	86.94
412.919	86.94
413.142	91.94
413.365	93.94
413.589	84.94
413.812	103.94
414.035	78.94
414.258	104.94
414.482	87.94
414.705	91.94
414.928	79.94
415.151	98.94
415.374	81.94
415.597	94.94
415.821	88.94
416.044	99.94
416.267	94.94
416.49	86.94
416.713	95.94
416.936	87.94
417.159	88.94
417.382	78.94
417.605	98.94
417.828	86.94
418.051	97.94
418.274	81.94
418.497	87.94
418.72	99.94
418.943	95.94
419.166	101.94
419.389	80.94
419.611	89.94
419.834	92.94
420.057	95.94
420.28	91.94
420.503	91.94
420.726	80.94
420.948	90.94
421.171	98.94
421.394	96.94
421.617	100.94
421.839	84.94
422.062	91.94
422.285	74.94
422.507	95.94
422.73	92.94
422.953	94.94
423.175	92.94
423.398	90.94
423.621	90.94
423.843	78.94
424.066	98.94
424.288	104.94
424.511	104.94
424.733	89.94
424.956	90.94
425.178	101.94
425.401	89.94
425.623	80.94
425.846	86.94
426.068	84.94
426.291	92.94
426.513	95.94
426.735	95.94
426.958	94.94
427.18	101.94
427.402	97.94
427.625	97.94
427.847	103.94
428.069	82.94
428.292	70.94
428.514	93.94
428.736	91.94
428.958	85.94
429.181	90.94
429.403	104.94
429.625	77.94
429.847	105.94
430.069	100.94
430.292	92.94
430.514	98.94
430.736	92.94
430.958	94.94
431.18	94.94
431.402	84.94
431.624	89.94
431.846	81.94
432.068	77.94
432.29	88.94
432.512	78.94
432.734	93.94
432.956	116.94
433.178	102.94
433.4	85.94
433.622	111.94
433.844	94.94
434.066	102.94
434.287	81.94
434.509	83.94
434.731	76.94
434.953	92.94
435.175	101.94
435.397	79.94
435.618	86.94
435.84	73.94
436.062	95.94
436.284	93.94
436.505	108.94
436.727	89.94
436.949	82.94
437.17	95.94
437.392	97.94
437.614	79.94
437.835	86.94
438.057	83.94
438.278	91.94
438.5	74.94
438.721	93.94
438.943	91.94
439.165	94.94
439.386	95.94
439.608	97.94
439.829	98.94
440.05	93.94
440.272	89.94
440.493	104.94
440.715	97.94
440.936	91.94
441.158	100.94
441.379	87.94
441.6	88.94
441.822	87.94
442.043	92.94
442.264	85.94
442.486	90.94
442.707	104.94
442.928	91.94
443.149	84.94
443.371	91.94
443.592	81.94
443.813	95.94
444.034	105.94
444.255	89.94
444.476	102.94
444.698	85.94
444.919	84.94
445.14	216.94
445.361	153.94
445.582	114.94
445.803	99.94
446.024	89.94
446.245	105.94
446.466	105.94
446.687	100.94
446.908	100.94
447.129	102.94
447.35	105.94
447.571	102.94
447.792	93.94
448.013	97.94
448.234	91.94
448.455	90.94
448.675	78.94
448.896	109.94
449.117	100.94
449.338	82.94
449.559	97.94
449.779	91.94
450	85.94
450.221	89.94
450.442	84.94
450.662	102.94
450.883	104.94
451.104	93.94
451.324	95.94
451.545	89.94
451.766	86.94
451.986	89.94
452.207	94.94
452.428	95.94
452.648	101.94
452.869	94.94
453.089	87.94
453.31	88.94
453.53	97.94
453.751	93.94
453.971	85.94
454.192	87.94
454.412	87.94
454.633	78.94
454.853	78.94
455.073	87.94
455.294	89.94
455.514	86.94
455.734	97.94
455.955	95.94
456.175	80.94
456.395	85.94
456.616	85.94
456.836	81.94
457.056	88.94
457.276	93.94
457.497	87.94
457.717	76.94
457.937	77.94
458.157	81.94
458.377	75.94
458.598	77.94
458.818	90.94
459.038	82.94
459.258	87.94
459.478	78.94
459.698	80.94
459.918	79.94
460.138	89.94
460.358	89.94
460.578	91.94
460.798	85.94
461.018	89.94
461.238	84.94
461.458	94.94
461.678	86.94
461.898	88.94
462.118	85.94
462.338	103.94
462.558	85.94
462.777	79.94
462.997	87.94
463.217	88.94
463.437	97.94
463.657	81.94
463.876	73.94
464.096	98.94
464.316	83.94
464.536	72.94
464.755	90.94
464.975	86.94
465.195	90.94
465.414	83.94
465.634	105.94
465.854	116.94
466.073	78.94
466.293	94.94
466.512	98.94
466.732	97.94
466.951	102.94
467.171	94.94
467.391	106.94
467.61	88.94
467.829	94.94
468.049	110.94
468.268	74.94
468.488	100.94
468.707	96.94
468.927	103.94
469.146	89.94
469.365	95.94
469.585	80.94
469.804	91.94
470.023	84.94
470.243	74.94
470.462	102.94
470.681	102.94
470.901	116.94
471.12	106.94
471.339	97.94
471.558	95.94
471.777	95.94
471.997	103.94
472.216	100.94
472.435	87.94
472.654	90.94
472.873	79.94
473.092	89.94
473.311	102.94
473.53	90.94
473.749	99.94
473.968	86.94
474.187	94.94
474.406	68.94
474.625	86.94
474.844	103.94
475.063	101.94
475.282	96.94
475.501	92.94
475.72	87.94
475.939	98.94
476.158	89.94
476.377	82.94
476.596	88.94
476.814	85.94
477.033	91.94
477.252	94.94
477.471	93.94
477.69	86.94
477.908	89.94
478.127	89.94
478.346	102.94
478.564	89.94
478.783	88.94
479.002	86.94
479.22	84.94
479.439	89.94
479.658	94.94
479.876	89.94
480.095	76.94
480.313	101.94
480.532	88.94
480.751	83.94
480.969	100.94
481.188	87.94
481.406	91.94
481.624	87.94
481.843	77.94
482.061	81.94
482.28	86.94
482.498	94.94
482.717	95.94
482.935	98.94
483.153	96.94
483.372	109.94
483.59	103.94
483.808	99.94
484.027	103.94
484.245	95.94
484.463	108.94
484.681	110.94
484.9	96.94
485.118	96.94
485.336	90.94
485.554	91.94
485.772	92.94
485.99	86.94
486.209	99.94
486.427	80.94
486.645	87.94
486.863	82.94
487.081	102.94
487.299	88.94
487.517	93.94
487.735	114.94
487.953	114.94
488.171	115.94
488.389	101.94
488.607	102.94
488.825	80.94
489.043	92.94
489.261	102.94
489.479	88.94
489.696	94.94
489.914	90.94
490.132	97.94
490.35	78.94
490.568	100.94
490.786	106.94
491.003	110.94
491.221	109.94
491.439	117.94
491.657	106.94
491.874	120.94
492.092	124.94
492.31	120.94
492.527	120.94
492.745	117.94
492.963	106.94
493.18	117.94
493.398	114.94
493.615	102.94
493.833	113.94
494.05	96.94
494.268	103.94
494.485	99.94
494.703	107.94
494.92	102.94
495.138	113.94
495.355	98.94
495.573	96.94
495.79	95.94
496.008	113.94
496.225	116.94
496.442	95.94
496.66	101.94
496.877	90.94
497.094	99.94
497.312	85.94
497.529	98.94
497.746	98.94
497.963	99.94
498.181	87.94
498.398	92.94
498.615	92.94
498.832	84.94
499.049	83.94
499.267	95.94
499.484	83.94
499.701	94.94
499.918	95.94
500.135	90.94
500.352	99.94
500.569	106.94
500.786	103.94
501.003	95.94
501.22	87.94
501.437	111.94
501.654	100.94
501.871	93.94
502.088	95.94
502.305	88.94
502.522	111.94
502.739	83.94
502.956	97.94
503.172	94.94
503.389	66.94
503.606	84.94
503.823	86.94
504.04	98.94
504.256	98.94
504.473	73.94
504.69	87.94
504.907	98.94
505.123	91.94
505.34	84.94
505.557	83.94
505.773	76.94
505.99	93.94
506.207	87.94
506.423	87.94
506.64	81.94
506.856	88.94
507.073	72.94
507.289	80.94
507.506	83.94
507.722	85.94
507.939	101.94
508.155	89.94
508.372	93.94
508.588	86.94
508.805	82.94
509.021	81.94
509.238	95.94
509.454	84.94
509.67	84.94
509.887	89.94
510.103	87.94
510.319	83.94
510.536	89.94
510.752	74.94
510.968	94.94
511.184	80.94
511.401	86.94
511.617	83.94
511.833	81.94
512.049	84.94
512.265	86.94
512.481	82.94
512.698	91.94
512.914	86.94
513.13	90.94
513.346	87.94
513.562	81.94
513.778	73.94
513.994	89.94
514.21	82.94
514.426	80.94
514.642	79.94
514.858	80.94
515.074	96.94
515.29	98.94
515.506	81.94
515.721	62.94
515.937	80.94
516.153	71.94
516.369	87.94
516.585	83.94
516.801	85.94
517.016	79.94
517.232	93.94
517.448	85.94
517.664	80.94
517.879	87.94
