Data from Location4.07152019.Energy5.Lamp.07192019.3%Agarose_HRD10591_15-24-15-577.txt Node
Date: Fri Jul 19 15:24:15 EDT 2019
User: cochatt
Spectrometer: HR+D1059
Trigger mode: 1
Integration Time (sec): 1.000000E-1
Scans to average: 1
Electric dark correction enabled: true
Nonlinearity correction enabled: false
Boxcar width: 0
XAxis mode: Wavelengths
Number of Pixels in Spectrum: 2048
>>>>>Begin Spectral Data<<<<<
223.165	1.44
223.4	1.44
223.635	1.44
223.869	-27.56
224.104	-17.56
224.338	-23.56
224.573	-19.56
224.808	-15.56
225.042	-11.56
225.277	0.44
225.511	-2.56
225.746	16.44
225.98	19.44
226.215	8.44
226.449	20.44
226.683	22.44
226.918	11.44
227.152	17.44
227.387	50.44
227.621	43.44
227.856	43.44
228.09	45.44
228.324	39.44
228.559	66.44
228.793	61.44
229.027	61.44
229.262	61.44
229.496	65.44
229.73	66.44
229.964	76.44
230.199	59.44
230.433	74.44
230.667	77.44
230.901	75.44
231.136	92.44
231.37	85.44
231.604	85.44
231.838	85.44
232.072	72.44
232.306	79.44
232.541	88.44
232.775	78.44
233.009	94.44
233.243	88.44
233.477	81.44
233.711	85.44
233.945	67.44
234.179	73.44
234.413	81.44
234.647	83.44
234.881	90.44
235.115	83.44
235.349	81.44
235.583	75.44
235.817	83.44
236.051	70.44
236.285	85.44
236.519	76.44
236.753	90.44
236.987	88.44
237.221	75.44
237.455	90.44
237.689	71.44
237.922	78.44
238.156	59.44
238.39	74.44
238.624	87.44
238.858	74.44
239.091	84.44
239.325	83.44
239.559	73.44
239.793	72.44
240.027	94.44
240.26	83.44
240.494	82.44
240.728	74.44
240.961	78.44
241.195	70.44
241.429	90.44
241.662	73.44
241.896	62.44
242.13	78.44
242.363	90.44
242.597	79.44
242.83	88.44
243.064	62.44
243.298	87.44
243.531	74.44
243.765	69.44
243.998	80.44
244.232	65.44
244.465	82.44
244.699	76.44
244.932	81.44
245.166	86.44
245.399	83.44
245.633	71.44
245.866	83.44
246.099	69.44
246.333	87.44
246.566	79.44
246.8	81.44
247.033	81.44
247.266	86.44
247.5	93.44
247.733	83.44
247.966	80.44
248.2	80.44
248.433	80.44
248.666	89.44
248.899	84.44
249.133	82.44
249.366	79.44
249.599	76.44
249.832	89.44
250.066	81.44
250.299	63.44
250.532	76.44
250.765	92.44
250.998	74.44
251.231	72.44
251.465	75.44
251.698	77.44
251.931	74.44
252.164	73.44
252.397	86.44
252.63	73.44
252.863	83.44
253.096	85.44
253.329	86.44
253.562	78.44
253.795	91.44
254.028	99.44
254.261	90.44
254.494	91.44
254.727	88.44
254.96	91.44
255.193	79.44
255.426	89.44
255.659	79.44
255.892	78.44
256.124	82.44
256.357	84.44
256.59	77.44
256.823	95.44
257.056	87.44
257.289	65.44
257.521	87.44
257.754	76.44
257.987	82.44
258.22	79.44
258.452	82.44
258.685	69.44
258.918	79.44
259.151	82.44
259.383	80.44
259.616	92.44
259.849	61.44
260.081	83.44
260.314	87.44
260.547	85.44
260.779	75.44
261.012	90.44
261.244	81.44
261.477	72.44
261.71	85.44
261.942	88.44
262.175	74.44
262.407	61.44
262.64	101.44
262.872	68.44
263.105	70.44
263.337	83.44
263.57	64.44
263.802	86.44
264.035	85.44
264.267	86.44
264.499	86.44
264.732	93.44
264.964	89.44
265.197	69.44
265.429	87.44
265.661	86.44
265.894	86.44
266.126	81.44
266.358	95.44
266.591	70.44
266.823	84.44
267.055	85.44
267.287	64.44
267.52	82.44
267.752	70.44
267.984	93.44
268.216	87.44
268.448	91.44
268.681	83.44
268.913	84.44
269.145	81.44
269.377	86.44
269.609	83.44
269.841	79.44
270.073	74.44
270.306	78.44
270.538	76.44
270.77	71.44
271.002	86.44
271.234	90.44
271.466	92.44
271.698	86.44
271.93	96.44
272.162	84.44
272.394	82.44
272.626	84.44
272.858	77.44
273.09	81.44
273.322	101.44
273.553	85.44
273.785	90.44
274.017	85.44
274.249	80.44
274.481	77.44
274.713	80.44
274.945	79.44
275.176	86.44
275.408	85.44
275.64	88.44
275.872	91.44
276.104	89.44
276.335	90.44
276.567	92.44
276.799	85.44
277.031	84.44
277.262	84.44
277.494	90.44
277.726	86.44
277.957	89.44
278.189	87.44
278.421	87.44
278.652	81.44
278.884	79.44
279.115	79.44
279.347	79.44
279.579	86.44
279.81	95.44
280.042	92.44
280.273	86.44
280.505	87.44
280.736	98.44
280.968	93.44
281.199	81.44
281.431	79.44
281.662	80.44
281.894	92.44
282.125	81.44
282.356	97.44
282.588	101.44
282.819	88.44
283.051	91.44
283.282	83.44
283.513	93.44
283.745	81.44
283.976	74.44
284.207	80.44
284.439	97.44
284.67	94.44
284.901	103.44
285.132	86.44
285.364	79.44
285.595	94.44
285.826	96.44
286.057	85.44
286.288	87.44
286.52	72.44
286.751	86.44
286.982	88.44
287.213	84.44
287.444	90.44
287.675	80.44
287.906	92.44
288.138	92.44
288.369	85.44
288.6	85.44
288.831	86.44
289.062	89.44
289.293	88.44
289.524	96.44
289.755	81.44
289.986	91.44
290.217	82.44
290.448	85.44
290.679	88.44
290.91	77.44
291.141	99.44
291.371	87.44
291.602	94.44
291.833	83.44
292.064	72.44
292.295	92.44
292.526	89.44
292.757	89.44
292.987	95.44
293.218	78.44
293.449	89.44
293.68	89.44
293.91	92.44
294.141	87.44
294.372	104.44
294.603	94.44
294.833	103.44
295.064	89.44
295.295	103.44
295.525	85.44
295.756	83.44
295.987	76.44
296.217	89.44
296.448	84.44
296.679	85.44
296.909	84.44
297.14	77.44
297.37	81.44
297.601	81.44
297.831	82.44
298.062	84.44
298.292	94.44
298.523	93.44
298.753	84.44
298.984	94.44
299.214	85.44
299.445	97.44
299.675	70.44
299.905	85.44
300.136	92.44
300.366	80.44
300.597	91.44
300.827	90.44
301.057	89.44
301.288	88.44
301.518	87.44
301.748	76.44
301.979	87.44
302.209	104.44
302.439	87.44
302.669	89.44
302.9	99.44
303.13	79.44
303.36	93.44
303.59	101.44
303.82	89.44
304.051	84.44
304.281	79.44
304.511	82.44
304.741	86.44
304.971	88.44
305.201	86.44
305.431	84.44
305.661	82.44
305.891	97.44
306.121	89.44
306.352	86.44
306.582	90.44
306.812	72.44
307.042	93.44
307.272	92.44
307.502	97.44
307.731	108.44
307.961	100.44
308.191	87.44
308.421	94.44
308.651	88.44
308.881	87.44
309.111	92.44
309.341	79.44
309.571	86.44
309.8	92.44
310.03	77.44
310.26	85.44
310.49	89.44
310.72	90.44
310.949	92.44
311.179	97.44
311.409	91.44
311.639	85.44
311.868	96.44
312.098	95.44
312.328	84.44
312.557	101.44
312.787	71.44
313.017	94.44
313.246	81.44
313.476	92.44
313.706	83.44
313.935	97.44
314.165	90.44
314.394	82.44
314.624	69.44
314.853	99.44
315.083	94.44
315.312	87.44
315.542	83.44
315.771	90.44
316.001	84.44
316.23	95.44
316.46	86.44
316.689	91.44
316.919	86.44
317.148	92.44
317.377	79.44
317.607	87.44
317.836	87.44
318.065	92.44
318.295	82.44
318.524	81.44
318.753	82.44
318.983	75.44
319.212	98.44
319.441	78.44
319.67	80.44
319.9	84.44
320.129	87.44
320.358	84.44
320.587	87.44
320.816	94.44
321.046	88.44
321.275	79.44
321.504	88.44
321.733	80.44
321.962	85.44
322.191	70.44
322.42	79.44
322.649	83.44
322.878	89.44
323.108	104.44
323.337	83.44
323.566	77.44
323.795	94.44
324.024	100.44
324.253	78.44
324.482	82.44
324.71	88.44
324.939	89.44
325.168	86.44
325.397	83.44
325.626	83.44
325.855	91.44
326.084	79.44
326.313	103.44
326.542	91.44
326.77	97.44
326.999	83.44
327.228	79.44
327.457	77.44
327.686	89.44
327.914	99.44
328.143	100.44
328.372	91.44
328.6	97.44
328.829	103.44
329.058	89.44
329.287	80.44
329.515	87.44
329.744	105.44
329.972	86.44
330.201	73.44
330.43	91.44
330.658	95.44
330.887	89.44
331.115	81.44
331.344	74.44
331.572	91.44
331.801	89.44
332.03	77.44
332.258	93.44
332.486	95.44
332.715	83.44
332.943	86.44
333.172	89.44
333.4	93.44
333.629	78.44
333.857	83.44
334.085	100.44
334.314	74.44
334.542	81.44
334.771	92.44
334.999	90.44
335.227	84.44
335.455	90.44
335.684	89.44
335.912	93.44
336.14	90.44
336.369	88.44
336.597	74.44
336.825	69.44
337.053	68.44
337.281	77.44
337.51	77.44
337.738	86.44
337.966	95.44
338.194	88.44
338.422	73.44
338.65	81.44
338.878	82.44
339.106	86.44
339.334	93.44
339.562	92.44
339.79	91.44
340.018	89.44
340.246	76.44
340.474	70.44
340.702	84.44
340.93	69.44
341.158	93.44
341.386	85.44
341.614	84.44
341.842	81.44
342.07	79.44
342.298	87.44
342.526	87.44
342.754	79.44
342.981	86.44
343.209	79.44
343.437	88.44
343.665	91.44
343.893	97.44
344.12	88.44
344.348	93.44
344.576	82.44
344.804	78.44
345.031	72.44
345.259	90.44
345.487	89.44
345.714	73.44
345.942	84.44
346.17	89.44
346.397	84.44
346.625	83.44
346.853	73.44
347.08	82.44
347.308	87.44
347.535	82.44
347.763	83.44
347.99	86.44
348.218	100.44
348.445	68.44
348.673	76.44
348.9	77.44
349.128	78.44
349.355	95.44
349.583	90.44
349.81	83.44
350.037	87.44
350.265	101.44
350.492	93.44
350.72	84.44
350.947	83.44
351.174	84.44
351.402	80.44
351.629	70.44
351.856	78.44
352.083	86.44
352.311	83.44
352.538	77.44
352.765	79.44
352.992	86.44
353.22	84.44
353.447	76.44
353.674	99.44
353.901	82.44
354.128	77.44
354.355	76.44
354.583	88.44
354.81	90.44
355.037	76.44
355.264	97.44
355.491	79.44
355.718	76.44
355.945	81.44
356.172	77.44
356.399	79.44
356.626	92.44
356.853	82.44
357.08	90.44
357.307	97.44
357.534	69.44
357.761	85.44
357.988	74.44
358.215	93.44
358.441	80.44
358.668	88.44
358.895	77.44
359.122	87.44
359.349	102.44
359.576	82.44
359.802	90.44
360.029	88.44
360.256	83.44
360.483	82.44
360.709	78.44
360.936	102.44
361.163	89.44
361.39	81.44
361.616	79.44
361.843	95.44
362.07	79.44
362.296	85.44
362.523	82.44
362.749	73.44
362.976	95.44
363.203	78.44
363.429	88.44
363.656	92.44
363.882	98.44
364.109	85.44
364.335	82.44
364.562	85.44
364.788	88.44
365.015	62.44
365.241	82.44
365.468	99.44
365.694	82.44
365.92	86.44
366.147	95.44
366.373	85.44
366.599	89.44
366.826	80.44
367.052	96.44
367.278	85.44
367.505	89.44
367.731	86.44
367.957	80.44
368.184	95.44
368.41	98.44
368.636	82.44
368.862	84.44
369.089	98.44
369.315	87.44
369.541	85.44
369.767	85.44
369.993	86.44
370.219	88.44
370.445	97.44
370.672	91.44
370.898	92.44
371.124	74.44
371.35	91.44
371.576	91.44
371.802	74.44
372.028	84.44
372.254	84.44
372.48	75.44
372.706	82.44
372.932	82.44
373.158	89.44
373.384	91.44
373.61	78.44
373.835	93.44
374.061	84.44
374.287	94.44
374.513	77.44
374.739	98.44
374.965	94.44
375.191	99.44
375.416	88.44
375.642	86.44
375.868	82.44
376.094	80.44
376.319	89.44
376.545	85.44
376.771	87.44
376.997	80.44
377.222	88.44
377.448	87.44
377.674	99.44
377.899	92.44
378.125	88.44
378.35	88.44
378.576	75.44
378.802	91.44
379.027	103.44
379.253	86.44
379.478	91.44
379.704	74.44
379.929	80.44
380.155	74.44
380.38	73.44
380.606	86.44
380.831	87.44
381.057	103.44
381.282	90.44
381.507	88.44
381.733	94.44
381.958	94.44
382.184	88.44
382.409	88.44
382.634	94.44
382.86	93.44
383.085	92.44
383.31	88.44
383.535	91.44
383.761	92.44
383.986	80.44
384.211	94.44
384.436	84.44
384.662	95.44
384.887	73.44
385.112	79.44
385.337	90.44
385.562	98.44
385.787	83.44
386.013	92.44
386.238	91.44
386.463	89.44
386.688	95.44
386.913	82.44
387.138	94.44
387.363	85.44
387.588	87.44
387.813	87.44
388.038	89.44
388.263	90.44
388.488	92.44
388.713	78.44
388.938	77.44
389.163	86.44
389.387	79.44
389.612	89.44
389.837	94.44
390.062	87.44
390.287	95.44
390.512	100.44
390.736	90.44
390.961	83.44
391.186	100.44
391.411	104.44
391.636	79.44
391.86	83.44
392.085	106.44
392.31	83.44
392.534	83.44
392.759	96.44
392.984	94.44
393.208	94.44
393.433	89.44
393.658	99.44
393.882	86.44
394.107	96.44
394.331	91.44
394.556	85.44
394.78	81.44
395.005	103.44
395.229	95.44
395.454	85.44
395.678	71.44
395.903	88.44
396.127	76.44
396.352	85.44
396.576	82.44
396.801	90.44
397.025	91.44
397.249	82.44
397.474	85.44
397.698	80.44
397.922	93.44
398.147	76.44
398.371	86.44
398.595	91.44
398.82	102.44
399.044	97.44
399.268	99.44
399.492	89.44
399.717	80.44
399.941	81.44
400.165	91.44
400.389	84.44
400.613	92.44
400.837	100.44
401.062	87.44
401.286	96.44
401.51	87.44
401.734	89.44
401.958	90.44
402.182	93.44
402.406	96.44
402.63	98.44
402.854	77.44
403.078	85.44
403.302	96.44
403.526	103.44
403.75	85.44
403.974	96.44
404.198	94.44
404.422	99.44
404.645	86.44
404.869	88.44
405.093	88.44
405.317	93.44
405.541	105.44
405.765	108.44
405.988	96.44
406.212	93.44
406.436	103.44
406.66	97.44
406.883	85.44
407.107	97.44
407.331	83.44
407.555	88.44
407.778	84.44
408.002	89.44
408.226	96.44
408.449	93.44
408.673	87.44
408.896	105.44
409.12	85.44
409.344	96.44
409.567	100.44
409.791	86.44
410.014	94.44
410.238	97.44
410.461	96.44
410.685	85.44
410.908	82.44
411.132	93.44
411.355	93.44
411.578	94.44
411.802	90.44
412.025	83.44
412.249	91.44
412.472	93.44
412.695	101.44
412.919	105.44
413.142	108.44
413.365	89.44
413.589	89.44
413.812	87.44
414.035	98.44
414.258	97.44
414.482	92.44
414.705	91.44
414.928	102.44
415.151	100.44
415.374	86.44
415.597	89.44
415.821	97.44
416.044	99.44
416.267	95.44
416.49	83.44
416.713	93.44
416.936	97.44
417.159	91.44
417.382	108.44
417.605	101.44
417.828	94.44
418.051	106.44
418.274	95.44
418.497	105.44
418.72	99.44
418.943	98.44
419.166	94.44
419.389	98.44
419.611	87.44
419.834	102.44
420.057	85.44
420.28	90.44
420.503	111.44
420.726	112.44
420.948	91.44
421.171	93.44
421.394	101.44
421.617	119.44
421.839	111.44
422.062	91.44
422.285	91.44
422.507	95.44
422.73	89.44
422.953	83.44
423.175	96.44
423.398	102.44
423.621	84.44
423.843	94.44
424.066	100.44
424.288	105.44
424.511	93.44
424.733	89.44
424.956	83.44
425.178	83.44
425.401	89.44
425.623	99.44
425.846	93.44
426.068	95.44
426.291	93.44
426.513	93.44
426.735	98.44
426.958	110.44
427.18	100.44
427.402	102.44
427.625	96.44
427.847	106.44
428.069	106.44
428.292	90.44
428.514	92.44
428.736	77.44
428.958	97.44
429.181	89.44
429.403	97.44
429.625	105.44
429.847	98.44
430.069	102.44
430.292	94.44
430.514	94.44
430.736	90.44
430.958	102.44
431.18	97.44
431.402	87.44
431.624	85.44
431.846	99.44
432.068	75.44
432.29	75.44
432.512	87.44
432.734	87.44
432.956	95.44
433.178	97.44
433.4	106.44
433.622	88.44
433.844	93.44
434.066	101.44
434.287	103.44
434.509	93.44
434.731	83.44
434.953	85.44
435.175	95.44
435.397	77.44
435.618	86.44
435.84	105.44
436.062	103.44
436.284	101.44
436.505	113.44
436.727	89.44
436.949	85.44
437.17	97.44
437.392	94.44
437.614	95.44
437.835	99.44
438.057	93.44
438.278	76.44
438.5	102.44
438.721	104.44
438.943	106.44
439.165	113.44
439.386	117.44
439.608	88.44
439.829	88.44
440.05	101.44
440.272	104.44
440.493	102.44
440.715	98.44
440.936	91.44
441.158	96.44
441.379	107.44
441.6	113.44
441.822	105.44
442.043	106.44
442.264	107.44
442.486	103.44
442.707	103.44
442.928	110.44
443.149	122.44
443.371	103.44
443.592	83.44
443.813	93.44
444.034	106.44
444.255	105.44
444.476	97.44
444.698	101.44
444.919	101.44
445.14	194.44
445.361	139.44
445.582	117.44
445.803	105.44
446.024	103.44
446.245	102.44
446.466	102.44
446.687	95.44
446.908	103.44
447.129	99.44
447.35	97.44
447.571	94.44
447.792	91.44
448.013	105.44
448.234	108.44
448.455	109.44
448.675	93.44
448.896	94.44
449.117	102.44
449.338	104.44
449.559	96.44
449.779	102.44
450	101.44
450.221	108.44
450.442	95.44
450.662	82.44
450.883	105.44
451.104	93.44
451.324	79.44
451.545	99.44
451.766	90.44
451.986	107.44
452.207	100.44
452.428	84.44
452.648	83.44
452.869	107.44
453.089	84.44
453.31	95.44
453.53	91.44
453.751	93.44
453.971	96.44
454.192	70.44
454.412	88.44
454.633	103.44
454.853	96.44
455.073	95.44
455.294	90.44
455.514	87.44
455.734	92.44
455.955	89.44
456.175	95.44
456.395	90.44
456.616	95.44
456.836	93.44
457.056	98.44
457.276	98.44
457.497	100.44
457.717	97.44
457.937	100.44
458.157	94.44
458.377	78.44
458.598	91.44
458.818	99.44
459.038	101.44
459.258	89.44
459.478	71.44
459.698	95.44
459.918	97.44
460.138	76.44
460.358	92.44
460.578	91.44
460.798	92.44
461.018	101.44
461.238	94.44
461.458	99.44
461.678	91.44
461.898	74.44
462.118	81.44
462.338	97.44
462.558	93.44
462.777	88.44
462.997	101.44
463.217	76.44
463.437	92.44
463.657	91.44
463.876	82.44
464.096	79.44
464.316	91.44
464.536	93.44
464.755	95.44
464.975	80.44
465.195	95.44
465.414	80.44
465.634	93.44
465.854	83.44
466.073	96.44
466.293	102.44
466.512	98.44
466.732	98.44
466.951	87.44
467.171	109.44
467.391	101.44
467.61	93.44
467.829	104.44
468.049	86.44
468.268	96.44
468.488	82.44
468.707	95.44
468.927	100.44
469.146	87.44
469.365	104.44
469.585	107.44
469.804	106.44
470.023	105.44
470.243	107.44
470.462	88.44
470.681	113.44
470.901	87.44
471.12	82.44
471.339	96.44
471.558	95.44
471.777	96.44
471.997	93.44
472.216	98.44
472.435	86.44
472.654	88.44
472.873	77.44
473.092	99.44
473.311	93.44
473.53	104.44
473.749	89.44
473.968	92.44
474.187	91.44
474.406	100.44
474.625	101.44
474.844	97.44
475.063	103.44
475.282	100.44
475.501	92.44
475.72	93.44
475.939	79.44
476.158	85.44
476.377	96.44
476.596	100.44
476.814	105.44
477.033	91.44
477.252	85.44
477.471	94.44
477.69	102.44
477.908	91.44
478.127	103.44
478.346	113.44
478.564	106.44
478.783	100.44
479.002	108.44
479.22	97.44
479.439	82.44
479.658	87.44
479.876	86.44
480.095	86.44
480.313	103.44
480.532	98.44
480.751	80.44
480.969	84.44
481.188	90.44
481.406	80.44
481.624	68.44
481.843	94.44
482.061	74.44
482.28	102.44
482.498	99.44
482.717	98.44
482.935	98.44
483.153	89.44
483.372	91.44
483.59	99.44
483.808	103.44
484.027	111.44
484.245	100.44
484.463	93.44
484.681	113.44
484.9	98.44
485.118	103.44
485.336	92.44
485.554	89.44
485.772	93.44
485.99	86.44
486.209	97.44
486.427	93.44
486.645	82.44
486.863	92.44
487.081	101.44
487.299	95.44
487.517	100.44
487.735	105.44
487.953	113.44
488.171	110.44
488.389	115.44
488.607	104.44
488.825	98.44
489.043	102.44
489.261	108.44
489.479	95.44
489.696	94.44
489.914	94.44
490.132	121.44
490.35	122.44
490.568	106.44
490.786	111.44
491.003	117.44
491.221	99.44
491.439	113.44
491.657	105.44
491.874	108.44
492.092	116.44
492.31	127.44
492.527	119.44
492.745	123.44
492.963	113.44
493.18	104.44
493.398	113.44
493.615	116.44
493.833	115.44
494.05	117.44
494.268	98.44
494.485	108.44
494.703	93.44
494.92	108.44
495.138	118.44
495.355	106.44
495.573	110.44
495.79	109.44
496.008	134.44
496.225	111.44
496.442	109.44
496.66	122.44
496.877	119.44
497.094	108.44
497.312	109.44
497.529	117.44
497.746	109.44
497.963	99.44
498.181	94.44
498.398	101.44
498.615	104.44
498.832	90.44
499.049	89.44
499.267	82.44
499.484	98.44
499.701	103.44
499.918	107.44
500.135	100.44
500.352	90.44
500.569	103.44
500.786	117.44
501.003	108.44
501.22	93.44
501.437	88.44
501.654	94.44
501.871	100.44
502.088	99.44
502.305	94.44
502.522	105.44
502.739	105.44
502.956	87.44
503.172	95.44
503.389	90.44
503.606	95.44
503.823	117.44
504.04	105.44
504.256	95.44
504.473	91.44
504.69	99.44
504.907	113.44
505.123	102.44
505.34	85.44
505.557	82.44
505.773	99.44
505.99	108.44
506.207	85.44
506.423	93.44
506.64	96.44
506.856	95.44
507.073	100.44
507.289	105.44
507.506	89.44
507.722	93.44
507.939	73.44
508.155	89.44
508.372	86.44
508.588	102.44
508.805	100.44
509.021	100.44
509.238	85.44
509.454	85.44
509.67	87.44
509.887	99.44
510.103	90.44
510.319	77.44
510.536	82.44
510.752	82.44
510.968	83.44
511.184	75.44
511.401	73.44
511.617	85.44
511.833	94.44
512.049	90.44
512.265	101.44
512.481	82.44
512.698	86.44
512.914	95.44
513.13	92.44
513.346	87.44
513.562	95.44
513.778	82.44
513.994	87.44
514.21	69.44
514.426	101.44
514.642	82.44
514.858	91.44
515.074	83.44
515.29	94.44
515.506	80.44
515.721	92.44
515.937	91.44
516.153	95.44
516.369	78.44
516.585	92.44
