Data from Location4.07152019.Energy5.Lamp.07192019.3%Agarose_HRD10591_15-23-50-576.txt Node
Date: Fri Jul 19 15:23:50 EDT 2019
User: cochatt
Spectrometer: HR+D1059
Trigger mode: 1
Integration Time (sec): 1.000000E-1
Scans to average: 1
Electric dark correction enabled: true
Nonlinearity correction enabled: false
Boxcar width: 0
XAxis mode: Wavelengths
Number of Pixels in Spectrum: 2048
>>>>>Begin Spectral Data<<<<<
223.165	-14.5
223.4	-14.5
223.635	-14.5
223.869	-10.5
224.104	-12.5
224.338	-25.5
224.573	-6.5
224.808	-18.5
225.042	0.5
225.277	0.5
225.511	-12.5
225.746	-0.5
225.98	1.5
226.215	11.5
226.449	17.5
226.683	9.5
226.918	27.5
227.152	32.5
227.387	35.5
227.621	46.5
227.856	34.5
228.09	36.5
228.324	65.5
228.559	58.5
228.793	65.5
229.027	65.5
229.262	56.5
229.496	57.5
229.73	69.5
229.964	77.5
230.199	79.5
230.433	83.5
230.667	67.5
230.901	61.5
231.136	75.5
231.37	69.5
231.604	79.5
231.838	79.5
232.072	78.5
232.306	77.5
232.541	58.5
232.775	61.5
233.009	78.5
233.243	89.5
233.477	85.5
233.711	72.5
233.945	86.5
234.179	91.5
234.413	76.5
234.647	81.5
234.881	73.5
235.115	78.5
235.349	61.5
235.583	80.5
235.817	73.5
236.051	97.5
236.285	74.5
236.519	75.5
236.753	82.5
236.987	82.5
237.221	81.5
237.455	84.5
237.689	74.5
237.922	81.5
238.156	84.5
238.39	83.5
238.624	74.5
238.858	86.5
239.091	75.5
239.325	76.5
239.559	79.5
239.793	69.5
240.027	89.5
240.26	74.5
240.494	74.5
240.728	69.5
240.961	61.5
241.195	86.5
241.429	71.5
241.662	68.5
241.896	74.5
242.13	72.5
242.363	67.5
242.597	73.5
242.83	69.5
243.064	83.5
243.298	82.5
243.531	69.5
243.765	78.5
243.998	70.5
244.232	72.5
244.465	67.5
244.699	78.5
244.932	79.5
245.166	81.5
245.399	86.5
245.633	70.5
245.866	79.5
246.099	73.5
246.333	72.5
246.566	67.5
246.8	74.5
247.033	88.5
247.266	83.5
247.5	80.5
247.733	77.5
247.966	87.5
248.2	84.5
248.433	79.5
248.666	69.5
248.899	73.5
249.133	76.5
249.366	82.5
249.599	70.5
249.832	89.5
250.066	89.5
250.299	66.5
250.532	72.5
250.765	89.5
250.998	80.5
251.231	76.5
251.465	86.5
251.698	72.5
251.931	69.5
252.164	66.5
252.397	75.5
252.63	87.5
252.863	76.5
253.096	91.5
253.329	81.5
253.562	92.5
253.795	80.5
254.028	81.5
254.261	70.5
254.494	77.5
254.727	85.5
254.96	77.5
255.193	84.5
255.426	70.5
255.659	71.5
255.892	73.5
256.124	92.5
256.357	80.5
256.59	79.5
256.823	89.5
257.056	81.5
257.289	70.5
257.521	71.5
257.754	82.5
257.987	82.5
258.22	74.5
258.452	87.5
258.685	79.5
258.918	81.5
259.151	102.5
259.383	81.5
259.616	75.5
259.849	85.5
260.081	80.5
260.314	79.5
260.547	67.5
260.779	79.5
261.012	72.5
261.244	83.5
261.477	81.5
261.71	75.5
261.942	79.5
262.175	72.5
262.407	81.5
262.64	76.5
262.872	98.5
263.105	71.5
263.337	97.5
263.57	89.5
263.802	80.5
264.035	68.5
264.267	81.5
264.499	79.5
264.732	81.5
264.964	77.5
265.197	88.5
265.429	90.5
265.661	65.5
265.894	70.5
266.126	82.5
266.358	81.5
266.591	93.5
266.823	90.5
267.055	68.5
267.287	77.5
267.52	69.5
267.752	75.5
267.984	61.5
268.216	89.5
268.448	82.5
268.681	83.5
268.913	80.5
269.145	66.5
269.377	77.5
269.609	78.5
269.841	87.5
270.073	74.5
270.306	86.5
270.538	90.5
270.77	83.5
271.002	81.5
271.234	81.5
271.466	79.5
271.698	87.5
271.93	76.5
272.162	96.5
272.394	78.5
272.626	79.5
272.858	92.5
273.09	86.5
273.322	83.5
273.553	79.5
273.785	69.5
274.017	89.5
274.249	76.5
274.481	83.5
274.713	80.5
274.945	78.5
275.176	80.5
275.408	66.5
275.64	77.5
275.872	93.5
276.104	91.5
276.335	85.5
276.567	77.5
276.799	83.5
277.031	77.5
277.262	79.5
277.494	91.5
277.726	87.5
277.957	81.5
278.189	89.5
278.421	78.5
278.652	79.5
278.884	82.5
279.115	69.5
279.347	70.5
279.579	85.5
279.81	80.5
280.042	81.5
280.273	78.5
280.505	75.5
280.736	73.5
280.968	81.5
281.199	101.5
281.431	74.5
281.662	78.5
281.894	77.5
282.125	93.5
282.356	79.5
282.588	73.5
282.819	86.5
283.051	73.5
283.282	84.5
283.513	85.5
283.745	80.5
283.976	90.5
284.207	84.5
284.439	82.5
284.67	87.5
284.901	87.5
285.132	81.5
285.364	85.5
285.595	98.5
285.826	85.5
286.057	79.5
286.288	75.5
286.52	83.5
286.751	91.5
286.982	79.5
287.213	78.5
287.444	88.5
287.675	83.5
287.906	79.5
288.138	68.5
288.369	80.5
288.6	77.5
288.831	78.5
289.062	81.5
289.293	81.5
289.524	91.5
289.755	80.5
289.986	78.5
290.217	89.5
290.448	93.5
290.679	86.5
290.91	97.5
291.141	74.5
291.371	82.5
291.602	85.5
291.833	82.5
292.064	83.5
292.295	69.5
292.526	75.5
292.757	87.5
292.987	70.5
293.218	87.5
293.449	84.5
293.68	85.5
293.91	94.5
294.141	81.5
294.372	89.5
294.603	81.5
294.833	85.5
295.064	89.5
295.295	78.5
295.525	76.5
295.756	94.5
295.987	80.5
296.217	77.5
296.448	76.5
296.679	82.5
296.909	87.5
297.14	91.5
297.37	70.5
297.601	82.5
297.831	89.5
298.062	99.5
298.292	80.5
298.523	83.5
298.753	95.5
298.984	78.5
299.214	93.5
299.445	87.5
299.675	78.5
299.905	94.5
300.136	90.5
300.366	87.5
300.597	81.5
300.827	82.5
301.057	83.5
301.288	81.5
301.518	96.5
301.748	78.5
301.979	86.5
302.209	75.5
302.439	88.5
302.669	93.5
302.9	82.5
303.13	90.5
303.36	91.5
303.59	87.5
303.82	89.5
304.051	83.5
304.281	81.5
304.511	93.5
304.741	83.5
304.971	75.5
305.201	75.5
305.431	88.5
305.661	91.5
305.891	85.5
306.121	80.5
306.352	96.5
306.582	87.5
306.812	84.5
307.042	77.5
307.272	78.5
307.502	93.5
307.731	91.5
307.961	95.5
308.191	76.5
308.421	91.5
308.651	78.5
308.881	88.5
309.111	93.5
309.341	84.5
309.571	82.5
309.8	92.5
310.03	88.5
310.26	82.5
310.49	82.5
310.72	80.5
310.949	80.5
311.179	85.5
311.409	82.5
311.639	84.5
311.868	85.5
312.098	107.5
312.328	98.5
312.557	88.5
312.787	82.5
313.017	77.5
313.246	90.5
313.476	88.5
313.706	82.5
313.935	80.5
314.165	81.5
314.394	82.5
314.624	78.5
314.853	93.5
315.083	88.5
315.312	85.5
315.542	68.5
315.771	83.5
316.001	71.5
316.23	83.5
316.46	87.5
316.689	91.5
316.919	85.5
317.148	85.5
317.377	81.5
317.607	91.5
317.836	86.5
318.065	85.5
318.295	80.5
318.524	76.5
318.753	73.5
318.983	83.5
319.212	82.5
319.441	74.5
319.67	98.5
319.9	78.5
320.129	101.5
320.358	73.5
320.587	89.5
320.816	84.5
321.046	87.5
321.275	86.5
321.504	93.5
321.733	91.5
321.962	94.5
322.191	91.5
322.42	81.5
322.649	93.5
322.878	86.5
323.108	88.5
323.337	93.5
323.566	96.5
323.795	81.5
324.024	63.5
324.253	75.5
324.482	82.5
324.71	82.5
324.939	82.5
325.168	84.5
325.397	90.5
325.626	94.5
325.855	86.5
326.084	73.5
326.313	82.5
326.542	90.5
326.77	73.5
326.999	87.5
327.228	75.5
327.457	64.5
327.686	87.5
327.914	80.5
328.143	89.5
328.372	76.5
328.6	82.5
328.829	84.5
329.058	67.5
329.287	87.5
329.515	94.5
329.744	97.5
329.972	87.5
330.201	84.5
330.43	78.5
330.658	88.5
330.887	70.5
331.115	83.5
331.344	84.5
331.572	83.5
331.801	85.5
332.03	85.5
332.258	74.5
332.486	77.5
332.715	73.5
332.943	78.5
333.172	84.5
333.4	70.5
333.629	81.5
333.857	66.5
334.085	84.5
334.314	87.5
334.542	93.5
334.771	73.5
334.999	82.5
335.227	78.5
335.455	65.5
335.684	91.5
335.912	85.5
336.14	93.5
336.369	93.5
336.597	76.5
336.825	71.5
337.053	94.5
337.281	68.5
337.51	77.5
337.738	79.5
337.966	85.5
338.194	75.5
338.422	75.5
338.65	70.5
338.878	91.5
339.106	75.5
339.334	89.5
339.562	82.5
339.79	56.5
340.018	89.5
340.246	82.5
340.474	75.5
340.702	89.5
340.93	77.5
341.158	69.5
341.386	82.5
341.614	89.5
341.842	71.5
342.07	76.5
342.298	80.5
342.526	82.5
342.754	79.5
342.981	82.5
343.209	85.5
343.437	89.5
343.665	92.5
343.893	87.5
344.12	76.5
344.348	87.5
344.576	81.5
344.804	84.5
345.031	67.5
345.259	92.5
345.487	87.5
345.714	70.5
345.942	89.5
346.17	81.5
346.397	79.5
346.625	82.5
346.853	74.5
347.08	74.5
347.308	78.5
347.535	76.5
347.763	90.5
347.99	78.5
348.218	80.5
348.445	80.5
348.673	94.5
348.9	76.5
349.128	74.5
349.355	93.5
349.583	76.5
349.81	84.5
350.037	71.5
350.265	82.5
350.492	75.5
350.72	84.5
350.947	82.5
351.174	79.5
351.402	82.5
351.629	91.5
351.856	78.5
352.083	88.5
352.311	93.5
352.538	78.5
352.765	74.5
352.992	85.5
353.22	89.5
353.447	88.5
353.674	91.5
353.901	81.5
354.128	75.5
354.355	88.5
354.583	82.5
354.81	91.5
355.037	80.5
355.264	81.5
355.491	74.5
355.718	80.5
355.945	76.5
356.172	82.5
356.399	90.5
356.626	79.5
356.853	77.5
357.08	75.5
357.307	75.5
357.534	82.5
357.761	89.5
357.988	77.5
358.215	87.5
358.441	66.5
358.668	83.5
358.895	81.5
359.122	92.5
359.349	69.5
359.576	84.5
359.802	80.5
360.029	77.5
360.256	79.5
360.483	93.5
360.709	83.5
360.936	87.5
361.163	81.5
361.39	84.5
361.616	81.5
361.843	73.5
362.07	73.5
362.296	102.5
362.523	83.5
362.749	87.5
362.976	87.5
363.203	84.5
363.429	73.5
363.656	88.5
363.882	89.5
364.109	99.5
364.335	76.5
364.562	78.5
364.788	85.5
365.015	84.5
365.241	94.5
365.468	88.5
365.694	72.5
365.92	98.5
366.147	83.5
366.373	79.5
366.599	95.5
366.826	87.5
367.052	86.5
367.278	70.5
367.505	75.5
367.731	90.5
367.957	79.5
368.184	79.5
368.41	81.5
368.636	80.5
368.862	84.5
369.089	88.5
369.315	82.5
369.541	91.5
369.767	94.5
369.993	77.5
370.219	85.5
370.445	83.5
370.672	89.5
370.898	87.5
371.124	77.5
371.35	80.5
371.576	72.5
371.802	87.5
372.028	99.5
372.254	86.5
372.48	84.5
372.706	99.5
372.932	89.5
373.158	72.5
373.384	87.5
373.61	92.5
373.835	89.5
374.061	84.5
374.287	77.5
374.513	87.5
374.739	93.5
374.965	94.5
375.191	95.5
375.416	92.5
375.642	90.5
375.868	97.5
376.094	77.5
376.319	83.5
376.545	85.5
376.771	78.5
376.997	67.5
377.222	82.5
377.448	84.5
377.674	94.5
377.899	81.5
378.125	87.5
378.35	94.5
378.576	80.5
378.802	76.5
379.027	88.5
379.253	84.5
379.478	87.5
379.704	86.5
379.929	84.5
380.155	84.5
380.38	76.5
380.606	83.5
380.831	73.5
381.057	84.5
381.282	85.5
381.507	78.5
381.733	80.5
381.958	81.5
382.184	91.5
382.409	94.5
382.634	81.5
382.86	79.5
383.085	91.5
383.31	97.5
383.535	78.5
383.761	86.5
383.986	93.5
384.211	80.5
384.436	87.5
384.662	85.5
384.887	75.5
385.112	85.5
385.337	85.5
385.562	76.5
385.787	98.5
386.013	99.5
386.238	83.5
386.463	79.5
386.688	72.5
386.913	95.5
387.138	88.5
387.363	73.5
387.588	96.5
387.813	101.5
388.038	89.5
388.263	91.5
388.488	90.5
388.713	79.5
388.938	93.5
389.163	85.5
389.387	90.5
389.612	82.5
389.837	81.5
390.062	76.5
390.287	94.5
390.512	78.5
390.736	81.5
390.961	80.5
391.186	90.5
391.411	88.5
391.636	85.5
391.86	88.5
392.085	102.5
392.31	94.5
392.534	84.5
392.759	84.5
392.984	89.5
393.208	85.5
393.433	89.5
393.658	99.5
393.882	93.5
394.107	98.5
394.331	93.5
394.556	86.5
394.78	93.5
395.005	87.5
395.229	95.5
395.454	80.5
395.678	79.5
395.903	72.5
396.127	85.5
396.352	85.5
396.576	85.5
396.801	80.5
397.025	73.5
397.249	80.5
397.474	83.5
397.698	71.5
397.922	88.5
398.147	84.5
398.371	82.5
398.595	74.5
398.82	86.5
399.044	102.5
399.268	94.5
399.492	100.5
399.717	80.5
399.941	71.5
400.165	79.5
400.389	86.5
400.613	92.5
400.837	89.5
401.062	87.5
401.286	69.5
401.51	90.5
401.734	83.5
401.958	88.5
402.182	104.5
402.406	91.5
402.63	72.5
402.854	74.5
403.078	90.5
403.302	92.5
403.526	81.5
403.75	77.5
403.974	91.5
404.198	94.5
404.422	97.5
404.645	71.5
404.869	81.5
405.093	95.5
405.317	92.5
405.541	96.5
405.765	90.5
405.988	88.5
406.212	87.5
406.436	82.5
406.66	89.5
406.883	86.5
407.107	85.5
407.331	101.5
407.555	93.5
407.778	82.5
408.002	78.5
408.226	73.5
408.449	76.5
408.673	94.5
408.896	90.5
409.12	102.5
409.344	90.5
409.567	102.5
409.791	90.5
410.014	98.5
410.238	89.5
410.461	101.5
410.685	86.5
410.908	82.5
411.132	93.5
411.355	86.5
411.578	92.5
411.802	82.5
412.025	89.5
412.249	93.5
412.472	88.5
412.695	99.5
412.919	94.5
413.142	85.5
413.365	95.5
413.589	95.5
413.812	83.5
414.035	101.5
414.258	90.5
414.482	89.5
414.705	91.5
414.928	99.5
415.151	106.5
415.374	91.5
415.597	97.5
415.821	84.5
416.044	95.5
416.267	98.5
416.49	99.5
416.713	87.5
416.936	99.5
417.159	85.5
417.382	98.5
417.605	96.5
417.828	99.5
418.051	94.5
418.274	92.5
418.497	97.5
418.72	96.5
418.943	84.5
419.166	89.5
419.389	94.5
419.611	103.5
419.834	102.5
420.057	95.5
420.28	103.5
420.503	88.5
420.726	83.5
420.948	110.5
421.171	107.5
421.394	105.5
421.617	95.5
421.839	97.5
422.062	97.5
422.285	111.5
422.507	96.5
422.73	75.5
422.953	90.5
423.175	89.5
423.398	97.5
423.621	98.5
423.843	99.5
424.066	89.5
424.288	93.5
424.511	84.5
424.733	82.5
424.956	95.5
425.178	104.5
425.401	97.5
425.623	91.5
425.846	94.5
426.068	98.5
426.291	95.5
426.513	75.5
426.735	106.5
426.958	86.5
427.18	96.5
427.402	100.5
427.625	96.5
427.847	72.5
428.069	109.5
428.292	100.5
428.514	94.5
428.736	89.5
428.958	97.5
429.181	100.5
429.403	80.5
429.625	85.5
429.847	84.5
430.069	93.5
430.292	98.5
430.514	105.5
430.736	87.5
430.958	88.5
431.18	94.5
431.402	104.5
431.624	82.5
431.846	89.5
432.068	93.5
432.29	84.5
432.512	98.5
432.734	80.5
432.956	92.5
433.178	91.5
433.4	81.5
433.622	104.5
433.844	105.5
434.066	89.5
434.287	90.5
434.509	96.5
434.731	93.5
434.953	85.5
435.175	83.5
435.397	74.5
435.618	83.5
435.84	98.5
436.062	85.5
436.284	87.5
436.505	79.5
436.727	99.5
436.949	100.5
437.17	97.5
437.392	88.5
437.614	91.5
437.835	89.5
438.057	73.5
438.278	89.5
438.5	93.5
438.721	86.5
438.943	101.5
439.165	98.5
439.386	106.5
439.608	106.5
439.829	95.5
440.05	94.5
440.272	102.5
440.493	89.5
440.715	89.5
440.936	102.5
441.158	99.5
441.379	106.5
441.6	95.5
441.822	98.5
442.043	96.5
442.264	103.5
442.486	93.5
442.707	80.5
442.928	85.5
443.149	98.5
443.371	88.5
443.592	82.5
443.813	93.5
444.034	90.5
444.255	96.5
444.476	96.5
444.698	93.5
444.919	107.5
445.14	178.5
445.361	129.5
445.582	99.5
445.803	93.5
446.024	110.5
446.245	94.5
446.466	122.5
446.687	105.5
446.908	104.5
447.129	107.5
447.35	96.5
447.571	110.5
447.792	102.5
448.013	90.5
448.234	93.5
448.455	105.5
448.675	101.5
448.896	109.5
449.117	98.5
449.338	102.5
449.559	90.5
449.779	114.5
450	102.5
450.221	114.5
450.442	97.5
450.662	95.5
450.883	95.5
451.104	102.5
451.324	85.5
451.545	96.5
451.766	87.5
451.986	98.5
452.207	93.5
452.428	93.5
452.648	91.5
452.869	82.5
453.089	79.5
453.31	83.5
453.53	98.5
453.751	97.5
453.971	101.5
454.192	88.5
454.412	78.5
454.633	112.5
454.853	101.5
455.073	99.5
455.294	92.5
455.514	98.5
455.734	88.5
455.955	83.5
456.175	91.5
456.395	94.5
456.616	90.5
456.836	86.5
457.056	79.5
457.276	105.5
457.497	79.5
457.717	83.5
457.937	71.5
458.157	85.5
458.377	68.5
458.598	88.5
458.818	95.5
459.038	75.5
459.258	84.5
459.478	64.5
459.698	75.5
459.918	88.5
460.138	103.5
460.358	89.5
460.578	104.5
460.798	86.5
461.018	97.5
461.238	84.5
461.458	88.5
461.678	94.5
461.898	83.5
462.118	88.5
462.338	96.5
462.558	95.5
462.777	93.5
462.997	102.5
463.217	88.5
463.437	93.5
463.657	93.5
463.876	94.5
464.096	98.5
464.316	79.5
464.536	87.5
464.755	74.5
464.975	109.5
465.195	90.5
465.414	94.5
465.634	99.5
465.854	79.5
466.073	75.5
466.293	88.5
466.512	102.5
466.732	98.5
466.951	96.5
467.171	96.5
467.391	94.5
467.61	97.5
467.829	102.5
468.049	106.5
468.268	91.5
468.488	98.5
468.707	100.5
468.927	80.5
469.146	90.5
469.365	94.5
469.585	87.5
469.804	93.5
470.023	91.5
470.243	98.5
470.462	97.5
470.681	103.5
470.901	97.5
471.12	101.5
471.339	92.5
471.558	94.5
471.777	103.5
471.997	104.5
472.216	84.5
472.435	94.5
472.654	91.5
472.873	102.5
473.092	92.5
473.311	85.5
473.53	87.5
473.749	104.5
473.968	91.5
474.187	78.5
474.406	88.5
474.625	87.5
474.844	94.5
475.063	96.5
475.282	83.5
475.501	94.5
475.72	99.5
475.939	97.5
476.158	106.5
476.377	113.5
476.596	92.5
476.814	94.5
477.033	87.5
477.252	83.5
477.471	90.5
477.69	94.5
477.908	97.5
478.127	97.5
478.346	80.5
478.564	94.5
478.783	98.5
479.002	99.5
479.22	111.5
479.439	97.5
479.658	84.5
479.876	97.5
480.095	79.5
480.313	91.5
480.532	90.5
480.751	82.5
480.969	81.5
481.188	90.5
481.406	85.5
481.624	72.5
481.843	76.5
482.061	92.5
482.28	68.5
482.498	101.5
482.717	96.5
482.935	85.5
483.153	89.5
483.372	97.5
483.59	96.5
483.808	103.5
484.027	90.5
484.245	106.5
484.463	103.5
484.681	105.5
484.9	125.5
485.118	95.5
485.336	93.5
485.554	82.5
485.772	100.5
485.99	87.5
486.209	93.5
486.427	78.5
486.645	98.5
486.863	101.5
487.081	110.5
487.299	86.5
487.517	104.5
487.735	111.5
487.953	102.5
488.171	110.5
488.389	115.5
488.607	102.5
488.825	90.5
489.043	87.5
489.261	96.5
489.479	89.5
489.696	102.5
489.914	120.5
490.132	95.5
490.35	121.5
490.568	112.5
490.786	116.5
491.003	81.5
491.221	109.5
491.439	109.5
491.657	110.5
491.874	119.5
492.092	137.5
492.31	121.5
492.527	110.5
492.745	104.5
492.963	112.5
493.18	113.5
493.398	115.5
493.615	115.5
493.833	110.5
494.05	119.5
494.268	111.5
494.485	98.5
494.703	91.5
494.92	109.5
495.138	108.5
495.355	112.5
495.573	112.5
495.79	122.5
496.008	97.5
496.225	97.5
496.442	118.5
496.66	109.5
496.877	109.5
497.094	112.5
497.312	94.5
497.529	105.5
497.746	111.5
497.963	90.5
498.181	104.5
498.398	91.5
498.615	85.5
498.832	97.5
499.049	86.5
499.267	95.5
499.484	102.5
499.701	90.5
499.918	96.5
500.135	104.5
500.352	103.5
500.569	100.5
500.786	109.5
501.003	106.5
501.22	96.5
501.437	111.5
501.654	93.5
501.871	117.5
502.088	97.5
502.305	98.5
502.522	86.5
502.739	89.5
502.956	88.5
503.172	88.5
503.389	102.5
503.606	90.5
503.823	86.5
504.04	92.5
504.256	104.5
504.473	89.5
504.69	103.5
504.907	111.5
505.123	102.5
505.34	93.5
505.557	83.5
505.773	94.5
505.99	87.5
506.207	95.5
506.423	93.5
506.64	82.5
506.856	91.5
507.073	96.5
507.289	97.5
507.506	95.5
507.722	91.5
507.939	89.5
508.155	87.5
508.372	86.5
508.588	102.5
508.805	117.5
509.021	71.5
509.238	94.5
509.454	85.5
509.67	72.5
509.887	101.5
510.103	89.5
510.319	83.5
510.536	86.5
510.752	74.5
510.968	81.5
511.184	96.5
511.401	61.5
511.617	95.5
511.833	94.5
512.049	97.5
512.265	89.5
512.481	92.5
512.698	97.5
512.914	71.5
513.13	96.5
513.346	90.5
513.562	83.5
513.778	102.5
513.994	89.5
514.21	95.5
514.426	94.5
514.642	83.5
514.858	99.5
515.074	74.5
515.29	89.5
515.506	82.5
515.721	79.5
515.937	79.5
516.153	94.5
516.369	80.5
516.585	90.5
516.801	71.5
517.016	85.5
517.232	83.5
517.448	82.5
517.664	82.5
517.879	86.5
518.095	93.5
518.311	80.5
518.527	89.5
518.742	81.5
518.958	83.5
519.173	82.5
519.389	94.5
519.605	99.5
519.82	92.5
520.036	92.5
520.251	87.5
520.467	93.5
520.682	70.5
520.898	85.5
521.113	91.5
521.329	94.5
521.544	81.5
521.76	81.5
521.975	82.5
522.19	92.5
522.406	74.5
522.621	90.5
522.836	94.5
523.052	92.5
523.267	83.5
523.482	91.5
523.698	81.5
523.913	89.5
524.128	96.5
524.343	90.5
524.559	106.5
524.774	96.5
524.989	81.5
525.204	90.5
525.419	85.5
525.634	63.5
525.849	97.5
526.064	96.5
526.28	81.5
526.495	73.5
526.71	81.5
526.925	78.5
527.14	87.5
527.355	86.5
527.57	77.5
527.785	93.5
527.999	86.5
528.214	90.5
528.429	94.5
528.644	94.5
528.859	102.5
529.074	110.5
529.289	98.5
529.503	90.5
529.718	90.5
529.933	86.5
530.148	98.5
530.363	94.5
530.577	71.5
530.792	70.5
531.007	89.5
531.221	85.5
531.436	84.5
531.651	82.5
531.865	80.5
532.08	95.5
532.295	95.5
532.509	93.5
532.724	87.5
532.938	95.5
533.153	79.5
533.367	88.5
533.582	102.5
533.796	91.5
534.011	91.5
534.225	90.5
534.44	84.5
534.654	88.5
534.868	91.5
535.083	83.5
535.297	104.5
535.511	85.5
535.726	90.5
535.94	92.5
536.154	83.5
536.369	84.5
536.583	78.5
536.797	83.5
537.011	82.5
537.225	81.5
537.44	73.5
537.654	90.5
