Data from Location4.07152019.Energy5.Lamp.07192019.3%Agarose_HRD10591_15-24-16-577.txt Node
Date: Fri Jul 19 15:24:16 EDT 2019
User: cochatt
Spectrometer: HR+D1059
Trigger mode: 1
Integration Time (sec): 1.000000E-1
Scans to average: 1
Electric dark correction enabled: true
Nonlinearity correction enabled: false
Boxcar width: 0
XAxis mode: Wavelengths
Number of Pixels in Spectrum: 2048
>>>>>Begin Spectral Data<<<<<
223.165	-15.19
223.4	-15.19
223.635	-15.19
223.869	-16.19
224.104	-25.19
224.338	-9.19
224.573	-22.19
224.808	-20.19
225.042	1.81
225.277	3.81
225.511	-4.19
225.746	-3.19
225.98	-0.19
226.215	17.81
226.449	29.81
226.683	17.81
226.918	3.81
227.152	40.81
227.387	36.81
227.621	31.81
227.856	35.81
228.09	37.81
228.324	56.81
228.559	61.81
228.793	61.81
229.027	63.81
229.262	70.81
229.496	63.81
229.73	70.81
229.964	70.81
230.199	54.81
230.433	70.81
230.667	62.81
230.901	76.81
231.136	73.81
231.37	71.81
231.604	62.81
231.838	79.81
232.072	66.81
232.306	73.81
232.541	78.81
232.775	73.81
233.009	81.81
233.243	77.81
233.477	77.81
233.711	96.81
233.945	83.81
234.179	84.81
234.413	79.81
234.647	83.81
234.881	92.81
235.115	76.81
235.349	82.81
235.583	70.81
235.817	73.81
236.051	64.81
236.285	78.81
236.519	88.81
236.753	83.81
236.987	83.81
237.221	66.81
237.455	76.81
237.689	78.81
237.922	71.81
238.156	75.81
238.39	59.81
238.624	71.81
238.858	85.81
239.091	74.81
239.325	71.81
239.559	86.81
239.793	86.81
240.027	81.81
240.26	72.81
240.494	87.81
240.728	69.81
240.961	68.81
241.195	89.81
241.429	76.81
241.662	70.81
241.896	89.81
242.13	66.81
242.363	67.81
242.597	72.81
242.83	71.81
243.064	71.81
243.298	71.81
243.531	78.81
243.765	89.81
243.998	77.81
244.232	59.81
244.465	74.81
244.699	77.81
244.932	70.81
245.166	79.81
245.399	61.81
245.633	72.81
245.866	77.81
246.099	76.81
246.333	79.81
246.566	66.81
246.8	55.81
247.033	68.81
247.266	71.81
247.5	65.81
247.733	73.81
247.966	92.81
248.2	79.81
248.433	83.81
248.666	73.81
248.899	75.81
249.133	81.81
249.366	69.81
249.599	69.81
249.832	69.81
250.066	82.81
250.299	90.81
250.532	69.81
250.765	75.81
250.998	71.81
251.231	75.81
251.465	84.81
251.698	64.81
251.931	74.81
252.164	83.81
252.397	89.81
252.63	84.81
252.863	68.81
253.096	63.81
253.329	82.81
253.562	77.81
253.795	56.81
254.028	80.81
254.261	84.81
254.494	84.81
254.727	78.81
254.96	81.81
255.193	92.81
255.426	68.81
255.659	61.81
255.892	89.81
256.124	71.81
256.357	73.81
256.59	75.81
256.823	76.81
257.056	63.81
257.289	77.81
257.521	84.81
257.754	75.81
257.987	68.81
258.22	86.81
258.452	86.81
258.685	78.81
258.918	72.81
259.151	65.81
259.383	94.81
259.616	72.81
259.849	86.81
260.081	80.81
260.314	88.81
260.547	85.81
260.779	74.81
261.012	60.81
261.244	78.81
261.477	76.81
261.71	79.81
261.942	72.81
262.175	93.81
262.407	75.81
262.64	83.81
262.872	68.81
263.105	68.81
263.337	84.81
263.57	69.81
263.802	82.81
264.035	75.81
264.267	76.81
264.499	70.81
264.732	87.81
264.964	91.81
265.197	83.81
265.429	70.81
265.661	68.81
265.894	62.81
266.126	80.81
266.358	69.81
266.591	69.81
266.823	68.81
267.055	73.81
267.287	87.81
267.52	84.81
267.752	71.81
267.984	86.81
268.216	69.81
268.448	77.81
268.681	81.81
268.913	90.81
269.145	75.81
269.377	76.81
269.609	82.81
269.841	77.81
270.073	84.81
270.306	76.81
270.538	79.81
270.77	83.81
271.002	72.81
271.234	80.81
271.466	85.81
271.698	67.81
271.93	86.81
272.162	82.81
272.394	80.81
272.626	84.81
272.858	70.81
273.09	92.81
273.322	78.81
273.553	68.81
273.785	67.81
274.017	88.81
274.249	86.81
274.481	71.81
274.713	91.81
274.945	79.81
275.176	67.81
275.408	78.81
275.64	74.81
275.872	81.81
276.104	80.81
276.335	86.81
276.567	82.81
276.799	76.81
277.031	66.81
277.262	72.81
277.494	75.81
277.726	80.81
277.957	88.81
278.189	75.81
278.421	80.81
278.652	77.81
278.884	74.81
279.115	75.81
279.347	72.81
279.579	83.81
279.81	80.81
280.042	78.81
280.273	78.81
280.505	82.81
280.736	78.81
280.968	80.81
281.199	83.81
281.431	85.81
281.662	86.81
281.894	79.81
282.125	85.81
282.356	83.81
282.588	90.81
282.819	77.81
283.051	80.81
283.282	83.81
283.513	76.81
283.745	77.81
283.976	59.81
284.207	71.81
284.439	89.81
284.67	77.81
284.901	73.81
285.132	69.81
285.364	83.81
285.595	77.81
285.826	85.81
286.057	83.81
286.288	91.81
286.52	79.81
286.751	79.81
286.982	71.81
287.213	64.81
287.444	81.81
287.675	75.81
287.906	93.81
288.138	72.81
288.369	70.81
288.6	79.81
288.831	87.81
289.062	86.81
289.293	94.81
289.524	83.81
289.755	84.81
289.986	73.81
290.217	69.81
290.448	88.81
290.679	98.81
290.91	94.81
291.141	86.81
291.371	87.81
291.602	77.81
291.833	88.81
292.064	87.81
292.295	76.81
292.526	72.81
292.757	76.81
292.987	77.81
293.218	79.81
293.449	94.81
293.68	92.81
293.91	68.81
294.141	69.81
294.372	67.81
294.603	76.81
294.833	85.81
295.064	81.81
295.295	74.81
295.525	80.81
295.756	91.81
295.987	91.81
296.217	97.81
296.448	77.81
296.679	80.81
296.909	79.81
297.14	90.81
297.37	75.81
297.601	93.81
297.831	90.81
298.062	74.81
298.292	94.81
298.523	83.81
298.753	89.81
298.984	81.81
299.214	87.81
299.445	76.81
299.675	73.81
299.905	84.81
300.136	88.81
300.366	82.81
300.597	78.81
300.827	95.81
301.057	77.81
301.288	92.81
301.518	79.81
301.748	93.81
301.979	72.81
302.209	87.81
302.439	75.81
302.669	85.81
302.9	74.81
303.13	79.81
303.36	76.81
303.59	64.81
303.82	82.81
304.051	87.81
304.281	77.81
304.511	75.81
304.741	89.81
304.971	91.81
305.201	72.81
305.431	75.81
305.661	72.81
305.891	77.81
306.121	80.81
306.352	87.81
306.582	79.81
306.812	75.81
307.042	83.81
307.272	73.81
307.502	87.81
307.731	88.81
307.961	79.81
308.191	75.81
308.421	76.81
308.651	80.81
308.881	80.81
309.111	82.81
309.341	80.81
309.571	85.81
309.8	92.81
310.03	82.81
310.26	85.81
310.49	79.81
310.72	67.81
310.949	93.81
311.179	101.81
311.409	85.81
311.639	73.81
311.868	98.81
312.098	87.81
312.328	83.81
312.557	80.81
312.787	79.81
313.017	91.81
313.246	83.81
313.476	86.81
313.706	81.81
313.935	69.81
314.165	89.81
314.394	75.81
314.624	79.81
314.853	80.81
315.083	73.81
315.312	81.81
315.542	78.81
315.771	76.81
316.001	80.81
316.23	80.81
316.46	76.81
316.689	68.81
316.919	92.81
317.148	85.81
317.377	76.81
317.607	73.81
317.836	72.81
318.065	92.81
318.295	85.81
318.524	98.81
318.753	76.81
318.983	65.81
319.212	80.81
319.441	78.81
319.67	83.81
319.9	86.81
320.129	77.81
320.358	75.81
320.587	86.81
320.816	87.81
321.046	80.81
321.275	91.81
321.504	82.81
321.733	75.81
321.962	75.81
322.191	79.81
322.42	76.81
322.649	91.81
322.878	92.81
323.108	94.81
323.337	87.81
323.566	84.81
323.795	77.81
324.024	85.81
324.253	78.81
324.482	85.81
324.71	79.81
324.939	92.81
325.168	81.81
325.397	78.81
325.626	83.81
325.855	87.81
326.084	85.81
326.313	83.81
326.542	83.81
326.77	73.81
326.999	72.81
327.228	77.81
327.457	91.81
327.686	78.81
327.914	72.81
328.143	87.81
328.372	77.81
328.6	73.81
328.829	79.81
329.058	91.81
329.287	87.81
329.515	98.81
329.744	82.81
329.972	82.81
330.201	81.81
330.43	87.81
330.658	76.81
330.887	82.81
331.115	78.81
331.344	82.81
331.572	75.81
331.801	77.81
332.03	83.81
332.258	80.81
332.486	77.81
332.715	78.81
332.943	79.81
333.172	81.81
333.4	81.81
333.629	90.81
333.857	88.81
334.085	88.81
334.314	90.81
334.542	78.81
334.771	70.81
334.999	96.81
335.227	68.81
335.455	83.81
335.684	76.81
335.912	79.81
336.14	90.81
336.369	86.81
336.597	73.81
336.825	84.81
337.053	68.81
337.281	72.81
337.51	76.81
337.738	72.81
337.966	80.81
338.194	87.81
338.422	84.81
338.65	67.81
338.878	79.81
339.106	75.81
339.334	85.81
339.562	91.81
339.79	72.81
340.018	76.81
340.246	76.81
340.474	71.81
340.702	85.81
340.93	86.81
341.158	84.81
341.386	83.81
341.614	82.81
341.842	76.81
342.07	84.81
342.298	73.81
342.526	78.81
342.754	76.81
342.981	93.81
343.209	64.81
343.437	94.81
343.665	96.81
343.893	88.81
344.12	80.81
344.348	82.81
344.576	76.81
344.804	81.81
345.031	83.81
345.259	67.81
345.487	80.81
345.714	79.81
345.942	78.81
346.17	84.81
346.397	81.81
346.625	87.81
346.853	81.81
347.08	69.81
347.308	88.81
347.535	91.81
347.763	89.81
347.99	89.81
348.218	77.81
348.445	74.81
348.673	71.81
348.9	79.81
349.128	87.81
349.355	78.81
349.583	85.81
349.81	70.81
350.037	75.81
350.265	98.81
350.492	78.81
350.72	84.81
350.947	74.81
351.174	81.81
351.402	75.81
351.629	86.81
351.856	77.81
352.083	84.81
352.311	77.81
352.538	80.81
352.765	70.81
352.992	84.81
353.22	85.81
353.447	66.81
353.674	78.81
353.901	91.81
354.128	84.81
354.355	85.81
354.583	77.81
354.81	67.81
355.037	67.81
355.264	86.81
355.491	89.81
355.718	85.81
355.945	80.81
356.172	87.81
356.399	86.81
356.626	82.81
356.853	92.81
357.08	86.81
357.307	76.81
357.534	78.81
357.761	91.81
357.988	85.81
358.215	80.81
358.441	79.81
358.668	81.81
358.895	67.81
359.122	79.81
359.349	88.81
359.576	71.81
359.802	77.81
360.029	77.81
360.256	92.81
360.483	65.81
360.709	65.81
360.936	87.81
361.163	78.81
361.39	88.81
361.616	70.81
361.843	76.81
362.07	64.81
362.296	89.81
362.523	67.81
362.749	74.81
362.976	80.81
363.203	93.81
363.429	83.81
363.656	92.81
363.882	89.81
364.109	80.81
364.335	88.81
364.562	93.81
364.788	76.81
365.015	83.81
365.241	77.81
365.468	90.81
365.694	93.81
365.92	84.81
366.147	80.81
366.373	82.81
366.599	76.81
366.826	81.81
367.052	78.81
367.278	91.81
367.505	89.81
367.731	74.81
367.957	69.81
368.184	75.81
368.41	84.81
368.636	90.81
368.862	92.81
369.089	97.81
369.315	90.81
369.541	81.81
369.767	87.81
369.993	80.81
370.219	81.81
370.445	64.81
370.672	77.81
370.898	66.81
371.124	64.81
371.35	76.81
371.576	79.81
371.802	87.81
372.028	68.81
372.254	82.81
372.48	79.81
372.706	80.81
372.932	89.81
373.158	81.81
373.384	83.81
373.61	81.81
373.835	86.81
374.061	70.81
374.287	82.81
374.513	78.81
374.739	87.81
374.965	84.81
375.191	81.81
375.416	96.81
375.642	61.81
375.868	87.81
376.094	67.81
376.319	86.81
376.545	80.81
376.771	78.81
376.997	79.81
377.222	85.81
377.448	71.81
377.674	78.81
377.899	60.81
378.125	87.81
378.35	80.81
378.576	86.81
378.802	78.81
379.027	89.81
379.253	85.81
379.478	91.81
379.704	91.81
379.929	80.81
380.155	78.81
380.38	81.81
380.606	78.81
380.831	87.81
381.057	77.81
381.282	77.81
381.507	76.81
381.733	81.81
381.958	72.81
382.184	76.81
382.409	96.81
382.634	88.81
382.86	84.81
383.085	75.81
383.31	82.81
383.535	83.81
383.761	83.81
383.986	86.81
384.211	81.81
384.436	67.81
384.662	80.81
384.887	91.81
385.112	69.81
385.337	81.81
385.562	83.81
385.787	81.81
386.013	77.81
386.238	88.81
386.463	85.81
386.688	74.81
386.913	66.81
387.138	74.81
387.363	81.81
387.588	94.81
387.813	88.81
388.038	83.81
388.263	96.81
388.488	77.81
388.713	86.81
388.938	82.81
389.163	84.81
389.387	81.81
389.612	80.81
389.837	76.81
390.062	67.81
390.287	93.81
390.512	89.81
390.736	64.81
390.961	80.81
391.186	76.81
391.411	80.81
391.636	76.81
391.86	95.81
392.085	94.81
392.31	83.81
392.534	88.81
392.759	84.81
392.984	84.81
393.208	85.81
393.433	78.81
393.658	79.81
393.882	78.81
394.107	89.81
394.331	82.81
394.556	72.81
394.78	89.81
395.005	79.81
395.229	84.81
395.454	96.81
395.678	84.81
395.903	75.81
396.127	91.81
396.352	86.81
396.576	82.81
396.801	87.81
397.025	70.81
397.249	77.81
397.474	76.81
397.698	75.81
397.922	73.81
398.147	85.81
398.371	83.81
398.595	87.81
398.82	81.81
399.044	92.81
399.268	101.81
399.492	78.81
399.717	84.81
399.941	100.81
400.165	80.81
400.389	77.81
400.613	88.81
400.837	87.81
401.062	77.81
401.286	89.81
401.51	82.81
401.734	86.81
401.958	73.81
402.182	71.81
402.406	78.81
402.63	93.81
402.854	89.81
403.078	81.81
403.302	82.81
403.526	95.81
403.75	84.81
403.974	92.81
404.198	103.81
404.422	89.81
404.645	82.81
404.869	87.81
405.093	82.81
405.317	108.81
405.541	89.81
405.765	80.81
405.988	75.81
406.212	95.81
406.436	89.81
406.66	88.81
406.883	89.81
407.107	67.81
407.331	77.81
407.555	84.81
407.778	87.81
408.002	81.81
408.226	78.81
408.449	85.81
408.673	96.81
408.896	86.81
409.12	89.81
409.344	97.81
409.567	84.81
409.791	85.81
410.014	80.81
410.238	88.81
410.461	84.81
410.685	95.81
410.908	84.81
411.132	78.81
411.355	78.81
411.578	91.81
411.802	78.81
412.025	79.81
412.249	85.81
412.472	83.81
412.695	85.81
412.919	94.81
413.142	83.81
413.365	84.81
413.589	91.81
413.812	87.81
414.035	113.81
414.258	83.81
414.482	94.81
414.705	89.81
414.928	92.81
415.151	97.81
415.374	75.81
415.597	95.81
415.821	85.81
416.044	98.81
416.267	95.81
416.49	102.81
416.713	103.81
416.936	96.81
417.159	96.81
417.382	79.81
417.605	80.81
417.828	92.81
418.051	92.81
418.274	84.81
418.497	101.81
418.72	100.81
418.943	91.81
419.166	96.81
419.389	80.81
419.611	103.81
419.834	88.81
420.057	85.81
420.28	97.81
420.503	99.81
420.726	86.81
420.948	83.81
421.171	89.81
421.394	94.81
421.617	80.81
421.839	86.81
422.062	65.81
422.285	82.81
422.507	100.81
422.73	93.81
422.953	91.81
423.175	81.81
423.398	87.81
423.621	93.81
423.843	83.81
424.066	87.81
424.288	92.81
424.511	91.81
424.733	84.81
424.956	80.81
425.178	90.81
425.401	104.81
425.623	99.81
425.846	95.81
426.068	91.81
426.291	76.81
426.513	92.81
426.735	89.81
426.958	102.81
427.18	92.81
427.402	83.81
427.625	103.81
427.847	83.81
428.069	109.81
428.292	87.81
428.514	89.81
428.736	91.81
428.958	80.81
429.181	96.81
429.403	100.81
429.625	86.81
429.847	87.81
430.069	81.81
430.292	89.81
430.514	80.81
430.736	86.81
430.958	82.81
431.18	84.81
431.402	86.81
431.624	92.81
431.846	95.81
432.068	84.81
432.29	77.81
432.512	78.81
432.734	78.81
432.956	110.81
433.178	97.81
433.4	81.81
433.622	91.81
433.844	98.81
434.066	86.81
434.287	94.81
434.509	86.81
434.731	79.81
434.953	89.81
435.175	88.81
435.397	93.81
435.618	85.81
435.84	88.81
436.062	80.81
436.284	93.81
436.505	92.81
436.727	79.81
436.949	81.81
437.17	78.81
437.392	69.81
437.614	85.81
437.835	87.81
438.057	100.81
438.278	80.81
438.5	90.81
438.721	85.81
438.943	113.81
439.165	94.81
439.386	90.81
439.608	97.81
439.829	86.81
440.05	107.81
440.272	97.81
440.493	101.81
440.715	96.81
440.936	80.81
441.158	84.81
441.379	91.81
441.6	95.81
441.822	85.81
442.043	97.81
442.264	99.81
442.486	100.81
442.707	96.81
442.928	100.81
443.149	96.81
443.371	99.81
443.592	85.81
443.813	95.81
444.034	101.81
444.255	107.81
444.476	95.81
444.698	91.81
444.919	94.81
445.14	190.81
445.361	130.81
445.582	87.81
445.803	95.81
446.024	92.81
446.245	95.81
446.466	107.81
446.687	96.81
446.908	95.81
447.129	107.81
447.35	109.81
447.571	82.81
447.792	107.81
448.013	93.81
448.234	107.81
448.455	103.81
448.675	91.81
448.896	87.81
449.117	93.81
449.338	103.81
449.559	87.81
449.779	88.81
450	81.81
450.221	98.81
450.442	93.81
450.662	90.81
450.883	99.81
451.104	102.81
451.324	82.81
451.545	93.81
451.766	94.81
451.986	77.81
452.207	91.81
452.428	98.81
452.648	98.81
452.869	100.81
453.089	88.81
453.31	93.81
453.53	87.81
453.751	98.81
453.971	87.81
454.192	87.81
454.412	93.81
454.633	77.81
454.853	79.81
455.073	91.81
455.294	97.81
455.514	89.81
455.734	73.81
455.955	91.81
456.175	84.81
456.395	63.81
456.616	81.81
456.836	86.81
457.056	79.81
457.276	81.81
457.497	71.81
457.717	79.81
457.937	91.81
458.157	79.81
458.377	85.81
458.598	97.81
458.818	78.81
459.038	78.81
459.258	69.81
459.478	84.81
459.698	78.81
459.918	84.81
460.138	71.81
460.358	73.81
460.578	86.81
460.798	73.81
461.018	83.81
461.238	85.81
461.458	86.81
461.678	99.81
461.898	80.81
462.118	82.81
462.338	81.81
462.558	83.81
462.777	74.81
462.997	85.81
463.217	86.81
463.437	82.81
463.657	91.81
463.876	85.81
464.096	93.81
464.316	83.81
464.536	82.81
464.755	75.81
464.975	85.81
465.195	91.81
465.414	83.81
465.634	96.81
465.854	84.81
466.073	80.81
466.293	86.81
466.512	84.81
466.732	74.81
466.951	87.81
467.171	104.81
467.391	99.81
467.61	102.81
467.829	86.81
468.049	85.81
468.268	93.81
468.488	83.81
468.707	91.81
468.927	85.81
469.146	88.81
469.365	101.81
469.585	88.81
469.804	86.81
470.023	100.81
470.243	88.81
470.462	92.81
470.681	87.81
470.901	104.81
471.12	99.81
471.339	99.81
471.558	84.81
471.777	85.81
471.997	92.81
472.216	75.81
472.435	90.81
472.654	77.81
472.873	81.81
473.092	99.81
473.311	86.81
473.53	91.81
473.749	97.81
473.968	96.81
474.187	101.81
474.406	85.81
474.625	89.81
474.844	91.81
475.063	86.81
475.282	93.81
475.501	93.81
475.72	104.81
475.939	92.81
476.158	88.81
476.377	98.81
476.596	83.81
476.814	87.81
477.033	85.81
477.252	85.81
477.471	79.81
477.69	92.81
477.908	84.81
478.127	90.81
478.346	92.81
478.564	93.81
478.783	96.81
479.002	82.81
479.22	93.81
479.439	92.81
479.658	81.81
479.876	92.81
480.095	86.81
480.313	91.81
480.532	82.81
480.751	73.81
480.969	74.81
481.188	79.81
481.406	86.81
481.624	73.81
481.843	72.81
482.061	96.81
482.28	80.81
482.498	85.81
482.717	79.81
482.935	80.81
483.153	100.81
483.372	101.81
483.59	87.81
483.808	85.81
484.027	80.81
484.245	92.81
484.463	92.81
484.681	100.81
484.9	90.81
485.118	83.81
485.336	84.81
485.554	84.81
485.772	93.81
485.99	87.81
486.209	84.81
486.427	93.81
486.645	93.81
486.863	78.81
487.081	99.81
487.299	94.81
487.517	95.81
487.735	112.81
487.953	117.81
488.171	98.81
488.389	91.81
488.607	101.81
488.825	88.81
489.043	97.81
489.261	86.81
489.479	88.81
489.696	96.81
489.914	112.81
490.132	106.81
490.35	93.81
490.568	100.81
490.786	88.81
491.003	98.81
491.221	113.81
491.439	94.81
491.657	95.81
491.874	112.81
492.092	121.81
492.31	122.81
492.527	129.81
492.745	125.81
492.963	113.81
493.18	123.81
493.398	109.81
493.615	113.81
493.833	113.81
494.05	102.81
494.268	100.81
494.485	105.81
494.703	119.81
494.92	109.81
495.138	103.81
495.355	93.81
495.573	99.81
495.79	104.81
496.008	104.81
496.225	101.81
496.442	117.81
496.66	121.81
496.877	112.81
497.094	113.81
497.312	103.81
497.529	104.81
497.746	102.81
497.963	105.81
498.181	90.81
498.398	88.81
498.615	85.81
498.832	81.81
499.049	100.81
499.267	100.81
499.484	84.81
499.701	95.81
499.918	98.81
500.135	96.81
500.352	80.81
500.569	88.81
500.786	108.81
501.003	93.81
501.22	95.81
501.437	81.81
501.654	96.81
501.871	93.81
502.088	109.81
502.305	99.81
502.522	110.81
502.739	101.81
502.956	95.81
503.172	86.81
503.389	100.81
503.606	104.81
503.823	93.81
504.04	82.81
504.256	82.81
504.473	82.81
504.69	88.81
504.907	101.81
505.123	99.81
505.34	80.81
505.557	98.81
505.773	89.81
505.99	93.81
506.207	87.81
506.423	83.81
506.64	105.81
506.856	83.81
507.073	90.81
507.289	79.81
507.506	106.81
507.722	97.81
507.939	79.81
508.155	110.81
508.372	97.81
508.588	93.81
508.805	94.81
509.021	79.81
509.238	80.81
509.454	87.81
509.67	85.81
509.887	80.81
510.103	70.81
510.319	72.81
510.536	78.81
510.752	83.81
510.968	77.81
511.184	75.81
511.401	69.81
511.617	78.81
511.833	84.81
512.049	83.81
512.265	81.81
512.481	92.81
512.698	86.81
512.914	84.81
513.13	101.81
513.346	87.81
513.562	83.81
513.778	78.81
513.994	93.81
514.21	83.81
514.426	74.81
514.642	87.81
514.858	71.81
515.074	81.81
515.29	72.81
515.506	72.81
515.721	90.81
515.937	93.81
516.153	77.81
516.369	81.81
516.585	81.81
516.801	73.81
517.016	75.81
517.232	81.81
517.448	82.81
517.664	73.81
517.879	83.81
518.095	86.81
518.311	89.81
