Data from Location4.07152019.Energy5.Lamp.07192019.3%Agarose_HRD10591_15-25-51-578.txt Node
Date: Fri Jul 19 15:25:51 EDT 2019
User: cochatt
Spectrometer: HR+D1059
Trigger mode: 1
Integration Time (sec): 1.000000E-1
Scans to average: 1
Electric dark correction enabled: true
Nonlinearity correction enabled: false
Boxcar width: 0
XAxis mode: Wavelengths
Number of Pixels in Spectrum: 2048
>>>>>Begin Spectral Data<<<<<
223.165	-17.25
223.4	-17.25
223.635	-17.25
223.869	-19.25
224.104	-8.25
224.338	-26.25
224.573	-9.25
224.808	-9.25
225.042	-7.25
225.277	-14.25
225.511	2.75
225.746	-5.25
225.98	22.75
226.215	7.75
226.449	17.75
226.683	10.75
226.918	25.75
227.152	28.75
227.387	30.75
227.621	42.75
227.856	34.75
228.09	49.75
228.324	52.75
228.559	50.75
228.793	60.75
229.027	63.75
229.262	66.75
229.496	68.75
229.73	63.75
229.964	68.75
230.199	75.75
230.433	81.75
230.667	88.75
230.901	67.75
231.136	81.75
231.37	75.75
231.604	81.75
231.838	82.75
232.072	82.75
232.306	75.75
232.541	88.75
232.775	89.75
233.009	89.75
233.243	97.75
233.477	79.75
233.711	82.75
233.945	89.75
234.179	78.75
234.413	75.75
234.647	82.75
234.881	89.75
235.115	63.75
235.349	70.75
235.583	79.75
235.817	88.75
236.051	84.75
236.285	70.75
236.519	84.75
236.753	82.75
236.987	66.75
237.221	83.75
237.455	68.75
237.689	86.75
237.922	95.75
238.156	80.75
238.39	85.75
238.624	86.75
238.858	84.75
239.091	73.75
239.325	79.75
239.559	69.75
239.793	78.75
240.027	79.75
240.26	77.75
240.494	78.75
240.728	78.75
240.961	77.75
241.195	70.75
241.429	67.75
241.662	65.75
241.896	73.75
242.13	75.75
242.363	82.75
242.597	78.75
242.83	78.75
243.064	79.75
243.298	67.75
243.531	78.75
243.765	76.75
243.998	78.75
244.232	92.75
244.465	75.75
244.699	82.75
244.932	79.75
245.166	86.75
245.399	68.75
245.633	76.75
245.866	67.75
246.099	74.75
246.333	90.75
246.566	88.75
246.8	79.75
247.033	82.75
247.266	73.75
247.5	82.75
247.733	87.75
247.966	74.75
248.2	93.75
248.433	66.75
248.666	72.75
248.899	64.75
249.133	64.75
249.366	95.75
249.599	88.75
249.832	82.75
250.066	72.75
250.299	80.75
250.532	80.75
250.765	84.75
250.998	76.75
251.231	69.75
251.465	81.75
251.698	71.75
251.931	86.75
252.164	80.75
252.397	80.75
252.63	75.75
252.863	76.75
253.096	80.75
253.329	77.75
253.562	86.75
253.795	68.75
254.028	87.75
254.261	90.75
254.494	77.75
254.727	100.75
254.96	64.75
255.193	77.75
255.426	84.75
255.659	88.75
255.892	87.75
256.124	101.75
256.357	79.75
256.59	83.75
256.823	83.75
257.056	87.75
257.289	86.75
257.521	72.75
257.754	84.75
257.987	75.75
258.22	71.75
258.452	76.75
258.685	87.75
258.918	86.75
259.151	76.75
259.383	89.75
259.616	80.75
259.849	71.75
260.081	87.75
260.314	88.75
260.547	67.75
260.779	70.75
261.012	92.75
261.244	68.75
261.477	82.75
261.71	75.75
261.942	91.75
262.175	80.75
262.407	83.75
262.64	86.75
262.872	80.75
263.105	80.75
263.337	87.75
263.57	92.75
263.802	87.75
264.035	80.75
264.267	76.75
264.499	65.75
264.732	80.75
264.964	87.75
265.197	86.75
265.429	82.75
265.661	84.75
265.894	84.75
266.126	83.75
266.358	70.75
266.591	67.75
266.823	73.75
267.055	98.75
267.287	86.75
267.52	82.75
267.752	95.75
267.984	82.75
268.216	67.75
268.448	88.75
268.681	79.75
268.913	87.75
269.145	75.75
269.377	88.75
269.609	89.75
269.841	90.75
270.073	68.75
270.306	83.75
270.538	85.75
270.77	72.75
271.002	82.75
271.234	66.75
271.466	83.75
271.698	67.75
271.93	72.75
272.162	80.75
272.394	77.75
272.626	81.75
272.858	81.75
273.09	83.75
273.322	95.75
273.553	72.75
273.785	81.75
274.017	94.75
274.249	73.75
274.481	65.75
274.713	83.75
274.945	95.75
275.176	88.75
275.408	92.75
275.64	85.75
275.872	84.75
276.104	91.75
276.335	85.75
276.567	85.75
276.799	91.75
277.031	86.75
277.262	87.75
277.494	91.75
277.726	84.75
277.957	77.75
278.189	103.75
278.421	69.75
278.652	78.75
278.884	76.75
279.115	81.75
279.347	92.75
279.579	84.75
279.81	74.75
280.042	80.75
280.273	86.75
280.505	88.75
280.736	82.75
280.968	73.75
281.199	93.75
281.431	81.75
281.662	80.75
281.894	78.75
282.125	100.75
282.356	85.75
282.588	99.75
282.819	87.75
283.051	95.75
283.282	87.75
283.513	82.75
283.745	80.75
283.976	93.75
284.207	95.75
284.439	84.75
284.67	85.75
284.901	75.75
285.132	80.75
285.364	77.75
285.595	80.75
285.826	74.75
286.057	96.75
286.288	74.75
286.52	89.75
286.751	96.75
286.982	82.75
287.213	74.75
287.444	73.75
287.675	80.75
287.906	87.75
288.138	88.75
288.369	75.75
288.6	89.75
288.831	100.75
289.062	74.75
289.293	92.75
289.524	73.75
289.755	70.75
289.986	72.75
290.217	72.75
290.448	85.75
290.679	69.75
290.91	70.75
291.141	93.75
291.371	85.75
291.602	95.75
291.833	89.75
292.064	87.75
292.295	84.75
292.526	74.75
292.757	74.75
292.987	82.75
293.218	86.75
293.449	68.75
293.68	90.75
293.91	81.75
294.141	94.75
294.372	86.75
294.603	87.75
294.833	87.75
295.064	85.75
295.295	80.75
295.525	88.75
295.756	96.75
295.987	91.75
296.217	93.75
296.448	83.75
296.679	78.75
296.909	80.75
297.14	82.75
297.37	85.75
297.601	75.75
297.831	82.75
298.062	90.75
298.292	67.75
298.523	87.75
298.753	79.75
298.984	66.75
299.214	86.75
299.445	95.75
299.675	80.75
299.905	93.75
300.136	84.75
300.366	83.75
300.597	91.75
300.827	83.75
301.057	66.75
301.288	89.75
301.518	75.75
301.748	82.75
301.979	94.75
302.209	78.75
302.439	102.75
302.669	87.75
302.9	67.75
303.13	87.75
303.36	82.75
303.59	79.75
303.82	78.75
304.051	95.75
304.281	82.75
304.511	79.75
304.741	83.75
304.971	72.75
305.201	82.75
305.431	84.75
305.661	90.75
305.891	80.75
306.121	82.75
306.352	74.75
306.582	77.75
306.812	89.75
307.042	93.75
307.272	90.75
307.502	81.75
307.731	69.75
307.961	81.75
308.191	86.75
308.421	94.75
308.651	93.75
308.881	91.75
309.111	67.75
309.341	88.75
309.571	94.75
309.8	80.75
310.03	77.75
310.26	92.75
310.49	88.75
310.72	83.75
310.949	95.75
311.179	91.75
311.409	77.75
311.639	81.75
311.868	96.75
312.098	76.75
312.328	77.75
312.557	75.75
312.787	84.75
313.017	89.75
313.246	79.75
313.476	82.75
313.706	82.75
313.935	87.75
314.165	95.75
314.394	83.75
314.624	90.75
314.853	76.75
315.083	75.75
315.312	83.75
315.542	87.75
315.771	77.75
316.001	76.75
316.23	91.75
316.46	88.75
316.689	95.75
316.919	76.75
317.148	77.75
317.377	63.75
317.607	88.75
317.836	78.75
318.065	83.75
318.295	89.75
318.524	94.75
318.753	87.75
318.983	82.75
319.212	84.75
319.441	77.75
319.67	88.75
319.9	79.75
320.129	71.75
320.358	91.75
320.587	68.75
320.816	73.75
321.046	72.75
321.275	93.75
321.504	76.75
321.733	92.75
321.962	90.75
322.191	86.75
322.42	77.75
322.649	89.75
322.878	80.75
323.108	83.75
323.337	85.75
323.566	92.75
323.795	89.75
324.024	74.75
324.253	97.75
324.482	83.75
324.71	82.75
324.939	105.75
325.168	85.75
325.397	74.75
325.626	96.75
325.855	87.75
326.084	82.75
326.313	86.75
326.542	78.75
326.77	91.75
326.999	83.75
327.228	87.75
327.457	83.75
327.686	77.75
327.914	74.75
328.143	67.75
328.372	75.75
328.6	77.75
328.829	94.75
329.058	104.75
329.287	74.75
329.515	83.75
329.744	101.75
329.972	83.75
330.201	82.75
330.43	91.75
330.658	82.75
330.887	76.75
331.115	89.75
331.344	100.75
331.572	81.75
331.801	67.75
332.03	97.75
332.258	80.75
332.486	95.75
332.715	75.75
332.943	81.75
333.172	83.75
333.4	81.75
333.629	91.75
333.857	81.75
334.085	82.75
334.314	86.75
334.542	83.75
334.771	87.75
334.999	99.75
335.227	63.75
335.455	87.75
335.684	98.75
335.912	79.75
336.14	85.75
336.369	81.75
336.597	78.75
336.825	85.75
337.053	90.75
337.281	75.75
337.51	87.75
337.738	67.75
337.966	91.75
338.194	82.75
338.422	83.75
338.65	82.75
338.878	84.75
339.106	92.75
339.334	91.75
339.562	88.75
339.79	85.75
340.018	84.75
340.246	83.75
340.474	83.75
340.702	74.75
340.93	81.75
341.158	73.75
341.386	93.75
341.614	86.75
341.842	85.75
342.07	85.75
342.298	71.75
342.526	75.75
342.754	76.75
342.981	84.75
343.209	70.75
343.437	81.75
343.665	87.75
343.893	81.75
344.12	89.75
344.348	81.75
344.576	85.75
344.804	82.75
345.031	71.75
345.259	71.75
345.487	93.75
345.714	86.75
345.942	84.75
346.17	97.75
346.397	77.75
346.625	86.75
346.853	83.75
347.08	64.75
347.308	70.75
347.535	82.75
347.763	75.75
347.99	83.75
348.218	85.75
348.445	75.75
348.673	84.75
348.9	91.75
349.128	89.75
349.355	96.75
349.583	86.75
349.81	94.75
350.037	86.75
350.265	69.75
350.492	96.75
350.72	75.75
350.947	82.75
351.174	82.75
351.402	81.75
351.629	83.75
351.856	89.75
352.083	75.75
352.311	80.75
352.538	78.75
352.765	82.75
352.992	74.75
353.22	78.75
353.447	82.75
353.674	72.75
353.901	86.75
354.128	76.75
354.355	69.75
354.583	89.75
354.81	83.75
355.037	89.75
355.264	89.75
355.491	76.75
355.718	85.75
355.945	83.75
356.172	89.75
356.399	75.75
356.626	79.75
356.853	76.75
357.08	88.75
357.307	75.75
357.534	83.75
357.761	94.75
357.988	87.75
358.215	76.75
358.441	92.75
358.668	76.75
358.895	81.75
359.122	82.75
359.349	81.75
359.576	57.75
359.802	85.75
360.029	86.75
360.256	72.75
360.483	80.75
360.709	86.75
360.936	89.75
361.163	86.75
361.39	83.75
361.616	96.75
361.843	75.75
362.07	74.75
362.296	77.75
362.523	77.75
362.749	78.75
362.976	93.75
363.203	94.75
363.429	80.75
363.656	76.75
363.882	82.75
364.109	77.75
364.335	91.75
364.562	85.75
364.788	79.75
365.015	78.75
365.241	84.75
365.468	101.75
365.694	83.75
365.92	83.75
366.147	91.75
366.373	74.75
366.599	75.75
366.826	88.75
367.052	85.75
367.278	83.75
367.505	83.75
367.731	98.75
367.957	90.75
368.184	73.75
368.41	76.75
368.636	99.75
368.862	82.75
369.089	67.75
369.315	92.75
369.541	98.75
369.767	79.75
369.993	80.75
370.219	74.75
370.445	83.75
370.672	92.75
370.898	87.75
371.124	87.75
371.35	84.75
371.576	84.75
371.802	84.75
372.028	94.75
372.254	87.75
372.48	89.75
372.706	106.75
372.932	71.75
373.158	70.75
373.384	100.75
373.61	93.75
373.835	71.75
374.061	99.75
374.287	83.75
374.513	77.75
374.739	79.75
374.965	95.75
375.191	71.75
375.416	79.75
375.642	90.75
375.868	86.75
376.094	93.75
376.319	84.75
376.545	65.75
376.771	81.75
376.997	78.75
377.222	89.75
377.448	90.75
377.674	84.75
377.899	77.75
378.125	81.75
378.35	80.75
378.576	89.75
378.802	85.75
379.027	94.75
379.253	91.75
379.478	84.75
379.704	93.75
379.929	96.75
380.155	90.75
380.38	83.75
380.606	82.75
380.831	84.75
381.057	88.75
381.282	82.75
381.507	82.75
381.733	74.75
381.958	73.75
382.184	70.75
382.409	83.75
382.634	73.75
382.86	91.75
383.085	87.75
383.31	67.75
383.535	88.75
383.761	84.75
383.986	94.75
384.211	78.75
384.436	86.75
384.662	80.75
384.887	95.75
385.112	81.75
385.337	75.75
385.562	85.75
385.787	83.75
386.013	96.75
386.238	74.75
386.463	74.75
386.688	68.75
386.913	83.75
387.138	69.75
387.363	88.75
387.588	71.75
387.813	90.75
388.038	91.75
388.263	92.75
388.488	85.75
388.713	75.75
388.938	79.75
389.163	86.75
389.387	81.75
389.612	92.75
389.837	85.75
390.062	85.75
390.287	83.75
390.512	82.75
390.736	87.75
390.961	91.75
391.186	90.75
391.411	87.75
391.636	98.75
391.86	94.75
392.085	82.75
392.31	99.75
392.534	87.75
392.759	88.75
392.984	95.75
393.208	81.75
393.433	69.75
393.658	79.75
393.882	87.75
394.107	86.75
394.331	98.75
394.556	101.75
394.78	91.75
395.005	88.75
395.229	77.75
395.454	94.75
395.678	89.75
395.903	91.75
396.127	95.75
396.352	95.75
396.576	91.75
396.801	90.75
397.025	92.75
397.249	88.75
397.474	87.75
397.698	97.75
397.922	99.75
398.147	76.75
398.371	78.75
398.595	102.75
398.82	101.75
399.044	100.75
399.268	90.75
399.492	100.75
399.717	79.75
399.941	95.75
400.165	80.75
400.389	99.75
400.613	79.75
400.837	100.75
401.062	83.75
401.286	91.75
401.51	80.75
401.734	88.75
401.958	103.75
402.182	86.75
402.406	85.75
402.63	93.75
402.854	86.75
403.078	97.75
403.302	97.75
403.526	84.75
403.75	92.75
403.974	88.75
404.198	92.75
404.422	90.75
404.645	73.75
404.869	95.75
405.093	79.75
405.317	88.75
405.541	73.75
405.765	83.75
405.988	89.75
406.212	89.75
406.436	92.75
406.66	95.75
406.883	98.75
407.107	97.75
407.331	92.75
407.555	82.75
407.778	92.75
408.002	90.75
408.226	94.75
408.449	84.75
408.673	67.75
408.896	111.75
409.12	97.75
409.344	72.75
409.567	90.75
409.791	88.75
410.014	81.75
410.238	85.75
410.461	89.75
410.685	79.75
410.908	93.75
411.132	104.75
411.355	88.75
411.578	84.75
411.802	96.75
412.025	96.75
412.249	84.75
412.472	83.75
412.695	84.75
412.919	77.75
413.142	95.75
413.365	86.75
413.589	83.75
413.812	103.75
414.035	93.75
414.258	87.75
414.482	98.75
414.705	82.75
414.928	92.75
415.151	97.75
415.374	86.75
415.597	101.75
415.821	104.75
416.044	92.75
416.267	89.75
416.49	85.75
416.713	99.75
416.936	97.75
417.159	82.75
417.382	88.75
417.605	84.75
417.828	98.75
418.051	101.75
418.274	94.75
418.497	81.75
418.72	96.75
418.943	89.75
419.166	91.75
419.389	90.75
419.611	88.75
419.834	82.75
420.057	97.75
420.28	84.75
420.503	95.75
420.726	95.75
420.948	104.75
421.171	102.75
421.394	106.75
421.617	98.75
421.839	99.75
422.062	106.75
422.285	91.75
422.507	90.75
422.73	96.75
422.953	77.75
423.175	93.75
423.398	107.75
423.621	98.75
423.843	92.75
424.066	88.75
424.288	110.75
424.511	89.75
424.733	101.75
424.956	99.75
425.178	91.75
425.401	100.75
425.623	106.75
425.846	105.75
426.068	95.75
426.291	94.75
426.513	84.75
426.735	86.75
426.958	91.75
427.18	88.75
427.402	103.75
427.625	90.75
427.847	81.75
428.069	86.75
428.292	100.75
428.514	91.75
428.736	97.75
428.958	96.75
429.181	103.75
429.403	99.75
429.625	88.75
429.847	86.75
430.069	97.75
430.292	86.75
430.514	97.75
430.736	96.75
430.958	88.75
431.18	104.75
431.402	89.75
431.624	99.75
431.846	85.75
432.068	105.75
432.29	91.75
432.512	85.75
432.734	86.75
432.956	86.75
433.178	89.75
433.4	104.75
433.622	103.75
433.844	98.75
434.066	96.75
434.287	86.75
434.509	74.75
434.731	86.75
434.953	97.75
435.175	92.75
435.397	91.75
435.618	77.75
435.84	89.75
436.062	87.75
436.284	106.75
436.505	93.75
436.727	92.75
436.949	95.75
437.17	92.75
437.392	88.75
437.614	92.75
437.835	80.75
438.057	75.75
438.278	82.75
438.5	80.75
438.721	94.75
438.943	95.75
439.165	96.75
439.386	94.75
439.608	95.75
439.829	93.75
440.05	98.75
440.272	90.75
440.493	83.75
440.715	83.75
440.936	89.75
441.158	91.75
441.379	105.75
441.6	107.75
441.822	87.75
442.043	84.75
442.264	99.75
442.486	91.75
442.707	91.75
442.928	86.75
443.149	100.75
443.371	108.75
443.592	90.75
443.813	103.75
444.034	104.75
444.255	100.75
444.476	100.75
444.698	119.75
444.919	101.75
445.14	246.75
445.361	161.75
445.582	113.75
445.803	92.75
446.024	103.75
446.245	93.75
446.466	92.75
446.687	94.75
446.908	106.75
447.129	101.75
447.35	100.75
447.571	91.75
447.792	96.75
448.013	92.75
448.234	101.75
448.455	107.75
448.675	98.75
448.896	106.75
449.117	97.75
449.338	104.75
449.559	91.75
449.779	94.75
450	111.75
450.221	101.75
450.442	95.75
450.662	93.75
450.883	102.75
451.104	96.75
451.324	96.75
451.545	112.75
451.766	110.75
451.986	96.75
452.207	96.75
452.428	90.75
452.648	98.75
452.869	95.75
453.089	88.75
453.31	80.75
453.53	92.75
453.751	96.75
453.971	69.75
454.192	91.75
454.412	96.75
454.633	97.75
454.853	99.75
455.073	91.75
455.294	99.75
455.514	95.75
455.734	95.75
455.955	73.75
456.175	90.75
456.395	85.75
456.616	91.75
456.836	80.75
457.056	91.75
457.276	72.75
457.497	88.75
457.717	94.75
457.937	93.75
458.157	88.75
458.377	86.75
458.598	80.75
458.818	78.75
459.038	83.75
459.258	84.75
459.478	69.75
459.698	86.75
459.918	111.75
460.138	84.75
460.358	92.75
460.578	94.75
460.798	86.75
461.018	84.75
461.238	81.75
461.458	86.75
461.678	106.75
461.898	94.75
462.118	89.75
462.338	84.75
462.558	99.75
462.777	89.75
462.997	89.75
463.217	84.75
463.437	106.75
463.657	94.75
463.876	78.75
464.096	90.75
464.316	95.75
464.536	91.75
464.755	88.75
464.975	96.75
465.195	84.75
465.414	99.75
465.634	94.75
465.854	84.75
466.073	86.75
466.293	98.75
466.512	94.75
466.732	106.75
466.951	116.75
467.171	91.75
467.391	99.75
467.61	102.75
467.829	103.75
468.049	91.75
468.268	96.75
468.488	89.75
468.707	90.75
468.927	106.75
469.146	80.75
469.365	94.75
469.585	90.75
469.804	105.75
470.023	93.75
470.243	98.75
470.462	113.75
470.681	98.75
470.901	99.75
471.12	110.75
471.339	110.75
471.558	111.75
471.777	98.75
471.997	102.75
472.216	91.75
472.435	97.75
472.654	83.75
472.873	98.75
473.092	83.75
473.311	96.75
473.53	88.75
473.749	87.75
473.968	98.75
474.187	79.75
474.406	89.75
474.625	83.75
474.844	87.75
475.063	90.75
475.282	98.75
475.501	86.75
475.72	92.75
475.939	89.75
476.158	86.75
476.377	110.75
476.596	90.75
476.814	91.75
477.033	103.75
477.252	85.75
477.471	98.75
477.69	101.75
477.908	102.75
478.127	108.75
478.346	96.75
478.564	107.75
478.783	94.75
479.002	100.75
479.22	89.75
479.439	100.75
479.658	99.75
479.876	100.75
480.095	97.75
480.313	88.75
480.532	86.75
480.751	88.75
480.969	85.75
481.188	74.75
481.406	84.75
481.624	90.75
481.843	96.75
482.061	96.75
482.28	80.75
482.498	92.75
482.717	75.75
482.935	98.75
483.153	88.75
483.372	104.75
483.59	98.75
483.808	88.75
484.027	105.75
484.245	106.75
484.463	103.75
484.681	107.75
484.9	105.75
485.118	91.75
485.336	105.75
485.554	80.75
485.772	82.75
485.99	87.75
486.209	81.75
486.427	97.75
486.645	90.75
486.863	88.75
487.081	87.75
487.299	81.75
487.517	98.75
487.735	105.75
487.953	112.75
488.171	107.75
488.389	103.75
488.607	100.75
488.825	101.75
489.043	98.75
489.261	99.75
489.479	91.75
489.696	99.75
489.914	89.75
490.132	107.75
490.35	97.75
490.568	107.75
490.786	106.75
491.003	110.75
491.221	102.75
491.439	112.75
491.657	106.75
491.874	121.75
492.092	122.75
492.31	131.75
492.527	128.75
492.745	117.75
492.963	116.75
493.18	111.75
493.398	107.75
493.615	107.75
493.833	113.75
494.05	109.75
494.268	114.75
494.485	113.75
494.703	107.75
494.92	90.75
495.138	91.75
495.355	114.75
495.573	116.75
495.79	100.75
496.008	95.75
496.225	94.75
496.442	96.75
496.66	107.75
496.877	107.75
497.094	113.75
497.312	103.75
497.529	100.75
497.746	98.75
497.963	96.75
498.181	109.75
498.398	98.75
498.615	102.75
498.832	95.75
499.049	89.75
499.267	111.75
499.484	84.75
499.701	86.75
499.918	90.75
500.135	87.75
500.352	90.75
500.569	105.75
500.786	113.75
501.003	90.75
501.22	84.75
501.437	104.75
501.654	95.75
501.871	89.75
502.088	98.75
502.305	91.75
502.522	84.75
502.739	96.75
502.956	96.75
503.172	90.75
503.389	96.75
503.606	90.75
503.823	83.75
504.04	99.75
504.256	86.75
504.473	98.75
504.69	92.75
504.907	97.75
505.123	92.75
505.34	101.75
505.557	95.75
505.773	103.75
505.99	87.75
506.207	105.75
506.423	78.75
506.64	85.75
506.856	103.75
507.073	105.75
507.289	95.75
507.506	86.75
507.722	96.75
507.939	103.75
508.155	111.75
508.372	92.75
508.588	76.75
508.805	86.75
509.021	76.75
509.238	94.75
509.454	89.75
509.67	95.75
509.887	94.75
510.103	92.75
510.319	86.75
510.536	85.75
510.752	81.75
510.968	68.75
511.184	87.75
511.401	73.75
511.617	77.75
511.833	89.75
512.049	88.75
512.265	87.75
512.481	83.75
512.698	79.75
512.914	87.75
513.13	68.75
513.346	76.75
513.562	82.75
513.778	94.75
513.994	88.75
514.21	85.75
514.426	81.75
514.642	101.75
514.858	88.75
515.074	92.75
515.29	101.75
515.506	91.75
515.721	91.75
515.937	80.75
516.153	75.75
516.369	77.75
516.585	74.75
516.801	85.75
517.016	88.75
517.232	75.75
517.448	88.75
