Data from Location4.07152019.Energy5.Lamp.07192019.3%Agarose_HRD10591_15-25-45-579.txt Node
Date: Fri Jul 19 15:25:45 EDT 2019
User: cochatt
Spectrometer: HR+D1059
Trigger mode: 1
Integration Time (sec): 1.000000E-1
Scans to average: 1
Electric dark correction enabled: true
Nonlinearity correction enabled: false
Boxcar width: 0
XAxis mode: Wavelengths
Number of Pixels in Spectrum: 2048
>>>>>Begin Spectral Data<<<<<
223.165	-5.62
223.4	-5.62
223.635	-5.62
223.869	-19.62
224.104	-7.62
224.338	-18.62
224.573	-15.62
224.808	-16.62
225.042	-13.62
225.277	-8.62
225.511	-3.62
225.746	7.38
225.98	4.38
226.215	3.38
226.449	23.38
226.683	21.38
226.918	23.38
227.152	26.38
227.387	18.38
227.621	35.38
227.856	42.38
228.09	37.38
228.324	68.38
228.559	55.38
228.793	63.38
229.027	49.38
229.262	67.38
229.496	78.38
229.73	74.38
229.964	79.38
230.199	67.38
230.433	83.38
230.667	83.38
230.901	70.38
231.136	68.38
231.37	57.38
231.604	77.38
231.838	91.38
232.072	82.38
232.306	83.38
232.541	78.38
232.775	77.38
233.009	86.38
233.243	86.38
233.477	99.38
233.711	87.38
233.945	73.38
234.179	78.38
234.413	81.38
234.647	90.38
234.881	93.38
235.115	89.38
235.349	68.38
235.583	73.38
235.817	94.38
236.051	75.38
236.285	74.38
236.519	88.38
236.753	90.38
236.987	94.38
237.221	76.38
237.455	65.38
237.689	80.38
237.922	72.38
238.156	66.38
238.39	78.38
238.624	63.38
238.858	77.38
239.091	76.38
239.325	77.38
239.559	71.38
239.793	59.38
240.027	86.38
240.26	81.38
240.494	79.38
240.728	83.38
240.961	75.38
241.195	83.38
241.429	72.38
241.662	92.38
241.896	66.38
242.13	65.38
242.363	77.38
242.597	84.38
242.83	70.38
243.064	71.38
243.298	72.38
243.531	83.38
243.765	89.38
243.998	79.38
244.232	84.38
244.465	87.38
244.699	74.38
244.932	80.38
245.166	74.38
245.399	72.38
245.633	79.38
245.866	81.38
246.099	87.38
246.333	82.38
246.566	83.38
246.8	93.38
247.033	84.38
247.266	71.38
247.5	64.38
247.733	69.38
247.966	89.38
248.2	92.38
248.433	80.38
248.666	79.38
248.899	66.38
249.133	68.38
249.366	83.38
249.599	77.38
249.832	83.38
250.066	83.38
250.299	83.38
250.532	80.38
250.765	88.38
250.998	73.38
251.231	83.38
251.465	87.38
251.698	75.38
251.931	97.38
252.164	89.38
252.397	79.38
252.63	79.38
252.863	85.38
253.096	74.38
253.329	90.38
253.562	65.38
253.795	85.38
254.028	72.38
254.261	78.38
254.494	77.38
254.727	88.38
254.96	71.38
255.193	78.38
255.426	88.38
255.659	65.38
255.892	72.38
256.124	87.38
256.357	75.38
256.59	81.38
256.823	104.38
257.056	82.38
257.289	89.38
257.521	95.38
257.754	86.38
257.987	89.38
258.22	81.38
258.452	76.38
258.685	82.38
258.918	76.38
259.151	92.38
259.383	80.38
259.616	71.38
259.849	93.38
260.081	97.38
260.314	80.38
260.547	72.38
260.779	89.38
261.012	69.38
261.244	85.38
261.477	85.38
261.71	94.38
261.942	91.38
262.175	76.38
262.407	75.38
262.64	77.38
262.872	78.38
263.105	87.38
263.337	88.38
263.57	66.38
263.802	83.38
264.035	95.38
264.267	76.38
264.499	76.38
264.732	77.38
264.964	93.38
265.197	89.38
265.429	72.38
265.661	72.38
265.894	75.38
266.126	96.38
266.358	81.38
266.591	79.38
266.823	72.38
267.055	97.38
267.287	79.38
267.52	75.38
267.752	83.38
267.984	82.38
268.216	85.38
268.448	81.38
268.681	82.38
268.913	81.38
269.145	83.38
269.377	86.38
269.609	69.38
269.841	91.38
270.073	76.38
270.306	82.38
270.538	71.38
270.77	75.38
271.002	83.38
271.234	93.38
271.466	97.38
271.698	82.38
271.93	85.38
272.162	97.38
272.394	85.38
272.626	81.38
272.858	66.38
273.09	98.38
273.322	91.38
273.553	88.38
273.785	73.38
274.017	74.38
274.249	61.38
274.481	76.38
274.713	96.38
274.945	89.38
275.176	81.38
275.408	95.38
275.64	83.38
275.872	80.38
276.104	84.38
276.335	76.38
276.567	84.38
276.799	91.38
277.031	85.38
277.262	87.38
277.494	84.38
277.726	84.38
277.957	74.38
278.189	87.38
278.421	86.38
278.652	82.38
278.884	80.38
279.115	80.38
279.347	87.38
279.579	81.38
279.81	84.38
280.042	98.38
280.273	90.38
280.505	78.38
280.736	82.38
280.968	91.38
281.199	87.38
281.431	73.38
281.662	84.38
281.894	104.38
282.125	80.38
282.356	96.38
282.588	86.38
282.819	76.38
283.051	83.38
283.282	79.38
283.513	89.38
283.745	102.38
283.976	91.38
284.207	84.38
284.439	88.38
284.67	90.38
284.901	92.38
285.132	81.38
285.364	80.38
285.595	94.38
285.826	104.38
286.057	87.38
286.288	89.38
286.52	84.38
286.751	94.38
286.982	86.38
287.213	95.38
287.444	80.38
287.675	82.38
287.906	104.38
288.138	90.38
288.369	80.38
288.6	89.38
288.831	81.38
289.062	91.38
289.293	91.38
289.524	76.38
289.755	87.38
289.986	94.38
290.217	81.38
290.448	73.38
290.679	101.38
290.91	71.38
291.141	76.38
291.371	101.38
291.602	89.38
291.833	85.38
292.064	87.38
292.295	85.38
292.526	77.38
292.757	73.38
292.987	92.38
293.218	97.38
293.449	87.38
293.68	76.38
293.91	82.38
294.141	87.38
294.372	98.38
294.603	83.38
294.833	90.38
295.064	92.38
295.295	83.38
295.525	85.38
295.756	87.38
295.987	69.38
296.217	81.38
296.448	81.38
296.679	75.38
296.909	84.38
297.14	86.38
297.37	89.38
297.601	77.38
297.831	86.38
298.062	97.38
298.292	88.38
298.523	83.38
298.753	83.38
298.984	95.38
299.214	95.38
299.445	97.38
299.675	80.38
299.905	89.38
300.136	93.38
300.366	83.38
300.597	94.38
300.827	87.38
301.057	84.38
301.288	98.38
301.518	84.38
301.748	89.38
301.979	82.38
302.209	85.38
302.439	68.38
302.669	86.38
302.9	95.38
303.13	77.38
303.36	79.38
303.59	86.38
303.82	80.38
304.051	77.38
304.281	87.38
304.511	97.38
304.741	70.38
304.971	87.38
305.201	72.38
305.431	68.38
305.661	89.38
305.891	88.38
306.121	85.38
306.352	88.38
306.582	87.38
306.812	80.38
307.042	78.38
307.272	96.38
307.502	71.38
307.731	91.38
307.961	80.38
308.191	81.38
308.421	95.38
308.651	98.38
308.881	83.38
309.111	74.38
309.341	69.38
309.571	81.38
309.8	90.38
310.03	85.38
310.26	75.38
310.49	96.38
310.72	75.38
310.949	94.38
311.179	79.38
311.409	69.38
311.639	77.38
311.868	87.38
312.098	76.38
312.328	85.38
312.557	91.38
312.787	86.38
313.017	83.38
313.246	82.38
313.476	73.38
313.706	94.38
313.935	96.38
314.165	80.38
314.394	96.38
314.624	91.38
314.853	86.38
315.083	87.38
315.312	95.38
315.542	91.38
315.771	94.38
316.001	87.38
316.23	76.38
316.46	97.38
316.689	88.38
316.919	95.38
317.148	76.38
317.377	98.38
317.607	103.38
317.836	97.38
318.065	69.38
318.295	87.38
318.524	85.38
318.753	91.38
318.983	83.38
319.212	83.38
319.441	84.38
319.67	91.38
319.9	76.38
320.129	85.38
320.358	82.38
320.587	84.38
320.816	97.38
321.046	85.38
321.275	74.38
321.504	86.38
321.733	84.38
321.962	78.38
322.191	88.38
322.42	82.38
322.649	82.38
322.878	69.38
323.108	73.38
323.337	81.38
323.566	91.38
323.795	93.38
324.024	89.38
324.253	84.38
324.482	90.38
324.71	87.38
324.939	101.38
325.168	102.38
325.397	105.38
325.626	69.38
325.855	84.38
326.084	92.38
326.313	79.38
326.542	83.38
326.77	84.38
326.999	82.38
327.228	85.38
327.457	88.38
327.686	73.38
327.914	86.38
328.143	93.38
328.372	98.38
328.6	88.38
328.829	76.38
329.058	76.38
329.287	81.38
329.515	91.38
329.744	66.38
329.972	87.38
330.201	80.38
330.43	95.38
330.658	95.38
330.887	67.38
331.115	82.38
331.344	91.38
331.572	86.38
331.801	85.38
332.03	86.38
332.258	81.38
332.486	87.38
332.715	92.38
332.943	81.38
333.172	98.38
333.4	91.38
333.629	76.38
333.857	81.38
334.085	87.38
334.314	82.38
334.542	86.38
334.771	87.38
334.999	92.38
335.227	83.38
335.455	79.38
335.684	98.38
335.912	85.38
336.14	83.38
336.369	72.38
336.597	90.38
336.825	92.38
337.053	83.38
337.281	80.38
337.51	78.38
337.738	85.38
337.966	82.38
338.194	87.38
338.422	84.38
338.65	96.38
338.878	93.38
339.106	87.38
339.334	89.38
339.562	84.38
339.79	90.38
340.018	94.38
340.246	92.38
340.474	93.38
340.702	86.38
340.93	74.38
341.158	93.38
341.386	99.38
341.614	66.38
341.842	91.38
342.07	90.38
342.298	81.38
342.526	93.38
342.754	87.38
342.981	82.38
343.209	92.38
343.437	85.38
343.665	88.38
343.893	85.38
344.12	91.38
344.348	84.38
344.576	71.38
344.804	98.38
345.031	87.38
345.259	89.38
345.487	76.38
345.714	81.38
345.942	83.38
346.17	93.38
346.397	84.38
346.625	85.38
346.853	75.38
347.08	99.38
347.308	76.38
347.535	89.38
347.763	90.38
347.99	96.38
348.218	93.38
348.445	96.38
348.673	84.38
348.9	92.38
349.128	107.38
349.355	85.38
349.583	89.38
349.81	79.38
350.037	74.38
350.265	87.38
350.492	85.38
350.72	77.38
350.947	86.38
351.174	89.38
351.402	78.38
351.629	75.38
351.856	99.38
352.083	81.38
352.311	85.38
352.538	82.38
352.765	92.38
352.992	97.38
353.22	78.38
353.447	77.38
353.674	81.38
353.901	83.38
354.128	80.38
354.355	82.38
354.583	79.38
354.81	94.38
355.037	90.38
355.264	86.38
355.491	81.38
355.718	81.38
355.945	79.38
356.172	84.38
356.399	86.38
356.626	103.38
356.853	89.38
357.08	86.38
357.307	82.38
357.534	85.38
357.761	104.38
357.988	81.38
358.215	89.38
358.441	100.38
358.668	80.38
358.895	71.38
359.122	74.38
359.349	89.38
359.576	75.38
359.802	80.38
360.029	89.38
360.256	89.38
360.483	93.38
360.709	96.38
360.936	89.38
361.163	80.38
361.39	77.38
361.616	87.38
361.843	88.38
362.07	86.38
362.296	95.38
362.523	86.38
362.749	94.38
362.976	76.38
363.203	88.38
363.429	68.38
363.656	81.38
363.882	90.38
364.109	91.38
364.335	88.38
364.562	85.38
364.788	74.38
365.015	88.38
365.241	85.38
365.468	83.38
365.694	84.38
365.92	89.38
366.147	88.38
366.373	80.38
366.599	86.38
366.826	83.38
367.052	78.38
367.278	94.38
367.505	88.38
367.731	80.38
367.957	92.38
368.184	81.38
368.41	92.38
368.636	80.38
368.862	99.38
369.089	77.38
369.315	86.38
369.541	87.38
369.767	81.38
369.993	74.38
370.219	84.38
370.445	81.38
370.672	70.38
370.898	73.38
371.124	84.38
371.35	85.38
371.576	82.38
371.802	80.38
372.028	85.38
372.254	94.38
372.48	105.38
372.706	85.38
372.932	82.38
373.158	85.38
373.384	78.38
373.61	81.38
373.835	89.38
374.061	77.38
374.287	79.38
374.513	84.38
374.739	75.38
374.965	74.38
375.191	101.38
375.416	75.38
375.642	90.38
375.868	98.38
376.094	81.38
376.319	86.38
376.545	82.38
376.771	80.38
376.997	92.38
377.222	81.38
377.448	85.38
377.674	74.38
377.899	83.38
378.125	84.38
378.35	98.38
378.576	80.38
378.802	78.38
379.027	82.38
379.253	76.38
379.478	91.38
379.704	92.38
379.929	85.38
380.155	83.38
380.38	73.38
380.606	81.38
380.831	88.38
381.057	88.38
381.282	95.38
381.507	84.38
381.733	73.38
381.958	82.38
382.184	74.38
382.409	79.38
382.634	79.38
382.86	68.38
383.085	80.38
383.31	75.38
383.535	77.38
383.761	83.38
383.986	89.38
384.211	71.38
384.436	84.38
384.662	75.38
384.887	96.38
385.112	90.38
385.337	69.38
385.562	89.38
385.787	93.38
386.013	95.38
386.238	80.38
386.463	96.38
386.688	89.38
386.913	70.38
387.138	77.38
387.363	82.38
387.588	76.38
387.813	79.38
388.038	83.38
388.263	93.38
388.488	89.38
388.713	87.38
388.938	81.38
389.163	98.38
389.387	79.38
389.612	69.38
389.837	82.38
390.062	89.38
390.287	87.38
390.512	77.38
390.736	89.38
390.961	99.38
391.186	104.38
391.411	84.38
391.636	79.38
391.86	82.38
392.085	91.38
392.31	70.38
392.534	79.38
392.759	85.38
392.984	82.38
393.208	88.38
393.433	93.38
393.658	79.38
393.882	83.38
394.107	98.38
394.331	70.38
394.556	78.38
394.78	87.38
395.005	85.38
395.229	93.38
395.454	90.38
395.678	97.38
395.903	94.38
396.127	92.38
396.352	101.38
396.576	82.38
396.801	81.38
397.025	72.38
397.249	91.38
397.474	88.38
397.698	85.38
397.922	76.38
398.147	91.38
398.371	93.38
398.595	77.38
398.82	73.38
399.044	93.38
399.268	91.38
399.492	88.38
399.717	82.38
399.941	92.38
400.165	96.38
400.389	93.38
400.613	83.38
400.837	84.38
401.062	91.38
401.286	81.38
401.51	88.38
401.734	93.38
401.958	86.38
402.182	85.38
402.406	84.38
402.63	81.38
402.854	84.38
403.078	88.38
403.302	76.38
403.526	100.38
403.75	91.38
403.974	88.38
404.198	103.38
404.422	100.38
404.645	75.38
404.869	98.38
405.093	91.38
405.317	88.38
405.541	97.38
405.765	82.38
405.988	87.38
406.212	88.38
406.436	91.38
406.66	82.38
406.883	77.38
407.107	90.38
407.331	82.38
407.555	95.38
407.778	84.38
408.002	91.38
408.226	96.38
408.449	91.38
408.673	94.38
408.896	90.38
409.12	94.38
409.344	82.38
409.567	96.38
409.791	86.38
410.014	90.38
410.238	83.38
410.461	76.38
410.685	95.38
410.908	91.38
411.132	90.38
411.355	86.38
411.578	72.38
411.802	87.38
412.025	90.38
412.249	91.38
412.472	90.38
412.695	89.38
412.919	101.38
413.142	101.38
413.365	105.38
413.589	95.38
413.812	83.38
414.035	87.38
414.258	94.38
414.482	95.38
414.705	81.38
414.928	95.38
415.151	78.38
415.374	95.38
415.597	94.38
415.821	105.38
416.044	89.38
416.267	97.38
416.49	89.38
416.713	86.38
416.936	75.38
417.159	91.38
417.382	74.38
417.605	83.38
417.828	100.38
418.051	95.38
418.274	87.38
418.497	99.38
418.72	106.38
418.943	103.38
419.166	101.38
419.389	92.38
419.611	96.38
419.834	82.38
420.057	97.38
420.28	93.38
420.503	92.38
420.726	97.38
420.948	101.38
421.171	82.38
421.394	91.38
421.617	102.38
421.839	103.38
422.062	104.38
422.285	99.38
422.507	92.38
422.73	102.38
422.953	94.38
423.175	88.38
423.398	80.38
423.621	91.38
423.843	93.38
424.066	104.38
424.288	91.38
424.511	109.38
424.733	107.38
424.956	117.38
425.178	104.38
425.401	89.38
425.623	99.38
425.846	83.38
426.068	90.38
426.291	86.38
426.513	104.38
426.735	116.38
426.958	76.38
427.18	100.38
427.402	102.38
427.625	101.38
427.847	99.38
428.069	103.38
428.292	89.38
428.514	111.38
428.736	101.38
428.958	83.38
429.181	97.38
429.403	89.38
429.625	88.38
429.847	92.38
430.069	88.38
430.292	93.38
430.514	98.38
430.736	77.38
430.958	97.38
431.18	92.38
431.402	89.38
431.624	99.38
431.846	90.38
432.068	83.38
432.29	82.38
432.512	82.38
432.734	93.38
432.956	91.38
433.178	95.38
433.4	99.38
433.622	91.38
433.844	99.38
434.066	82.38
434.287	95.38
434.509	87.38
434.731	88.38
434.953	75.38
435.175	84.38
435.397	92.38
435.618	105.38
435.84	81.38
436.062	93.38
436.284	102.38
436.505	86.38
436.727	88.38
436.949	97.38
437.17	91.38
437.392	100.38
437.614	93.38
437.835	114.38
438.057	92.38
438.278	87.38
438.5	85.38
438.721	108.38
438.943	100.38
439.165	100.38
439.386	96.38
439.608	93.38
439.829	113.38
440.05	94.38
440.272	97.38
440.493	100.38
440.715	103.38
440.936	102.38
441.158	114.38
441.379	101.38
441.6	107.38
441.822	112.38
442.043	104.38
442.264	96.38
442.486	98.38
442.707	83.38
442.928	98.38
443.149	108.38
443.371	95.38
443.592	90.38
443.813	107.38
444.034	91.38
444.255	113.38
444.476	97.38
444.698	103.38
444.919	106.38
445.14	227.38
445.361	161.38
445.582	91.38
445.803	106.38
446.024	89.38
446.245	113.38
446.466	101.38
446.687	115.38
446.908	105.38
447.129	85.38
447.35	86.38
447.571	107.38
447.792	103.38
448.013	91.38
448.234	75.38
448.455	103.38
448.675	103.38
448.896	113.38
449.117	96.38
449.338	105.38
449.559	104.38
449.779	82.38
450	104.38
450.221	87.38
450.442	90.38
450.662	96.38
450.883	101.38
451.104	101.38
451.324	91.38
451.545	96.38
451.766	89.38
451.986	83.38
452.207	100.38
452.428	95.38
452.648	102.38
452.869	88.38
453.089	105.38
453.31	89.38
453.53	84.38
453.751	87.38
453.971	81.38
454.192	80.38
454.412	98.38
454.633	99.38
454.853	100.38
455.073	86.38
455.294	87.38
455.514	89.38
455.734	86.38
455.955	88.38
456.175	93.38
456.395	85.38
456.616	86.38
456.836	87.38
457.056	89.38
457.276	94.38
457.497	90.38
457.717	98.38
457.937	96.38
458.157	85.38
458.377	79.38
458.598	77.38
458.818	67.38
459.038	82.38
459.258	90.38
459.478	82.38
459.698	100.38
459.918	89.38
460.138	87.38
460.358	90.38
460.578	103.38
460.798	92.38
461.018	95.38
461.238	92.38
461.458	81.38
461.678	93.38
461.898	111.38
462.118	94.38
462.338	84.38
462.558	81.38
462.777	85.38
462.997	91.38
463.217	89.38
463.437	92.38
463.657	84.38
463.876	83.38
464.096	84.38
464.316	88.38
464.536	88.38
464.755	113.38
464.975	89.38
465.195	96.38
465.414	95.38
465.634	88.38
465.854	86.38
466.073	92.38
466.293	88.38
466.512	97.38
466.732	87.38
466.951	87.38
467.171	98.38
467.391	88.38
467.61	98.38
467.829	103.38
468.049	93.38
468.268	94.38
468.488	113.38
468.707	90.38
468.927	101.38
469.146	90.38
469.365	101.38
469.585	92.38
469.804	104.38
470.023	105.38
470.243	91.38
470.462	90.38
470.681	95.38
470.901	83.38
471.12	106.38
471.339	84.38
471.558	94.38
471.777	101.38
471.997	100.38
472.216	99.38
472.435	90.38
472.654	81.38
472.873	81.38
473.092	92.38
473.311	82.38
473.53	77.38
473.749	84.38
473.968	108.38
474.187	98.38
474.406	103.38
474.625	100.38
474.844	85.38
475.063	86.38
475.282	102.38
475.501	101.38
475.72	96.38
475.939	81.38
476.158	79.38
476.377	94.38
476.596	99.38
476.814	82.38
477.033	83.38
477.252	83.38
477.471	85.38
477.69	105.38
477.908	99.38
478.127	90.38
478.346	107.38
478.564	87.38
478.783	94.38
479.002	101.38
479.22	93.38
479.439	108.38
479.658	102.38
479.876	84.38
480.095	90.38
480.313	93.38
480.532	109.38
480.751	97.38
480.969	77.38
481.188	92.38
481.406	87.38
481.624	94.38
481.843	88.38
482.061	87.38
482.28	92.38
482.498	87.38
482.717	79.38
482.935	87.38
483.153	100.38
483.372	101.38
483.59	92.38
483.808	87.38
484.027	101.38
484.245	95.38
484.463	84.38
484.681	114.38
484.9	89.38
485.118	87.38
485.336	91.38
485.554	101.38
485.772	85.38
485.99	87.38
486.209	91.38
486.427	99.38
486.645	94.38
486.863	102.38
487.081	103.38
487.299	98.38
487.517	95.38
487.735	111.38
487.953	117.38
488.171	106.38
488.389	105.38
488.607	102.38
488.825	85.38
489.043	95.38
489.261	106.38
489.479	90.38
489.696	110.38
489.914	96.38
490.132	87.38
490.35	91.38
490.568	100.38
490.786	107.38
491.003	107.38
491.221	86.38
491.439	107.38
491.657	100.38
491.874	116.38
492.092	123.38
492.31	145.38
492.527	119.38
492.745	115.38
492.963	112.38
493.18	102.38
493.398	116.38
493.615	101.38
493.833	101.38
494.05	104.38
494.268	114.38
494.485	100.38
494.703	116.38
494.92	131.38
495.138	97.38
495.355	117.38
495.573	119.38
495.79	102.38
496.008	116.38
496.225	97.38
496.442	118.38
496.66	92.38
496.877	107.38
497.094	110.38
497.312	109.38
497.529	110.38
497.746	102.38
497.963	101.38
498.181	98.38
498.398	98.38
498.615	90.38
498.832	98.38
499.049	94.38
499.267	84.38
499.484	92.38
499.701	108.38
499.918	110.38
500.135	91.38
500.352	101.38
500.569	98.38
500.786	113.38
501.003	95.38
501.22	110.38
501.437	92.38
501.654	96.38
501.871	98.38
502.088	78.38
502.305	106.38
502.522	98.38
502.739	99.38
502.956	98.38
503.172	95.38
503.389	80.38
503.606	97.38
503.823	96.38
504.04	98.38
504.256	98.38
504.473	90.38
504.69	90.38
504.907	108.38
505.123	93.38
505.34	85.38
505.557	103.38
505.773	105.38
505.99	103.38
506.207	99.38
506.423	91.38
506.64	95.38
506.856	86.38
507.073	88.38
507.289	85.38
507.506	96.38
507.722	81.38
507.939	81.38
508.155	86.38
508.372	83.38
508.588	84.38
508.805	88.38
509.021	97.38
509.238	89.38
509.454	89.38
509.67	89.38
509.887	97.38
510.103	90.38
510.319	82.38
510.536	87.38
510.752	82.38
510.968	75.38
511.184	93.38
511.401	77.38
511.617	89.38
511.833	83.38
512.049	87.38
512.265	83.38
512.481	74.38
512.698	71.38
512.914	105.38
513.13	82.38
513.346	94.38
513.562	83.38
513.778	92.38
513.994	91.38
514.21	76.38
514.426	85.38
514.642	97.38
514.858	88.38
515.074	59.38
515.29	76.38
515.506	81.38
515.721	78.38
515.937	86.38
516.153	76.38
516.369	70.38
516.585	90.38
516.801	78.38
517.016	82.38
517.232	99.38
