Data from Location4.07152019.Energy5.Lamp.07192019.3%Agarose_HRD10591_15-23-16-576.txt Node
Date: Fri Jul 19 15:23:16 EDT 2019
User: cochatt
Spectrometer: HR+D1059
Trigger mode: 1
Integration Time (sec): 1.000000E-1
Scans to average: 1
Electric dark correction enabled: true
Nonlinearity correction enabled: false
Boxcar width: 0
XAxis mode: Wavelengths
Number of Pixels in Spectrum: 2048
>>>>>Begin Spectral Data<<<<<
223.165	-14.5
223.4	-14.5
223.635	-14.5
223.869	-14.5
224.104	-10.5
224.338	-4.5
224.573	-12.5
224.808	-17.5
225.042	-4.5
225.277	-25.5
225.511	7.5
225.746	0.5
225.98	3.5
226.215	8.5
226.449	5.5
226.683	21.5
226.918	32.5
227.152	24.5
227.387	22.5
227.621	45.5
227.856	39.5
228.09	42.5
228.324	59.5
228.559	48.5
228.793	47.5
229.027	57.5
229.262	59.5
229.496	57.5
229.73	62.5
229.964	79.5
230.199	68.5
230.433	72.5
230.667	74.5
230.901	76.5
231.136	78.5
231.37	73.5
231.604	82.5
231.838	79.5
232.072	74.5
232.306	71.5
232.541	77.5
232.775	67.5
233.009	81.5
233.243	74.5
233.477	78.5
233.711	84.5
233.945	88.5
234.179	69.5
234.413	71.5
234.647	71.5
234.881	74.5
235.115	77.5
235.349	70.5
235.583	89.5
235.817	78.5
236.051	63.5
236.285	78.5
236.519	81.5
236.753	74.5
236.987	66.5
237.221	71.5
237.455	65.5
237.689	72.5
237.922	73.5
238.156	82.5
238.39	76.5
238.624	76.5
238.858	86.5
239.091	77.5
239.325	73.5
239.559	68.5
239.793	75.5
240.027	73.5
240.26	67.5
240.494	78.5
240.728	76.5
240.961	74.5
241.195	84.5
241.429	76.5
241.662	71.5
241.896	75.5
242.13	58.5
242.363	83.5
242.597	87.5
242.83	70.5
243.064	86.5
243.298	65.5
243.531	57.5
243.765	58.5
243.998	72.5
244.232	89.5
244.465	91.5
244.699	84.5
244.932	79.5
245.166	85.5
245.399	82.5
245.633	65.5
245.866	77.5
246.099	62.5
246.333	80.5
246.566	76.5
246.8	75.5
247.033	65.5
247.266	69.5
247.5	80.5
247.733	74.5
247.966	74.5
248.2	73.5
248.433	71.5
248.666	83.5
248.899	73.5
249.133	75.5
249.366	84.5
249.599	78.5
249.832	74.5
250.066	93.5
250.299	89.5
250.532	66.5
250.765	81.5
250.998	79.5
251.231	68.5
251.465	78.5
251.698	80.5
251.931	81.5
252.164	84.5
252.397	83.5
252.63	77.5
252.863	62.5
253.096	85.5
253.329	83.5
253.562	77.5
253.795	81.5
254.028	72.5
254.261	87.5
254.494	73.5
254.727	85.5
254.96	74.5
255.193	80.5
255.426	81.5
255.659	77.5
255.892	57.5
256.124	80.5
256.357	86.5
256.59	78.5
256.823	82.5
257.056	65.5
257.289	84.5
257.521	83.5
257.754	71.5
257.987	81.5
258.22	72.5
258.452	79.5
258.685	82.5
258.918	76.5
259.151	78.5
259.383	74.5
259.616	74.5
259.849	72.5
260.081	77.5
260.314	92.5
260.547	77.5
260.779	88.5
261.012	80.5
261.244	69.5
261.477	96.5
261.71	80.5
261.942	66.5
262.175	67.5
262.407	77.5
262.64	88.5
262.872	82.5
263.105	77.5
263.337	72.5
263.57	70.5
263.802	93.5
264.035	72.5
264.267	107.5
264.499	93.5
264.732	83.5
264.964	89.5
265.197	84.5
265.429	78.5
265.661	80.5
265.894	74.5
266.126	85.5
266.358	74.5
266.591	70.5
266.823	84.5
267.055	76.5
267.287	85.5
267.52	79.5
267.752	82.5
267.984	79.5
268.216	60.5
268.448	81.5
268.681	80.5
268.913	70.5
269.145	89.5
269.377	66.5
269.609	63.5
269.841	80.5
270.073	80.5
270.306	78.5
270.538	88.5
270.77	77.5
271.002	80.5
271.234	87.5
271.466	81.5
271.698	79.5
271.93	80.5
272.162	73.5
272.394	88.5
272.626	85.5
272.858	80.5
273.09	79.5
273.322	75.5
273.553	88.5
273.785	78.5
274.017	74.5
274.249	71.5
274.481	85.5
274.713	92.5
274.945	95.5
275.176	73.5
275.408	80.5
275.64	84.5
275.872	80.5
276.104	78.5
276.335	71.5
276.567	70.5
276.799	79.5
277.031	62.5
277.262	94.5
277.494	76.5
277.726	80.5
277.957	82.5
278.189	78.5
278.421	86.5
278.652	73.5
278.884	74.5
279.115	87.5
279.347	71.5
279.579	79.5
279.81	82.5
280.042	88.5
280.273	98.5
280.505	65.5
280.736	84.5
280.968	76.5
281.199	82.5
281.431	84.5
281.662	83.5
281.894	87.5
282.125	85.5
282.356	88.5
282.588	96.5
282.819	69.5
283.051	86.5
283.282	77.5
283.513	82.5
283.745	79.5
283.976	77.5
284.207	81.5
284.439	84.5
284.67	95.5
284.901	73.5
285.132	68.5
285.364	89.5
285.595	89.5
285.826	90.5
286.057	80.5
286.288	84.5
286.52	82.5
286.751	73.5
286.982	80.5
287.213	80.5
287.444	86.5
287.675	92.5
287.906	85.5
288.138	92.5
288.369	72.5
288.6	73.5
288.831	80.5
289.062	87.5
289.293	92.5
289.524	76.5
289.755	84.5
289.986	97.5
290.217	88.5
290.448	92.5
290.679	95.5
290.91	97.5
291.141	98.5
291.371	93.5
291.602	79.5
291.833	80.5
292.064	79.5
292.295	73.5
292.526	81.5
292.757	75.5
292.987	78.5
293.218	93.5
293.449	82.5
293.68	88.5
293.91	82.5
294.141	64.5
294.372	87.5
294.603	84.5
294.833	69.5
295.064	84.5
295.295	76.5
295.525	77.5
295.756	82.5
295.987	95.5
296.217	69.5
296.448	94.5
296.679	83.5
296.909	88.5
297.14	79.5
297.37	96.5
297.601	93.5
297.831	85.5
298.062	90.5
298.292	77.5
298.523	80.5
298.753	78.5
298.984	75.5
299.214	81.5
299.445	81.5
299.675	86.5
299.905	96.5
300.136	84.5
300.366	74.5
300.597	80.5
300.827	81.5
301.057	83.5
301.288	92.5
301.518	73.5
301.748	84.5
301.979	87.5
302.209	85.5
302.439	80.5
302.669	75.5
302.9	92.5
303.13	67.5
303.36	71.5
303.59	80.5
303.82	76.5
304.051	82.5
304.281	93.5
304.511	100.5
304.741	83.5
304.971	93.5
305.201	80.5
305.431	86.5
305.661	80.5
305.891	90.5
306.121	87.5
306.352	94.5
306.582	72.5
306.812	67.5
307.042	81.5
307.272	81.5
307.502	79.5
307.731	78.5
307.961	79.5
308.191	74.5
308.421	85.5
308.651	87.5
308.881	92.5
309.111	77.5
309.341	100.5
309.571	85.5
309.8	100.5
310.03	88.5
310.26	85.5
310.49	80.5
310.72	79.5
310.949	79.5
311.179	74.5
311.409	89.5
311.639	82.5
311.868	72.5
312.098	81.5
312.328	74.5
312.557	82.5
312.787	82.5
313.017	84.5
313.246	77.5
313.476	93.5
313.706	96.5
313.935	76.5
314.165	74.5
314.394	80.5
314.624	84.5
314.853	88.5
315.083	67.5
315.312	78.5
315.542	85.5
315.771	65.5
316.001	80.5
316.23	94.5
316.46	80.5
316.689	87.5
316.919	70.5
317.148	68.5
317.377	84.5
317.607	86.5
317.836	72.5
318.065	79.5
318.295	84.5
318.524	84.5
318.753	92.5
318.983	73.5
319.212	79.5
319.441	85.5
319.67	96.5
319.9	86.5
320.129	78.5
320.358	78.5
320.587	81.5
320.816	86.5
321.046	84.5
321.275	77.5
321.504	78.5
321.733	72.5
321.962	80.5
322.191	77.5
322.42	75.5
322.649	79.5
322.878	95.5
323.108	74.5
323.337	80.5
323.566	78.5
323.795	79.5
324.024	91.5
324.253	79.5
324.482	81.5
324.71	72.5
324.939	88.5
325.168	84.5
325.397	87.5
325.626	86.5
325.855	86.5
326.084	83.5
326.313	79.5
326.542	80.5
326.77	82.5
326.999	75.5
327.228	89.5
327.457	92.5
327.686	85.5
327.914	85.5
328.143	78.5
328.372	79.5
328.6	96.5
328.829	68.5
329.058	76.5
329.287	86.5
329.515	91.5
329.744	84.5
329.972	70.5
330.201	93.5
330.43	76.5
330.658	73.5
330.887	69.5
331.115	89.5
331.344	88.5
331.572	79.5
331.801	100.5
332.03	92.5
332.258	73.5
332.486	77.5
332.715	80.5
332.943	92.5
333.172	82.5
333.4	99.5
333.629	88.5
333.857	79.5
334.085	86.5
334.314	57.5
334.542	95.5
334.771	79.5
334.999	75.5
335.227	95.5
335.455	75.5
335.684	73.5
335.912	84.5
336.14	72.5
336.369	80.5
336.597	83.5
336.825	89.5
337.053	82.5
337.281	82.5
337.51	78.5
337.738	93.5
337.966	82.5
338.194	88.5
338.422	85.5
338.65	81.5
338.878	87.5
339.106	83.5
339.334	85.5
339.562	73.5
339.79	74.5
340.018	91.5
340.246	81.5
340.474	82.5
340.702	90.5
340.93	84.5
341.158	85.5
341.386	80.5
341.614	73.5
341.842	82.5
342.07	77.5
342.298	104.5
342.526	95.5
342.754	83.5
342.981	83.5
343.209	77.5
343.437	83.5
343.665	84.5
343.893	75.5
344.12	64.5
344.348	78.5
344.576	81.5
344.804	91.5
345.031	70.5
345.259	69.5
345.487	81.5
345.714	97.5
345.942	84.5
346.17	90.5
346.397	85.5
346.625	93.5
346.853	80.5
347.08	85.5
347.308	76.5
347.535	84.5
347.763	84.5
347.99	90.5
348.218	78.5
348.445	84.5
348.673	56.5
348.9	80.5
349.128	89.5
349.355	96.5
349.583	89.5
349.81	81.5
350.037	94.5
350.265	94.5
350.492	69.5
350.72	69.5
350.947	86.5
351.174	64.5
351.402	101.5
351.629	78.5
351.856	82.5
352.083	86.5
352.311	87.5
352.538	74.5
352.765	89.5
352.992	87.5
353.22	79.5
353.447	84.5
353.674	79.5
353.901	92.5
354.128	94.5
354.355	73.5
354.583	87.5
354.81	84.5
355.037	83.5
355.264	84.5
355.491	86.5
355.718	69.5
355.945	81.5
356.172	87.5
356.399	96.5
356.626	81.5
356.853	92.5
357.08	85.5
357.307	81.5
357.534	77.5
357.761	80.5
357.988	94.5
358.215	98.5
358.441	77.5
358.668	79.5
358.895	86.5
359.122	81.5
359.349	77.5
359.576	78.5
359.802	73.5
360.029	82.5
360.256	93.5
360.483	80.5
360.709	88.5
360.936	91.5
361.163	82.5
361.39	82.5
361.616	93.5
361.843	80.5
362.07	85.5
362.296	76.5
362.523	74.5
362.749	65.5
362.976	84.5
363.203	84.5
363.429	88.5
363.656	90.5
363.882	72.5
364.109	82.5
364.335	86.5
364.562	83.5
364.788	81.5
365.015	81.5
365.241	76.5
365.468	87.5
365.694	73.5
365.92	88.5
366.147	86.5
366.373	77.5
366.599	87.5
366.826	80.5
367.052	88.5
367.278	81.5
367.505	82.5
367.731	87.5
367.957	74.5
368.184	78.5
368.41	63.5
368.636	73.5
368.862	84.5
369.089	74.5
369.315	84.5
369.541	84.5
369.767	75.5
369.993	80.5
370.219	83.5
370.445	69.5
370.672	84.5
370.898	97.5
371.124	96.5
371.35	73.5
371.576	99.5
371.802	76.5
372.028	77.5
372.254	85.5
372.48	90.5
372.706	80.5
372.932	83.5
373.158	72.5
373.384	83.5
373.61	89.5
373.835	87.5
374.061	84.5
374.287	77.5
374.513	63.5
374.739	71.5
374.965	90.5
375.191	85.5
375.416	76.5
375.642	81.5
375.868	84.5
376.094	80.5
376.319	84.5
376.545	72.5
376.771	84.5
376.997	84.5
377.222	74.5
377.448	74.5
377.674	86.5
377.899	80.5
378.125	82.5
378.35	73.5
378.576	75.5
378.802	78.5
379.027	89.5
379.253	78.5
379.478	86.5
379.704	89.5
379.929	91.5
380.155	101.5
380.38	81.5
380.606	73.5
380.831	83.5
381.057	88.5
381.282	69.5
381.507	97.5
381.733	83.5
381.958	81.5
382.184	97.5
382.409	80.5
382.634	89.5
382.86	80.5
383.085	87.5
383.31	95.5
383.535	83.5
383.761	87.5
383.986	90.5
384.211	87.5
384.436	80.5
384.662	82.5
384.887	87.5
385.112	79.5
385.337	79.5
385.562	90.5
385.787	86.5
386.013	108.5
386.238	84.5
386.463	74.5
386.688	72.5
386.913	78.5
387.138	88.5
387.363	80.5
387.588	91.5
387.813	100.5
388.038	77.5
388.263	72.5
388.488	95.5
388.713	80.5
388.938	92.5
389.163	83.5
389.387	77.5
389.612	84.5
389.837	73.5
390.062	76.5
390.287	74.5
390.512	84.5
390.736	74.5
390.961	72.5
391.186	84.5
391.411	70.5
391.636	82.5
391.86	81.5
392.085	87.5
392.31	85.5
392.534	91.5
392.759	80.5
392.984	92.5
393.208	78.5
393.433	79.5
393.658	95.5
393.882	79.5
394.107	88.5
394.331	89.5
394.556	88.5
394.78	85.5
395.005	84.5
395.229	90.5
395.454	85.5
395.678	92.5
395.903	96.5
396.127	95.5
396.352	89.5
396.576	87.5
396.801	90.5
397.025	88.5
397.249	80.5
397.474	87.5
397.698	91.5
397.922	85.5
398.147	94.5
398.371	91.5
398.595	87.5
398.82	85.5
399.044	84.5
399.268	85.5
399.492	83.5
399.717	85.5
399.941	77.5
400.165	77.5
400.389	77.5
400.613	88.5
400.837	87.5
401.062	76.5
401.286	88.5
401.51	75.5
401.734	90.5
401.958	95.5
402.182	78.5
402.406	94.5
402.63	85.5
402.854	89.5
403.078	96.5
403.302	76.5
403.526	79.5
403.75	92.5
403.974	84.5
404.198	85.5
404.422	87.5
404.645	96.5
404.869	71.5
405.093	80.5
405.317	85.5
405.541	86.5
405.765	88.5
405.988	85.5
406.212	94.5
406.436	91.5
406.66	88.5
406.883	101.5
407.107	95.5
407.331	83.5
407.555	94.5
407.778	91.5
408.002	80.5
408.226	93.5
408.449	78.5
408.673	79.5
408.896	84.5
409.12	86.5
409.344	70.5
409.567	105.5
409.791	90.5
410.014	77.5
410.238	74.5
410.461	95.5
410.685	93.5
410.908	81.5
411.132	102.5
411.355	98.5
411.578	108.5
411.802	92.5
412.025	88.5
412.249	86.5
412.472	97.5
412.695	87.5
412.919	92.5
413.142	77.5
413.365	87.5
413.589	101.5
413.812	89.5
414.035	94.5
414.258	101.5
414.482	104.5
414.705	106.5
414.928	86.5
415.151	83.5
415.374	82.5
415.597	79.5
415.821	75.5
416.044	92.5
416.267	82.5
416.49	85.5
416.713	82.5
416.936	98.5
417.159	97.5
417.382	78.5
417.605	77.5
417.828	89.5
418.051	92.5
418.274	92.5
418.497	93.5
418.72	104.5
418.943	97.5
419.166	86.5
419.389	103.5
419.611	91.5
419.834	105.5
420.057	90.5
420.28	96.5
420.503	85.5
420.726	90.5
420.948	99.5
421.171	86.5
421.394	103.5
421.617	92.5
421.839	108.5
422.062	99.5
422.285	81.5
422.507	83.5
422.73	94.5
422.953	82.5
423.175	92.5
423.398	96.5
423.621	94.5
423.843	89.5
424.066	96.5
424.288	79.5
424.511	81.5
424.733	93.5
424.956	96.5
425.178	76.5
425.401	99.5
425.623	88.5
425.846	100.5
426.068	78.5
426.291	100.5
426.513	96.5
426.735	97.5
426.958	84.5
427.18	92.5
427.402	104.5
427.625	86.5
427.847	90.5
428.069	97.5
428.292	91.5
428.514	113.5
428.736	87.5
428.958	92.5
429.181	89.5
429.403	111.5
429.625	88.5
429.847	86.5
430.069	89.5
430.292	102.5
430.514	97.5
430.736	87.5
430.958	96.5
431.18	93.5
431.402	98.5
431.624	81.5
431.846	88.5
432.068	81.5
432.29	92.5
432.512	89.5
432.734	98.5
432.956	87.5
433.178	86.5
433.4	88.5
433.622	99.5
433.844	102.5
434.066	96.5
434.287	89.5
434.509	75.5
434.731	93.5
434.953	92.5
435.175	78.5
435.397	84.5
435.618	81.5
435.84	97.5
436.062	90.5
436.284	86.5
436.505	92.5
436.727	84.5
436.949	88.5
437.17	83.5
437.392	89.5
437.614	87.5
437.835	85.5
438.057	85.5
438.278	88.5
438.5	95.5
438.721	93.5
438.943	97.5
439.165	101.5
439.386	92.5
439.608	85.5
439.829	90.5
440.05	100.5
440.272	101.5
440.493	101.5
440.715	93.5
440.936	110.5
441.158	93.5
441.379	97.5
441.6	87.5
441.822	94.5
442.043	82.5
442.264	104.5
442.486	104.5
442.707	103.5
442.928	86.5
443.149	99.5
443.371	112.5
443.592	110.5
443.813	94.5
444.034	108.5
444.255	90.5
444.476	100.5
444.698	75.5
444.919	101.5
445.14	194.5
445.361	140.5
445.582	90.5
445.803	101.5
446.024	108.5
446.245	114.5
446.466	93.5
446.687	106.5
446.908	103.5
447.129	96.5
447.35	112.5
447.571	97.5
447.792	110.5
448.013	100.5
448.234	92.5
448.455	93.5
448.675	88.5
448.896	76.5
449.117	110.5
449.338	100.5
449.559	77.5
449.779	98.5
450	97.5
450.221	91.5
450.442	80.5
450.662	93.5
450.883	91.5
451.104	92.5
451.324	96.5
451.545	83.5
451.766	90.5
451.986	104.5
452.207	81.5
452.428	90.5
452.648	96.5
452.869	92.5
453.089	96.5
453.31	91.5
453.53	90.5
453.751	83.5
453.971	84.5
454.192	80.5
454.412	92.5
454.633	99.5
454.853	73.5
455.073	83.5
455.294	78.5
455.514	88.5
455.734	90.5
455.955	89.5
456.175	79.5
456.395	73.5
456.616	78.5
456.836	92.5
457.056	81.5
457.276	101.5
457.497	89.5
457.717	86.5
457.937	91.5
458.157	109.5
458.377	93.5
458.598	85.5
458.818	81.5
459.038	73.5
459.258	69.5
459.478	72.5
459.698	82.5
459.918	73.5
460.138	100.5
460.358	95.5
460.578	87.5
460.798	80.5
461.018	88.5
461.238	89.5
461.458	86.5
461.678	82.5
461.898	89.5
462.118	86.5
462.338	98.5
462.558	88.5
462.777	82.5
462.997	62.5
463.217	81.5
463.437	74.5
463.657	82.5
463.876	85.5
464.096	93.5
464.316	81.5
464.536	88.5
464.755	79.5
464.975	78.5
465.195	97.5
465.414	85.5
465.634	95.5
465.854	86.5
466.073	88.5
466.293	84.5
466.512	92.5
466.732	82.5
466.951	89.5
467.171	81.5
467.391	91.5
467.61	90.5
467.829	87.5
468.049	83.5
468.268	93.5
468.488	96.5
468.707	86.5
468.927	85.5
469.146	95.5
469.365	104.5
469.585	90.5
469.804	96.5
470.023	89.5
470.243	84.5
470.462	89.5
470.681	97.5
470.901	113.5
471.12	83.5
471.339	88.5
471.558	94.5
471.777	109.5
471.997	86.5
472.216	87.5
472.435	98.5
472.654	93.5
472.873	80.5
473.092	85.5
473.311	92.5
473.53	95.5
473.749	87.5
473.968	94.5
474.187	81.5
474.406	92.5
474.625	110.5
474.844	106.5
475.063	88.5
475.282	105.5
475.501	90.5
475.72	99.5
475.939	108.5
476.158	100.5
476.377	98.5
476.596	102.5
476.814	98.5
477.033	96.5
477.252	80.5
477.471	92.5
477.69	89.5
477.908	115.5
478.127	98.5
478.346	96.5
478.564	86.5
478.783	81.5
479.002	106.5
479.22	91.5
479.439	85.5
479.658	88.5
479.876	84.5
480.095	78.5
480.313	82.5
480.532	85.5
480.751	96.5
480.969	80.5
481.188	90.5
481.406	83.5
481.624	72.5
481.843	86.5
482.061	93.5
482.28	87.5
482.498	89.5
482.717	95.5
482.935	104.5
483.153	81.5
483.372	105.5
483.59	104.5
483.808	98.5
484.027	85.5
484.245	88.5
484.463	87.5
484.681	97.5
484.9	96.5
485.118	93.5
485.336	85.5
485.554	91.5
485.772	75.5
485.99	84.5
486.209	97.5
486.427	84.5
486.645	89.5
486.863	108.5
487.081	96.5
487.299	101.5
487.517	96.5
487.735	90.5
487.953	100.5
488.171	117.5
488.389	104.5
488.607	94.5
488.825	90.5
489.043	88.5
489.261	92.5
489.479	88.5
489.696	103.5
489.914	89.5
490.132	102.5
490.35	92.5
490.568	91.5
490.786	115.5
491.003	99.5
491.221	96.5
491.439	113.5
491.657	122.5
491.874	116.5
492.092	137.5
492.31	121.5
492.527	112.5
492.745	105.5
492.963	118.5
493.18	108.5
493.398	108.5
493.615	105.5
493.833	106.5
494.05	115.5
494.268	101.5
494.485	108.5
494.703	107.5
494.92	122.5
495.138	92.5
495.355	98.5
495.573	111.5
495.79	111.5
496.008	104.5
496.225	93.5
496.442	99.5
496.66	118.5
496.877	113.5
497.094	116.5
497.312	93.5
497.529	116.5
497.746	96.5
497.963	94.5
498.181	91.5
498.398	101.5
498.615	95.5
498.832	105.5
499.049	89.5
499.267	85.5
499.484	93.5
499.701	98.5
499.918	96.5
500.135	114.5
500.352	101.5
500.569	98.5
500.786	93.5
501.003	98.5
501.22	98.5
501.437	116.5
501.654	96.5
501.871	81.5
502.088	85.5
502.305	76.5
502.522	101.5
502.739	94.5
502.956	90.5
503.172	88.5
503.389	89.5
503.606	85.5
503.823	86.5
504.04	100.5
504.256	98.5
504.473	103.5
504.69	91.5
504.907	110.5
505.123	86.5
505.34	73.5
505.557	87.5
505.773	107.5
505.99	88.5
506.207	81.5
506.423	98.5
506.64	76.5
506.856	116.5
507.073	87.5
507.289	95.5
507.506	91.5
507.722	103.5
507.939	90.5
508.155	109.5
508.372	85.5
508.588	95.5
508.805	80.5
509.021	103.5
509.238	72.5
509.454	91.5
509.67	80.5
509.887	91.5
510.103	89.5
510.319	94.5
510.536	72.5
510.752	90.5
510.968	97.5
511.184	73.5
511.401	69.5
511.617	96.5
511.833	76.5
512.049	68.5
512.265	74.5
512.481	78.5
512.698	87.5
512.914	90.5
513.13	80.5
513.346	75.5
513.562	84.5
513.778	89.5
513.994	92.5
514.21	76.5
514.426	91.5
514.642	98.5
514.858	82.5
515.074	81.5
515.29	88.5
515.506	79.5
515.721	86.5
515.937	84.5
516.153	91.5
516.369	86.5
516.585	82.5
516.801	88.5
517.016	72.5
517.232	84.5
517.448	77.5
517.664	88.5
517.879	75.5
518.095	95.5
518.311	74.5
518.527	84.5
518.742	86.5
518.958	79.5
519.173	89.5
519.389	94.5
519.605	90.5
519.82	89.5
520.036	87.5
520.251	88.5
520.467	91.5
520.682	88.5
520.898	68.5
521.113	83.5
521.329	74.5
521.544	84.5
521.76	84.5
521.975	78.5
522.19	85.5
522.406	79.5
522.621	69.5
522.836	88.5
523.052	94.5
523.267	91.5
523.482	76.5
523.698	88.5
523.913	89.5
524.128	94.5
524.343	74.5
524.559	97.5
524.774	92.5
524.989	83.5
525.204	100.5
525.419	101.5
525.634	101.5
525.849	89.5
526.064	87.5
526.28	96.5
526.495	101.5
526.71	67.5
526.925	85.5
527.14	88.5
527.355	73.5
527.57	100.5
527.785	71.5
527.999	61.5
528.214	91.5
528.429	93.5
528.644	88.5
528.859	102.5
529.074	110.5
529.289	111.5
529.503	103.5
529.718	100.5
529.933	92.5
530.148	78.5
530.363	81.5
530.577	74.5
530.792	87.5
531.007	85.5
531.221	73.5
531.436	100.5
531.651	81.5
531.865	71.5
532.08	80.5
532.295	80.5
532.509	89.5
532.724	82.5
532.938	82.5
533.153	92.5
533.367	79.5
533.582	98.5
533.796	108.5
534.011	78.5
534.225	99.5
534.44	80.5
534.654	84.5
534.868	85.5
535.083	85.5
535.297	79.5
535.511	96.5
535.726	81.5
535.94	79.5
536.154	83.5
536.369	85.5
536.583	80.5
536.797	66.5
537.011	77.5
537.225	75.5
537.44	91.5
537.654	80.5
537.868	84.5
