Data from Location4.07152019.Energy5.Lamp.07192019.3%Agarose_HRD10591_15-23-41-576.txt Node
Date: Fri Jul 19 15:23:41 EDT 2019
User: cochatt
Spectrometer: HR+D1059
Trigger mode: 1
Integration Time (sec): 1.000000E-1
Scans to average: 1
Electric dark correction enabled: true
Nonlinearity correction enabled: false
Boxcar width: 0
XAxis mode: Wavelengths
Number of Pixels in Spectrum: 2048
>>>>>Begin Spectral Data<<<<<
223.165	-2.62
223.4	-2.62
223.635	-2.62
223.869	-18.62
224.104	-24.62
224.338	-10.62
224.573	-12.62
224.808	-20.62
225.042	-6.62
225.277	-12.62
225.511	-0.62
225.746	4.38
225.98	5.38
226.215	6.38
226.449	20.38
226.683	31.38
226.918	20.38
227.152	21.38
227.387	32.38
227.621	39.38
227.856	50.38
228.09	48.38
228.324	38.38
228.559	65.38
228.793	57.38
229.027	58.38
229.262	61.38
229.496	70.38
229.73	60.38
229.964	68.38
230.199	67.38
230.433	76.38
230.667	87.38
230.901	72.38
231.136	75.38
231.37	88.38
231.604	77.38
231.838	74.38
232.072	83.38
232.306	86.38
232.541	80.38
232.775	81.38
233.009	89.38
233.243	85.38
233.477	88.38
233.711	86.38
233.945	75.38
234.179	85.38
234.413	75.38
234.647	78.38
234.881	65.38
235.115	77.38
235.349	74.38
235.583	90.38
235.817	76.38
236.051	80.38
236.285	77.38
236.519	73.38
236.753	71.38
236.987	76.38
237.221	86.38
237.455	83.38
237.689	81.38
237.922	84.38
238.156	83.38
238.39	96.38
238.624	74.38
238.858	70.38
239.091	82.38
239.325	81.38
239.559	78.38
239.793	84.38
240.027	73.38
240.26	75.38
240.494	83.38
240.728	80.38
240.961	78.38
241.195	81.38
241.429	80.38
241.662	102.38
241.896	82.38
242.13	77.38
242.363	91.38
242.597	76.38
242.83	82.38
243.064	83.38
243.298	82.38
243.531	80.38
243.765	96.38
243.998	88.38
244.232	82.38
244.465	85.38
244.699	77.38
244.932	84.38
245.166	71.38
245.399	90.38
245.633	75.38
245.866	79.38
246.099	65.38
246.333	80.38
246.566	82.38
246.8	84.38
247.033	81.38
247.266	62.38
247.5	78.38
247.733	80.38
247.966	72.38
248.2	77.38
248.433	79.38
248.666	68.38
248.899	88.38
249.133	85.38
249.366	62.38
249.599	72.38
249.832	75.38
250.066	89.38
250.299	87.38
250.532	84.38
250.765	74.38
250.998	70.38
251.231	76.38
251.465	104.38
251.698	80.38
251.931	75.38
252.164	65.38
252.397	75.38
252.63	66.38
252.863	83.38
253.096	81.38
253.329	86.38
253.562	73.38
253.795	76.38
254.028	86.38
254.261	74.38
254.494	81.38
254.727	70.38
254.96	83.38
255.193	75.38
255.426	77.38
255.659	75.38
255.892	89.38
256.124	75.38
256.357	74.38
256.59	88.38
256.823	64.38
257.056	70.38
257.289	90.38
257.521	83.38
257.754	85.38
257.987	82.38
258.22	84.38
258.452	77.38
258.685	83.38
258.918	76.38
259.151	74.38
259.383	80.38
259.616	72.38
259.849	84.38
260.081	85.38
260.314	84.38
260.547	86.38
260.779	70.38
261.012	73.38
261.244	75.38
261.477	89.38
261.71	82.38
261.942	92.38
262.175	70.38
262.407	76.38
262.64	70.38
262.872	75.38
263.105	82.38
263.337	76.38
263.57	91.38
263.802	83.38
264.035	73.38
264.267	86.38
264.499	77.38
264.732	73.38
264.964	79.38
265.197	87.38
265.429	71.38
265.661	85.38
265.894	84.38
266.126	90.38
266.358	82.38
266.591	87.38
266.823	95.38
267.055	82.38
267.287	89.38
267.52	83.38
267.752	95.38
267.984	90.38
268.216	73.38
268.448	82.38
268.681	88.38
268.913	72.38
269.145	83.38
269.377	76.38
269.609	76.38
269.841	74.38
270.073	70.38
270.306	82.38
270.538	84.38
270.77	80.38
271.002	81.38
271.234	66.38
271.466	89.38
271.698	88.38
271.93	74.38
272.162	78.38
272.394	88.38
272.626	84.38
272.858	83.38
273.09	77.38
273.322	84.38
273.553	82.38
273.785	85.38
274.017	101.38
274.249	77.38
274.481	88.38
274.713	86.38
274.945	80.38
275.176	76.38
275.408	93.38
275.64	75.38
275.872	87.38
276.104	75.38
276.335	92.38
276.567	87.38
276.799	70.38
277.031	72.38
277.262	75.38
277.494	80.38
277.726	75.38
277.957	69.38
278.189	73.38
278.421	80.38
278.652	83.38
278.884	83.38
279.115	77.38
279.347	83.38
279.579	89.38
279.81	84.38
280.042	89.38
280.273	80.38
280.505	85.38
280.736	86.38
280.968	84.38
281.199	85.38
281.431	89.38
281.662	100.38
281.894	84.38
282.125	82.38
282.356	84.38
282.588	91.38
282.819	95.38
283.051	97.38
283.282	89.38
283.513	85.38
283.745	94.38
283.976	88.38
284.207	83.38
284.439	90.38
284.67	101.38
284.901	88.38
285.132	85.38
285.364	79.38
285.595	90.38
285.826	85.38
286.057	81.38
286.288	81.38
286.52	90.38
286.751	102.38
286.982	90.38
287.213	78.38
287.444	75.38
287.675	83.38
287.906	88.38
288.138	80.38
288.369	91.38
288.6	75.38
288.831	86.38
289.062	75.38
289.293	101.38
289.524	87.38
289.755	84.38
289.986	74.38
290.217	78.38
290.448	87.38
290.679	91.38
290.91	97.38
291.141	85.38
291.371	102.38
291.602	86.38
291.833	82.38
292.064	98.38
292.295	86.38
292.526	79.38
292.757	71.38
292.987	88.38
293.218	80.38
293.449	85.38
293.68	91.38
293.91	90.38
294.141	90.38
294.372	84.38
294.603	80.38
294.833	78.38
295.064	93.38
295.295	82.38
295.525	93.38
295.756	100.38
295.987	95.38
296.217	87.38
296.448	77.38
296.679	65.38
296.909	87.38
297.14	101.38
297.37	77.38
297.601	84.38
297.831	81.38
298.062	76.38
298.292	86.38
298.523	86.38
298.753	90.38
298.984	106.38
299.214	85.38
299.445	92.38
299.675	108.38
299.905	89.38
300.136	92.38
300.366	91.38
300.597	89.38
300.827	88.38
301.057	91.38
301.288	78.38
301.518	90.38
301.748	87.38
301.979	92.38
302.209	80.38
302.439	85.38
302.669	90.38
302.9	90.38
303.13	78.38
303.36	82.38
303.59	75.38
303.82	87.38
304.051	85.38
304.281	96.38
304.511	97.38
304.741	96.38
304.971	90.38
305.201	90.38
305.431	92.38
305.661	102.38
305.891	86.38
306.121	92.38
306.352	87.38
306.582	79.38
306.812	89.38
307.042	86.38
307.272	81.38
307.502	91.38
307.731	83.38
307.961	93.38
308.191	81.38
308.421	75.38
308.651	73.38
308.881	98.38
309.111	94.38
309.341	84.38
309.571	87.38
309.8	92.38
310.03	85.38
310.26	82.38
310.49	82.38
310.72	87.38
310.949	84.38
311.179	99.38
311.409	90.38
311.639	84.38
311.868	90.38
312.098	92.38
312.328	102.38
312.557	96.38
312.787	98.38
313.017	85.38
313.246	96.38
313.476	99.38
313.706	80.38
313.935	95.38
314.165	95.38
314.394	99.38
314.624	82.38
314.853	96.38
315.083	86.38
315.312	86.38
315.542	90.38
315.771	84.38
316.001	96.38
316.23	87.38
316.46	85.38
316.689	90.38
316.919	84.38
317.148	92.38
317.377	90.38
317.607	86.38
317.836	86.38
318.065	88.38
318.295	93.38
318.524	77.38
318.753	85.38
318.983	85.38
319.212	85.38
319.441	81.38
319.67	77.38
319.9	94.38
320.129	89.38
320.358	90.38
320.587	93.38
320.816	79.38
321.046	85.38
321.275	102.38
321.504	84.38
321.733	91.38
321.962	74.38
322.191	96.38
322.42	94.38
322.649	84.38
322.878	81.38
323.108	77.38
323.337	84.38
323.566	83.38
323.795	89.38
324.024	88.38
324.253	97.38
324.482	71.38
324.71	86.38
324.939	98.38
325.168	88.38
325.397	95.38
325.626	89.38
325.855	86.38
326.084	84.38
326.313	80.38
326.542	86.38
326.77	77.38
326.999	89.38
327.228	92.38
327.457	90.38
327.686	75.38
327.914	89.38
328.143	87.38
328.372	83.38
328.6	88.38
328.829	87.38
329.058	79.38
329.287	80.38
329.515	85.38
329.744	87.38
329.972	80.38
330.201	68.38
330.43	83.38
330.658	88.38
330.887	83.38
331.115	88.38
331.344	89.38
331.572	85.38
331.801	81.38
332.03	90.38
332.258	79.38
332.486	92.38
332.715	77.38
332.943	91.38
333.172	65.38
333.4	73.38
333.629	91.38
333.857	70.38
334.085	83.38
334.314	86.38
334.542	74.38
334.771	89.38
334.999	91.38
335.227	83.38
335.455	86.38
335.684	97.38
335.912	77.38
336.14	85.38
336.369	84.38
336.597	82.38
336.825	82.38
337.053	87.38
337.281	77.38
337.51	76.38
337.738	90.38
337.966	82.38
338.194	71.38
338.422	72.38
338.65	76.38
338.878	88.38
339.106	78.38
339.334	88.38
339.562	82.38
339.79	80.38
340.018	84.38
340.246	80.38
340.474	80.38
340.702	87.38
340.93	92.38
341.158	85.38
341.386	92.38
341.614	89.38
341.842	93.38
342.07	90.38
342.298	89.38
342.526	82.38
342.754	86.38
342.981	89.38
343.209	94.38
343.437	81.38
343.665	91.38
343.893	101.38
344.12	92.38
344.348	93.38
344.576	95.38
344.804	96.38
345.031	96.38
345.259	90.38
345.487	79.38
345.714	83.38
345.942	105.38
346.17	103.38
346.397	83.38
346.625	77.38
346.853	81.38
347.08	67.38
347.308	88.38
347.535	80.38
347.763	72.38
347.99	108.38
348.218	105.38
348.445	95.38
348.673	97.38
348.9	71.38
349.128	80.38
349.355	80.38
349.583	80.38
349.81	73.38
350.037	82.38
350.265	100.38
350.492	87.38
350.72	85.38
350.947	68.38
351.174	90.38
351.402	80.38
351.629	85.38
351.856	95.38
352.083	78.38
352.311	95.38
352.538	85.38
352.765	87.38
352.992	83.38
353.22	87.38
353.447	72.38
353.674	87.38
353.901	94.38
354.128	81.38
354.355	90.38
354.583	79.38
354.81	73.38
355.037	88.38
355.264	100.38
355.491	92.38
355.718	90.38
355.945	73.38
356.172	80.38
356.399	91.38
356.626	80.38
356.853	78.38
357.08	85.38
357.307	95.38
357.534	89.38
357.761	85.38
357.988	87.38
358.215	81.38
358.441	100.38
358.668	74.38
358.895	67.38
359.122	73.38
359.349	89.38
359.576	85.38
359.802	81.38
360.029	86.38
360.256	80.38
360.483	77.38
360.709	85.38
360.936	82.38
361.163	88.38
361.39	83.38
361.616	92.38
361.843	81.38
362.07	103.38
362.296	87.38
362.523	80.38
362.749	93.38
362.976	89.38
363.203	71.38
363.429	76.38
363.656	92.38
363.882	73.38
364.109	95.38
364.335	83.38
364.562	75.38
364.788	89.38
365.015	69.38
365.241	77.38
365.468	91.38
365.694	90.38
365.92	85.38
366.147	90.38
366.373	84.38
366.599	82.38
366.826	81.38
367.052	74.38
367.278	85.38
367.505	66.38
367.731	103.38
367.957	100.38
368.184	83.38
368.41	73.38
368.636	96.38
368.862	94.38
369.089	88.38
369.315	72.38
369.541	92.38
369.767	80.38
369.993	87.38
370.219	89.38
370.445	89.38
370.672	89.38
370.898	94.38
371.124	79.38
371.35	90.38
371.576	85.38
371.802	70.38
372.028	89.38
372.254	84.38
372.48	95.38
372.706	68.38
372.932	78.38
373.158	86.38
373.384	82.38
373.61	79.38
373.835	87.38
374.061	97.38
374.287	77.38
374.513	72.38
374.739	92.38
374.965	92.38
375.191	90.38
375.416	71.38
375.642	78.38
375.868	87.38
376.094	83.38
376.319	72.38
376.545	91.38
376.771	85.38
376.997	85.38
377.222	93.38
377.448	89.38
377.674	103.38
377.899	83.38
378.125	70.38
378.35	82.38
378.576	87.38
378.802	79.38
379.027	82.38
379.253	87.38
379.478	72.38
379.704	101.38
379.929	84.38
380.155	87.38
380.38	83.38
380.606	74.38
380.831	87.38
381.057	83.38
381.282	96.38
381.507	101.38
381.733	91.38
381.958	92.38
382.184	91.38
382.409	76.38
382.634	91.38
382.86	88.38
383.085	88.38
383.31	95.38
383.535	90.38
383.761	90.38
383.986	94.38
384.211	84.38
384.436	89.38
384.662	86.38
384.887	87.38
385.112	81.38
385.337	89.38
385.562	85.38
385.787	81.38
386.013	94.38
386.238	85.38
386.463	96.38
386.688	73.38
386.913	67.38
387.138	75.38
387.363	92.38
387.588	93.38
387.813	77.38
388.038	96.38
388.263	89.38
388.488	104.38
388.713	79.38
388.938	104.38
389.163	82.38
389.387	75.38
389.612	87.38
389.837	91.38
390.062	97.38
390.287	86.38
390.512	95.38
390.736	91.38
390.961	80.38
391.186	85.38
391.411	96.38
391.636	75.38
391.86	87.38
392.085	97.38
392.31	90.38
392.534	92.38
392.759	94.38
392.984	85.38
393.208	85.38
393.433	93.38
393.658	92.38
393.882	91.38
394.107	88.38
394.331	82.38
394.556	88.38
394.78	94.38
395.005	98.38
395.229	98.38
395.454	99.38
395.678	96.38
395.903	83.38
396.127	100.38
396.352	91.38
396.576	95.38
396.801	96.38
397.025	100.38
397.249	83.38
397.474	99.38
397.698	90.38
397.922	95.38
398.147	77.38
398.371	90.38
398.595	91.38
398.82	107.38
399.044	82.38
399.268	95.38
399.492	90.38
399.717	84.38
399.941	93.38
400.165	86.38
400.389	75.38
400.613	81.38
400.837	99.38
401.062	81.38
401.286	80.38
401.51	91.38
401.734	92.38
401.958	89.38
402.182	103.38
402.406	74.38
402.63	91.38
402.854	77.38
403.078	93.38
403.302	84.38
403.526	82.38
403.75	89.38
403.974	83.38
404.198	85.38
404.422	103.38
404.645	88.38
404.869	82.38
405.093	82.38
405.317	83.38
405.541	95.38
405.765	82.38
405.988	81.38
406.212	82.38
406.436	92.38
406.66	85.38
406.883	86.38
407.107	88.38
407.331	99.38
407.555	95.38
407.778	84.38
408.002	83.38
408.226	97.38
408.449	92.38
408.673	97.38
408.896	96.38
409.12	82.38
409.344	92.38
409.567	94.38
409.791	96.38
410.014	100.38
410.238	93.38
410.461	88.38
410.685	100.38
410.908	96.38
411.132	85.38
411.355	81.38
411.578	88.38
411.802	97.38
412.025	85.38
412.249	101.38
412.472	105.38
412.695	99.38
412.919	96.38
413.142	88.38
413.365	93.38
413.589	89.38
413.812	86.38
414.035	85.38
414.258	105.38
414.482	92.38
414.705	102.38
414.928	102.38
415.151	84.38
415.374	88.38
415.597	90.38
415.821	99.38
416.044	100.38
416.267	100.38
416.49	88.38
416.713	94.38
416.936	100.38
417.159	93.38
417.382	86.38
417.605	99.38
417.828	89.38
418.051	87.38
418.274	112.38
418.497	97.38
418.72	99.38
418.943	95.38
419.166	89.38
419.389	91.38
419.611	92.38
419.834	95.38
420.057	100.38
420.28	108.38
420.503	93.38
420.726	80.38
420.948	103.38
421.171	106.38
421.394	97.38
421.617	95.38
421.839	98.38
422.062	111.38
422.285	104.38
422.507	95.38
422.73	94.38
422.953	87.38
423.175	102.38
423.398	90.38
423.621	97.38
423.843	100.38
424.066	98.38
424.288	109.38
424.511	102.38
424.733	96.38
424.956	97.38
425.178	92.38
425.401	90.38
425.623	83.38
425.846	99.38
426.068	110.38
426.291	99.38
426.513	102.38
426.735	102.38
426.958	89.38
427.18	93.38
427.402	97.38
427.625	100.38
427.847	78.38
428.069	82.38
428.292	90.38
428.514	83.38
428.736	93.38
428.958	89.38
429.181	100.38
429.403	86.38
429.625	91.38
429.847	112.38
430.069	91.38
430.292	92.38
430.514	92.38
430.736	99.38
430.958	83.38
431.18	85.38
431.402	85.38
431.624	83.38
431.846	98.38
432.068	72.38
432.29	73.38
432.512	93.38
432.734	88.38
432.956	95.38
433.178	95.38
433.4	99.38
433.622	92.38
433.844	102.38
434.066	89.38
434.287	91.38
434.509	84.38
434.731	81.38
434.953	81.38
435.175	90.38
435.397	87.38
435.618	84.38
435.84	97.38
436.062	85.38
436.284	97.38
436.505	91.38
436.727	88.38
436.949	88.38
437.17	85.38
437.392	98.38
437.614	106.38
437.835	79.38
438.057	92.38
438.278	98.38
438.5	89.38
438.721	110.38
438.943	91.38
439.165	95.38
439.386	95.38
439.608	115.38
439.829	97.38
440.05	95.38
440.272	106.38
440.493	96.38
440.715	96.38
440.936	92.38
441.158	81.38
441.379	101.38
441.6	94.38
441.822	104.38
442.043	98.38
442.264	100.38
442.486	92.38
442.707	88.38
442.928	91.38
443.149	95.38
443.371	106.38
443.592	91.38
443.813	106.38
444.034	109.38
444.255	109.38
444.476	97.38
444.698	95.38
444.919	84.38
445.14	176.38
445.361	150.38
445.582	98.38
445.803	91.38
446.024	112.38
446.245	105.38
446.466	113.38
446.687	94.38
446.908	103.38
447.129	110.38
447.35	100.38
447.571	88.38
447.792	98.38
448.013	90.38
448.234	101.38
448.455	99.38
448.675	101.38
448.896	94.38
449.117	98.38
449.338	83.38
449.559	105.38
449.779	98.38
450	91.38
450.221	100.38
450.442	101.38
450.662	98.38
450.883	94.38
451.104	101.38
451.324	85.38
451.545	98.38
451.766	98.38
451.986	88.38
452.207	99.38
452.428	101.38
452.648	102.38
452.869	91.38
453.089	83.38
453.31	97.38
453.53	105.38
453.751	88.38
453.971	93.38
454.192	86.38
454.412	98.38
454.633	88.38
454.853	90.38
455.073	91.38
455.294	83.38
455.514	89.38
455.734	99.38
455.955	88.38
456.175	80.38
456.395	95.38
456.616	89.38
456.836	93.38
457.056	92.38
457.276	76.38
457.497	75.38
457.717	73.38
457.937	104.38
458.157	93.38
458.377	81.38
458.598	75.38
458.818	81.38
459.038	90.38
459.258	83.38
459.478	91.38
459.698	92.38
459.918	95.38
460.138	99.38
460.358	82.38
460.578	93.38
460.798	83.38
461.018	94.38
461.238	88.38
461.458	80.38
461.678	92.38
461.898	86.38
462.118	104.38
462.338	99.38
462.558	90.38
462.777	87.38
462.997	95.38
463.217	80.38
463.437	93.38
463.657	82.38
463.876	82.38
464.096	103.38
464.316	100.38
464.536	95.38
464.755	103.38
464.975	87.38
465.195	89.38
465.414	101.38
465.634	111.38
465.854	99.38
466.073	96.38
466.293	101.38
466.512	100.38
466.732	109.38
466.951	88.38
467.171	90.38
467.391	95.38
467.61	94.38
467.829	82.38
468.049	93.38
468.268	99.38
468.488	106.38
468.707	102.38
468.927	85.38
469.146	96.38
469.365	102.38
469.585	99.38
469.804	108.38
470.023	91.38
470.243	92.38
470.462	88.38
470.681	84.38
470.901	102.38
471.12	106.38
471.339	89.38
471.558	95.38
471.777	94.38
471.997	99.38
472.216	102.38
472.435	89.38
472.654	93.38
472.873	88.38
473.092	91.38
473.311	100.38
473.53	113.38
473.749	99.38
473.968	97.38
474.187	100.38
474.406	100.38
474.625	93.38
474.844	92.38
475.063	93.38
475.282	91.38
475.501	90.38
475.72	90.38
475.939	95.38
476.158	102.38
476.377	102.38
476.596	84.38
476.814	93.38
477.033	85.38
477.252	84.38
477.471	100.38
477.69	88.38
477.908	89.38
478.127	96.38
478.346	91.38
478.564	87.38
478.783	99.38
479.002	103.38
479.22	97.38
479.439	102.38
479.658	89.38
479.876	91.38
480.095	99.38
480.313	86.38
480.532	91.38
480.751	86.38
480.969	80.38
481.188	94.38
481.406	72.38
481.624	79.38
481.843	81.38
482.061	82.38
482.28	100.38
482.498	90.38
482.717	98.38
482.935	93.38
483.153	91.38
483.372	105.38
483.59	99.38
483.808	103.38
484.027	106.38
484.245	99.38
484.463	104.38
484.681	114.38
484.9	116.38
485.118	95.38
485.336	88.38
485.554	88.38
485.772	99.38
485.99	91.38
486.209	97.38
486.427	94.38
486.645	96.38
486.863	103.38
487.081	88.38
487.299	98.38
487.517	89.38
487.735	98.38
487.953	95.38
488.171	118.38
488.389	116.38
488.607	90.38
488.825	104.38
489.043	87.38
489.261	108.38
489.479	107.38
489.696	96.38
489.914	90.38
490.132	97.38
490.35	102.38
490.568	95.38
490.786	104.38
491.003	115.38
491.221	111.38
491.439	106.38
491.657	110.38
491.874	104.38
492.092	113.38
492.31	115.38
492.527	115.38
492.745	123.38
492.963	95.38
493.18	95.38
493.398	121.38
493.615	123.38
493.833	131.38
494.05	108.38
494.268	103.38
494.485	107.38
494.703	108.38
494.92	112.38
495.138	114.38
495.355	104.38
495.573	127.38
495.79	94.38
496.008	113.38
496.225	88.38
496.442	119.38
496.66	98.38
496.877	101.38
497.094	100.38
497.312	114.38
497.529	109.38
497.746	106.38
497.963	101.38
498.181	98.38
498.398	87.38
498.615	92.38
498.832	88.38
499.049	98.38
499.267	88.38
499.484	87.38
499.701	94.38
499.918	106.38
500.135	90.38
500.352	100.38
500.569	104.38
500.786	112.38
501.003	105.38
501.22	101.38
501.437	77.38
501.654	98.38
501.871	96.38
502.088	84.38
502.305	104.38
502.522	86.38
502.739	84.38
502.956	104.38
503.172	98.38
503.389	86.38
503.606	89.38
503.823	82.38
504.04	119.38
504.256	106.38
504.473	97.38
504.69	84.38
504.907	90.38
505.123	98.38
505.34	96.38
505.557	105.38
505.773	104.38
505.99	95.38
506.207	93.38
506.423	76.38
506.64	98.38
506.856	98.38
507.073	70.38
507.289	93.38
507.506	112.38
507.722	105.38
507.939	98.38
508.155	102.38
508.372	91.38
508.588	101.38
508.805	92.38
509.021	98.38
509.238	93.38
509.454	84.38
509.67	90.38
509.887	84.38
510.103	85.38
510.319	95.38
510.536	84.38
510.752	79.38
510.968	82.38
511.184	77.38
511.401	87.38
511.617	84.38
511.833	88.38
512.049	86.38
512.265	87.38
512.481	86.38
512.698	84.38
512.914	84.38
513.13	97.38
513.346	71.38
513.562	92.38
513.778	88.38
513.994	91.38
514.21	83.38
514.426	75.38
514.642	98.38
514.858	87.38
515.074	87.38
515.29	86.38
515.506	75.38
515.721	70.38
515.937	93.38
516.153	97.38
516.369	73.38
516.585	83.38
516.801	84.38
517.016	91.38
