Data from Location4.07152019.Energy5.Lamp.07192019.3%Agarose_HRD10591_15-24-00-577.txt Node
Date: Fri Jul 19 15:24:00 EDT 2019
User: cochatt
Spectrometer: HR+D1059
Trigger mode: 1
Integration Time (sec): 1.000000E-1
Scans to average: 1
Electric dark correction enabled: true
Nonlinearity correction enabled: false
Boxcar width: 0
XAxis mode: Wavelengths
Number of Pixels in Spectrum: 2048
>>>>>Begin Spectral Data<<<<<
223.165	-26.38
223.4	-26.38
223.635	-26.38
223.869	-22.38
224.104	-21.38
224.338	-21.38
224.573	-3.38
224.808	-19.38
225.042	-5.38
225.277	-0.38
225.511	-6.38
225.746	-12.38
225.98	17.62
226.215	18.62
226.449	19.62
226.683	20.62
226.918	25.62
227.152	36.62
227.387	29.62
227.621	46.62
227.856	37.62
228.09	41.62
228.324	48.62
228.559	39.62
228.793	49.62
229.027	74.62
229.262	63.62
229.496	73.62
229.73	74.62
229.964	67.62
230.199	70.62
230.433	72.62
230.667	71.62
230.901	79.62
231.136	76.62
231.37	102.62
231.604	90.62
231.838	88.62
232.072	77.62
232.306	67.62
232.541	79.62
232.775	79.62
233.009	98.62
233.243	73.62
233.477	90.62
233.711	81.62
233.945	91.62
234.179	85.62
234.413	80.62
234.647	67.62
234.881	90.62
235.115	88.62
235.349	89.62
235.583	74.62
235.817	84.62
236.051	81.62
236.285	68.62
236.519	70.62
236.753	66.62
236.987	74.62
237.221	90.62
237.455	88.62
237.689	71.62
237.922	78.62
238.156	73.62
238.39	77.62
238.624	77.62
238.858	78.62
239.091	72.62
239.325	82.62
239.559	77.62
239.793	71.62
240.027	75.62
240.26	71.62
240.494	64.62
240.728	73.62
240.961	79.62
241.195	60.62
241.429	89.62
241.662	65.62
241.896	82.62
242.13	79.62
242.363	80.62
242.597	72.62
242.83	71.62
243.064	74.62
243.298	84.62
243.531	87.62
243.765	73.62
243.998	74.62
244.232	82.62
244.465	71.62
244.699	76.62
244.932	82.62
245.166	85.62
245.399	77.62
245.633	82.62
245.866	65.62
246.099	80.62
246.333	83.62
246.566	73.62
246.8	76.62
247.033	84.62
247.266	87.62
247.5	88.62
247.733	74.62
247.966	67.62
248.2	67.62
248.433	69.62
248.666	79.62
248.899	87.62
249.133	66.62
249.366	72.62
249.599	76.62
249.832	62.62
250.066	75.62
250.299	76.62
250.532	62.62
250.765	76.62
250.998	84.62
251.231	92.62
251.465	75.62
251.698	75.62
251.931	85.62
252.164	82.62
252.397	72.62
252.63	88.62
252.863	71.62
253.096	78.62
253.329	75.62
253.562	77.62
253.795	69.62
254.028	83.62
254.261	85.62
254.494	82.62
254.727	83.62
254.96	83.62
255.193	75.62
255.426	76.62
255.659	75.62
255.892	76.62
256.124	71.62
256.357	77.62
256.59	68.62
256.823	91.62
257.056	60.62
257.289	80.62
257.521	75.62
257.754	72.62
257.987	89.62
258.22	82.62
258.452	86.62
258.685	66.62
258.918	88.62
259.151	72.62
259.383	86.62
259.616	79.62
259.849	53.62
260.081	85.62
260.314	82.62
260.547	85.62
260.779	87.62
261.012	72.62
261.244	83.62
261.477	77.62
261.71	83.62
261.942	79.62
262.175	82.62
262.407	71.62
262.64	65.62
262.872	82.62
263.105	85.62
263.337	73.62
263.57	86.62
263.802	89.62
264.035	92.62
264.267	89.62
264.499	90.62
264.732	78.62
264.964	91.62
265.197	79.62
265.429	91.62
265.661	84.62
265.894	70.62
266.126	90.62
266.358	95.62
266.591	90.62
266.823	75.62
267.055	80.62
267.287	77.62
267.52	81.62
267.752	81.62
267.984	83.62
268.216	95.62
268.448	74.62
268.681	85.62
268.913	84.62
269.145	83.62
269.377	75.62
269.609	83.62
269.841	87.62
270.073	80.62
270.306	81.62
270.538	77.62
270.77	73.62
271.002	75.62
271.234	78.62
271.466	74.62
271.698	83.62
271.93	77.62
272.162	85.62
272.394	89.62
272.626	78.62
272.858	89.62
273.09	83.62
273.322	91.62
273.553	84.62
273.785	75.62
274.017	83.62
274.249	86.62
274.481	80.62
274.713	88.62
274.945	86.62
275.176	92.62
275.408	93.62
275.64	93.62
275.872	83.62
276.104	88.62
276.335	86.62
276.567	85.62
276.799	79.62
277.031	82.62
277.262	83.62
277.494	90.62
277.726	94.62
277.957	93.62
278.189	88.62
278.421	81.62
278.652	69.62
278.884	90.62
279.115	93.62
279.347	80.62
279.579	86.62
279.81	92.62
280.042	88.62
280.273	76.62
280.505	66.62
280.736	70.62
280.968	104.62
281.199	74.62
281.431	88.62
281.662	86.62
281.894	90.62
282.125	84.62
282.356	83.62
282.588	87.62
282.819	88.62
283.051	82.62
283.282	83.62
283.513	76.62
283.745	74.62
283.976	90.62
284.207	92.62
284.439	74.62
284.67	87.62
284.901	88.62
285.132	75.62
285.364	90.62
285.595	87.62
285.826	78.62
286.057	90.62
286.288	75.62
286.52	88.62
286.751	74.62
286.982	93.62
287.213	81.62
287.444	89.62
287.675	97.62
287.906	76.62
288.138	82.62
288.369	95.62
288.6	83.62
288.831	81.62
289.062	82.62
289.293	83.62
289.524	83.62
289.755	85.62
289.986	78.62
290.217	94.62
290.448	90.62
290.679	84.62
290.91	93.62
291.141	79.62
291.371	95.62
291.602	84.62
291.833	77.62
292.064	76.62
292.295	84.62
292.526	78.62
292.757	90.62
292.987	82.62
293.218	85.62
293.449	76.62
293.68	104.62
293.91	81.62
294.141	101.62
294.372	80.62
294.603	77.62
294.833	89.62
295.064	90.62
295.295	97.62
295.525	75.62
295.756	90.62
295.987	83.62
296.217	82.62
296.448	84.62
296.679	63.62
296.909	83.62
297.14	84.62
297.37	86.62
297.601	73.62
297.831	88.62
298.062	84.62
298.292	97.62
298.523	81.62
298.753	72.62
298.984	82.62
299.214	88.62
299.445	84.62
299.675	91.62
299.905	85.62
300.136	75.62
300.366	93.62
300.597	85.62
300.827	92.62
301.057	88.62
301.288	80.62
301.518	76.62
301.748	83.62
301.979	84.62
302.209	87.62
302.439	90.62
302.669	93.62
302.9	89.62
303.13	89.62
303.36	79.62
303.59	76.62
303.82	84.62
304.051	79.62
304.281	75.62
304.511	84.62
304.741	87.62
304.971	81.62
305.201	81.62
305.431	84.62
305.661	91.62
305.891	98.62
306.121	101.62
306.352	75.62
306.582	85.62
306.812	87.62
307.042	96.62
307.272	84.62
307.502	89.62
307.731	80.62
307.961	76.62
308.191	84.62
308.421	96.62
308.651	86.62
308.881	76.62
309.111	89.62
309.341	92.62
309.571	81.62
309.8	101.62
310.03	91.62
310.26	77.62
310.49	83.62
310.72	89.62
310.949	90.62
311.179	88.62
311.409	85.62
311.639	102.62
311.868	74.62
312.098	97.62
312.328	97.62
312.557	82.62
312.787	81.62
313.017	90.62
313.246	87.62
313.476	80.62
313.706	88.62
313.935	102.62
314.165	80.62
314.394	77.62
314.624	99.62
314.853	86.62
315.083	77.62
315.312	84.62
315.542	105.62
315.771	88.62
316.001	83.62
316.23	86.62
316.46	100.62
316.689	101.62
316.919	97.62
317.148	79.62
317.377	93.62
317.607	88.62
317.836	84.62
318.065	96.62
318.295	92.62
318.524	76.62
318.753	75.62
318.983	72.62
319.212	75.62
319.441	83.62
319.67	67.62
319.9	80.62
320.129	85.62
320.358	78.62
320.587	83.62
320.816	80.62
321.046	79.62
321.275	84.62
321.504	94.62
321.733	78.62
321.962	97.62
322.191	94.62
322.42	82.62
322.649	90.62
322.878	92.62
323.108	80.62
323.337	77.62
323.566	98.62
323.795	92.62
324.024	81.62
324.253	69.62
324.482	76.62
324.71	86.62
324.939	81.62
325.168	100.62
325.397	92.62
325.626	91.62
325.855	94.62
326.084	81.62
326.313	78.62
326.542	85.62
326.77	83.62
326.999	87.62
327.228	84.62
327.457	84.62
327.686	66.62
327.914	85.62
328.143	92.62
328.372	76.62
328.6	76.62
328.829	87.62
329.058	92.62
329.287	80.62
329.515	80.62
329.744	95.62
329.972	91.62
330.201	86.62
330.43	80.62
330.658	96.62
330.887	80.62
331.115	86.62
331.344	89.62
331.572	94.62
331.801	86.62
332.03	83.62
332.258	82.62
332.486	75.62
332.715	102.62
332.943	73.62
333.172	78.62
333.4	97.62
333.629	108.62
333.857	94.62
334.085	88.62
334.314	83.62
334.542	91.62
334.771	92.62
334.999	89.62
335.227	78.62
335.455	72.62
335.684	90.62
335.912	73.62
336.14	86.62
336.369	87.62
336.597	87.62
336.825	79.62
337.053	94.62
337.281	88.62
337.51	77.62
337.738	87.62
337.966	79.62
338.194	94.62
338.422	91.62
338.65	85.62
338.878	78.62
339.106	74.62
339.334	96.62
339.562	83.62
339.79	91.62
340.018	80.62
340.246	88.62
340.474	81.62
340.702	73.62
340.93	92.62
341.158	87.62
341.386	87.62
341.614	92.62
341.842	87.62
342.07	80.62
342.298	86.62
342.526	92.62
342.754	75.62
342.981	85.62
343.209	77.62
343.437	84.62
343.665	93.62
343.893	96.62
344.12	73.62
344.348	85.62
344.576	70.62
344.804	96.62
345.031	84.62
345.259	82.62
345.487	88.62
345.714	72.62
345.942	88.62
346.17	88.62
346.397	91.62
346.625	87.62
346.853	76.62
347.08	81.62
347.308	87.62
347.535	80.62
347.763	88.62
347.99	88.62
348.218	82.62
348.445	82.62
348.673	73.62
348.9	66.62
349.128	81.62
349.355	86.62
349.583	77.62
349.81	93.62
350.037	84.62
350.265	100.62
350.492	96.62
350.72	83.62
350.947	87.62
351.174	77.62
351.402	81.62
351.629	91.62
351.856	89.62
352.083	85.62
352.311	81.62
352.538	88.62
352.765	76.62
352.992	89.62
353.22	93.62
353.447	88.62
353.674	86.62
353.901	96.62
354.128	68.62
354.355	78.62
354.583	77.62
354.81	84.62
355.037	83.62
355.264	89.62
355.491	93.62
355.718	68.62
355.945	70.62
356.172	91.62
356.399	83.62
356.626	82.62
356.853	99.62
357.08	90.62
357.307	97.62
357.534	79.62
357.761	71.62
357.988	74.62
358.215	67.62
358.441	85.62
358.668	78.62
358.895	84.62
359.122	77.62
359.349	109.62
359.576	91.62
359.802	96.62
360.029	89.62
360.256	92.62
360.483	88.62
360.709	78.62
360.936	84.62
361.163	85.62
361.39	86.62
361.616	87.62
361.843	82.62
362.07	82.62
362.296	79.62
362.523	83.62
362.749	84.62
362.976	84.62
363.203	75.62
363.429	70.62
363.656	89.62
363.882	92.62
364.109	86.62
364.335	86.62
364.562	86.62
364.788	90.62
365.015	79.62
365.241	90.62
365.468	95.62
365.694	90.62
365.92	95.62
366.147	87.62
366.373	95.62
366.599	93.62
366.826	76.62
367.052	88.62
367.278	77.62
367.505	86.62
367.731	82.62
367.957	88.62
368.184	82.62
368.41	89.62
368.636	81.62
368.862	86.62
369.089	95.62
369.315	89.62
369.541	89.62
369.767	90.62
369.993	82.62
370.219	92.62
370.445	90.62
370.672	75.62
370.898	97.62
371.124	94.62
371.35	77.62
371.576	94.62
371.802	83.62
372.028	91.62
372.254	89.62
372.48	84.62
372.706	94.62
372.932	83.62
373.158	87.62
373.384	87.62
373.61	90.62
373.835	82.62
374.061	86.62
374.287	82.62
374.513	77.62
374.739	85.62
374.965	91.62
375.191	86.62
375.416	87.62
375.642	97.62
375.868	82.62
376.094	91.62
376.319	76.62
376.545	78.62
376.771	79.62
376.997	95.62
377.222	85.62
377.448	76.62
377.674	79.62
377.899	84.62
378.125	104.62
378.35	85.62
378.576	75.62
378.802	71.62
379.027	90.62
379.253	90.62
379.478	94.62
379.704	85.62
379.929	83.62
380.155	88.62
380.38	75.62
380.606	90.62
380.831	91.62
381.057	83.62
381.282	78.62
381.507	83.62
381.733	72.62
381.958	86.62
382.184	79.62
382.409	91.62
382.634	84.62
382.86	87.62
383.085	92.62
383.31	92.62
383.535	90.62
383.761	84.62
383.986	89.62
384.211	83.62
384.436	86.62
384.662	83.62
384.887	82.62
385.112	89.62
385.337	90.62
385.562	82.62
385.787	99.62
386.013	107.62
386.238	77.62
386.463	103.62
386.688	92.62
386.913	84.62
387.138	79.62
387.363	80.62
387.588	85.62
387.813	107.62
388.038	92.62
388.263	88.62
388.488	87.62
388.713	77.62
388.938	83.62
389.163	80.62
389.387	79.62
389.612	82.62
389.837	76.62
390.062	78.62
390.287	83.62
390.512	81.62
390.736	86.62
390.961	85.62
391.186	93.62
391.411	85.62
391.636	73.62
391.86	92.62
392.085	86.62
392.31	82.62
392.534	84.62
392.759	94.62
392.984	82.62
393.208	70.62
393.433	87.62
393.658	107.62
393.882	84.62
394.107	72.62
394.331	84.62
394.556	97.62
394.78	95.62
395.005	86.62
395.229	91.62
395.454	91.62
395.678	83.62
395.903	87.62
396.127	90.62
396.352	103.62
396.576	83.62
396.801	83.62
397.025	78.62
397.249	80.62
397.474	100.62
397.698	84.62
397.922	91.62
398.147	96.62
398.371	94.62
398.595	90.62
398.82	97.62
399.044	85.62
399.268	76.62
399.492	82.62
399.717	81.62
399.941	87.62
400.165	89.62
400.389	87.62
400.613	89.62
400.837	90.62
401.062	75.62
401.286	83.62
401.51	95.62
401.734	84.62
401.958	93.62
402.182	86.62
402.406	98.62
402.63	104.62
402.854	104.62
403.078	88.62
403.302	79.62
403.526	86.62
403.75	97.62
403.974	83.62
404.198	89.62
404.422	95.62
404.645	84.62
404.869	84.62
405.093	87.62
405.317	100.62
405.541	82.62
405.765	88.62
405.988	91.62
406.212	83.62
406.436	104.62
406.66	90.62
406.883	84.62
407.107	83.62
407.331	79.62
407.555	79.62
407.778	87.62
408.002	93.62
408.226	84.62
408.449	84.62
408.673	99.62
408.896	98.62
409.12	82.62
409.344	84.62
409.567	73.62
409.791	84.62
410.014	92.62
410.238	85.62
410.461	99.62
410.685	100.62
410.908	95.62
411.132	102.62
411.355	90.62
411.578	101.62
411.802	88.62
412.025	103.62
412.249	93.62
412.472	82.62
412.695	91.62
412.919	86.62
413.142	92.62
413.365	90.62
413.589	97.62
413.812	98.62
414.035	92.62
414.258	92.62
414.482	89.62
414.705	90.62
414.928	90.62
415.151	97.62
415.374	94.62
415.597	93.62
415.821	92.62
416.044	96.62
416.267	95.62
416.49	96.62
416.713	101.62
416.936	97.62
417.159	87.62
417.382	66.62
417.605	94.62
417.828	82.62
418.051	97.62
418.274	99.62
418.497	95.62
418.72	92.62
418.943	88.62
419.166	94.62
419.389	95.62
419.611	92.62
419.834	100.62
420.057	100.62
420.28	89.62
420.503	105.62
420.726	98.62
420.948	95.62
421.171	100.62
421.394	92.62
421.617	108.62
421.839	95.62
422.062	91.62
422.285	89.62
422.507	83.62
422.73	82.62
422.953	83.62
423.175	100.62
423.398	92.62
423.621	97.62
423.843	91.62
424.066	99.62
424.288	87.62
424.511	78.62
424.733	83.62
424.956	95.62
425.178	105.62
425.401	99.62
425.623	92.62
425.846	96.62
426.068	100.62
426.291	95.62
426.513	103.62
426.735	93.62
426.958	107.62
427.18	93.62
427.402	89.62
427.625	98.62
427.847	92.62
428.069	93.62
428.292	104.62
428.514	93.62
428.736	95.62
428.958	87.62
429.181	112.62
429.403	101.62
429.625	102.62
429.847	83.62
430.069	103.62
430.292	101.62
430.514	87.62
430.736	94.62
430.958	96.62
431.18	85.62
431.402	91.62
431.624	107.62
431.846	77.62
432.068	92.62
432.29	85.62
432.512	98.62
432.734	82.62
432.956	93.62
433.178	112.62
433.4	111.62
433.622	78.62
433.844	110.62
434.066	98.62
434.287	86.62
434.509	75.62
434.731	88.62
434.953	111.62
435.175	101.62
435.397	89.62
435.618	87.62
435.84	77.62
436.062	92.62
436.284	105.62
436.505	91.62
436.727	83.62
436.949	92.62
437.17	105.62
437.392	92.62
437.614	98.62
437.835	97.62
438.057	89.62
438.278	91.62
438.5	96.62
438.721	92.62
438.943	93.62
439.165	94.62
439.386	110.62
439.608	89.62
439.829	89.62
440.05	90.62
440.272	92.62
440.493	101.62
440.715	90.62
440.936	101.62
441.158	108.62
441.379	102.62
441.6	104.62
441.822	97.62
442.043	100.62
442.264	108.62
442.486	91.62
442.707	95.62
442.928	108.62
443.149	92.62
443.371	103.62
443.592	98.62
443.813	95.62
444.034	102.62
444.255	88.62
444.476	92.62
444.698	100.62
444.919	97.62
445.14	248.62
445.361	167.62
445.582	101.62
445.803	93.62
446.024	93.62
446.245	76.62
446.466	103.62
446.687	95.62
446.908	99.62
447.129	91.62
447.35	109.62
447.571	104.62
447.792	98.62
448.013	97.62
448.234	105.62
448.455	98.62
448.675	93.62
448.896	84.62
449.117	89.62
449.338	93.62
449.559	103.62
449.779	84.62
450	96.62
450.221	77.62
450.442	91.62
450.662	89.62
450.883	103.62
451.104	85.62
451.324	89.62
451.545	91.62
451.766	88.62
451.986	104.62
452.207	99.62
452.428	98.62
452.648	92.62
452.869	98.62
453.089	95.62
453.31	86.62
453.53	87.62
453.751	88.62
453.971	91.62
454.192	97.62
454.412	92.62
454.633	95.62
454.853	96.62
455.073	98.62
455.294	80.62
455.514	96.62
455.734	85.62
455.955	91.62
456.175	81.62
456.395	110.62
456.616	92.62
456.836	91.62
457.056	86.62
457.276	86.62
457.497	93.62
457.717	79.62
457.937	78.62
458.157	95.62
458.377	97.62
458.598	96.62
458.818	89.62
459.038	91.62
459.258	81.62
459.478	90.62
459.698	92.62
459.918	92.62
460.138	90.62
460.358	82.62
460.578	98.62
460.798	105.62
461.018	92.62
461.238	103.62
461.458	96.62
461.678	94.62
461.898	97.62
462.118	85.62
462.338	84.62
462.558	101.62
462.777	101.62
462.997	89.62
463.217	106.62
463.437	85.62
463.657	98.62
463.876	96.62
464.096	96.62
464.316	78.62
464.536	85.62
464.755	93.62
464.975	91.62
465.195	89.62
465.414	92.62
465.634	90.62
465.854	99.62
466.073	84.62
466.293	92.62
466.512	95.62
466.732	91.62
466.951	92.62
467.171	90.62
467.391	102.62
467.61	100.62
467.829	98.62
468.049	99.62
468.268	98.62
468.488	104.62
468.707	104.62
468.927	101.62
469.146	96.62
469.365	85.62
469.585	95.62
469.804	93.62
470.023	105.62
470.243	103.62
470.462	88.62
470.681	95.62
470.901	94.62
471.12	101.62
471.339	93.62
471.558	82.62
471.777	105.62
471.997	101.62
472.216	102.62
472.435	97.62
472.654	92.62
472.873	83.62
473.092	94.62
473.311	85.62
473.53	84.62
473.749	93.62
473.968	111.62
474.187	89.62
474.406	89.62
474.625	95.62
474.844	98.62
475.063	99.62
475.282	93.62
475.501	82.62
475.72	102.62
475.939	94.62
476.158	93.62
476.377	97.62
476.596	89.62
476.814	84.62
477.033	91.62
477.252	80.62
477.471	89.62
477.69	98.62
477.908	95.62
478.127	100.62
478.346	108.62
478.564	104.62
478.783	92.62
479.002	92.62
479.22	86.62
479.439	93.62
479.658	89.62
479.876	101.62
480.095	85.62
480.313	89.62
480.532	92.62
480.751	95.62
480.969	94.62
481.188	88.62
481.406	84.62
481.624	96.62
481.843	90.62
482.061	97.62
482.28	83.62
482.498	90.62
482.717	97.62
482.935	83.62
483.153	106.62
483.372	95.62
483.59	114.62
483.808	101.62
484.027	107.62
484.245	99.62
484.463	120.62
484.681	89.62
484.9	98.62
485.118	104.62
485.336	89.62
485.554	84.62
485.772	81.62
485.99	83.62
486.209	99.62
486.427	95.62
486.645	104.62
486.863	96.62
487.081	100.62
487.299	87.62
487.517	93.62
487.735	116.62
487.953	114.62
488.171	119.62
488.389	103.62
488.607	111.62
488.825	107.62
489.043	89.62
489.261	96.62
489.479	100.62
489.696	107.62
489.914	93.62
490.132	93.62
490.35	95.62
490.568	98.62
490.786	100.62
491.003	119.62
491.221	117.62
491.439	112.62
491.657	105.62
491.874	127.62
492.092	130.62
492.31	124.62
492.527	125.62
492.745	128.62
492.963	109.62
493.18	106.62
493.398	119.62
493.615	110.62
493.833	105.62
494.05	120.62
494.268	101.62
494.485	101.62
494.703	100.62
494.92	96.62
495.138	96.62
495.355	116.62
495.573	111.62
495.79	105.62
496.008	95.62
496.225	103.62
496.442	108.62
496.66	125.62
496.877	102.62
497.094	114.62
497.312	116.62
497.529	91.62
497.746	102.62
497.963	92.62
498.181	94.62
498.398	92.62
498.615	85.62
498.832	99.62
499.049	80.62
499.267	88.62
499.484	88.62
499.701	96.62
499.918	92.62
500.135	106.62
500.352	98.62
500.569	97.62
500.786	91.62
501.003	83.62
501.22	80.62
501.437	107.62
501.654	91.62
501.871	82.62
502.088	88.62
502.305	82.62
502.522	87.62
502.739	92.62
502.956	92.62
503.172	91.62
503.389	103.62
503.606	78.62
503.823	97.62
504.04	93.62
504.256	83.62
504.473	83.62
504.69	80.62
504.907	88.62
505.123	92.62
505.34	97.62
505.557	89.62
505.773	84.62
505.99	86.62
506.207	82.62
506.423	92.62
506.64	87.62
506.856	87.62
507.073	107.62
507.289	94.62
507.506	79.62
507.722	92.62
507.939	88.62
508.155	103.62
508.372	103.62
508.588	85.62
508.805	97.62
509.021	78.62
509.238	85.62
509.454	89.62
509.67	82.62
509.887	87.62
510.103	90.62
510.319	90.62
510.536	88.62
510.752	86.62
510.968	85.62
511.184	87.62
511.401	76.62
511.617	88.62
511.833	85.62
512.049	77.62
512.265	97.62
512.481	99.62
512.698	89.62
512.914	97.62
513.13	80.62
513.346	76.62
513.562	69.62
513.778	88.62
513.994	93.62
514.21	80.62
514.426	90.62
514.642	76.62
514.858	89.62
515.074	99.62
515.29	94.62
515.506	81.62
515.721	78.62
515.937	75.62
516.153	84.62
516.369	73.62
516.585	82.62
516.801	96.62
517.016	87.62
517.232	91.62
