Data from Location4.07152019.Energy5.Lamp.07192019.3%Agarose_HRD10591_15-25-27-578.txt Node
Date: Fri Jul 19 15:25:27 EDT 2019
User: cochatt
Spectrometer: HR+D1059
Trigger mode: 1
Integration Time (sec): 1.000000E-1
Scans to average: 1
Electric dark correction enabled: true
Nonlinearity correction enabled: false
Boxcar width: 0
XAxis mode: Wavelengths
Number of Pixels in Spectrum: 2048
>>>>>Begin Spectral Data<<<<<
223.165	-14.5
223.4	-14.5
223.635	-14.5
223.869	-15.5
224.104	-9.5
224.338	-6.5
224.573	-12.5
224.808	-26.5
225.042	-12.5
225.277	-1.5
225.511	-6.5
225.746	4.5
225.98	9.5
226.215	24.5
226.449	10.5
226.683	10.5
226.918	18.5
227.152	27.5
227.387	51.5
227.621	45.5
227.856	42.5
228.09	41.5
228.324	61.5
228.559	57.5
228.793	59.5
229.027	53.5
229.262	72.5
229.496	76.5
229.73	69.5
229.964	73.5
230.199	84.5
230.433	72.5
230.667	87.5
230.901	74.5
231.136	86.5
231.37	87.5
231.604	85.5
231.838	77.5
232.072	66.5
232.306	72.5
232.541	83.5
232.775	85.5
233.009	90.5
233.243	79.5
233.477	89.5
233.711	89.5
233.945	83.5
234.179	77.5
234.413	81.5
234.647	78.5
234.881	77.5
235.115	87.5
235.349	72.5
235.583	83.5
235.817	88.5
236.051	78.5
236.285	88.5
236.519	89.5
236.753	73.5
236.987	86.5
237.221	76.5
237.455	90.5
237.689	76.5
237.922	70.5
238.156	94.5
238.39	73.5
238.624	68.5
238.858	77.5
239.091	86.5
239.325	81.5
239.559	91.5
239.793	65.5
240.027	76.5
240.26	73.5
240.494	71.5
240.728	83.5
240.961	73.5
241.195	77.5
241.429	78.5
241.662	81.5
241.896	81.5
242.13	59.5
242.363	73.5
242.597	81.5
242.83	82.5
243.064	74.5
243.298	72.5
243.531	76.5
243.765	70.5
243.998	79.5
244.232	76.5
244.465	81.5
244.699	75.5
244.932	71.5
245.166	85.5
245.399	60.5
245.633	79.5
245.866	81.5
246.099	73.5
246.333	79.5
246.566	67.5
246.8	80.5
247.033	74.5
247.266	84.5
247.5	93.5
247.733	69.5
247.966	84.5
248.2	67.5
248.433	85.5
248.666	76.5
248.899	80.5
249.133	80.5
249.366	72.5
249.599	73.5
249.832	72.5
250.066	85.5
250.299	81.5
250.532	89.5
250.765	83.5
250.998	63.5
251.231	79.5
251.465	80.5
251.698	68.5
251.931	89.5
252.164	72.5
252.397	82.5
252.63	71.5
252.863	86.5
253.096	92.5
253.329	78.5
253.562	93.5
253.795	88.5
254.028	84.5
254.261	70.5
254.494	81.5
254.727	81.5
254.96	81.5
255.193	81.5
255.426	80.5
255.659	74.5
255.892	83.5
256.124	76.5
256.357	64.5
256.59	86.5
256.823	82.5
257.056	77.5
257.289	67.5
257.521	76.5
257.754	84.5
257.987	75.5
258.22	79.5
258.452	78.5
258.685	77.5
258.918	91.5
259.151	76.5
259.383	83.5
259.616	69.5
259.849	79.5
260.081	73.5
260.314	76.5
260.547	84.5
260.779	76.5
261.012	83.5
261.244	75.5
261.477	79.5
261.71	78.5
261.942	75.5
262.175	68.5
262.407	92.5
262.64	75.5
262.872	77.5
263.105	82.5
263.337	94.5
263.57	89.5
263.802	90.5
264.035	81.5
264.267	77.5
264.499	81.5
264.732	83.5
264.964	92.5
265.197	96.5
265.429	85.5
265.661	88.5
265.894	79.5
266.126	78.5
266.358	71.5
266.591	87.5
266.823	85.5
267.055	91.5
267.287	80.5
267.52	85.5
267.752	107.5
267.984	88.5
268.216	90.5
268.448	87.5
268.681	81.5
268.913	80.5
269.145	81.5
269.377	86.5
269.609	73.5
269.841	77.5
270.073	100.5
270.306	90.5
270.538	90.5
270.77	82.5
271.002	84.5
271.234	109.5
271.466	83.5
271.698	81.5
271.93	88.5
272.162	72.5
272.394	83.5
272.626	86.5
272.858	84.5
273.09	77.5
273.322	87.5
273.553	65.5
273.785	79.5
274.017	70.5
274.249	69.5
274.481	78.5
274.713	92.5
274.945	92.5
275.176	94.5
275.408	100.5
275.64	87.5
275.872	83.5
276.104	85.5
276.335	70.5
276.567	74.5
276.799	78.5
277.031	82.5
277.262	93.5
277.494	96.5
277.726	88.5
277.957	76.5
278.189	72.5
278.421	73.5
278.652	92.5
278.884	82.5
279.115	93.5
279.347	77.5
279.579	81.5
279.81	77.5
280.042	78.5
280.273	81.5
280.505	88.5
280.736	89.5
280.968	83.5
281.199	71.5
281.431	85.5
281.662	82.5
281.894	86.5
282.125	79.5
282.356	68.5
282.588	91.5
282.819	81.5
283.051	75.5
283.282	94.5
283.513	91.5
283.745	92.5
283.976	79.5
284.207	86.5
284.439	85.5
284.67	88.5
284.901	87.5
285.132	89.5
285.364	100.5
285.595	79.5
285.826	88.5
286.057	75.5
286.288	81.5
286.52	92.5
286.751	91.5
286.982	83.5
287.213	80.5
287.444	87.5
287.675	90.5
287.906	83.5
288.138	75.5
288.369	96.5
288.6	83.5
288.831	86.5
289.062	88.5
289.293	90.5
289.524	65.5
289.755	82.5
289.986	97.5
290.217	80.5
290.448	83.5
290.679	83.5
290.91	82.5
291.141	91.5
291.371	71.5
291.602	73.5
291.833	97.5
292.064	83.5
292.295	79.5
292.526	89.5
292.757	95.5
292.987	92.5
293.218	85.5
293.449	83.5
293.68	85.5
293.91	88.5
294.141	87.5
294.372	109.5
294.603	92.5
294.833	105.5
295.064	91.5
295.295	71.5
295.525	86.5
295.756	75.5
295.987	87.5
296.217	88.5
296.448	77.5
296.679	88.5
296.909	95.5
297.14	83.5
297.37	94.5
297.601	77.5
297.831	85.5
298.062	95.5
298.292	93.5
298.523	87.5
298.753	97.5
298.984	84.5
299.214	93.5
299.445	83.5
299.675	84.5
299.905	85.5
300.136	92.5
300.366	81.5
300.597	75.5
300.827	84.5
301.057	90.5
301.288	90.5
301.518	92.5
301.748	85.5
301.979	84.5
302.209	88.5
302.439	76.5
302.669	87.5
302.9	89.5
303.13	92.5
303.36	89.5
303.59	104.5
303.82	89.5
304.051	77.5
304.281	100.5
304.511	80.5
304.741	80.5
304.971	77.5
305.201	71.5
305.431	70.5
305.661	95.5
305.891	95.5
306.121	82.5
306.352	93.5
306.582	95.5
306.812	98.5
307.042	99.5
307.272	67.5
307.502	76.5
307.731	92.5
307.961	91.5
308.191	88.5
308.421	87.5
308.651	78.5
308.881	93.5
309.111	88.5
309.341	94.5
309.571	105.5
309.8	89.5
310.03	83.5
310.26	80.5
310.49	98.5
310.72	100.5
310.949	87.5
311.179	70.5
311.409	83.5
311.639	88.5
311.868	94.5
312.098	93.5
312.328	82.5
312.557	84.5
312.787	76.5
313.017	78.5
313.246	87.5
313.476	92.5
313.706	81.5
313.935	84.5
314.165	75.5
314.394	65.5
314.624	80.5
314.853	82.5
315.083	75.5
315.312	92.5
315.542	86.5
315.771	85.5
316.001	87.5
316.23	90.5
316.46	83.5
316.689	101.5
316.919	73.5
317.148	99.5
317.377	85.5
317.607	96.5
317.836	104.5
318.065	98.5
318.295	95.5
318.524	98.5
318.753	76.5
318.983	87.5
319.212	83.5
319.441	81.5
319.67	84.5
319.9	89.5
320.129	83.5
320.358	91.5
320.587	95.5
320.816	76.5
321.046	93.5
321.275	78.5
321.504	104.5
321.733	74.5
321.962	86.5
322.191	72.5
322.42	86.5
322.649	83.5
322.878	93.5
323.108	86.5
323.337	83.5
323.566	76.5
323.795	78.5
324.024	78.5
324.253	78.5
324.482	85.5
324.71	71.5
324.939	76.5
325.168	79.5
325.397	89.5
325.626	81.5
325.855	92.5
326.084	87.5
326.313	76.5
326.542	83.5
326.77	89.5
326.999	87.5
327.228	70.5
327.457	78.5
327.686	75.5
327.914	71.5
328.143	82.5
328.372	76.5
328.6	88.5
328.829	91.5
329.058	83.5
329.287	86.5
329.515	82.5
329.744	92.5
329.972	89.5
330.201	77.5
330.43	90.5
330.658	79.5
330.887	86.5
331.115	79.5
331.344	80.5
331.572	82.5
331.801	87.5
332.03	81.5
332.258	84.5
332.486	80.5
332.715	74.5
332.943	95.5
333.172	103.5
333.4	87.5
333.629	88.5
333.857	86.5
334.085	85.5
334.314	71.5
334.542	76.5
334.771	72.5
334.999	84.5
335.227	81.5
335.455	82.5
335.684	90.5
335.912	81.5
336.14	87.5
336.369	94.5
336.597	84.5
336.825	82.5
337.053	79.5
337.281	91.5
337.51	87.5
337.738	94.5
337.966	82.5
338.194	92.5
338.422	80.5
338.65	92.5
338.878	87.5
339.106	90.5
339.334	97.5
339.562	91.5
339.79	83.5
340.018	85.5
340.246	86.5
340.474	91.5
340.702	90.5
340.93	98.5
341.158	73.5
341.386	80.5
341.614	71.5
341.842	78.5
342.07	79.5
342.298	87.5
342.526	73.5
342.754	99.5
342.981	102.5
343.209	81.5
343.437	86.5
343.665	79.5
343.893	87.5
344.12	80.5
344.348	85.5
344.576	78.5
344.804	91.5
345.031	81.5
345.259	88.5
345.487	90.5
345.714	81.5
345.942	86.5
346.17	84.5
346.397	79.5
346.625	73.5
346.853	93.5
347.08	72.5
347.308	88.5
347.535	92.5
347.763	81.5
347.99	83.5
348.218	83.5
348.445	69.5
348.673	91.5
348.9	84.5
349.128	87.5
349.355	97.5
349.583	90.5
349.81	76.5
350.037	85.5
350.265	81.5
350.492	85.5
350.72	86.5
350.947	83.5
351.174	86.5
351.402	85.5
351.629	99.5
351.856	88.5
352.083	96.5
352.311	77.5
352.538	81.5
352.765	82.5
352.992	79.5
353.22	77.5
353.447	84.5
353.674	104.5
353.901	87.5
354.128	91.5
354.355	83.5
354.583	89.5
354.81	83.5
355.037	85.5
355.264	94.5
355.491	75.5
355.718	72.5
355.945	87.5
356.172	76.5
356.399	85.5
356.626	79.5
356.853	78.5
357.08	86.5
357.307	100.5
357.534	76.5
357.761	95.5
357.988	77.5
358.215	77.5
358.441	86.5
358.668	90.5
358.895	76.5
359.122	82.5
359.349	84.5
359.576	90.5
359.802	78.5
360.029	95.5
360.256	83.5
360.483	83.5
360.709	82.5
360.936	97.5
361.163	86.5
361.39	87.5
361.616	72.5
361.843	73.5
362.07	68.5
362.296	83.5
362.523	82.5
362.749	91.5
362.976	81.5
363.203	90.5
363.429	87.5
363.656	85.5
363.882	69.5
364.109	80.5
364.335	95.5
364.562	77.5
364.788	86.5
365.015	90.5
365.241	74.5
365.468	89.5
365.694	76.5
365.92	86.5
366.147	98.5
366.373	72.5
366.599	91.5
366.826	99.5
367.052	78.5
367.278	88.5
367.505	63.5
367.731	79.5
367.957	85.5
368.184	92.5
368.41	86.5
368.636	81.5
368.862	86.5
369.089	88.5
369.315	81.5
369.541	76.5
369.767	78.5
369.993	91.5
370.219	80.5
370.445	79.5
370.672	87.5
370.898	72.5
371.124	89.5
371.35	84.5
371.576	88.5
371.802	93.5
372.028	82.5
372.254	76.5
372.48	92.5
372.706	84.5
372.932	86.5
373.158	85.5
373.384	84.5
373.61	84.5
373.835	90.5
374.061	91.5
374.287	71.5
374.513	91.5
374.739	69.5
374.965	81.5
375.191	100.5
375.416	102.5
375.642	80.5
375.868	102.5
376.094	91.5
376.319	99.5
376.545	79.5
376.771	92.5
376.997	87.5
377.222	92.5
377.448	83.5
377.674	92.5
377.899	77.5
378.125	80.5
378.35	92.5
378.576	84.5
378.802	88.5
379.027	79.5
379.253	90.5
379.478	96.5
379.704	93.5
379.929	95.5
380.155	73.5
380.38	74.5
380.606	99.5
380.831	84.5
381.057	81.5
381.282	82.5
381.507	85.5
381.733	94.5
381.958	77.5
382.184	81.5
382.409	80.5
382.634	68.5
382.86	104.5
383.085	83.5
383.31	86.5
383.535	88.5
383.761	88.5
383.986	79.5
384.211	85.5
384.436	80.5
384.662	79.5
384.887	75.5
385.112	86.5
385.337	76.5
385.562	82.5
385.787	94.5
386.013	88.5
386.238	77.5
386.463	90.5
386.688	83.5
386.913	77.5
387.138	91.5
387.363	91.5
387.588	81.5
387.813	82.5
388.038	92.5
388.263	93.5
388.488	99.5
388.713	88.5
388.938	99.5
389.163	85.5
389.387	97.5
389.612	98.5
389.837	99.5
390.062	99.5
390.287	80.5
390.512	95.5
390.736	80.5
390.961	85.5
391.186	91.5
391.411	83.5
391.636	89.5
391.86	83.5
392.085	102.5
392.31	96.5
392.534	108.5
392.759	87.5
392.984	89.5
393.208	78.5
393.433	89.5
393.658	101.5
393.882	91.5
394.107	95.5
394.331	83.5
394.556	77.5
394.78	89.5
395.005	88.5
395.229	86.5
395.454	83.5
395.678	98.5
395.903	98.5
396.127	74.5
396.352	93.5
396.576	88.5
396.801	84.5
397.025	71.5
397.249	77.5
397.474	84.5
397.698	85.5
397.922	90.5
398.147	95.5
398.371	85.5
398.595	97.5
398.82	77.5
399.044	81.5
399.268	81.5
399.492	91.5
399.717	89.5
399.941	98.5
400.165	86.5
400.389	89.5
400.613	89.5
400.837	90.5
401.062	71.5
401.286	89.5
401.51	99.5
401.734	87.5
401.958	90.5
402.182	86.5
402.406	85.5
402.63	84.5
402.854	81.5
403.078	80.5
403.302	84.5
403.526	89.5
403.75	93.5
403.974	91.5
404.198	82.5
404.422	100.5
404.645	91.5
404.869	98.5
405.093	91.5
405.317	103.5
405.541	93.5
405.765	93.5
405.988	82.5
406.212	95.5
406.436	81.5
406.66	95.5
406.883	81.5
407.107	96.5
407.331	91.5
407.555	91.5
407.778	87.5
408.002	87.5
408.226	84.5
408.449	76.5
408.673	92.5
408.896	104.5
409.12	89.5
409.344	94.5
409.567	93.5
409.791	87.5
410.014	101.5
410.238	78.5
410.461	95.5
410.685	86.5
410.908	89.5
411.132	92.5
411.355	93.5
411.578	82.5
411.802	106.5
412.025	96.5
412.249	95.5
412.472	94.5
412.695	89.5
412.919	86.5
413.142	91.5
413.365	94.5
413.589	92.5
413.812	88.5
414.035	98.5
414.258	91.5
414.482	92.5
414.705	97.5
414.928	82.5
415.151	103.5
415.374	96.5
415.597	91.5
415.821	75.5
416.044	86.5
416.267	96.5
416.49	86.5
416.713	96.5
416.936	87.5
417.159	106.5
417.382	100.5
417.605	90.5
417.828	97.5
418.051	87.5
418.274	104.5
418.497	101.5
418.72	88.5
418.943	99.5
419.166	85.5
419.389	90.5
419.611	86.5
419.834	106.5
420.057	95.5
420.28	92.5
420.503	104.5
420.726	81.5
420.948	102.5
421.171	96.5
421.394	94.5
421.617	112.5
421.839	92.5
422.062	95.5
422.285	92.5
422.507	87.5
422.73	84.5
422.953	75.5
423.175	101.5
423.398	107.5
423.621	96.5
423.843	91.5
424.066	96.5
424.288	101.5
424.511	101.5
424.733	98.5
424.956	99.5
425.178	97.5
425.401	85.5
425.623	91.5
425.846	84.5
426.068	89.5
426.291	71.5
426.513	95.5
426.735	95.5
426.958	84.5
427.18	85.5
427.402	98.5
427.625	89.5
427.847	101.5
428.069	100.5
428.292	86.5
428.514	106.5
428.736	98.5
428.958	107.5
429.181	115.5
429.403	94.5
429.625	91.5
429.847	90.5
430.069	89.5
430.292	88.5
430.514	93.5
430.736	95.5
430.958	100.5
431.18	101.5
431.402	95.5
431.624	84.5
431.846	80.5
432.068	74.5
432.29	76.5
432.512	88.5
432.734	87.5
432.956	99.5
433.178	93.5
433.4	103.5
433.622	95.5
433.844	92.5
434.066	97.5
434.287	89.5
434.509	81.5
434.731	77.5
434.953	98.5
435.175	91.5
435.397	86.5
435.618	102.5
435.84	83.5
436.062	82.5
436.284	94.5
436.505	108.5
436.727	90.5
436.949	81.5
437.17	97.5
437.392	84.5
437.614	86.5
437.835	86.5
438.057	101.5
438.278	107.5
438.5	97.5
438.721	95.5
438.943	92.5
439.165	91.5
439.386	103.5
439.608	90.5
439.829	88.5
440.05	98.5
440.272	96.5
440.493	98.5
440.715	99.5
440.936	89.5
441.158	107.5
441.379	95.5
441.6	100.5
441.822	98.5
442.043	89.5
442.264	92.5
442.486	99.5
442.707	88.5
442.928	98.5
443.149	91.5
443.371	95.5
443.592	106.5
443.813	86.5
444.034	94.5
444.255	88.5
444.476	91.5
444.698	114.5
444.919	103.5
445.14	208.5
445.361	163.5
445.582	124.5
445.803	86.5
446.024	92.5
446.245	99.5
446.466	99.5
446.687	82.5
446.908	102.5
447.129	109.5
447.35	99.5
447.571	96.5
447.792	108.5
448.013	108.5
448.234	105.5
448.455	99.5
448.675	104.5
448.896	107.5
449.117	104.5
449.338	100.5
449.559	93.5
449.779	92.5
450	98.5
450.221	110.5
450.442	99.5
450.662	98.5
450.883	117.5
451.104	88.5
451.324	94.5
451.545	98.5
451.766	99.5
451.986	105.5
452.207	94.5
452.428	95.5
452.648	88.5
452.869	91.5
453.089	83.5
453.31	85.5
453.53	98.5
453.751	92.5
453.971	87.5
454.192	97.5
454.412	80.5
454.633	100.5
454.853	103.5
455.073	88.5
455.294	95.5
455.514	98.5
455.734	85.5
455.955	94.5
456.175	87.5
456.395	85.5
456.616	90.5
456.836	104.5
457.056	90.5
457.276	96.5
457.497	87.5
457.717	89.5
457.937	89.5
458.157	101.5
458.377	84.5
458.598	70.5
458.818	79.5
459.038	86.5
459.258	78.5
459.478	83.5
459.698	85.5
459.918	84.5
460.138	82.5
460.358	104.5
460.578	88.5
460.798	98.5
461.018	98.5
461.238	82.5
461.458	92.5
461.678	81.5
461.898	89.5
462.118	99.5
462.338	91.5
462.558	99.5
462.777	84.5
462.997	94.5
463.217	96.5
463.437	90.5
463.657	100.5
463.876	99.5
464.096	97.5
464.316	91.5
464.536	103.5
464.755	95.5
464.975	87.5
465.195	97.5
465.414	99.5
465.634	106.5
465.854	89.5
466.073	84.5
466.293	84.5
466.512	81.5
466.732	104.5
466.951	89.5
467.171	87.5
467.391	94.5
467.61	81.5
467.829	102.5
468.049	107.5
468.268	100.5
468.488	84.5
468.707	108.5
468.927	90.5
469.146	98.5
469.365	104.5
469.585	93.5
469.804	88.5
470.023	104.5
470.243	99.5
470.462	96.5
470.681	85.5
470.901	85.5
471.12	98.5
471.339	117.5
471.558	112.5
471.777	113.5
471.997	96.5
472.216	87.5
472.435	100.5
472.654	77.5
472.873	83.5
473.092	97.5
473.311	88.5
473.53	107.5
473.749	91.5
473.968	104.5
474.187	92.5
474.406	80.5
474.625	99.5
474.844	114.5
475.063	96.5
475.282	101.5
475.501	91.5
475.72	97.5
475.939	97.5
476.158	96.5
476.377	98.5
476.596	94.5
476.814	78.5
477.033	88.5
477.252	77.5
477.471	92.5
477.69	96.5
477.908	81.5
478.127	103.5
478.346	108.5
478.564	87.5
478.783	94.5
479.002	98.5
479.22	107.5
479.439	111.5
479.658	97.5
479.876	99.5
480.095	98.5
480.313	95.5
480.532	96.5
480.751	85.5
480.969	86.5
481.188	86.5
481.406	95.5
481.624	96.5
481.843	93.5
482.061	81.5
482.28	89.5
482.498	81.5
482.717	93.5
482.935	94.5
483.153	102.5
483.372	101.5
483.59	94.5
483.808	104.5
484.027	101.5
484.245	103.5
484.463	100.5
484.681	111.5
484.9	95.5
485.118	113.5
485.336	87.5
485.554	95.5
485.772	89.5
485.99	89.5
486.209	100.5
486.427	111.5
486.645	88.5
486.863	92.5
487.081	96.5
487.299	96.5
487.517	100.5
487.735	112.5
487.953	111.5
488.171	97.5
488.389	109.5
488.607	104.5
488.825	96.5
489.043	98.5
489.261	101.5
489.479	95.5
489.696	102.5
489.914	106.5
490.132	114.5
490.35	116.5
490.568	102.5
490.786	111.5
491.003	91.5
491.221	104.5
491.439	117.5
491.657	120.5
491.874	119.5
492.092	133.5
492.31	133.5
492.527	132.5
492.745	105.5
492.963	111.5
493.18	119.5
493.398	105.5
493.615	114.5
493.833	100.5
494.05	123.5
494.268	120.5
494.485	103.5
494.703	112.5
494.92	111.5
495.138	85.5
495.355	118.5
495.573	121.5
495.79	101.5
496.008	118.5
496.225	122.5
496.442	114.5
496.66	129.5
496.877	106.5
497.094	103.5
497.312	96.5
497.529	99.5
497.746	105.5
497.963	104.5
498.181	106.5
498.398	119.5
498.615	90.5
498.832	97.5
499.049	86.5
499.267	90.5
499.484	105.5
499.701	88.5
499.918	90.5
500.135	97.5
500.352	116.5
500.569	97.5
500.786	99.5
501.003	99.5
501.22	89.5
501.437	95.5
501.654	102.5
501.871	97.5
502.088	98.5
502.305	76.5
502.522	90.5
502.739	86.5
502.956	93.5
503.172	94.5
503.389	95.5
503.606	98.5
503.823	88.5
504.04	89.5
504.256	115.5
504.473	106.5
504.69	95.5
504.907	95.5
505.123	111.5
505.34	95.5
505.557	86.5
505.773	81.5
505.99	95.5
506.207	98.5
506.423	91.5
506.64	107.5
506.856	100.5
507.073	100.5
507.289	112.5
507.506	103.5
507.722	91.5
507.939	93.5
508.155	98.5
508.372	92.5
508.588	103.5
508.805	80.5
509.021	97.5
509.238	105.5
509.454	89.5
509.67	75.5
509.887	89.5
510.103	98.5
510.319	85.5
510.536	85.5
510.752	69.5
510.968	83.5
511.184	76.5
511.401	86.5
511.617	88.5
511.833	87.5
512.049	83.5
512.265	96.5
512.481	96.5
512.698	91.5
512.914	93.5
513.13	104.5
513.346	84.5
513.562	90.5
513.778	87.5
513.994	89.5
514.21	93.5
514.426	87.5
514.642	79.5
514.858	88.5
515.074	80.5
515.29	77.5
515.506	96.5
515.721	82.5
515.937	81.5
516.153	83.5
516.369	77.5
516.585	88.5
516.801	63.5
517.016	93.5
517.232	81.5
517.448	69.5
517.664	95.5
517.879	84.5
518.095	94.5
518.311	93.5
518.527	80.5
518.742	90.5
518.958	92.5
519.173	88.5
519.389	91.5
519.605	92.5
519.82	81.5
520.036	93.5
520.251	81.5
520.467	76.5
520.682	74.5
520.898	96.5
521.113	95.5
521.329	88.5
521.544	88.5
521.76	93.5
521.975	82.5
522.19	81.5
522.406	91.5
522.621	88.5
522.836	93.5
523.052	103.5
523.267	97.5
523.482	95.5
523.698	84.5
523.913	91.5
524.128	104.5
524.343	93.5
524.559	87.5
524.774	102.5
524.989	96.5
525.204	99.5
525.419	92.5
525.634	99.5
525.849	85.5
526.064	95.5
526.28	100.5
526.495	93.5
526.71	100.5
526.925	91.5
527.14	100.5
527.355	84.5
527.57	80.5
527.785	94.5
527.999	84.5
528.214	90.5
528.429	88.5
528.644	102.5
528.859	106.5
529.074	101.5
529.289	115.5
529.503	107.5
529.718	105.5
529.933	100.5
530.148	80.5
530.363	93.5
530.577	90.5
530.792	74.5
531.007	90.5
531.221	86.5
531.436	89.5
531.651	79.5
531.865	85.5
532.08	92.5
532.295	85.5
532.509	92.5
532.724	95.5
532.938	69.5
533.153	81.5
533.367	90.5
533.582	95.5
533.796	95.5
534.011	93.5
534.225	85.5
534.44	98.5
534.654	87.5
534.868	87.5
535.083	91.5
535.297	95.5
535.511	87.5
535.726	102.5
535.94	93.5
536.154	90.5
536.369	97.5
536.583	85.5
536.797	91.5
537.011	84.5
