Data from Location4.07152019.Energy5.Lamp.07192019.3%Agarose_HRD10591_15-26-21-578.txt Node
Date: Fri Jul 19 15:26:21 EDT 2019
User: cochatt
Spectrometer: HR+D1059
Trigger mode: 1
Integration Time (sec): 1.000000E-1
Scans to average: 1
Electric dark correction enabled: true
Nonlinearity correction enabled: false
Boxcar width: 0
XAxis mode: Wavelengths
Number of Pixels in Spectrum: 2048
>>>>>Begin Spectral Data<<<<<
223.165	-25.56
223.4	-25.56
223.635	-25.56
223.869	-23.56
224.104	-13.56
224.338	-13.56
224.573	-6.56
224.808	-14.56
225.042	-0.56
225.277	-15.56
225.511	-0.56
225.746	6.44
225.98	2.44
226.215	4.44
226.449	22.44
226.683	22.44
226.918	27.44
227.152	28.44
227.387	34.44
227.621	35.44
227.856	37.44
228.09	26.44
228.324	52.44
228.559	58.44
228.793	52.44
229.027	63.44
229.262	64.44
229.496	74.44
229.73	76.44
229.964	64.44
230.199	68.44
230.433	83.44
230.667	71.44
230.901	73.44
231.136	79.44
231.37	70.44
231.604	75.44
231.838	83.44
232.072	76.44
232.306	82.44
232.541	69.44
232.775	90.44
233.009	82.44
233.243	79.44
233.477	76.44
233.711	97.44
233.945	88.44
234.179	75.44
234.413	90.44
234.647	81.44
234.881	83.44
235.115	70.44
235.349	82.44
235.583	78.44
235.817	76.44
236.051	77.44
236.285	88.44
236.519	67.44
236.753	67.44
236.987	62.44
237.221	87.44
237.455	79.44
237.689	83.44
237.922	79.44
238.156	88.44
238.39	81.44
238.624	67.44
238.858	76.44
239.091	77.44
239.325	74.44
239.559	82.44
239.793	82.44
240.027	70.44
240.26	81.44
240.494	83.44
240.728	87.44
240.961	74.44
241.195	69.44
241.429	78.44
241.662	79.44
241.896	75.44
242.13	77.44
242.363	66.44
242.597	77.44
242.83	74.44
243.064	80.44
243.298	83.44
243.531	74.44
243.765	97.44
243.998	75.44
244.232	94.44
244.465	67.44
244.699	73.44
244.932	86.44
245.166	75.44
245.399	70.44
245.633	82.44
245.866	84.44
246.099	75.44
246.333	76.44
246.566	72.44
246.8	72.44
247.033	80.44
247.266	84.44
247.5	84.44
247.733	80.44
247.966	65.44
248.2	72.44
248.433	70.44
248.666	84.44
248.899	64.44
249.133	80.44
249.366	78.44
249.599	77.44
249.832	80.44
250.066	79.44
250.299	84.44
250.532	89.44
250.765	88.44
250.998	93.44
251.231	99.44
251.465	90.44
251.698	82.44
251.931	74.44
252.164	75.44
252.397	72.44
252.63	84.44
252.863	72.44
253.096	82.44
253.329	85.44
253.562	80.44
253.795	80.44
254.028	81.44
254.261	74.44
254.494	69.44
254.727	76.44
254.96	74.44
255.193	92.44
255.426	83.44
255.659	76.44
255.892	70.44
256.124	72.44
256.357	81.44
256.59	65.44
256.823	82.44
257.056	69.44
257.289	95.44
257.521	80.44
257.754	88.44
257.987	77.44
258.22	76.44
258.452	71.44
258.685	85.44
258.918	82.44
259.151	79.44
259.383	89.44
259.616	74.44
259.849	92.44
260.081	89.44
260.314	84.44
260.547	76.44
260.779	83.44
261.012	73.44
261.244	77.44
261.477	67.44
261.71	91.44
261.942	86.44
262.175	87.44
262.407	79.44
262.64	72.44
262.872	85.44
263.105	68.44
263.337	82.44
263.57	78.44
263.802	80.44
264.035	85.44
264.267	92.44
264.499	71.44
264.732	57.44
264.964	69.44
265.197	87.44
265.429	85.44
265.661	93.44
265.894	82.44
266.126	81.44
266.358	76.44
266.591	82.44
266.823	79.44
267.055	83.44
267.287	80.44
267.52	75.44
267.752	72.44
267.984	71.44
268.216	73.44
268.448	85.44
268.681	82.44
268.913	98.44
269.145	74.44
269.377	87.44
269.609	88.44
269.841	92.44
270.073	100.44
270.306	91.44
270.538	78.44
270.77	81.44
271.002	88.44
271.234	77.44
271.466	74.44
271.698	74.44
271.93	81.44
272.162	72.44
272.394	72.44
272.626	77.44
272.858	80.44
273.09	71.44
273.322	87.44
273.553	75.44
273.785	77.44
274.017	86.44
274.249	102.44
274.481	73.44
274.713	90.44
274.945	87.44
275.176	81.44
275.408	90.44
275.64	81.44
275.872	68.44
276.104	67.44
276.335	94.44
276.567	75.44
276.799	67.44
277.031	81.44
277.262	69.44
277.494	93.44
277.726	84.44
277.957	82.44
278.189	73.44
278.421	78.44
278.652	82.44
278.884	89.44
279.115	72.44
279.347	88.44
279.579	72.44
279.81	65.44
280.042	77.44
280.273	84.44
280.505	73.44
280.736	78.44
280.968	84.44
281.199	84.44
281.431	82.44
281.662	96.44
281.894	100.44
282.125	98.44
282.356	81.44
282.588	79.44
282.819	100.44
283.051	81.44
283.282	88.44
283.513	95.44
283.745	80.44
283.976	79.44
284.207	86.44
284.439	94.44
284.67	81.44
284.901	86.44
285.132	87.44
285.364	79.44
285.595	89.44
285.826	90.44
286.057	89.44
286.288	74.44
286.52	79.44
286.751	80.44
286.982	86.44
287.213	84.44
287.444	76.44
287.675	76.44
287.906	88.44
288.138	87.44
288.369	82.44
288.6	97.44
288.831	91.44
289.062	76.44
289.293	92.44
289.524	88.44
289.755	90.44
289.986	87.44
290.217	79.44
290.448	80.44
290.679	80.44
290.91	81.44
291.141	95.44
291.371	91.44
291.602	82.44
291.833	82.44
292.064	78.44
292.295	81.44
292.526	89.44
292.757	92.44
292.987	90.44
293.218	75.44
293.449	82.44
293.68	78.44
293.91	70.44
294.141	80.44
294.372	81.44
294.603	91.44
294.833	72.44
295.064	94.44
295.295	83.44
295.525	83.44
295.756	66.44
295.987	77.44
296.217	94.44
296.448	80.44
296.679	93.44
296.909	85.44
297.14	89.44
297.37	98.44
297.601	80.44
297.831	88.44
298.062	95.44
298.292	82.44
298.523	91.44
298.753	86.44
298.984	81.44
299.214	103.44
299.445	83.44
299.675	82.44
299.905	87.44
300.136	83.44
300.366	84.44
300.597	90.44
300.827	80.44
301.057	77.44
301.288	83.44
301.518	86.44
301.748	88.44
301.979	84.44
302.209	80.44
302.439	80.44
302.669	80.44
302.9	87.44
303.13	76.44
303.36	83.44
303.59	64.44
303.82	72.44
304.051	76.44
304.281	79.44
304.511	91.44
304.741	94.44
304.971	94.44
305.201	83.44
305.431	86.44
305.661	84.44
305.891	82.44
306.121	83.44
306.352	79.44
306.582	77.44
306.812	82.44
307.042	85.44
307.272	91.44
307.502	90.44
307.731	98.44
307.961	82.44
308.191	92.44
308.421	83.44
308.651	85.44
308.881	81.44
309.111	71.44
309.341	95.44
309.571	98.44
309.8	90.44
310.03	79.44
310.26	60.44
310.49	74.44
310.72	87.44
310.949	90.44
311.179	74.44
311.409	75.44
311.639	84.44
311.868	91.44
312.098	67.44
312.328	91.44
312.557	90.44
312.787	88.44
313.017	82.44
313.246	112.44
313.476	91.44
313.706	83.44
313.935	97.44
314.165	83.44
314.394	87.44
314.624	76.44
314.853	71.44
315.083	78.44
315.312	86.44
315.542	64.44
315.771	84.44
316.001	83.44
316.23	74.44
316.46	98.44
316.689	87.44
316.919	86.44
317.148	88.44
317.377	83.44
317.607	84.44
317.836	92.44
318.065	82.44
318.295	74.44
318.524	80.44
318.753	85.44
318.983	69.44
319.212	94.44
319.441	81.44
319.67	80.44
319.9	77.44
320.129	88.44
320.358	80.44
320.587	88.44
320.816	85.44
321.046	86.44
321.275	95.44
321.504	86.44
321.733	89.44
321.962	93.44
322.191	85.44
322.42	93.44
322.649	86.44
322.878	81.44
323.108	81.44
323.337	86.44
323.566	77.44
323.795	73.44
324.024	93.44
324.253	92.44
324.482	84.44
324.71	92.44
324.939	90.44
325.168	86.44
325.397	87.44
325.626	74.44
325.855	90.44
326.084	73.44
326.313	80.44
326.542	86.44
326.77	81.44
326.999	86.44
327.228	66.44
327.457	80.44
327.686	80.44
327.914	92.44
328.143	79.44
328.372	98.44
328.6	82.44
328.829	94.44
329.058	86.44
329.287	74.44
329.515	87.44
329.744	95.44
329.972	79.44
330.201	80.44
330.43	73.44
330.658	84.44
330.887	81.44
331.115	88.44
331.344	78.44
331.572	94.44
331.801	98.44
332.03	79.44
332.258	87.44
332.486	99.44
332.715	80.44
332.943	88.44
333.172	81.44
333.4	83.44
333.629	83.44
333.857	90.44
334.085	88.44
334.314	97.44
334.542	82.44
334.771	82.44
334.999	83.44
335.227	72.44
335.455	84.44
335.684	85.44
335.912	91.44
336.14	78.44
336.369	82.44
336.597	85.44
336.825	85.44
337.053	89.44
337.281	78.44
337.51	83.44
337.738	95.44
337.966	91.44
338.194	85.44
338.422	79.44
338.65	75.44
338.878	86.44
339.106	77.44
339.334	86.44
339.562	81.44
339.79	93.44
340.018	78.44
340.246	79.44
340.474	69.44
340.702	87.44
340.93	86.44
341.158	90.44
341.386	86.44
341.614	81.44
341.842	91.44
342.07	88.44
342.298	83.44
342.526	80.44
342.754	81.44
342.981	83.44
343.209	75.44
343.437	83.44
343.665	83.44
343.893	79.44
344.12	85.44
344.348	70.44
344.576	94.44
344.804	80.44
345.031	74.44
345.259	81.44
345.487	92.44
345.714	81.44
345.942	95.44
346.17	75.44
346.397	94.44
346.625	88.44
346.853	81.44
347.08	81.44
347.308	80.44
347.535	93.44
347.763	88.44
347.99	92.44
348.218	87.44
348.445	82.44
348.673	71.44
348.9	88.44
349.128	70.44
349.355	85.44
349.583	99.44
349.81	81.44
350.037	82.44
350.265	88.44
350.492	87.44
350.72	80.44
350.947	74.44
351.174	98.44
351.402	83.44
351.629	97.44
351.856	74.44
352.083	87.44
352.311	59.44
352.538	86.44
352.765	80.44
352.992	91.44
353.22	99.44
353.447	80.44
353.674	82.44
353.901	74.44
354.128	85.44
354.355	88.44
354.583	68.44
354.81	79.44
355.037	79.44
355.264	82.44
355.491	72.44
355.718	68.44
355.945	83.44
356.172	98.44
356.399	86.44
356.626	80.44
356.853	86.44
357.08	81.44
357.307	84.44
357.534	62.44
357.761	73.44
357.988	84.44
358.215	75.44
358.441	86.44
358.668	79.44
358.895	82.44
359.122	83.44
359.349	94.44
359.576	91.44
359.802	88.44
360.029	75.44
360.256	83.44
360.483	73.44
360.709	77.44
360.936	72.44
361.163	86.44
361.39	85.44
361.616	77.44
361.843	83.44
362.07	75.44
362.296	71.44
362.523	68.44
362.749	73.44
362.976	70.44
363.203	83.44
363.429	84.44
363.656	86.44
363.882	79.44
364.109	81.44
364.335	80.44
364.562	77.44
364.788	74.44
365.015	105.44
365.241	88.44
365.468	84.44
365.694	67.44
365.92	85.44
366.147	91.44
366.373	89.44
366.599	91.44
366.826	81.44
367.052	84.44
367.278	87.44
367.505	77.44
367.731	89.44
367.957	78.44
368.184	97.44
368.41	85.44
368.636	89.44
368.862	80.44
369.089	76.44
369.315	84.44
369.541	85.44
369.767	75.44
369.993	95.44
370.219	91.44
370.445	76.44
370.672	76.44
370.898	81.44
371.124	77.44
371.35	82.44
371.576	90.44
371.802	72.44
372.028	85.44
372.254	82.44
372.48	90.44
372.706	81.44
372.932	87.44
373.158	86.44
373.384	83.44
373.61	91.44
373.835	87.44
374.061	79.44
374.287	73.44
374.513	86.44
374.739	86.44
374.965	83.44
375.191	84.44
375.416	85.44
375.642	89.44
375.868	82.44
376.094	89.44
376.319	87.44
376.545	94.44
376.771	93.44
376.997	89.44
377.222	79.44
377.448	74.44
377.674	86.44
377.899	97.44
378.125	83.44
378.35	80.44
378.576	92.44
378.802	81.44
379.027	81.44
379.253	95.44
379.478	89.44
379.704	82.44
379.929	93.44
380.155	76.44
380.38	82.44
380.606	94.44
380.831	82.44
381.057	83.44
381.282	93.44
381.507	89.44
381.733	82.44
381.958	95.44
382.184	75.44
382.409	78.44
382.634	90.44
382.86	80.44
383.085	98.44
383.31	67.44
383.535	90.44
383.761	89.44
383.986	73.44
384.211	74.44
384.436	99.44
384.662	80.44
384.887	78.44
385.112	81.44
385.337	86.44
385.562	95.44
385.787	87.44
386.013	82.44
386.238	88.44
386.463	94.44
386.688	70.44
386.913	83.44
387.138	84.44
387.363	96.44
387.588	88.44
387.813	83.44
388.038	89.44
388.263	80.44
388.488	85.44
388.713	83.44
388.938	90.44
389.163	95.44
389.387	87.44
389.612	75.44
389.837	81.44
390.062	76.44
390.287	87.44
390.512	98.44
390.736	83.44
390.961	84.44
391.186	74.44
391.411	85.44
391.636	82.44
391.86	97.44
392.085	83.44
392.31	99.44
392.534	69.44
392.759	95.44
392.984	81.44
393.208	95.44
393.433	89.44
393.658	73.44
393.882	81.44
394.107	87.44
394.331	87.44
394.556	78.44
394.78	87.44
395.005	88.44
395.229	79.44
395.454	75.44
395.678	90.44
395.903	76.44
396.127	95.44
396.352	90.44
396.576	86.44
396.801	96.44
397.025	83.44
397.249	84.44
397.474	90.44
397.698	83.44
397.922	101.44
398.147	85.44
398.371	80.44
398.595	96.44
398.82	94.44
399.044	86.44
399.268	80.44
399.492	98.44
399.717	103.44
399.941	73.44
400.165	83.44
400.389	82.44
400.613	80.44
400.837	97.44
401.062	91.44
401.286	89.44
401.51	95.44
401.734	73.44
401.958	88.44
402.182	73.44
402.406	87.44
402.63	80.44
402.854	105.44
403.078	71.44
403.302	77.44
403.526	88.44
403.75	93.44
403.974	91.44
404.198	81.44
404.422	90.44
404.645	83.44
404.869	86.44
405.093	86.44
405.317	80.44
405.541	77.44
405.765	95.44
405.988	96.44
406.212	81.44
406.436	94.44
406.66	92.44
406.883	88.44
407.107	90.44
407.331	88.44
407.555	76.44
407.778	85.44
408.002	86.44
408.226	80.44
408.449	100.44
408.673	79.44
408.896	100.44
409.12	89.44
409.344	90.44
409.567	87.44
409.791	98.44
410.014	95.44
410.238	90.44
410.461	95.44
410.685	88.44
410.908	75.44
411.132	101.44
411.355	101.44
411.578	85.44
411.802	92.44
412.025	78.44
412.249	76.44
412.472	84.44
412.695	84.44
412.919	95.44
413.142	86.44
413.365	91.44
413.589	84.44
413.812	84.44
414.035	93.44
414.258	100.44
414.482	91.44
414.705	98.44
414.928	93.44
415.151	82.44
415.374	79.44
415.597	102.44
415.821	80.44
416.044	110.44
416.267	104.44
416.49	96.44
416.713	95.44
416.936	86.44
417.159	99.44
417.382	92.44
417.605	80.44
417.828	94.44
418.051	76.44
418.274	81.44
418.497	97.44
418.72	90.44
418.943	100.44
419.166	94.44
419.389	97.44
419.611	84.44
419.834	94.44
420.057	94.44
420.28	85.44
420.503	107.44
420.726	102.44
420.948	100.44
421.171	100.44
421.394	89.44
421.617	94.44
421.839	96.44
422.062	94.44
422.285	95.44
422.507	91.44
422.73	108.44
422.953	102.44
423.175	84.44
423.398	89.44
423.621	97.44
423.843	90.44
424.066	81.44
424.288	100.44
424.511	94.44
424.733	88.44
424.956	103.44
425.178	94.44
425.401	88.44
425.623	94.44
425.846	92.44
426.068	97.44
426.291	110.44
426.513	93.44
426.735	112.44
426.958	93.44
427.18	110.44
427.402	92.44
427.625	88.44
427.847	99.44
428.069	86.44
428.292	89.44
428.514	82.44
428.736	86.44
428.958	81.44
429.181	95.44
429.403	100.44
429.625	97.44
429.847	89.44
430.069	91.44
430.292	112.44
430.514	92.44
430.736	81.44
430.958	94.44
431.18	90.44
431.402	79.44
431.624	97.44
431.846	75.44
432.068	80.44
432.29	78.44
432.512	87.44
432.734	92.44
432.956	84.44
433.178	106.44
433.4	96.44
433.622	100.44
433.844	83.44
434.066	92.44
434.287	86.44
434.509	105.44
434.731	100.44
434.953	96.44
435.175	87.44
435.397	101.44
435.618	94.44
435.84	90.44
436.062	90.44
436.284	91.44
436.505	92.44
436.727	101.44
436.949	95.44
437.17	101.44
437.392	102.44
437.614	100.44
437.835	85.44
438.057	83.44
438.278	84.44
438.5	95.44
438.721	88.44
438.943	112.44
439.165	90.44
439.386	112.44
439.608	84.44
439.829	95.44
440.05	92.44
440.272	99.44
440.493	93.44
440.715	102.44
440.936	112.44
441.158	92.44
441.379	88.44
441.6	108.44
441.822	91.44
442.043	101.44
442.264	115.44
442.486	112.44
442.707	107.44
442.928	100.44
443.149	102.44
443.371	93.44
443.592	92.44
443.813	91.44
444.034	104.44
444.255	98.44
444.476	97.44
444.698	102.44
444.919	87.44
445.14	200.44
445.361	150.44
445.582	104.44
445.803	94.44
446.024	108.44
446.245	93.44
446.466	89.44
446.687	99.44
446.908	97.44
447.129	94.44
447.35	103.44
447.571	99.44
447.792	99.44
448.013	107.44
448.234	101.44
448.455	91.44
448.675	89.44
448.896	85.44
449.117	96.44
449.338	103.44
449.559	93.44
449.779	99.44
450	99.44
450.221	114.44
450.442	106.44
450.662	93.44
450.883	96.44
451.104	100.44
451.324	86.44
451.545	84.44
451.766	95.44
451.986	93.44
452.207	94.44
452.428	86.44
452.648	85.44
452.869	95.44
453.089	87.44
453.31	80.44
453.53	84.44
453.751	76.44
453.971	89.44
454.192	82.44
454.412	87.44
454.633	96.44
454.853	76.44
455.073	86.44
455.294	87.44
455.514	106.44
455.734	95.44
455.955	82.44
456.175	85.44
456.395	91.44
456.616	92.44
456.836	88.44
457.056	80.44
457.276	81.44
457.497	97.44
457.717	90.44
457.937	104.44
458.157	84.44
458.377	90.44
458.598	75.44
458.818	88.44
459.038	75.44
459.258	88.44
459.478	77.44
459.698	82.44
459.918	92.44
460.138	106.44
460.358	89.44
460.578	87.44
460.798	96.44
461.018	92.44
461.238	91.44
461.458	76.44
461.678	91.44
461.898	92.44
462.118	103.44
462.338	77.44
462.558	91.44
462.777	89.44
462.997	89.44
463.217	89.44
463.437	91.44
463.657	93.44
463.876	79.44
464.096	91.44
464.316	81.44
464.536	94.44
464.755	87.44
464.975	79.44
465.195	96.44
465.414	85.44
465.634	93.44
465.854	96.44
466.073	94.44
466.293	94.44
466.512	85.44
466.732	103.44
466.951	97.44
467.171	82.44
467.391	97.44
467.61	90.44
467.829	71.44
468.049	84.44
468.268	103.44
468.488	85.44
468.707	110.44
468.927	89.44
469.146	95.44
469.365	98.44
469.585	94.44
469.804	103.44
470.023	101.44
470.243	88.44
470.462	99.44
470.681	99.44
470.901	110.44
471.12	96.44
471.339	110.44
471.558	91.44
471.777	97.44
471.997	96.44
472.216	92.44
472.435	92.44
472.654	82.44
472.873	94.44
473.092	90.44
473.311	100.44
473.53	98.44
473.749	95.44
473.968	93.44
474.187	87.44
474.406	88.44
474.625	103.44
474.844	102.44
475.063	80.44
475.282	92.44
475.501	81.44
475.72	100.44
475.939	96.44
476.158	93.44
476.377	99.44
476.596	93.44
476.814	86.44
477.033	88.44
477.252	82.44
477.471	87.44
477.69	95.44
477.908	112.44
478.127	104.44
478.346	90.44
478.564	90.44
478.783	100.44
479.002	106.44
479.22	98.44
479.439	89.44
479.658	94.44
479.876	80.44
480.095	88.44
480.313	79.44
480.532	93.44
480.751	79.44
480.969	86.44
481.188	75.44
481.406	89.44
481.624	88.44
481.843	91.44
482.061	76.44
482.28	98.44
482.498	92.44
482.717	71.44
482.935	94.44
483.153	98.44
483.372	90.44
483.59	107.44
483.808	94.44
484.027	96.44
484.245	93.44
484.463	110.44
484.681	94.44
484.9	79.44
485.118	98.44
485.336	86.44
485.554	81.44
485.772	103.44
485.99	86.44
486.209	84.44
486.427	81.44
486.645	78.44
486.863	96.44
487.081	103.44
487.299	101.44
487.517	105.44
487.735	103.44
487.953	114.44
488.171	103.44
488.389	99.44
488.607	107.44
488.825	106.44
489.043	93.44
489.261	92.44
489.479	88.44
489.696	97.44
489.914	93.44
490.132	101.44
490.35	104.44
490.568	100.44
490.786	99.44
491.003	120.44
491.221	112.44
491.439	105.44
491.657	115.44
491.874	119.44
492.092	110.44
492.31	137.44
492.527	118.44
492.745	112.44
492.963	101.44
493.18	110.44
493.398	105.44
493.615	108.44
493.833	103.44
494.05	99.44
494.268	99.44
494.485	111.44
494.703	113.44
494.92	122.44
495.138	102.44
495.355	98.44
495.573	103.44
495.79	89.44
496.008	110.44
496.225	113.44
496.442	96.44
496.66	111.44
496.877	99.44
497.094	96.44
497.312	115.44
497.529	98.44
497.746	114.44
497.963	92.44
498.181	86.44
498.398	82.44
498.615	86.44
498.832	97.44
499.049	82.44
499.267	97.44
499.484	94.44
499.701	111.44
499.918	92.44
500.135	85.44
500.352	106.44
500.569	97.44
500.786	117.44
501.003	89.44
501.22	95.44
501.437	108.44
501.654	93.44
501.871	96.44
502.088	91.44
502.305	102.44
502.522	106.44
502.739	98.44
502.956	99.44
503.172	98.44
503.389	107.44
503.606	95.44
503.823	98.44
504.04	102.44
504.256	76.44
504.473	87.44
504.69	104.44
504.907	88.44
505.123	93.44
505.34	82.44
505.557	93.44
505.773	105.44
505.99	102.44
506.207	95.44
506.423	98.44
506.64	85.44
506.856	86.44
507.073	87.44
507.289	91.44
507.506	92.44
507.722	89.44
507.939	86.44
508.155	95.44
508.372	97.44
508.588	85.44
508.805	103.44
509.021	92.44
509.238	81.44
509.454	91.44
509.67	92.44
509.887	77.44
510.103	83.44
510.319	80.44
510.536	87.44
510.752	82.44
510.968	83.44
511.184	89.44
511.401	80.44
511.617	84.44
511.833	94.44
512.049	73.44
512.265	82.44
512.481	81.44
512.698	90.44
512.914	78.44
513.13	89.44
513.346	84.44
513.562	76.44
513.778	86.44
513.994	98.44
514.21	82.44
514.426	87.44
514.642	86.44
514.858	87.44
515.074	88.44
515.29	92.44
515.506	81.44
515.721	67.44
515.937	87.44
516.153	90.44
516.369	86.44
516.585	79.44
516.801	71.44
517.016	78.44
517.232	85.44
517.448	71.44
517.664	81.44
