Data from Location4.07152019.Energy5.Lamp.07192019.3%Agarose_HRD10591_15-24-17-577.txt Node
Date: Fri Jul 19 15:24:17 EDT 2019
User: cochatt
Spectrometer: HR+D1059
Trigger mode: 1
Integration Time (sec): 1.000000E-1
Scans to average: 1
Electric dark correction enabled: true
Nonlinearity correction enabled: false
Boxcar width: 0
XAxis mode: Wavelengths
Number of Pixels in Spectrum: 2048
>>>>>Begin Spectral Data<<<<<
223.165	-7.19
223.4	-7.19
223.635	-7.19
223.869	-18.19
224.104	-11.19
224.338	-7.19
224.573	-6.19
224.808	-15.19
225.042	-16.19
225.277	3.81
225.511	-12.19
225.746	-10.19
225.98	1.81
226.215	6.81
226.449	21.81
226.683	15.81
226.918	18.81
227.152	34.81
227.387	38.81
227.621	35.81
227.856	37.81
228.09	50.81
228.324	34.81
228.559	45.81
228.793	57.81
229.027	58.81
229.262	61.81
229.496	65.81
229.73	75.81
229.964	66.81
230.199	72.81
230.433	79.81
230.667	82.81
230.901	86.81
231.136	83.81
231.37	82.81
231.604	79.81
231.838	76.81
232.072	78.81
232.306	84.81
232.541	75.81
232.775	84.81
233.009	97.81
233.243	72.81
233.477	94.81
233.711	87.81
233.945	81.81
234.179	83.81
234.413	79.81
234.647	77.81
234.881	95.81
235.115	84.81
235.349	64.81
235.583	83.81
235.817	81.81
236.051	75.81
236.285	81.81
236.519	59.81
236.753	85.81
236.987	85.81
237.221	72.81
237.455	79.81
237.689	65.81
237.922	71.81
238.156	80.81
238.39	77.81
238.624	64.81
238.858	77.81
239.091	87.81
239.325	85.81
239.559	77.81
239.793	75.81
240.027	81.81
240.26	70.81
240.494	73.81
240.728	75.81
240.961	80.81
241.195	65.81
241.429	77.81
241.662	80.81
241.896	78.81
242.13	78.81
242.363	72.81
242.597	69.81
242.83	77.81
243.064	66.81
243.298	79.81
243.531	72.81
243.765	71.81
243.998	80.81
244.232	87.81
244.465	59.81
244.699	67.81
244.932	85.81
245.166	76.81
245.399	67.81
245.633	83.81
245.866	79.81
246.099	66.81
246.333	74.81
246.566	76.81
246.8	81.81
247.033	74.81
247.266	77.81
247.5	73.81
247.733	70.81
247.966	63.81
248.2	80.81
248.433	86.81
248.666	81.81
248.899	87.81
249.133	78.81
249.366	79.81
249.599	83.81
249.832	78.81
250.066	87.81
250.299	87.81
250.532	92.81
250.765	78.81
250.998	93.81
251.231	81.81
251.465	82.81
251.698	76.81
251.931	81.81
252.164	80.81
252.397	66.81
252.63	68.81
252.863	74.81
253.096	66.81
253.329	87.81
253.562	94.81
253.795	82.81
254.028	78.81
254.261	83.81
254.494	72.81
254.727	72.81
254.96	80.81
255.193	85.81
255.426	72.81
255.659	69.81
255.892	85.81
256.124	97.81
256.357	87.81
256.59	72.81
256.823	80.81
257.056	85.81
257.289	87.81
257.521	80.81
257.754	88.81
257.987	84.81
258.22	70.81
258.452	79.81
258.685	82.81
258.918	81.81
259.151	86.81
259.383	62.81
259.616	79.81
259.849	81.81
260.081	91.81
260.314	76.81
260.547	86.81
260.779	84.81
261.012	88.81
261.244	82.81
261.477	78.81
261.71	82.81
261.942	78.81
262.175	65.81
262.407	75.81
262.64	102.81
262.872	90.81
263.105	100.81
263.337	89.81
263.57	78.81
263.802	59.81
264.035	85.81
264.267	75.81
264.499	76.81
264.732	82.81
264.964	93.81
265.197	84.81
265.429	88.81
265.661	94.81
265.894	83.81
266.126	78.81
266.358	69.81
266.591	84.81
266.823	79.81
267.055	74.81
267.287	85.81
267.52	88.81
267.752	85.81
267.984	68.81
268.216	92.81
268.448	74.81
268.681	77.81
268.913	81.81
269.145	89.81
269.377	89.81
269.609	89.81
269.841	85.81
270.073	81.81
270.306	94.81
270.538	84.81
270.77	81.81
271.002	73.81
271.234	77.81
271.466	85.81
271.698	74.81
271.93	89.81
272.162	78.81
272.394	76.81
272.626	85.81
272.858	81.81
273.09	88.81
273.322	88.81
273.553	81.81
273.785	90.81
274.017	75.81
274.249	80.81
274.481	85.81
274.713	87.81
274.945	88.81
275.176	77.81
275.408	91.81
275.64	93.81
275.872	80.81
276.104	75.81
276.335	91.81
276.567	85.81
276.799	75.81
277.031	90.81
277.262	86.81
277.494	90.81
277.726	81.81
277.957	87.81
278.189	83.81
278.421	81.81
278.652	83.81
278.884	52.81
279.115	96.81
279.347	89.81
279.579	81.81
279.81	95.81
280.042	72.81
280.273	70.81
280.505	82.81
280.736	89.81
280.968	88.81
281.199	74.81
281.431	84.81
281.662	80.81
281.894	86.81
282.125	85.81
282.356	83.81
282.588	81.81
282.819	90.81
283.051	83.81
283.282	71.81
283.513	91.81
283.745	88.81
283.976	90.81
284.207	90.81
284.439	75.81
284.67	68.81
284.901	94.81
285.132	87.81
285.364	78.81
285.595	85.81
285.826	93.81
286.057	79.81
286.288	78.81
286.52	66.81
286.751	77.81
286.982	88.81
287.213	85.81
287.444	86.81
287.675	75.81
287.906	94.81
288.138	98.81
288.369	86.81
288.6	80.81
288.831	86.81
289.062	91.81
289.293	73.81
289.524	74.81
289.755	88.81
289.986	78.81
290.217	77.81
290.448	76.81
290.679	81.81
290.91	88.81
291.141	77.81
291.371	85.81
291.602	78.81
291.833	80.81
292.064	79.81
292.295	89.81
292.526	89.81
292.757	87.81
292.987	93.81
293.218	83.81
293.449	100.81
293.68	102.81
293.91	77.81
294.141	81.81
294.372	86.81
294.603	94.81
294.833	86.81
295.064	95.81
295.295	71.81
295.525	74.81
295.756	89.81
295.987	74.81
296.217	82.81
296.448	78.81
296.679	93.81
296.909	88.81
297.14	81.81
297.37	87.81
297.601	82.81
297.831	82.81
298.062	81.81
298.292	69.81
298.523	104.81
298.753	95.81
298.984	110.81
299.214	102.81
299.445	90.81
299.675	74.81
299.905	82.81
300.136	93.81
300.366	78.81
300.597	79.81
300.827	77.81
301.057	82.81
301.288	85.81
301.518	90.81
301.748	79.81
301.979	83.81
302.209	86.81
302.439	83.81
302.669	83.81
302.9	83.81
303.13	70.81
303.36	81.81
303.59	90.81
303.82	67.81
304.051	88.81
304.281	94.81
304.511	85.81
304.741	85.81
304.971	87.81
305.201	91.81
305.431	86.81
305.661	86.81
305.891	93.81
306.121	92.81
306.352	95.81
306.582	82.81
306.812	75.81
307.042	83.81
307.272	84.81
307.502	91.81
307.731	79.81
307.961	80.81
308.191	88.81
308.421	88.81
308.651	88.81
308.881	85.81
309.111	86.81
309.341	80.81
309.571	91.81
309.8	73.81
310.03	83.81
310.26	66.81
310.49	82.81
310.72	85.81
310.949	86.81
311.179	83.81
311.409	85.81
311.639	105.81
311.868	88.81
312.098	93.81
312.328	79.81
312.557	80.81
312.787	81.81
313.017	85.81
313.246	93.81
313.476	82.81
313.706	81.81
313.935	74.81
314.165	75.81
314.394	81.81
314.624	66.81
314.853	91.81
315.083	78.81
315.312	75.81
315.542	74.81
315.771	89.81
316.001	80.81
316.23	86.81
316.46	64.81
316.689	79.81
316.919	87.81
317.148	85.81
317.377	84.81
317.607	78.81
317.836	79.81
318.065	82.81
318.295	86.81
318.524	82.81
318.753	78.81
318.983	81.81
319.212	85.81
319.441	68.81
319.67	75.81
319.9	81.81
320.129	86.81
320.358	68.81
320.587	82.81
320.816	93.81
321.046	86.81
321.275	94.81
321.504	63.81
321.733	88.81
321.962	74.81
322.191	77.81
322.42	77.81
322.649	92.81
322.878	82.81
323.108	87.81
323.337	98.81
323.566	91.81
323.795	90.81
324.024	87.81
324.253	84.81
324.482	85.81
324.71	86.81
324.939	79.81
325.168	75.81
325.397	77.81
325.626	76.81
325.855	95.81
326.084	72.81
326.313	95.81
326.542	96.81
326.77	96.81
326.999	81.81
327.228	98.81
327.457	86.81
327.686	74.81
327.914	70.81
328.143	80.81
328.372	78.81
328.6	88.81
328.829	69.81
329.058	96.81
329.287	86.81
329.515	81.81
329.744	74.81
329.972	98.81
330.201	88.81
330.43	71.81
330.658	82.81
330.887	97.81
331.115	89.81
331.344	103.81
331.572	89.81
331.801	78.81
332.03	94.81
332.258	98.81
332.486	86.81
332.715	85.81
332.943	80.81
333.172	85.81
333.4	77.81
333.629	96.81
333.857	94.81
334.085	83.81
334.314	86.81
334.542	67.81
334.771	76.81
334.999	74.81
335.227	79.81
335.455	75.81
335.684	89.81
335.912	89.81
336.14	79.81
336.369	88.81
336.597	79.81
336.825	95.81
337.053	86.81
337.281	89.81
337.51	96.81
337.738	96.81
337.966	82.81
338.194	83.81
338.422	88.81
338.65	89.81
338.878	92.81
339.106	75.81
339.334	81.81
339.562	88.81
339.79	71.81
340.018	85.81
340.246	84.81
340.474	79.81
340.702	92.81
340.93	82.81
341.158	86.81
341.386	74.81
341.614	86.81
341.842	88.81
342.07	78.81
342.298	97.81
342.526	85.81
342.754	81.81
342.981	74.81
343.209	70.81
343.437	82.81
343.665	87.81
343.893	82.81
344.12	71.81
344.348	85.81
344.576	85.81
344.804	80.81
345.031	103.81
345.259	84.81
345.487	76.81
345.714	94.81
345.942	83.81
346.17	75.81
346.397	93.81
346.625	70.81
346.853	78.81
347.08	91.81
347.308	77.81
347.535	74.81
347.763	72.81
347.99	80.81
348.218	85.81
348.445	68.81
348.673	76.81
348.9	81.81
349.128	85.81
349.355	75.81
349.583	96.81
349.81	80.81
350.037	83.81
350.265	84.81
350.492	86.81
350.72	79.81
350.947	75.81
351.174	99.81
351.402	89.81
351.629	74.81
351.856	91.81
352.083	68.81
352.311	79.81
352.538	96.81
352.765	88.81
352.992	92.81
353.22	78.81
353.447	81.81
353.674	86.81
353.901	78.81
354.128	89.81
354.355	76.81
354.583	86.81
354.81	88.81
355.037	87.81
355.264	82.81
355.491	81.81
355.718	75.81
355.945	79.81
356.172	79.81
356.399	88.81
356.626	80.81
356.853	80.81
357.08	80.81
357.307	72.81
357.534	89.81
357.761	73.81
357.988	86.81
358.215	85.81
358.441	89.81
358.668	95.81
358.895	79.81
359.122	83.81
359.349	86.81
359.576	85.81
359.802	87.81
360.029	75.81
360.256	77.81
360.483	88.81
360.709	92.81
360.936	98.81
361.163	80.81
361.39	90.81
361.616	95.81
361.843	99.81
362.07	91.81
362.296	91.81
362.523	80.81
362.749	93.81
362.976	82.81
363.203	89.81
363.429	88.81
363.656	75.81
363.882	90.81
364.109	85.81
364.335	81.81
364.562	90.81
364.788	91.81
365.015	81.81
365.241	81.81
365.468	74.81
365.694	84.81
365.92	79.81
366.147	65.81
366.373	83.81
366.599	85.81
366.826	83.81
367.052	98.81
367.278	85.81
367.505	97.81
367.731	85.81
367.957	86.81
368.184	81.81
368.41	75.81
368.636	84.81
368.862	88.81
369.089	98.81
369.315	78.81
369.541	82.81
369.767	86.81
369.993	72.81
370.219	71.81
370.445	83.81
370.672	79.81
370.898	87.81
371.124	82.81
371.35	77.81
371.576	69.81
371.802	81.81
372.028	99.81
372.254	81.81
372.48	79.81
372.706	89.81
372.932	82.81
373.158	91.81
373.384	89.81
373.61	89.81
373.835	79.81
374.061	86.81
374.287	87.81
374.513	83.81
374.739	81.81
374.965	83.81
375.191	87.81
375.416	75.81
375.642	76.81
375.868	82.81
376.094	84.81
376.319	74.81
376.545	94.81
376.771	79.81
376.997	84.81
377.222	86.81
377.448	86.81
377.674	92.81
377.899	66.81
378.125	88.81
378.35	84.81
378.576	79.81
378.802	88.81
379.027	79.81
379.253	80.81
379.478	79.81
379.704	85.81
379.929	86.81
380.155	80.81
380.38	87.81
380.606	85.81
380.831	79.81
381.057	99.81
381.282	79.81
381.507	79.81
381.733	81.81
381.958	82.81
382.184	81.81
382.409	72.81
382.634	85.81
382.86	88.81
383.085	74.81
383.31	93.81
383.535	88.81
383.761	84.81
383.986	78.81
384.211	84.81
384.436	89.81
384.662	95.81
384.887	100.81
385.112	93.81
385.337	85.81
385.562	89.81
385.787	83.81
386.013	102.81
386.238	83.81
386.463	82.81
386.688	91.81
386.913	83.81
387.138	102.81
387.363	72.81
387.588	81.81
387.813	86.81
388.038	88.81
388.263	93.81
388.488	87.81
388.713	81.81
388.938	85.81
389.163	88.81
389.387	89.81
389.612	82.81
389.837	95.81
390.062	92.81
390.287	77.81
390.512	75.81
390.736	79.81
390.961	79.81
391.186	85.81
391.411	75.81
391.636	85.81
391.86	90.81
392.085	80.81
392.31	93.81
392.534	95.81
392.759	91.81
392.984	89.81
393.208	94.81
393.433	81.81
393.658	84.81
393.882	100.81
394.107	86.81
394.331	92.81
394.556	98.81
394.78	86.81
395.005	102.81
395.229	94.81
395.454	69.81
395.678	86.81
395.903	98.81
396.127	89.81
396.352	86.81
396.576	83.81
396.801	95.81
397.025	86.81
397.249	89.81
397.474	79.81
397.698	80.81
397.922	81.81
398.147	83.81
398.371	90.81
398.595	89.81
398.82	75.81
399.044	83.81
399.268	81.81
399.492	99.81
399.717	84.81
399.941	82.81
400.165	86.81
400.389	96.81
400.613	90.81
400.837	94.81
401.062	75.81
401.286	81.81
401.51	79.81
401.734	85.81
401.958	90.81
402.182	95.81
402.406	101.81
402.63	101.81
402.854	78.81
403.078	70.81
403.302	85.81
403.526	84.81
403.75	86.81
403.974	78.81
404.198	86.81
404.422	75.81
404.645	84.81
404.869	89.81
405.093	96.81
405.317	96.81
405.541	88.81
405.765	81.81
405.988	93.81
406.212	85.81
406.436	97.81
406.66	83.81
406.883	96.81
407.107	81.81
407.331	90.81
407.555	79.81
407.778	96.81
408.002	94.81
408.226	89.81
408.449	100.81
408.673	98.81
408.896	92.81
409.12	83.81
409.344	83.81
409.567	87.81
409.791	82.81
410.014	93.81
410.238	96.81
410.461	95.81
410.685	81.81
410.908	107.81
411.132	90.81
411.355	87.81
411.578	90.81
411.802	93.81
412.025	88.81
412.249	89.81
412.472	84.81
412.695	87.81
412.919	104.81
413.142	78.81
413.365	102.81
413.589	88.81
413.812	79.81
414.035	96.81
414.258	88.81
414.482	78.81
414.705	82.81
414.928	103.81
415.151	84.81
415.374	75.81
415.597	86.81
415.821	85.81
416.044	86.81
416.267	94.81
416.49	88.81
416.713	85.81
416.936	92.81
417.159	87.81
417.382	101.81
417.605	106.81
417.828	96.81
418.051	88.81
418.274	96.81
418.497	95.81
418.72	94.81
418.943	87.81
419.166	95.81
419.389	87.81
419.611	82.81
419.834	89.81
420.057	84.81
420.28	100.81
420.503	95.81
420.726	85.81
420.948	86.81
421.171	80.81
421.394	87.81
421.617	92.81
421.839	91.81
422.062	98.81
422.285	113.81
422.507	92.81
422.73	98.81
422.953	88.81
423.175	105.81
423.398	95.81
423.621	98.81
423.843	91.81
424.066	90.81
424.288	94.81
424.511	113.81
424.733	95.81
424.956	95.81
425.178	87.81
425.401	89.81
425.623	85.81
425.846	90.81
426.068	86.81
426.291	87.81
426.513	75.81
426.735	100.81
426.958	104.81
427.18	94.81
427.402	101.81
427.625	92.81
427.847	94.81
428.069	80.81
428.292	92.81
428.514	96.81
428.736	86.81
428.958	69.81
429.181	95.81
429.403	98.81
429.625	94.81
429.847	80.81
430.069	92.81
430.292	91.81
430.514	83.81
430.736	92.81
430.958	91.81
431.18	103.81
431.402	102.81
431.624	89.81
431.846	86.81
432.068	102.81
432.29	93.81
432.512	93.81
432.734	89.81
432.956	102.81
433.178	89.81
433.4	98.81
433.622	114.81
433.844	88.81
434.066	92.81
434.287	86.81
434.509	86.81
434.731	88.81
434.953	85.81
435.175	90.81
435.397	97.81
435.618	90.81
435.84	93.81
436.062	99.81
436.284	80.81
436.505	94.81
436.727	107.81
436.949	75.81
437.17	86.81
437.392	77.81
437.614	103.81
437.835	89.81
438.057	85.81
438.278	92.81
438.5	88.81
438.721	87.81
438.943	85.81
439.165	81.81
439.386	86.81
439.608	105.81
439.829	84.81
440.05	114.81
440.272	90.81
440.493	95.81
440.715	118.81
440.936	97.81
441.158	97.81
441.379	97.81
441.6	93.81
441.822	104.81
442.043	105.81
442.264	96.81
442.486	88.81
442.707	91.81
442.928	98.81
443.149	81.81
443.371	90.81
443.592	91.81
443.813	94.81
444.034	101.81
444.255	105.81
444.476	89.81
444.698	98.81
444.919	83.81
445.14	182.81
445.361	134.81
445.582	109.81
445.803	77.81
446.024	82.81
446.245	87.81
446.466	101.81
446.687	100.81
446.908	100.81
447.129	104.81
447.35	103.81
447.571	90.81
447.792	101.81
448.013	109.81
448.234	88.81
448.455	103.81
448.675	106.81
448.896	98.81
449.117	100.81
449.338	98.81
449.559	96.81
449.779	94.81
450	101.81
450.221	83.81
450.442	104.81
450.662	98.81
450.883	101.81
451.104	88.81
451.324	98.81
451.545	99.81
451.766	102.81
451.986	95.81
452.207	101.81
452.428	97.81
452.648	102.81
452.869	96.81
453.089	94.81
453.31	73.81
453.53	80.81
453.751	89.81
453.971	85.81
454.192	76.81
454.412	81.81
454.633	83.81
454.853	81.81
455.073	82.81
455.294	74.81
455.514	95.81
455.734	95.81
455.955	78.81
456.175	81.81
456.395	95.81
456.616	93.81
456.836	89.81
457.056	80.81
457.276	81.81
457.497	83.81
457.717	101.81
457.937	94.81
458.157	93.81
458.377	89.81
458.598	88.81
458.818	90.81
459.038	85.81
459.258	83.81
459.478	82.81
459.698	83.81
459.918	77.81
460.138	80.81
460.358	88.81
460.578	91.81
460.798	85.81
461.018	88.81
461.238	101.81
461.458	80.81
461.678	92.81
461.898	89.81
462.118	91.81
462.338	83.81
462.558	75.81
462.777	89.81
462.997	82.81
463.217	77.81
463.437	76.81
463.657	88.81
463.876	98.81
464.096	88.81
464.316	84.81
464.536	94.81
464.755	85.81
464.975	89.81
465.195	95.81
465.414	100.81
465.634	103.81
465.854	88.81
466.073	103.81
466.293	101.81
466.512	112.81
466.732	91.81
466.951	89.81
467.171	103.81
467.391	100.81
467.61	88.81
467.829	99.81
468.049	105.81
468.268	97.81
468.488	94.81
468.707	104.81
468.927	99.81
469.146	102.81
469.365	87.81
469.585	95.81
469.804	88.81
470.023	90.81
470.243	101.81
470.462	99.81
470.681	90.81
470.901	101.81
471.12	109.81
471.339	119.81
471.558	103.81
471.777	88.81
471.997	100.81
472.216	88.81
472.435	93.81
472.654	97.81
472.873	105.81
473.092	86.81
473.311	88.81
473.53	89.81
473.749	87.81
473.968	97.81
474.187	95.81
474.406	94.81
474.625	98.81
474.844	78.81
475.063	90.81
475.282	93.81
475.501	85.81
475.72	90.81
475.939	94.81
476.158	81.81
476.377	100.81
476.596	96.81
476.814	88.81
477.033	86.81
477.252	85.81
477.471	100.81
477.69	91.81
477.908	86.81
478.127	104.81
478.346	95.81
478.564	86.81
478.783	87.81
479.002	94.81
479.22	92.81
479.439	104.81
479.658	89.81
479.876	94.81
480.095	89.81
480.313	109.81
480.532	95.81
480.751	105.81
480.969	100.81
481.188	83.81
481.406	81.81
481.624	88.81
481.843	80.81
482.061	89.81
482.28	90.81
482.498	85.81
482.717	85.81
482.935	95.81
483.153	100.81
483.372	111.81
483.59	93.81
483.808	100.81
484.027	96.81
484.245	96.81
484.463	96.81
484.681	106.81
484.9	84.81
485.118	107.81
485.336	103.81
485.554	94.81
485.772	79.81
485.99	84.81
486.209	74.81
486.427	84.81
486.645	101.81
486.863	105.81
487.081	95.81
487.299	94.81
487.517	105.81
487.735	111.81
487.953	109.81
488.171	97.81
488.389	104.81
488.607	110.81
488.825	95.81
489.043	99.81
489.261	84.81
489.479	84.81
489.696	99.81
489.914	114.81
490.132	94.81
490.35	102.81
490.568	98.81
490.786	110.81
491.003	101.81
491.221	119.81
491.439	121.81
491.657	111.81
491.874	115.81
492.092	110.81
492.31	132.81
492.527	129.81
492.745	108.81
492.963	118.81
493.18	116.81
493.398	104.81
493.615	113.81
493.833	102.81
494.05	104.81
494.268	114.81
494.485	99.81
494.703	109.81
494.92	102.81
495.138	107.81
495.355	110.81
495.573	105.81
495.79	89.81
496.008	129.81
496.225	123.81
496.442	107.81
496.66	98.81
496.877	106.81
497.094	97.81
497.312	110.81
497.529	101.81
497.746	94.81
497.963	84.81
498.181	97.81
498.398	95.81
498.615	89.81
498.832	87.81
499.049	93.81
499.267	87.81
499.484	101.81
499.701	100.81
499.918	91.81
500.135	104.81
500.352	87.81
500.569	95.81
500.786	95.81
501.003	96.81
501.22	102.81
501.437	102.81
501.654	112.81
501.871	102.81
502.088	93.81
502.305	93.81
502.522	86.81
502.739	101.81
502.956	99.81
503.172	83.81
503.389	88.81
503.606	90.81
503.823	107.81
504.04	101.81
504.256	94.81
504.473	80.81
504.69	101.81
504.907	86.81
505.123	86.81
505.34	93.81
505.557	90.81
505.773	100.81
505.99	97.81
506.207	104.81
506.423	96.81
506.64	105.81
506.856	92.81
507.073	86.81
507.289	88.81
507.506	88.81
507.722	95.81
507.939	88.81
508.155	85.81
508.372	90.81
508.588	74.81
508.805	91.81
509.021	98.81
509.238	76.81
509.454	82.81
509.67	86.81
509.887	93.81
510.103	79.81
510.319	90.81
510.536	79.81
510.752	84.81
510.968	84.81
511.184	74.81
511.401	86.81
511.617	94.81
511.833	86.81
512.049	89.81
512.265	85.81
512.481	83.81
512.698	90.81
512.914	86.81
513.13	99.81
513.346	89.81
513.562	79.81
513.778	91.81
513.994	100.81
514.21	86.81
514.426	84.81
514.642	81.81
514.858	79.81
515.074	89.81
515.29	79.81
515.506	84.81
515.721	85.81
515.937	65.81
516.153	85.81
516.369	89.81
516.585	93.81
516.801	73.81
517.016	88.81
517.232	77.81
517.448	85.81
