Data from Location4.07152019.Energy5.Lamp.07192019.3%Agarose_HRD10591_15-23-46-576.txt Node
Date: Fri Jul 19 15:23:46 EDT 2019
User: cochatt
Spectrometer: HR+D1059
Trigger mode: 1
Integration Time (sec): 1.000000E-1
Scans to average: 1
Electric dark correction enabled: true
Nonlinearity correction enabled: false
Boxcar width: 0
XAxis mode: Wavelengths
Number of Pixels in Spectrum: 2048
>>>>>Begin Spectral Data<<<<<
223.165	-30.38
223.4	-30.38
223.635	-30.38
223.869	-18.38
224.104	-13.38
224.338	-18.38
224.573	-18.38
224.808	-0.38
225.042	-3.38
225.277	-9.38
225.511	-2.38
225.746	7.62
225.98	2.62
226.215	19.62
226.449	9.62
226.683	13.62
226.918	30.62
227.152	30.62
227.387	38.62
227.621	39.62
227.856	33.62
228.09	44.62
228.324	46.62
228.559	56.62
228.793	60.62
229.027	62.62
229.262	76.62
229.496	77.62
229.73	58.62
229.964	69.62
230.199	65.62
230.433	77.62
230.667	67.62
230.901	67.62
231.136	76.62
231.37	75.62
231.604	73.62
231.838	74.62
232.072	88.62
232.306	88.62
232.541	86.62
232.775	72.62
233.009	95.62
233.243	94.62
233.477	84.62
233.711	77.62
233.945	75.62
234.179	84.62
234.413	80.62
234.647	72.62
234.881	71.62
235.115	67.62
235.349	78.62
235.583	86.62
235.817	57.62
236.051	73.62
236.285	81.62
236.519	71.62
236.753	71.62
236.987	70.62
237.221	76.62
237.455	73.62
237.689	79.62
237.922	77.62
238.156	86.62
238.39	71.62
238.624	71.62
238.858	73.62
239.091	97.62
239.325	75.62
239.559	84.62
239.793	84.62
240.027	67.62
240.26	81.62
240.494	72.62
240.728	68.62
240.961	81.62
241.195	81.62
241.429	63.62
241.662	50.62
241.896	78.62
242.13	66.62
242.363	68.62
242.597	71.62
242.83	80.62
243.064	81.62
243.298	91.62
243.531	82.62
243.765	77.62
243.998	58.62
244.232	82.62
244.465	60.62
244.699	84.62
244.932	82.62
245.166	77.62
245.399	77.62
245.633	72.62
245.866	73.62
246.099	76.62
246.333	65.62
246.566	77.62
246.8	96.62
247.033	75.62
247.266	67.62
247.5	85.62
247.733	74.62
247.966	73.62
248.2	72.62
248.433	71.62
248.666	69.62
248.899	77.62
249.133	77.62
249.366	86.62
249.599	88.62
249.832	82.62
250.066	86.62
250.299	93.62
250.532	78.62
250.765	81.62
250.998	66.62
251.231	88.62
251.465	84.62
251.698	79.62
251.931	88.62
252.164	76.62
252.397	74.62
252.63	84.62
252.863	79.62
253.096	69.62
253.329	85.62
253.562	79.62
253.795	68.62
254.028	85.62
254.261	72.62
254.494	82.62
254.727	90.62
254.96	69.62
255.193	80.62
255.426	70.62
255.659	81.62
255.892	74.62
256.124	74.62
256.357	85.62
256.59	73.62
256.823	95.62
257.056	94.62
257.289	83.62
257.521	83.62
257.754	83.62
257.987	72.62
258.22	91.62
258.452	80.62
258.685	90.62
258.918	79.62
259.151	80.62
259.383	90.62
259.616	94.62
259.849	81.62
260.081	75.62
260.314	89.62
260.547	77.62
260.779	79.62
261.012	77.62
261.244	89.62
261.477	83.62
261.71	66.62
261.942	82.62
262.175	104.62
262.407	90.62
262.64	82.62
262.872	81.62
263.105	92.62
263.337	97.62
263.57	72.62
263.802	77.62
264.035	72.62
264.267	82.62
264.499	85.62
264.732	99.62
264.964	80.62
265.197	70.62
265.429	87.62
265.661	90.62
265.894	77.62
266.126	83.62
266.358	82.62
266.591	78.62
266.823	74.62
267.055	79.62
267.287	68.62
267.52	76.62
267.752	89.62
267.984	94.62
268.216	89.62
268.448	83.62
268.681	75.62
268.913	81.62
269.145	73.62
269.377	95.62
269.609	83.62
269.841	89.62
270.073	72.62
270.306	75.62
270.538	78.62
270.77	79.62
271.002	82.62
271.234	76.62
271.466	79.62
271.698	70.62
271.93	77.62
272.162	79.62
272.394	83.62
272.626	78.62
272.858	74.62
273.09	78.62
273.322	89.62
273.553	90.62
273.785	82.62
274.017	87.62
274.249	81.62
274.481	75.62
274.713	83.62
274.945	87.62
275.176	82.62
275.408	88.62
275.64	91.62
275.872	87.62
276.104	83.62
276.335	82.62
276.567	83.62
276.799	71.62
277.031	80.62
277.262	84.62
277.494	81.62
277.726	77.62
277.957	77.62
278.189	72.62
278.421	74.62
278.652	72.62
278.884	91.62
279.115	72.62
279.347	88.62
279.579	75.62
279.81	82.62
280.042	89.62
280.273	89.62
280.505	95.62
280.736	94.62
280.968	78.62
281.199	98.62
281.431	89.62
281.662	76.62
281.894	78.62
282.125	95.62
282.356	98.62
282.588	87.62
282.819	80.62
283.051	71.62
283.282	91.62
283.513	83.62
283.745	77.62
283.976	77.62
284.207	85.62
284.439	81.62
284.67	86.62
284.901	86.62
285.132	82.62
285.364	83.62
285.595	85.62
285.826	73.62
286.057	82.62
286.288	79.62
286.52	91.62
286.751	88.62
286.982	77.62
287.213	90.62
287.444	86.62
287.675	82.62
287.906	82.62
288.138	67.62
288.369	83.62
288.6	76.62
288.831	82.62
289.062	94.62
289.293	75.62
289.524	75.62
289.755	95.62
289.986	82.62
290.217	82.62
290.448	83.62
290.679	90.62
290.91	85.62
291.141	75.62
291.371	74.62
291.602	86.62
291.833	75.62
292.064	93.62
292.295	85.62
292.526	77.62
292.757	86.62
292.987	82.62
293.218	85.62
293.449	86.62
293.68	97.62
293.91	95.62
294.141	80.62
294.372	84.62
294.603	84.62
294.833	87.62
295.064	81.62
295.295	75.62
295.525	80.62
295.756	84.62
295.987	79.62
296.217	83.62
296.448	73.62
296.679	74.62
296.909	80.62
297.14	97.62
297.37	79.62
297.601	80.62
297.831	80.62
298.062	85.62
298.292	85.62
298.523	85.62
298.753	81.62
298.984	90.62
299.214	87.62
299.445	89.62
299.675	87.62
299.905	83.62
300.136	85.62
300.366	79.62
300.597	89.62
300.827	88.62
301.057	74.62
301.288	85.62
301.518	83.62
301.748	81.62
301.979	77.62
302.209	97.62
302.439	74.62
302.669	86.62
302.9	83.62
303.13	83.62
303.36	82.62
303.59	90.62
303.82	83.62
304.051	75.62
304.281	83.62
304.511	94.62
304.741	89.62
304.971	88.62
305.201	104.62
305.431	83.62
305.661	68.62
305.891	75.62
306.121	84.62
306.352	85.62
306.582	78.62
306.812	75.62
307.042	89.62
307.272	74.62
307.502	84.62
307.731	74.62
307.961	92.62
308.191	76.62
308.421	73.62
308.651	70.62
308.881	79.62
309.111	71.62
309.341	81.62
309.571	65.62
309.8	90.62
310.03	75.62
310.26	88.62
310.49	81.62
310.72	69.62
310.949	79.62
311.179	95.62
311.409	91.62
311.639	80.62
311.868	80.62
312.098	96.62
312.328	87.62
312.557	81.62
312.787	83.62
313.017	82.62
313.246	92.62
313.476	84.62
313.706	76.62
313.935	85.62
314.165	96.62
314.394	86.62
314.624	74.62
314.853	75.62
315.083	88.62
315.312	84.62
315.542	106.62
315.771	83.62
316.001	76.62
316.23	85.62
316.46	84.62
316.689	71.62
316.919	87.62
317.148	99.62
317.377	72.62
317.607	87.62
317.836	79.62
318.065	79.62
318.295	90.62
318.524	93.62
318.753	79.62
318.983	93.62
319.212	93.62
319.441	81.62
319.67	86.62
319.9	87.62
320.129	73.62
320.358	92.62
320.587	67.62
320.816	83.62
321.046	91.62
321.275	82.62
321.504	83.62
321.733	74.62
321.962	75.62
322.191	87.62
322.42	77.62
322.649	89.62
322.878	72.62
323.108	91.62
323.337	81.62
323.566	91.62
323.795	93.62
324.024	81.62
324.253	89.62
324.482	80.62
324.71	85.62
324.939	89.62
325.168	88.62
325.397	85.62
325.626	85.62
325.855	73.62
326.084	73.62
326.313	91.62
326.542	84.62
326.77	84.62
326.999	89.62
327.228	74.62
327.457	71.62
327.686	81.62
327.914	76.62
328.143	74.62
328.372	82.62
328.6	81.62
328.829	89.62
329.058	91.62
329.287	77.62
329.515	75.62
329.744	86.62
329.972	81.62
330.201	91.62
330.43	92.62
330.658	79.62
330.887	87.62
331.115	104.62
331.344	78.62
331.572	77.62
331.801	88.62
332.03	93.62
332.258	80.62
332.486	81.62
332.715	88.62
332.943	82.62
333.172	91.62
333.4	73.62
333.629	81.62
333.857	86.62
334.085	85.62
334.314	85.62
334.542	84.62
334.771	72.62
334.999	80.62
335.227	81.62
335.455	92.62
335.684	80.62
335.912	63.62
336.14	87.62
336.369	91.62
336.597	85.62
336.825	83.62
337.053	85.62
337.281	84.62
337.51	79.62
337.738	91.62
337.966	93.62
338.194	90.62
338.422	77.62
338.65	79.62
338.878	86.62
339.106	97.62
339.334	93.62
339.562	77.62
339.79	78.62
340.018	68.62
340.246	85.62
340.474	88.62
340.702	85.62
340.93	96.62
341.158	82.62
341.386	80.62
341.614	79.62
341.842	74.62
342.07	89.62
342.298	82.62
342.526	89.62
342.754	86.62
342.981	66.62
343.209	80.62
343.437	102.62
343.665	88.62
343.893	68.62
344.12	81.62
344.348	82.62
344.576	93.62
344.804	84.62
345.031	83.62
345.259	70.62
345.487	74.62
345.714	82.62
345.942	82.62
346.17	72.62
346.397	75.62
346.625	80.62
346.853	84.62
347.08	77.62
347.308	92.62
347.535	66.62
347.763	73.62
347.99	82.62
348.218	81.62
348.445	81.62
348.673	72.62
348.9	93.62
349.128	79.62
349.355	79.62
349.583	83.62
349.81	80.62
350.037	73.62
350.265	72.62
350.492	86.62
350.72	85.62
350.947	77.62
351.174	86.62
351.402	89.62
351.629	82.62
351.856	82.62
352.083	86.62
352.311	83.62
352.538	91.62
352.765	80.62
352.992	73.62
353.22	87.62
353.447	77.62
353.674	84.62
353.901	88.62
354.128	81.62
354.355	92.62
354.583	85.62
354.81	82.62
355.037	79.62
355.264	75.62
355.491	84.62
355.718	82.62
355.945	81.62
356.172	79.62
356.399	80.62
356.626	87.62
356.853	74.62
357.08	82.62
357.307	97.62
357.534	86.62
357.761	78.62
357.988	82.62
358.215	82.62
358.441	90.62
358.668	82.62
358.895	70.62
359.122	83.62
359.349	91.62
359.576	73.62
359.802	94.62
360.029	92.62
360.256	80.62
360.483	88.62
360.709	76.62
360.936	99.62
361.163	89.62
361.39	78.62
361.616	78.62
361.843	84.62
362.07	71.62
362.296	84.62
362.523	89.62
362.749	81.62
362.976	87.62
363.203	83.62
363.429	87.62
363.656	83.62
363.882	92.62
364.109	87.62
364.335	90.62
364.562	79.62
364.788	85.62
365.015	77.62
365.241	83.62
365.468	79.62
365.694	88.62
365.92	84.62
366.147	87.62
366.373	88.62
366.599	82.62
366.826	94.62
367.052	70.62
367.278	80.62
367.505	88.62
367.731	97.62
367.957	75.62
368.184	87.62
368.41	86.62
368.636	81.62
368.862	85.62
369.089	82.62
369.315	84.62
369.541	86.62
369.767	74.62
369.993	82.62
370.219	87.62
370.445	80.62
370.672	82.62
370.898	88.62
371.124	69.62
371.35	75.62
371.576	90.62
371.802	76.62
372.028	82.62
372.254	85.62
372.48	85.62
372.706	82.62
372.932	64.62
373.158	82.62
373.384	87.62
373.61	85.62
373.835	84.62
374.061	84.62
374.287	90.62
374.513	89.62
374.739	78.62
374.965	80.62
375.191	68.62
375.416	79.62
375.642	87.62
375.868	104.62
376.094	85.62
376.319	81.62
376.545	88.62
376.771	87.62
376.997	81.62
377.222	83.62
377.448	79.62
377.674	79.62
377.899	74.62
378.125	85.62
378.35	82.62
378.576	90.62
378.802	87.62
379.027	79.62
379.253	91.62
379.478	79.62
379.704	88.62
379.929	100.62
380.155	84.62
380.38	80.62
380.606	81.62
380.831	92.62
381.057	83.62
381.282	79.62
381.507	76.62
381.733	90.62
381.958	85.62
382.184	81.62
382.409	64.62
382.634	78.62
382.86	86.62
383.085	90.62
383.31	75.62
383.535	75.62
383.761	90.62
383.986	82.62
384.211	85.62
384.436	86.62
384.662	83.62
384.887	91.62
385.112	94.62
385.337	91.62
385.562	78.62
385.787	79.62
386.013	84.62
386.238	90.62
386.463	82.62
386.688	72.62
386.913	84.62
387.138	91.62
387.363	81.62
387.588	80.62
387.813	73.62
388.038	83.62
388.263	95.62
388.488	85.62
388.713	87.62
388.938	76.62
389.163	77.62
389.387	89.62
389.612	95.62
389.837	81.62
390.062	90.62
390.287	85.62
390.512	82.62
390.736	96.62
390.961	86.62
391.186	83.62
391.411	83.62
391.636	94.62
391.86	85.62
392.085	106.62
392.31	94.62
392.534	88.62
392.759	74.62
392.984	81.62
393.208	82.62
393.433	94.62
393.658	83.62
393.882	75.62
394.107	89.62
394.331	79.62
394.556	84.62
394.78	98.62
395.005	85.62
395.229	93.62
395.454	81.62
395.678	80.62
395.903	81.62
396.127	75.62
396.352	83.62
396.576	84.62
396.801	88.62
397.025	89.62
397.249	85.62
397.474	80.62
397.698	83.62
397.922	82.62
398.147	91.62
398.371	74.62
398.595	101.62
398.82	83.62
399.044	87.62
399.268	76.62
399.492	81.62
399.717	87.62
399.941	79.62
400.165	93.62
400.389	79.62
400.613	82.62
400.837	85.62
401.062	75.62
401.286	91.62
401.51	83.62
401.734	87.62
401.958	91.62
402.182	82.62
402.406	90.62
402.63	78.62
402.854	84.62
403.078	86.62
403.302	76.62
403.526	75.62
403.75	90.62
403.974	88.62
404.198	96.62
404.422	93.62
404.645	100.62
404.869	95.62
405.093	89.62
405.317	75.62
405.541	88.62
405.765	91.62
405.988	83.62
406.212	83.62
406.436	92.62
406.66	84.62
406.883	91.62
407.107	87.62
407.331	87.62
407.555	90.62
407.778	84.62
408.002	87.62
408.226	84.62
408.449	91.62
408.673	82.62
408.896	93.62
409.12	96.62
409.344	91.62
409.567	79.62
409.791	90.62
410.014	100.62
410.238	102.62
410.461	96.62
410.685	91.62
410.908	94.62
411.132	96.62
411.355	91.62
411.578	79.62
411.802	103.62
412.025	84.62
412.249	83.62
412.472	80.62
412.695	85.62
412.919	99.62
413.142	84.62
413.365	88.62
413.589	87.62
413.812	89.62
414.035	93.62
414.258	83.62
414.482	88.62
414.705	83.62
414.928	88.62
415.151	89.62
415.374	89.62
415.597	98.62
415.821	85.62
416.044	77.62
416.267	94.62
416.49	104.62
416.713	91.62
416.936	95.62
417.159	99.62
417.382	87.62
417.605	81.62
417.828	82.62
418.051	91.62
418.274	105.62
418.497	87.62
418.72	89.62
418.943	97.62
419.166	83.62
419.389	90.62
419.611	79.62
419.834	113.62
420.057	90.62
420.28	98.62
420.503	97.62
420.726	78.62
420.948	90.62
421.171	86.62
421.394	100.62
421.617	89.62
421.839	89.62
422.062	91.62
422.285	89.62
422.507	89.62
422.73	87.62
422.953	85.62
423.175	103.62
423.398	89.62
423.621	93.62
423.843	104.62
424.066	89.62
424.288	81.62
424.511	97.62
424.733	109.62
424.956	103.62
425.178	101.62
425.401	91.62
425.623	97.62
425.846	80.62
426.068	99.62
426.291	94.62
426.513	89.62
426.735	87.62
426.958	78.62
427.18	83.62
427.402	91.62
427.625	89.62
427.847	103.62
428.069	90.62
428.292	88.62
428.514	106.62
428.736	104.62
428.958	94.62
429.181	85.62
429.403	84.62
429.625	102.62
429.847	87.62
430.069	101.62
430.292	102.62
430.514	82.62
430.736	87.62
430.958	98.62
431.18	93.62
431.402	98.62
431.624	81.62
431.846	85.62
432.068	85.62
432.29	90.62
432.512	87.62
432.734	84.62
432.956	83.62
433.178	95.62
433.4	90.62
433.622	94.62
433.844	91.62
434.066	93.62
434.287	75.62
434.509	83.62
434.731	77.62
434.953	84.62
435.175	97.62
435.397	92.62
435.618	82.62
435.84	86.62
436.062	91.62
436.284	101.62
436.505	82.62
436.727	87.62
436.949	98.62
437.17	100.62
437.392	93.62
437.614	88.62
437.835	84.62
438.057	85.62
438.278	87.62
438.5	88.62
438.721	88.62
438.943	89.62
439.165	99.62
439.386	92.62
439.608	90.62
439.829	90.62
440.05	89.62
440.272	87.62
440.493	106.62
440.715	85.62
440.936	89.62
441.158	102.62
441.379	91.62
441.6	96.62
441.822	88.62
442.043	84.62
442.264	102.62
442.486	105.62
442.707	83.62
442.928	100.62
443.149	109.62
443.371	89.62
443.592	87.62
443.813	91.62
444.034	90.62
444.255	100.62
444.476	99.62
444.698	80.62
444.919	81.62
445.14	188.62
445.361	151.62
445.582	94.62
445.803	106.62
446.024	101.62
446.245	113.62
446.466	102.62
446.687	109.62
446.908	99.62
447.129	107.62
447.35	83.62
447.571	87.62
447.792	96.62
448.013	96.62
448.234	92.62
448.455	104.62
448.675	95.62
448.896	94.62
449.117	86.62
449.338	111.62
449.559	85.62
449.779	112.62
450	93.62
450.221	90.62
450.442	99.62
450.662	88.62
450.883	88.62
451.104	63.62
451.324	87.62
451.545	86.62
451.766	89.62
451.986	74.62
452.207	89.62
452.428	105.62
452.648	91.62
452.869	79.62
453.089	95.62
453.31	85.62
453.53	99.62
453.751	107.62
453.971	89.62
454.192	91.62
454.412	85.62
454.633	90.62
454.853	91.62
455.073	90.62
455.294	100.62
455.514	103.62
455.734	83.62
455.955	86.62
456.175	83.62
456.395	103.62
456.616	86.62
456.836	88.62
457.056	76.62
457.276	75.62
457.497	79.62
457.717	85.62
457.937	78.62
458.157	78.62
458.377	90.62
458.598	89.62
458.818	81.62
459.038	79.62
459.258	80.62
459.478	70.62
459.698	90.62
459.918	77.62
460.138	83.62
460.358	77.62
460.578	93.62
460.798	93.62
461.018	87.62
461.238	84.62
461.458	96.62
461.678	103.62
461.898	87.62
462.118	88.62
462.338	88.62
462.558	102.62
462.777	86.62
462.997	94.62
463.217	80.62
463.437	87.62
463.657	91.62
463.876	77.62
464.096	71.62
464.316	98.62
464.536	91.62
464.755	92.62
464.975	93.62
465.195	94.62
465.414	97.62
465.634	87.62
465.854	81.62
466.073	106.62
466.293	86.62
466.512	90.62
466.732	104.62
466.951	95.62
467.171	84.62
467.391	90.62
467.61	88.62
467.829	83.62
468.049	96.62
468.268	105.62
468.488	85.62
468.707	88.62
468.927	93.62
469.146	97.62
469.365	98.62
469.585	95.62
469.804	87.62
470.023	89.62
470.243	74.62
470.462	98.62
470.681	97.62
470.901	103.62
471.12	90.62
471.339	99.62
471.558	108.62
471.777	103.62
471.997	79.62
472.216	78.62
472.435	79.62
472.654	96.62
472.873	88.62
473.092	93.62
473.311	94.62
473.53	94.62
473.749	88.62
473.968	109.62
474.187	102.62
474.406	86.62
474.625	85.62
474.844	87.62
475.063	104.62
475.282	104.62
475.501	91.62
475.72	113.62
475.939	86.62
476.158	91.62
476.377	97.62
476.596	108.62
476.814	79.62
477.033	82.62
477.252	75.62
477.471	76.62
477.69	103.62
477.908	89.62
478.127	100.62
478.346	95.62
478.564	87.62
478.783	93.62
479.002	96.62
479.22	96.62
479.439	103.62
479.658	88.62
479.876	94.62
480.095	80.62
480.313	104.62
480.532	97.62
480.751	77.62
480.969	75.62
481.188	77.62
481.406	71.62
481.624	78.62
481.843	79.62
482.061	88.62
482.28	95.62
482.498	80.62
482.717	86.62
482.935	73.62
483.153	89.62
483.372	116.62
483.59	92.62
483.808	91.62
484.027	97.62
484.245	95.62
484.463	106.62
484.681	103.62
484.9	95.62
485.118	94.62
485.336	89.62
485.554	78.62
485.772	91.62
485.99	71.62
486.209	86.62
486.427	88.62
486.645	93.62
486.863	99.62
487.081	85.62
487.299	96.62
487.517	87.62
487.735	98.62
487.953	116.62
488.171	119.62
488.389	103.62
488.607	105.62
488.825	95.62
489.043	82.62
489.261	82.62
489.479	101.62
489.696	92.62
489.914	96.62
490.132	101.62
490.35	113.62
490.568	102.62
490.786	111.62
491.003	114.62
491.221	110.62
491.439	102.62
491.657	113.62
491.874	97.62
492.092	114.62
492.31	119.62
492.527	120.62
492.745	124.62
492.963	132.62
493.18	107.62
493.398	105.62
493.615	105.62
493.833	107.62
494.05	105.62
494.268	113.62
494.485	112.62
494.703	102.62
494.92	119.62
495.138	115.62
495.355	109.62
495.573	103.62
495.79	87.62
496.008	88.62
496.225	95.62
496.442	90.62
496.66	103.62
496.877	111.62
497.094	118.62
497.312	105.62
497.529	114.62
497.746	101.62
497.963	104.62
498.181	91.62
498.398	88.62
498.615	98.62
498.832	95.62
499.049	91.62
499.267	102.62
499.484	113.62
499.701	94.62
499.918	97.62
500.135	95.62
500.352	96.62
500.569	93.62
500.786	119.62
501.003	105.62
501.22	101.62
501.437	92.62
501.654	111.62
501.871	98.62
502.088	90.62
502.305	90.62
502.522	95.62
502.739	95.62
502.956	94.62
503.172	105.62
503.389	104.62
503.606	89.62
503.823	86.62
504.04	86.62
504.256	86.62
504.473	79.62
504.69	97.62
504.907	100.62
505.123	84.62
505.34	117.62
505.557	97.62
505.773	85.62
505.99	88.62
506.207	94.62
506.423	101.62
506.64	88.62
506.856	86.62
507.073	89.62
507.289	91.62
507.506	81.62
507.722	86.62
507.939	97.62
508.155	84.62
508.372	82.62
508.588	101.62
508.805	85.62
509.021	86.62
509.238	91.62
509.454	87.62
509.67	89.62
509.887	86.62
510.103	89.62
510.319	96.62
510.536	86.62
510.752	75.62
510.968	70.62
511.184	74.62
511.401	82.62
511.617	86.62
511.833	82.62
512.049	84.62
512.265	69.62
512.481	81.62
512.698	87.62
512.914	84.62
513.13	83.62
513.346	76.62
513.562	81.62
513.778	82.62
513.994	84.62
514.21	90.62
514.426	79.62
514.642	84.62
514.858	81.62
515.074	93.62
515.29	94.62
515.506	88.62
515.721	97.62
515.937	86.62
516.153	86.62
516.369	88.62
516.585	82.62
516.801	85.62
517.016	102.62
517.232	79.62
517.448	79.62
517.664	83.62
517.879	87.62
