Data from Location4.07152019.Energy5.Lamp.07192019.3%Agarose_HRD10591_15-23-18-576.txt Node
Date: Fri Jul 19 15:23:18 EDT 2019
User: cochatt
Spectrometer: HR+D1059
Trigger mode: 1
Integration Time (sec): 1.000000E-1
Scans to average: 1
Electric dark correction enabled: true
Nonlinearity correction enabled: false
Boxcar width: 0
XAxis mode: Wavelengths
Number of Pixels in Spectrum: 2048
>>>>>Begin Spectral Data<<<<<
223.165	-11.62
223.4	-11.62
223.635	-11.62
223.869	-16.62
224.104	-18.62
224.338	-1.62
224.573	-11.62
224.808	-16.62
225.042	3.38
225.277	-1.62
225.511	1.38
225.746	5.38
225.98	17.38
226.215	7.38
226.449	8.38
226.683	2.38
226.918	6.38
227.152	26.38
227.387	38.38
227.621	38.38
227.856	29.38
228.09	55.38
228.324	53.38
228.559	51.38
228.793	54.38
229.027	46.38
229.262	59.38
229.496	59.38
229.73	71.38
229.964	71.38
230.199	65.38
230.433	69.38
230.667	70.38
230.901	84.38
231.136	68.38
231.37	71.38
231.604	74.38
231.838	87.38
232.072	74.38
232.306	74.38
232.541	74.38
232.775	73.38
233.009	74.38
233.243	66.38
233.477	90.38
233.711	87.38
233.945	70.38
234.179	90.38
234.413	75.38
234.647	85.38
234.881	90.38
235.115	89.38
235.349	82.38
235.583	77.38
235.817	62.38
236.051	75.38
236.285	67.38
236.519	76.38
236.753	77.38
236.987	82.38
237.221	79.38
237.455	67.38
237.689	72.38
237.922	71.38
238.156	75.38
238.39	76.38
238.624	69.38
238.858	79.38
239.091	73.38
239.325	68.38
239.559	77.38
239.793	55.38
240.027	84.38
240.26	80.38
240.494	58.38
240.728	78.38
240.961	71.38
241.195	74.38
241.429	81.38
241.662	75.38
241.896	83.38
242.13	82.38
242.363	69.38
242.597	69.38
242.83	87.38
243.064	63.38
243.298	80.38
243.531	63.38
243.765	66.38
243.998	84.38
244.232	71.38
244.465	71.38
244.699	71.38
244.932	66.38
245.166	64.38
245.399	74.38
245.633	80.38
245.866	72.38
246.099	79.38
246.333	73.38
246.566	69.38
246.8	69.38
247.033	68.38
247.266	64.38
247.5	77.38
247.733	81.38
247.966	74.38
248.2	78.38
248.433	64.38
248.666	60.38
248.899	61.38
249.133	82.38
249.366	81.38
249.599	71.38
249.832	74.38
250.066	70.38
250.299	76.38
250.532	78.38
250.765	74.38
250.998	57.38
251.231	79.38
251.465	67.38
251.698	78.38
251.931	76.38
252.164	75.38
252.397	72.38
252.63	76.38
252.863	80.38
253.096	76.38
253.329	83.38
253.562	65.38
253.795	71.38
254.028	78.38
254.261	77.38
254.494	70.38
254.727	79.38
254.96	75.38
255.193	69.38
255.426	70.38
255.659	79.38
255.892	73.38
256.124	71.38
256.357	76.38
256.59	79.38
256.823	81.38
257.056	79.38
257.289	90.38
257.521	80.38
257.754	67.38
257.987	71.38
258.22	76.38
258.452	81.38
258.685	72.38
258.918	86.38
259.151	93.38
259.383	75.38
259.616	69.38
259.849	83.38
260.081	81.38
260.314	74.38
260.547	72.38
260.779	83.38
261.012	79.38
261.244	78.38
261.477	94.38
261.71	73.38
261.942	86.38
262.175	70.38
262.407	76.38
262.64	72.38
262.872	86.38
263.105	68.38
263.337	85.38
263.57	90.38
263.802	70.38
264.035	68.38
264.267	69.38
264.499	72.38
264.732	82.38
264.964	66.38
265.197	73.38
265.429	71.38
265.661	63.38
265.894	68.38
266.126	92.38
266.358	71.38
266.591	64.38
266.823	83.38
267.055	70.38
267.287	78.38
267.52	71.38
267.752	75.38
267.984	93.38
268.216	80.38
268.448	87.38
268.681	81.38
268.913	75.38
269.145	77.38
269.377	71.38
269.609	75.38
269.841	62.38
270.073	82.38
270.306	73.38
270.538	69.38
270.77	67.38
271.002	70.38
271.234	83.38
271.466	80.38
271.698	77.38
271.93	85.38
272.162	76.38
272.394	77.38
272.626	66.38
272.858	82.38
273.09	78.38
273.322	70.38
273.553	75.38
273.785	69.38
274.017	79.38
274.249	76.38
274.481	78.38
274.713	87.38
274.945	98.38
275.176	71.38
275.408	89.38
275.64	88.38
275.872	72.38
276.104	86.38
276.335	76.38
276.567	65.38
276.799	69.38
277.031	68.38
277.262	77.38
277.494	100.38
277.726	69.38
277.957	82.38
278.189	85.38
278.421	80.38
278.652	73.38
278.884	70.38
279.115	75.38
279.347	75.38
279.579	70.38
279.81	82.38
280.042	70.38
280.273	70.38
280.505	57.38
280.736	87.38
280.968	83.38
281.199	80.38
281.431	76.38
281.662	72.38
281.894	97.38
282.125	90.38
282.356	92.38
282.588	68.38
282.819	77.38
283.051	88.38
283.282	88.38
283.513	66.38
283.745	86.38
283.976	90.38
284.207	89.38
284.439	78.38
284.67	76.38
284.901	68.38
285.132	100.38
285.364	73.38
285.595	88.38
285.826	93.38
286.057	85.38
286.288	73.38
286.52	88.38
286.751	76.38
286.982	67.38
287.213	78.38
287.444	85.38
287.675	73.38
287.906	76.38
288.138	78.38
288.369	61.38
288.6	75.38
288.831	87.38
289.062	87.38
289.293	80.38
289.524	84.38
289.755	66.38
289.986	90.38
290.217	64.38
290.448	61.38
290.679	84.38
290.91	80.38
291.141	68.38
291.371	76.38
291.602	91.38
291.833	86.38
292.064	92.38
292.295	85.38
292.526	80.38
292.757	80.38
292.987	79.38
293.218	98.38
293.449	90.38
293.68	73.38
293.91	87.38
294.141	81.38
294.372	72.38
294.603	78.38
294.833	72.38
295.064	87.38
295.295	75.38
295.525	69.38
295.756	73.38
295.987	68.38
296.217	80.38
296.448	69.38
296.679	89.38
296.909	87.38
297.14	77.38
297.37	97.38
297.601	72.38
297.831	71.38
298.062	80.38
298.292	79.38
298.523	79.38
298.753	71.38
298.984	81.38
299.214	69.38
299.445	80.38
299.675	75.38
299.905	76.38
300.136	82.38
300.366	87.38
300.597	89.38
300.827	81.38
301.057	72.38
301.288	79.38
301.518	79.38
301.748	77.38
301.979	81.38
302.209	78.38
302.439	84.38
302.669	73.38
302.9	80.38
303.13	75.38
303.36	86.38
303.59	59.38
303.82	83.38
304.051	74.38
304.281	66.38
304.511	83.38
304.741	78.38
304.971	89.38
305.201	78.38
305.431	70.38
305.661	91.38
305.891	75.38
306.121	93.38
306.352	73.38
306.582	74.38
306.812	70.38
307.042	81.38
307.272	84.38
307.502	87.38
307.731	89.38
307.961	87.38
308.191	86.38
308.421	86.38
308.651	76.38
308.881	75.38
309.111	92.38
309.341	82.38
309.571	67.38
309.8	75.38
310.03	71.38
310.26	83.38
310.49	78.38
310.72	89.38
310.949	90.38
311.179	90.38
311.409	77.38
311.639	85.38
311.868	80.38
312.098	78.38
312.328	65.38
312.557	76.38
312.787	77.38
313.017	82.38
313.246	80.38
313.476	81.38
313.706	77.38
313.935	77.38
314.165	80.38
314.394	73.38
314.624	76.38
314.853	87.38
315.083	105.38
315.312	85.38
315.542	79.38
315.771	80.38
316.001	85.38
316.23	75.38
316.46	78.38
316.689	78.38
316.919	63.38
317.148	81.38
317.377	78.38
317.607	79.38
317.836	71.38
318.065	89.38
318.295	86.38
318.524	79.38
318.753	83.38
318.983	84.38
319.212	77.38
319.441	74.38
319.67	83.38
319.9	83.38
320.129	78.38
320.358	78.38
320.587	77.38
320.816	80.38
321.046	71.38
321.275	85.38
321.504	64.38
321.733	84.38
321.962	70.38
322.191	85.38
322.42	78.38
322.649	83.38
322.878	85.38
323.108	83.38
323.337	86.38
323.566	90.38
323.795	83.38
324.024	74.38
324.253	75.38
324.482	90.38
324.71	70.38
324.939	87.38
325.168	72.38
325.397	66.38
325.626	77.38
325.855	92.38
326.084	75.38
326.313	82.38
326.542	68.38
326.77	69.38
326.999	83.38
327.228	78.38
327.457	75.38
327.686	68.38
327.914	83.38
328.143	67.38
328.372	90.38
328.6	76.38
328.829	84.38
329.058	75.38
329.287	65.38
329.515	81.38
329.744	67.38
329.972	71.38
330.201	75.38
330.43	77.38
330.658	68.38
330.887	78.38
331.115	76.38
331.344	68.38
331.572	93.38
331.801	84.38
332.03	83.38
332.258	65.38
332.486	80.38
332.715	81.38
332.943	79.38
333.172	72.38
333.4	81.38
333.629	78.38
333.857	94.38
334.085	83.38
334.314	81.38
334.542	78.38
334.771	77.38
334.999	85.38
335.227	75.38
335.455	88.38
335.684	92.38
335.912	90.38
336.14	68.38
336.369	80.38
336.597	78.38
336.825	86.38
337.053	67.38
337.281	79.38
337.51	77.38
337.738	77.38
337.966	71.38
338.194	84.38
338.422	74.38
338.65	93.38
338.878	79.38
339.106	78.38
339.334	69.38
339.562	87.38
339.79	80.38
340.018	77.38
340.246	74.38
340.474	82.38
340.702	81.38
340.93	96.38
341.158	81.38
341.386	88.38
341.614	80.38
341.842	76.38
342.07	86.38
342.298	66.38
342.526	78.38
342.754	65.38
342.981	76.38
343.209	77.38
343.437	79.38
343.665	71.38
343.893	92.38
344.12	85.38
344.348	77.38
344.576	82.38
344.804	83.38
345.031	75.38
345.259	74.38
345.487	90.38
345.714	75.38
345.942	85.38
346.17	88.38
346.397	77.38
346.625	83.38
346.853	73.38
347.08	75.38
347.308	79.38
347.535	66.38
347.763	64.38
347.99	84.38
348.218	69.38
348.445	83.38
348.673	72.38
348.9	74.38
349.128	71.38
349.355	70.38
349.583	71.38
349.81	81.38
350.037	82.38
350.265	74.38
350.492	72.38
350.72	61.38
350.947	66.38
351.174	98.38
351.402	91.38
351.629	70.38
351.856	78.38
352.083	77.38
352.311	82.38
352.538	78.38
352.765	72.38
352.992	90.38
353.22	82.38
353.447	73.38
353.674	77.38
353.901	88.38
354.128	86.38
354.355	72.38
354.583	82.38
354.81	82.38
355.037	78.38
355.264	77.38
355.491	85.38
355.718	77.38
355.945	73.38
356.172	90.38
356.399	78.38
356.626	98.38
356.853	83.38
357.08	83.38
357.307	68.38
357.534	81.38
357.761	70.38
357.988	69.38
358.215	74.38
358.441	78.38
358.668	76.38
358.895	80.38
359.122	82.38
359.349	85.38
359.576	81.38
359.802	84.38
360.029	82.38
360.256	85.38
360.483	68.38
360.709	81.38
360.936	79.38
361.163	77.38
361.39	86.38
361.616	76.38
361.843	78.38
362.07	64.38
362.296	86.38
362.523	73.38
362.749	82.38
362.976	77.38
363.203	79.38
363.429	80.38
363.656	69.38
363.882	68.38
364.109	84.38
364.335	97.38
364.562	65.38
364.788	80.38
365.015	62.38
365.241	90.38
365.468	92.38
365.694	72.38
365.92	68.38
366.147	79.38
366.373	89.38
366.599	77.38
366.826	83.38
367.052	87.38
367.278	81.38
367.505	77.38
367.731	91.38
367.957	74.38
368.184	79.38
368.41	81.38
368.636	83.38
368.862	76.38
369.089	83.38
369.315	89.38
369.541	85.38
369.767	71.38
369.993	77.38
370.219	78.38
370.445	67.38
370.672	76.38
370.898	75.38
371.124	70.38
371.35	70.38
371.576	85.38
371.802	74.38
372.028	71.38
372.254	84.38
372.48	79.38
372.706	81.38
372.932	73.38
373.158	78.38
373.384	97.38
373.61	74.38
373.835	66.38
374.061	77.38
374.287	85.38
374.513	78.38
374.739	77.38
374.965	91.38
375.191	78.38
375.416	79.38
375.642	76.38
375.868	89.38
376.094	82.38
376.319	56.38
376.545	85.38
376.771	67.38
376.997	83.38
377.222	78.38
377.448	91.38
377.674	77.38
377.899	81.38
378.125	76.38
378.35	85.38
378.576	101.38
378.802	89.38
379.027	83.38
379.253	97.38
379.478	72.38
379.704	82.38
379.929	82.38
380.155	71.38
380.38	72.38
380.606	92.38
380.831	79.38
381.057	82.38
381.282	68.38
381.507	78.38
381.733	83.38
381.958	67.38
382.184	74.38
382.409	79.38
382.634	85.38
382.86	70.38
383.085	75.38
383.31	77.38
383.535	77.38
383.761	91.38
383.986	82.38
384.211	76.38
384.436	86.38
384.662	70.38
384.887	82.38
385.112	98.38
385.337	89.38
385.562	77.38
385.787	82.38
386.013	94.38
386.238	79.38
386.463	83.38
386.688	69.38
386.913	69.38
387.138	71.38
387.363	92.38
387.588	78.38
387.813	89.38
388.038	85.38
388.263	80.38
388.488	95.38
388.713	84.38
388.938	85.38
389.163	93.38
389.387	81.38
389.612	80.38
389.837	61.38
390.062	93.38
390.287	99.38
390.512	67.38
390.736	86.38
390.961	68.38
391.186	85.38
391.411	77.38
391.636	76.38
391.86	93.38
392.085	86.38
392.31	82.38
392.534	89.38
392.759	76.38
392.984	84.38
393.208	89.38
393.433	81.38
393.658	82.38
393.882	84.38
394.107	84.38
394.331	73.38
394.556	78.38
394.78	90.38
395.005	84.38
395.229	84.38
395.454	69.38
395.678	92.38
395.903	82.38
396.127	91.38
396.352	77.38
396.576	91.38
396.801	81.38
397.025	84.38
397.249	93.38
397.474	84.38
397.698	85.38
397.922	95.38
398.147	91.38
398.371	81.38
398.595	81.38
398.82	96.38
399.044	81.38
399.268	80.38
399.492	71.38
399.717	72.38
399.941	77.38
400.165	90.38
400.389	84.38
400.613	83.38
400.837	83.38
401.062	88.38
401.286	99.38
401.51	87.38
401.734	91.38
401.958	93.38
402.182	78.38
402.406	85.38
402.63	81.38
402.854	85.38
403.078	83.38
403.302	77.38
403.526	82.38
403.75	80.38
403.974	90.38
404.198	91.38
404.422	83.38
404.645	89.38
404.869	80.38
405.093	71.38
405.317	81.38
405.541	93.38
405.765	93.38
405.988	74.38
406.212	98.38
406.436	96.38
406.66	67.38
406.883	86.38
407.107	85.38
407.331	80.38
407.555	78.38
407.778	80.38
408.002	77.38
408.226	88.38
408.449	86.38
408.673	74.38
408.896	83.38
409.12	84.38
409.344	85.38
409.567	86.38
409.791	86.38
410.014	89.38
410.238	90.38
410.461	96.38
410.685	93.38
410.908	85.38
411.132	77.38
411.355	90.38
411.578	87.38
411.802	94.38
412.025	78.38
412.249	75.38
412.472	79.38
412.695	94.38
412.919	84.38
413.142	92.38
413.365	91.38
413.589	84.38
413.812	78.38
414.035	100.38
414.258	90.38
414.482	90.38
414.705	85.38
414.928	84.38
415.151	88.38
415.374	73.38
415.597	86.38
415.821	87.38
416.044	98.38
416.267	75.38
416.49	81.38
416.713	89.38
416.936	100.38
417.159	95.38
417.382	95.38
417.605	83.38
417.828	76.38
418.051	78.38
418.274	90.38
418.497	93.38
418.72	95.38
418.943	84.38
419.166	91.38
419.389	96.38
419.611	80.38
419.834	86.38
420.057	90.38
420.28	82.38
420.503	90.38
420.726	92.38
420.948	106.38
421.171	100.38
421.394	78.38
421.617	85.38
421.839	80.38
422.062	82.38
422.285	88.38
422.507	91.38
422.73	89.38
422.953	83.38
423.175	77.38
423.398	83.38
423.621	89.38
423.843	96.38
424.066	82.38
424.288	88.38
424.511	87.38
424.733	89.38
424.956	97.38
425.178	82.38
425.401	79.38
425.623	96.38
425.846	94.38
426.068	91.38
426.291	82.38
426.513	86.38
426.735	93.38
426.958	98.38
427.18	98.38
427.402	87.38
427.625	80.38
427.847	84.38
428.069	92.38
428.292	89.38
428.514	105.38
428.736	77.38
428.958	83.38
429.181	94.38
429.403	86.38
429.625	92.38
429.847	85.38
430.069	90.38
430.292	70.38
430.514	77.38
430.736	82.38
430.958	76.38
431.18	79.38
431.402	101.38
431.624	94.38
431.846	89.38
432.068	87.38
432.29	75.38
432.512	76.38
432.734	82.38
432.956	96.38
433.178	105.38
433.4	98.38
433.622	100.38
433.844	83.38
434.066	93.38
434.287	92.38
434.509	76.38
434.731	91.38
434.953	93.38
435.175	89.38
435.397	85.38
435.618	90.38
435.84	76.38
436.062	81.38
436.284	94.38
436.505	87.38
436.727	82.38
436.949	94.38
437.17	95.38
437.392	71.38
437.614	81.38
437.835	81.38
438.057	87.38
438.278	79.38
438.5	100.38
438.721	85.38
438.943	99.38
439.165	93.38
439.386	91.38
439.608	107.38
439.829	89.38
440.05	82.38
440.272	90.38
440.493	82.38
440.715	96.38
440.936	97.38
441.158	94.38
441.379	91.38
441.6	95.38
441.822	93.38
442.043	96.38
442.264	94.38
442.486	95.38
442.707	86.38
442.928	93.38
443.149	90.38
443.371	106.38
443.592	91.38
443.813	97.38
444.034	82.38
444.255	100.38
444.476	91.38
444.698	104.38
444.919	84.38
445.14	191.38
445.361	125.38
445.582	88.38
445.803	85.38
446.024	105.38
446.245	93.38
446.466	96.38
446.687	96.38
446.908	95.38
447.129	100.38
447.35	83.38
447.571	107.38
447.792	106.38
448.013	99.38
448.234	98.38
448.455	92.38
448.675	98.38
448.896	94.38
449.117	89.38
449.338	71.38
449.559	90.38
449.779	93.38
450	98.38
450.221	96.38
450.442	98.38
450.662	83.38
450.883	90.38
451.104	100.38
451.324	85.38
451.545	90.38
451.766	95.38
451.986	71.38
452.207	84.38
452.428	68.38
452.648	90.38
452.869	91.38
453.089	90.38
453.31	73.38
453.53	107.38
453.751	83.38
453.971	82.38
454.192	86.38
454.412	92.38
454.633	84.38
454.853	96.38
455.073	92.38
455.294	97.38
455.514	94.38
455.734	81.38
455.955	87.38
456.175	86.38
456.395	94.38
456.616	82.38
456.836	85.38
457.056	77.38
457.276	92.38
457.497	71.38
457.717	95.38
457.937	91.38
458.157	93.38
458.377	84.38
458.598	60.38
458.818	78.38
459.038	78.38
459.258	85.38
459.478	72.38
459.698	73.38
459.918	81.38
460.138	78.38
460.358	84.38
460.578	84.38
460.798	101.38
461.018	76.38
461.238	87.38
461.458	79.38
461.678	87.38
461.898	90.38
462.118	98.38
462.338	77.38
462.558	80.38
462.777	75.38
462.997	80.38
463.217	77.38
463.437	89.38
463.657	81.38
463.876	80.38
464.096	87.38
464.316	88.38
464.536	97.38
464.755	81.38
464.975	95.38
465.195	79.38
465.414	77.38
465.634	79.38
465.854	79.38
466.073	93.38
466.293	84.38
466.512	95.38
466.732	91.38
466.951	84.38
467.171	86.38
467.391	91.38
467.61	82.38
467.829	86.38
468.049	88.38
468.268	88.38
468.488	76.38
468.707	101.38
468.927	97.38
469.146	91.38
469.365	99.38
469.585	96.38
469.804	99.38
470.023	105.38
470.243	98.38
470.462	98.38
470.681	82.38
470.901	103.38
471.12	88.38
471.339	98.38
471.558	106.38
471.777	95.38
471.997	80.38
472.216	87.38
472.435	87.38
472.654	79.38
472.873	86.38
473.092	74.38
473.311	97.38
473.53	88.38
473.749	92.38
473.968	86.38
474.187	88.38
474.406	87.38
474.625	105.38
474.844	86.38
475.063	91.38
475.282	96.38
475.501	88.38
475.72	93.38
475.939	91.38
476.158	89.38
476.377	77.38
476.596	86.38
476.814	87.38
477.033	71.38
477.252	80.38
477.471	93.38
477.69	90.38
477.908	78.38
478.127	98.38
478.346	84.38
478.564	80.38
478.783	100.38
479.002	97.38
479.22	94.38
479.439	87.38
479.658	83.38
479.876	74.38
480.095	81.38
480.313	78.38
480.532	83.38
480.751	85.38
480.969	95.38
481.188	82.38
481.406	68.38
481.624	84.38
481.843	72.38
482.061	80.38
482.28	86.38
482.498	84.38
482.717	84.38
482.935	93.38
483.153	93.38
483.372	106.38
483.59	92.38
483.808	93.38
484.027	101.38
484.245	83.38
484.463	89.38
484.681	89.38
484.9	98.38
485.118	92.38
485.336	81.38
485.554	86.38
485.772	85.38
485.99	78.38
486.209	93.38
486.427	87.38
486.645	84.38
486.863	98.38
487.081	95.38
487.299	76.38
487.517	105.38
487.735	84.38
487.953	93.38
488.171	123.38
488.389	108.38
488.607	98.38
488.825	88.38
489.043	111.38
489.261	89.38
489.479	97.38
489.696	95.38
489.914	92.38
490.132	90.38
490.35	114.38
490.568	95.38
490.786	115.38
491.003	102.38
491.221	104.38
491.439	99.38
491.657	107.38
491.874	123.38
492.092	125.38
492.31	126.38
492.527	109.38
492.745	108.38
492.963	117.38
493.18	107.38
493.398	114.38
493.615	108.38
493.833	99.38
494.05	86.38
494.268	109.38
494.485	110.38
494.703	95.38
494.92	97.38
495.138	110.38
495.355	105.38
495.573	109.38
495.79	99.38
496.008	108.38
496.225	97.38
496.442	98.38
496.66	113.38
496.877	101.38
497.094	101.38
497.312	91.38
497.529	96.38
497.746	86.38
497.963	109.38
498.181	99.38
498.398	85.38
498.615	79.38
498.832	96.38
499.049	84.38
499.267	93.38
499.484	89.38
499.701	99.38
499.918	92.38
500.135	94.38
500.352	85.38
500.569	91.38
500.786	87.38
501.003	100.38
501.22	105.38
501.437	88.38
501.654	101.38
501.871	86.38
502.088	90.38
502.305	87.38
502.522	90.38
502.739	97.38
502.956	106.38
503.172	75.38
503.389	81.38
503.606	72.38
503.823	84.38
504.04	102.38
504.256	80.38
504.473	90.38
504.69	79.38
504.907	97.38
505.123	88.38
505.34	87.38
505.557	90.38
505.773	82.38
505.99	89.38
506.207	94.38
506.423	93.38
506.64	88.38
506.856	86.38
507.073	92.38
507.289	81.38
507.506	81.38
507.722	73.38
507.939	98.38
508.155	69.38
508.372	76.38
508.588	86.38
508.805	89.38
509.021	76.38
509.238	78.38
509.454	92.38
509.67	81.38
509.887	68.38
510.103	97.38
510.319	82.38
510.536	72.38
510.752	78.38
510.968	89.38
511.184	74.38
511.401	86.38
511.617	82.38
511.833	83.38
512.049	75.38
512.265	80.38
512.481	71.38
512.698	82.38
512.914	75.38
513.13	78.38
513.346	74.38
513.562	71.38
513.778	80.38
513.994	73.38
514.21	81.38
514.426	78.38
514.642	74.38
514.858	80.38
515.074	65.38
515.29	93.38
515.506	81.38
515.721	87.38
515.937	70.38
516.153	78.38
516.369	82.38
516.585	75.38
516.801	72.38
517.016	77.38
517.232	73.38
517.448	77.38
517.664	88.38
517.879	86.38
518.095	87.38
518.311	75.38
518.527	92.38
518.742	96.38
