Data from Location4.07152019.Energy5.Lamp.07192019.3%Agarose_HRD10591_15-23-22-577.txt Node
Date: Fri Jul 19 15:23:22 EDT 2019
User: cochatt
Spectrometer: HR+D1059
Trigger mode: 1
Integration Time (sec): 1.000000E-1
Scans to average: 1
Electric dark correction enabled: true
Nonlinearity correction enabled: false
Boxcar width: 0
XAxis mode: Wavelengths
Number of Pixels in Spectrum: 2048
>>>>>Begin Spectral Data<<<<<
223.165	-10.44
223.4	-10.44
223.635	-10.44
223.869	-11.44
224.104	-14.44
224.338	-17.44
224.573	-28.44
224.808	-14.44
225.042	4.56
225.277	-6.44
225.511	0.56
225.746	6.56
225.98	-4.44
226.215	5.56
226.449	29.56
226.683	19.56
226.918	8.56
227.152	32.56
227.387	27.56
227.621	37.56
227.856	32.56
228.09	52.56
228.324	38.56
228.559	69.56
228.793	60.56
229.027	68.56
229.262	59.56
229.496	63.56
229.73	63.56
229.964	67.56
230.199	78.56
230.433	63.56
230.667	71.56
230.901	77.56
231.136	86.56
231.37	92.56
231.604	85.56
231.838	83.56
232.072	92.56
232.306	85.56
232.541	87.56
232.775	81.56
233.009	90.56
233.243	78.56
233.477	88.56
233.711	75.56
233.945	82.56
234.179	93.56
234.413	90.56
234.647	70.56
234.881	80.56
235.115	85.56
235.349	96.56
235.583	82.56
235.817	80.56
236.051	75.56
236.285	68.56
236.519	85.56
236.753	84.56
236.987	76.56
237.221	77.56
237.455	77.56
237.689	84.56
237.922	81.56
238.156	78.56
238.39	87.56
238.624	78.56
238.858	72.56
239.091	74.56
239.325	82.56
239.559	86.56
239.793	91.56
240.027	84.56
240.26	86.56
240.494	87.56
240.728	80.56
240.961	81.56
241.195	87.56
241.429	83.56
241.662	83.56
241.896	70.56
242.13	79.56
242.363	72.56
242.597	89.56
242.83	74.56
243.064	75.56
243.298	82.56
243.531	78.56
243.765	63.56
243.998	89.56
244.232	82.56
244.465	71.56
244.699	84.56
244.932	82.56
245.166	97.56
245.399	90.56
245.633	84.56
245.866	84.56
246.099	76.56
246.333	81.56
246.566	74.56
246.8	70.56
247.033	82.56
247.266	96.56
247.5	72.56
247.733	69.56
247.966	87.56
248.2	88.56
248.433	80.56
248.666	69.56
248.899	89.56
249.133	84.56
249.366	78.56
249.599	87.56
249.832	68.56
250.066	78.56
250.299	99.56
250.532	92.56
250.765	82.56
250.998	73.56
251.231	82.56
251.465	78.56
251.698	68.56
251.931	72.56
252.164	72.56
252.397	78.56
252.63	86.56
252.863	83.56
253.096	76.56
253.329	77.56
253.562	80.56
253.795	88.56
254.028	75.56
254.261	88.56
254.494	94.56
254.727	91.56
254.96	87.56
255.193	75.56
255.426	84.56
255.659	85.56
255.892	98.56
256.124	85.56
256.357	84.56
256.59	84.56
256.823	72.56
257.056	74.56
257.289	73.56
257.521	81.56
257.754	80.56
257.987	72.56
258.22	75.56
258.452	88.56
258.685	88.56
258.918	89.56
259.151	82.56
259.383	88.56
259.616	91.56
259.849	75.56
260.081	81.56
260.314	78.56
260.547	74.56
260.779	84.56
261.012	85.56
261.244	91.56
261.477	92.56
261.71	88.56
261.942	72.56
262.175	92.56
262.407	87.56
262.64	85.56
262.872	78.56
263.105	87.56
263.337	94.56
263.57	92.56
263.802	92.56
264.035	91.56
264.267	66.56
264.499	77.56
264.732	77.56
264.964	94.56
265.197	86.56
265.429	91.56
265.661	84.56
265.894	73.56
266.126	80.56
266.358	88.56
266.591	72.56
266.823	82.56
267.055	62.56
267.287	87.56
267.52	76.56
267.752	86.56
267.984	95.56
268.216	82.56
268.448	82.56
268.681	77.56
268.913	89.56
269.145	80.56
269.377	89.56
269.609	85.56
269.841	84.56
270.073	84.56
270.306	84.56
270.538	84.56
270.77	93.56
271.002	87.56
271.234	86.56
271.466	86.56
271.698	72.56
271.93	81.56
272.162	85.56
272.394	85.56
272.626	80.56
272.858	78.56
273.09	81.56
273.322	81.56
273.553	73.56
273.785	81.56
274.017	86.56
274.249	91.56
274.481	78.56
274.713	59.56
274.945	80.56
275.176	85.56
275.408	84.56
275.64	94.56
275.872	96.56
276.104	92.56
276.335	65.56
276.567	78.56
276.799	91.56
277.031	69.56
277.262	88.56
277.494	90.56
277.726	73.56
277.957	86.56
278.189	93.56
278.421	92.56
278.652	80.56
278.884	84.56
279.115	90.56
279.347	88.56
279.579	82.56
279.81	90.56
280.042	87.56
280.273	84.56
280.505	80.56
280.736	78.56
280.968	81.56
281.199	93.56
281.431	84.56
281.662	82.56
281.894	92.56
282.125	81.56
282.356	99.56
282.588	80.56
282.819	74.56
283.051	83.56
283.282	94.56
283.513	82.56
283.745	100.56
283.976	92.56
284.207	80.56
284.439	86.56
284.67	97.56
284.901	77.56
285.132	96.56
285.364	71.56
285.595	97.56
285.826	90.56
286.057	91.56
286.288	85.56
286.52	95.56
286.751	102.56
286.982	92.56
287.213	97.56
287.444	80.56
287.675	85.56
287.906	86.56
288.138	83.56
288.369	90.56
288.6	91.56
288.831	85.56
289.062	92.56
289.293	90.56
289.524	75.56
289.755	70.56
289.986	82.56
290.217	90.56
290.448	92.56
290.679	103.56
290.91	106.56
291.141	99.56
291.371	84.56
291.602	90.56
291.833	97.56
292.064	88.56
292.295	84.56
292.526	94.56
292.757	89.56
292.987	88.56
293.218	75.56
293.449	88.56
293.68	92.56
293.91	76.56
294.141	85.56
294.372	82.56
294.603	89.56
294.833	80.56
295.064	100.56
295.295	78.56
295.525	97.56
295.756	86.56
295.987	86.56
296.217	91.56
296.448	86.56
296.679	81.56
296.909	89.56
297.14	79.56
297.37	78.56
297.601	81.56
297.831	77.56
298.062	87.56
298.292	72.56
298.523	106.56
298.753	86.56
298.984	80.56
299.214	81.56
299.445	89.56
299.675	97.56
299.905	92.56
300.136	82.56
300.366	94.56
300.597	91.56
300.827	93.56
301.057	87.56
301.288	95.56
301.518	72.56
301.748	77.56
301.979	85.56
302.209	80.56
302.439	89.56
302.669	69.56
302.9	81.56
303.13	77.56
303.36	82.56
303.59	83.56
303.82	88.56
304.051	87.56
304.281	86.56
304.511	79.56
304.741	85.56
304.971	85.56
305.201	78.56
305.431	89.56
305.661	87.56
305.891	89.56
306.121	85.56
306.352	72.56
306.582	96.56
306.812	79.56
307.042	72.56
307.272	89.56
307.502	101.56
307.731	88.56
307.961	71.56
308.191	75.56
308.421	87.56
308.651	81.56
308.881	85.56
309.111	83.56
309.341	83.56
309.571	88.56
309.8	97.56
310.03	89.56
310.26	77.56
310.49	93.56
310.72	88.56
310.949	90.56
311.179	95.56
311.409	74.56
311.639	86.56
311.868	92.56
312.098	85.56
312.328	82.56
312.557	75.56
312.787	85.56
313.017	83.56
313.246	86.56
313.476	77.56
313.706	90.56
313.935	98.56
314.165	88.56
314.394	98.56
314.624	78.56
314.853	96.56
315.083	82.56
315.312	98.56
315.542	81.56
315.771	85.56
316.001	81.56
316.23	90.56
316.46	99.56
316.689	85.56
316.919	92.56
317.148	85.56
317.377	94.56
317.607	82.56
317.836	85.56
318.065	87.56
318.295	83.56
318.524	83.56
318.753	88.56
318.983	86.56
319.212	92.56
319.441	85.56
319.67	99.56
319.9	78.56
320.129	84.56
320.358	90.56
320.587	96.56
320.816	82.56
321.046	78.56
321.275	86.56
321.504	85.56
321.733	91.56
321.962	73.56
322.191	90.56
322.42	108.56
322.649	98.56
322.878	76.56
323.108	91.56
323.337	93.56
323.566	85.56
323.795	90.56
324.024	81.56
324.253	92.56
324.482	78.56
324.71	90.56
324.939	83.56
325.168	86.56
325.397	72.56
325.626	86.56
325.855	94.56
326.084	77.56
326.313	89.56
326.542	96.56
326.77	81.56
326.999	88.56
327.228	92.56
327.457	72.56
327.686	92.56
327.914	80.56
328.143	96.56
328.372	83.56
328.6	91.56
328.829	93.56
329.058	69.56
329.287	88.56
329.515	93.56
329.744	91.56
329.972	85.56
330.201	93.56
330.43	89.56
330.658	87.56
330.887	80.56
331.115	97.56
331.344	93.56
331.572	96.56
331.801	85.56
332.03	76.56
332.258	82.56
332.486	84.56
332.715	90.56
332.943	80.56
333.172	78.56
333.4	72.56
333.629	87.56
333.857	79.56
334.085	88.56
334.314	93.56
334.542	85.56
334.771	97.56
334.999	87.56
335.227	85.56
335.455	81.56
335.684	98.56
335.912	94.56
336.14	76.56
336.369	99.56
336.597	76.56
336.825	92.56
337.053	88.56
337.281	103.56
337.51	83.56
337.738	107.56
337.966	78.56
338.194	85.56
338.422	89.56
338.65	82.56
338.878	77.56
339.106	84.56
339.334	78.56
339.562	81.56
339.79	83.56
340.018	83.56
340.246	81.56
340.474	84.56
340.702	84.56
340.93	89.56
341.158	93.56
341.386	87.56
341.614	78.56
341.842	98.56
342.07	89.56
342.298	85.56
342.526	84.56
342.754	84.56
342.981	82.56
343.209	73.56
343.437	82.56
343.665	77.56
343.893	74.56
344.12	89.56
344.348	80.56
344.576	88.56
344.804	95.56
345.031	81.56
345.259	92.56
345.487	92.56
345.714	86.56
345.942	84.56
346.17	77.56
346.397	86.56
346.625	72.56
346.853	85.56
347.08	82.56
347.308	85.56
347.535	85.56
347.763	82.56
347.99	74.56
348.218	87.56
348.445	91.56
348.673	87.56
348.9	86.56
349.128	90.56
349.355	72.56
349.583	92.56
349.81	83.56
350.037	76.56
350.265	82.56
350.492	104.56
350.72	92.56
350.947	102.56
351.174	107.56
351.402	75.56
351.629	84.56
351.856	94.56
352.083	79.56
352.311	91.56
352.538	94.56
352.765	82.56
352.992	93.56
353.22	80.56
353.447	81.56
353.674	98.56
353.901	103.56
354.128	93.56
354.355	84.56
354.583	82.56
354.81	84.56
355.037	94.56
355.264	80.56
355.491	73.56
355.718	81.56
355.945	90.56
356.172	77.56
356.399	84.56
356.626	78.56
356.853	68.56
357.08	92.56
357.307	76.56
357.534	80.56
357.761	85.56
357.988	89.56
358.215	91.56
358.441	84.56
358.668	86.56
358.895	76.56
359.122	78.56
359.349	83.56
359.576	87.56
359.802	83.56
360.029	91.56
360.256	102.56
360.483	82.56
360.709	84.56
360.936	101.56
361.163	89.56
361.39	76.56
361.616	97.56
361.843	84.56
362.07	80.56
362.296	97.56
362.523	90.56
362.749	88.56
362.976	89.56
363.203	86.56
363.429	72.56
363.656	89.56
363.882	83.56
364.109	87.56
364.335	88.56
364.562	82.56
364.788	101.56
365.015	82.56
365.241	84.56
365.468	83.56
365.694	82.56
365.92	100.56
366.147	99.56
366.373	91.56
366.599	95.56
366.826	81.56
367.052	85.56
367.278	79.56
367.505	73.56
367.731	77.56
367.957	91.56
368.184	89.56
368.41	90.56
368.636	83.56
368.862	87.56
369.089	83.56
369.315	89.56
369.541	78.56
369.767	84.56
369.993	82.56
370.219	77.56
370.445	81.56
370.672	81.56
370.898	83.56
371.124	96.56
371.35	84.56
371.576	95.56
371.802	94.56
372.028	89.56
372.254	88.56
372.48	81.56
372.706	93.56
372.932	82.56
373.158	79.56
373.384	78.56
373.61	76.56
373.835	73.56
374.061	76.56
374.287	76.56
374.513	96.56
374.739	100.56
374.965	90.56
375.191	84.56
375.416	95.56
375.642	87.56
375.868	76.56
376.094	77.56
376.319	85.56
376.545	91.56
376.771	73.56
376.997	92.56
377.222	88.56
377.448	93.56
377.674	74.56
377.899	95.56
378.125	76.56
378.35	86.56
378.576	77.56
378.802	98.56
379.027	91.56
379.253	96.56
379.478	88.56
379.704	97.56
379.929	73.56
380.155	80.56
380.38	82.56
380.606	78.56
380.831	93.56
381.057	79.56
381.282	100.56
381.507	81.56
381.733	80.56
381.958	90.56
382.184	86.56
382.409	100.56
382.634	83.56
382.86	76.56
383.085	77.56
383.31	98.56
383.535	89.56
383.761	86.56
383.986	94.56
384.211	90.56
384.436	86.56
384.662	92.56
384.887	93.56
385.112	104.56
385.337	102.56
385.562	91.56
385.787	87.56
386.013	105.56
386.238	94.56
386.463	84.56
386.688	97.56
386.913	88.56
387.138	84.56
387.363	102.56
387.588	73.56
387.813	84.56
388.038	89.56
388.263	98.56
388.488	88.56
388.713	93.56
388.938	103.56
389.163	82.56
389.387	101.56
389.612	76.56
389.837	91.56
390.062	90.56
390.287	88.56
390.512	91.56
390.736	82.56
390.961	76.56
391.186	79.56
391.411	83.56
391.636	89.56
391.86	78.56
392.085	94.56
392.31	77.56
392.534	86.56
392.759	92.56
392.984	92.56
393.208	90.56
393.433	85.56
393.658	89.56
393.882	86.56
394.107	97.56
394.331	86.56
394.556	93.56
394.78	98.56
395.005	100.56
395.229	89.56
395.454	96.56
395.678	83.56
395.903	74.56
396.127	84.56
396.352	99.56
396.576	94.56
396.801	85.56
397.025	84.56
397.249	101.56
397.474	98.56
397.698	104.56
397.922	89.56
398.147	84.56
398.371	93.56
398.595	100.56
398.82	96.56
399.044	104.56
399.268	86.56
399.492	97.56
399.717	91.56
399.941	86.56
400.165	90.56
400.389	84.56
400.613	91.56
400.837	97.56
401.062	94.56
401.286	104.56
401.51	95.56
401.734	91.56
401.958	88.56
402.182	79.56
402.406	97.56
402.63	93.56
402.854	104.56
403.078	87.56
403.302	81.56
403.526	95.56
403.75	101.56
403.974	86.56
404.198	92.56
404.422	105.56
404.645	94.56
404.869	92.56
405.093	95.56
405.317	98.56
405.541	84.56
405.765	98.56
405.988	93.56
406.212	89.56
406.436	91.56
406.66	94.56
406.883	99.56
407.107	89.56
407.331	90.56
407.555	98.56
407.778	91.56
408.002	96.56
408.226	89.56
408.449	93.56
408.673	86.56
408.896	93.56
409.12	90.56
409.344	106.56
409.567	99.56
409.791	84.56
410.014	91.56
410.238	85.56
410.461	93.56
410.685	93.56
410.908	98.56
411.132	98.56
411.355	96.56
411.578	89.56
411.802	98.56
412.025	89.56
412.249	89.56
412.472	92.56
412.695	91.56
412.919	94.56
413.142	87.56
413.365	94.56
413.589	107.56
413.812	86.56
414.035	101.56
414.258	105.56
414.482	95.56
414.705	101.56
414.928	80.56
415.151	102.56
415.374	90.56
415.597	86.56
415.821	89.56
416.044	106.56
416.267	83.56
416.49	97.56
416.713	94.56
416.936	99.56
417.159	91.56
417.382	92.56
417.605	94.56
417.828	102.56
418.051	81.56
418.274	99.56
418.497	105.56
418.72	88.56
418.943	98.56
419.166	88.56
419.389	103.56
419.611	92.56
419.834	91.56
420.057	93.56
420.28	107.56
420.503	108.56
420.726	92.56
420.948	96.56
421.171	87.56
421.394	86.56
421.617	91.56
421.839	95.56
422.062	99.56
422.285	91.56
422.507	95.56
422.73	97.56
422.953	97.56
423.175	79.56
423.398	101.56
423.621	105.56
423.843	97.56
424.066	102.56
424.288	115.56
424.511	109.56
424.733	101.56
424.956	108.56
425.178	100.56
425.401	104.56
425.623	97.56
425.846	96.56
426.068	101.56
426.291	86.56
426.513	86.56
426.735	97.56
426.958	96.56
427.18	93.56
427.402	101.56
427.625	95.56
427.847	86.56
428.069	90.56
428.292	86.56
428.514	96.56
428.736	86.56
428.958	94.56
429.181	105.56
429.403	78.56
429.625	96.56
429.847	104.56
430.069	88.56
430.292	104.56
430.514	109.56
430.736	98.56
430.958	106.56
431.18	89.56
431.402	97.56
431.624	85.56
431.846	93.56
432.068	77.56
432.29	89.56
432.512	90.56
432.734	103.56
432.956	96.56
433.178	97.56
433.4	99.56
433.622	109.56
433.844	90.56
434.066	105.56
434.287	91.56
434.509	78.56
434.731	88.56
434.953	90.56
435.175	101.56
435.397	112.56
435.618	98.56
435.84	101.56
436.062	95.56
436.284	103.56
436.505	91.56
436.727	99.56
436.949	104.56
437.17	100.56
437.392	105.56
437.614	98.56
437.835	85.56
438.057	86.56
438.278	97.56
438.5	90.56
438.721	98.56
438.943	98.56
439.165	93.56
439.386	93.56
439.608	115.56
439.829	96.56
440.05	91.56
440.272	113.56
440.493	108.56
440.715	102.56
440.936	127.56
441.158	90.56
441.379	97.56
441.6	96.56
441.822	98.56
442.043	92.56
442.264	103.56
442.486	99.56
442.707	99.56
442.928	105.56
443.149	104.56
443.371	100.56
443.592	86.56
443.813	90.56
444.034	107.56
444.255	93.56
444.476	98.56
444.698	99.56
444.919	105.56
445.14	198.56
445.361	142.56
445.582	109.56
445.803	83.56
446.024	114.56
446.245	101.56
446.466	109.56
446.687	99.56
446.908	101.56
447.129	98.56
447.35	107.56
447.571	102.56
447.792	88.56
448.013	102.56
448.234	94.56
448.455	105.56
448.675	108.56
448.896	95.56
449.117	96.56
449.338	102.56
449.559	96.56
449.779	97.56
450	96.56
450.221	104.56
450.442	93.56
450.662	85.56
450.883	91.56
451.104	107.56
451.324	108.56
451.545	105.56
451.766	98.56
451.986	92.56
452.207	105.56
452.428	94.56
452.648	92.56
452.869	100.56
453.089	100.56
453.31	88.56
453.53	93.56
453.751	96.56
453.971	92.56
454.192	85.56
454.412	89.56
454.633	91.56
454.853	92.56
455.073	83.56
455.294	95.56
455.514	89.56
455.734	95.56
455.955	112.56
456.175	97.56
456.395	92.56
456.616	92.56
456.836	91.56
457.056	88.56
457.276	88.56
457.497	98.56
457.717	91.56
457.937	86.56
458.157	86.56
458.377	91.56
458.598	92.56
458.818	82.56
459.038	74.56
459.258	85.56
459.478	84.56
459.698	78.56
459.918	95.56
460.138	93.56
460.358	93.56
460.578	84.56
460.798	85.56
461.018	76.56
461.238	99.56
461.458	82.56
461.678	91.56
461.898	107.56
462.118	86.56
462.338	89.56
462.558	91.56
462.777	87.56
462.997	91.56
463.217	88.56
463.437	95.56
463.657	108.56
463.876	93.56
464.096	89.56
464.316	98.56
464.536	94.56
464.755	89.56
464.975	97.56
465.195	101.56
465.414	106.56
465.634	102.56
465.854	86.56
466.073	96.56
466.293	97.56
466.512	96.56
466.732	101.56
466.951	101.56
467.171	86.56
467.391	101.56
467.61	99.56
467.829	100.56
468.049	98.56
468.268	109.56
468.488	86.56
468.707	84.56
468.927	97.56
469.146	104.56
469.365	98.56
469.585	115.56
469.804	102.56
470.023	98.56
470.243	93.56
470.462	100.56
470.681	105.56
470.901	106.56
471.12	114.56
471.339	87.56
471.558	92.56
471.777	104.56
471.997	97.56
472.216	102.56
472.435	101.56
472.654	94.56
472.873	87.56
473.092	93.56
473.311	82.56
473.53	103.56
473.749	105.56
473.968	100.56
474.187	90.56
474.406	92.56
474.625	84.56
474.844	102.56
475.063	93.56
475.282	104.56
475.501	91.56
475.72	103.56
475.939	93.56
476.158	99.56
476.377	87.56
476.596	81.56
476.814	96.56
477.033	92.56
477.252	98.56
477.471	81.56
477.69	95.56
477.908	98.56
478.127	105.56
478.346	105.56
478.564	105.56
478.783	89.56
479.002	94.56
479.22	105.56
479.439	117.56
479.658	96.56
479.876	99.56
480.095	109.56
480.313	97.56
480.532	100.56
480.751	101.56
480.969	72.56
481.188	82.56
481.406	86.56
481.624	85.56
481.843	93.56
482.061	90.56
482.28	91.56
482.498	91.56
482.717	85.56
482.935	98.56
483.153	93.56
483.372	97.56
483.59	116.56
483.808	94.56
484.027	107.56
484.245	107.56
484.463	111.56
484.681	114.56
484.9	92.56
485.118	108.56
485.336	105.56
485.554	95.56
485.772	105.56
485.99	88.56
486.209	98.56
486.427	96.56
486.645	92.56
486.863	105.56
487.081	105.56
487.299	85.56
487.517	104.56
487.735	117.56
487.953	124.56
488.171	114.56
488.389	93.56
488.607	100.56
488.825	98.56
489.043	107.56
489.261	101.56
489.479	98.56
489.696	90.56
489.914	109.56
490.132	87.56
490.35	113.56
490.568	100.56
490.786	109.56
491.003	106.56
491.221	111.56
491.439	106.56
491.657	116.56
491.874	124.56
492.092	130.56
492.31	133.56
492.527	130.56
492.745	118.56
492.963	121.56
493.18	110.56
493.398	102.56
493.615	107.56
493.833	113.56
494.05	103.56
494.268	112.56
494.485	96.56
494.703	122.56
494.92	116.56
495.138	117.56
495.355	116.56
495.573	114.56
495.79	107.56
496.008	90.56
496.225	101.56
496.442	123.56
496.66	115.56
496.877	114.56
497.094	113.56
497.312	105.56
497.529	105.56
497.746	105.56
497.963	105.56
498.181	89.56
498.398	92.56
498.615	95.56
498.832	87.56
499.049	101.56
499.267	89.56
499.484	96.56
499.701	93.56
499.918	97.56
500.135	102.56
500.352	106.56
500.569	106.56
500.786	101.56
501.003	96.56
501.22	84.56
501.437	101.56
501.654	105.56
501.871	95.56
502.088	93.56
502.305	93.56
502.522	103.56
502.739	103.56
502.956	94.56
503.172	96.56
503.389	91.56
503.606	106.56
503.823	98.56
504.04	87.56
504.256	101.56
504.473	95.56
504.69	78.56
504.907	99.56
505.123	91.56
505.34	101.56
505.557	99.56
505.773	97.56
505.99	88.56
506.207	101.56
506.423	86.56
506.64	100.56
506.856	106.56
507.073	91.56
507.289	98.56
507.506	101.56
507.722	87.56
507.939	103.56
508.155	82.56
508.372	101.56
508.588	92.56
508.805	92.56
509.021	98.56
509.238	88.56
509.454	96.56
509.67	92.56
509.887	94.56
510.103	97.56
510.319	84.56
510.536	96.56
510.752	88.56
510.968	87.56
511.184	91.56
511.401	97.56
511.617	71.56
511.833	83.56
512.049	99.56
512.265	73.56
512.481	83.56
512.698	81.56
512.914	88.56
513.13	81.56
513.346	95.56
513.562	75.56
513.778	92.56
513.994	101.56
514.21	78.56
514.426	84.56
514.642	81.56
514.858	98.56
515.074	76.56
515.29	85.56
515.506	89.56
515.721	81.56
515.937	73.56
516.153	87.56
516.369	77.56
516.585	86.56
