Data from Location4.07152019.Energy5.Lamp.07192019.3%Agarose_HRD10591_15-25-24-578.txt Node
Date: Fri Jul 19 15:25:24 EDT 2019
User: cochatt
Spectrometer: HR+D1059
Trigger mode: 1
Integration Time (sec): 1.000000E-1
Scans to average: 1
Electric dark correction enabled: true
Nonlinearity correction enabled: false
Boxcar width: 0
XAxis mode: Wavelengths
Number of Pixels in Spectrum: 2048
>>>>>Begin Spectral Data<<<<<
223.165	-14.69
223.4	-14.69
223.635	-14.69
223.869	-21.69
224.104	-23.69
224.338	-24.69
224.573	-18.69
224.808	-21.69
225.042	-5.69
225.277	7.31
225.511	1.31
225.746	-0.69
225.98	-3.69
226.215	17.31
226.449	20.31
226.683	35.31
226.918	18.31
227.152	35.31
227.387	33.31
227.621	33.31
227.856	50.31
228.09	44.31
228.324	59.31
228.559	53.31
228.793	64.31
229.027	65.31
229.262	70.31
229.496	75.31
229.73	85.31
229.964	73.31
230.199	68.31
230.433	66.31
230.667	77.31
230.901	84.31
231.136	86.31
231.37	69.31
231.604	82.31
231.838	94.31
232.072	90.31
232.306	79.31
232.541	88.31
232.775	68.31
233.009	81.31
233.243	78.31
233.477	77.31
233.711	93.31
233.945	76.31
234.179	81.31
234.413	76.31
234.647	81.31
234.881	58.31
235.115	89.31
235.349	78.31
235.583	89.31
235.817	86.31
236.051	76.31
236.285	100.31
236.519	87.31
236.753	85.31
236.987	87.31
237.221	78.31
237.455	89.31
237.689	81.31
237.922	67.31
238.156	90.31
238.39	87.31
238.624	68.31
238.858	79.31
239.091	72.31
239.325	86.31
239.559	83.31
239.793	85.31
240.027	76.31
240.26	79.31
240.494	83.31
240.728	86.31
240.961	74.31
241.195	80.31
241.429	89.31
241.662	74.31
241.896	87.31
242.13	67.31
242.363	76.31
242.597	89.31
242.83	74.31
243.064	71.31
243.298	83.31
243.531	82.31
243.765	91.31
243.998	77.31
244.232	79.31
244.465	91.31
244.699	78.31
244.932	79.31
245.166	91.31
245.399	81.31
245.633	67.31
245.866	79.31
246.099	75.31
246.333	71.31
246.566	72.31
246.8	101.31
247.033	91.31
247.266	76.31
247.5	78.31
247.733	68.31
247.966	92.31
248.2	80.31
248.433	91.31
248.666	83.31
248.899	77.31
249.133	84.31
249.366	92.31
249.599	70.31
249.832	76.31
250.066	84.31
250.299	88.31
250.532	80.31
250.765	64.31
250.998	77.31
251.231	78.31
251.465	73.31
251.698	81.31
251.931	68.31
252.164	78.31
252.397	84.31
252.63	97.31
252.863	86.31
253.096	84.31
253.329	91.31
253.562	73.31
253.795	93.31
254.028	88.31
254.261	89.31
254.494	102.31
254.727	84.31
254.96	79.31
255.193	76.31
255.426	84.31
255.659	73.31
255.892	78.31
256.124	80.31
256.357	69.31
256.59	92.31
256.823	96.31
257.056	85.31
257.289	79.31
257.521	77.31
257.754	68.31
257.987	67.31
258.22	89.31
258.452	93.31
258.685	78.31
258.918	85.31
259.151	75.31
259.383	84.31
259.616	72.31
259.849	91.31
260.081	93.31
260.314	87.31
260.547	72.31
260.779	66.31
261.012	84.31
261.244	83.31
261.477	93.31
261.71	81.31
261.942	88.31
262.175	92.31
262.407	75.31
262.64	76.31
262.872	98.31
263.105	99.31
263.337	89.31
263.57	76.31
263.802	94.31
264.035	78.31
264.267	101.31
264.499	89.31
264.732	94.31
264.964	90.31
265.197	89.31
265.429	95.31
265.661	86.31
265.894	93.31
266.126	83.31
266.358	78.31
266.591	75.31
266.823	68.31
267.055	69.31
267.287	92.31
267.52	85.31
267.752	79.31
267.984	88.31
268.216	84.31
268.448	79.31
268.681	79.31
268.913	88.31
269.145	83.31
269.377	69.31
269.609	86.31
269.841	90.31
270.073	92.31
270.306	89.31
270.538	91.31
270.77	75.31
271.002	85.31
271.234	83.31
271.466	74.31
271.698	70.31
271.93	90.31
272.162	100.31
272.394	86.31
272.626	93.31
272.858	89.31
273.09	95.31
273.322	89.31
273.553	79.31
273.785	78.31
274.017	78.31
274.249	82.31
274.481	81.31
274.713	88.31
274.945	89.31
275.176	75.31
275.408	92.31
275.64	95.31
275.872	93.31
276.104	93.31
276.335	94.31
276.567	77.31
276.799	79.31
277.031	79.31
277.262	89.31
277.494	79.31
277.726	79.31
277.957	97.31
278.189	92.31
278.421	86.31
278.652	91.31
278.884	71.31
279.115	97.31
279.347	91.31
279.579	101.31
279.81	97.31
280.042	85.31
280.273	86.31
280.505	75.31
280.736	75.31
280.968	84.31
281.199	88.31
281.431	85.31
281.662	75.31
281.894	82.31
282.125	97.31
282.356	80.31
282.588	87.31
282.819	73.31
283.051	82.31
283.282	82.31
283.513	80.31
283.745	91.31
283.976	98.31
284.207	92.31
284.439	76.31
284.67	86.31
284.901	68.31
285.132	85.31
285.364	88.31
285.595	95.31
285.826	92.31
286.057	87.31
286.288	78.31
286.52	87.31
286.751	81.31
286.982	83.31
287.213	68.31
287.444	91.31
287.675	89.31
287.906	82.31
288.138	89.31
288.369	85.31
288.6	86.31
288.831	108.31
289.062	87.31
289.293	90.31
289.524	100.31
289.755	83.31
289.986	80.31
290.217	86.31
290.448	90.31
290.679	94.31
290.91	84.31
291.141	79.31
291.371	82.31
291.602	76.31
291.833	100.31
292.064	83.31
292.295	89.31
292.526	88.31
292.757	88.31
292.987	74.31
293.218	98.31
293.449	85.31
293.68	77.31
293.91	73.31
294.141	83.31
294.372	100.31
294.603	88.31
294.833	85.31
295.064	78.31
295.295	89.31
295.525	82.31
295.756	97.31
295.987	99.31
296.217	81.31
296.448	77.31
296.679	70.31
296.909	83.31
297.14	77.31
297.37	89.31
297.601	84.31
297.831	85.31
298.062	85.31
298.292	92.31
298.523	85.31
298.753	87.31
298.984	75.31
299.214	82.31
299.445	87.31
299.675	83.31
299.905	91.31
300.136	85.31
300.366	91.31
300.597	95.31
300.827	92.31
301.057	82.31
301.288	87.31
301.518	89.31
301.748	83.31
301.979	86.31
302.209	89.31
302.439	80.31
302.669	98.31
302.9	92.31
303.13	89.31
303.36	77.31
303.59	90.31
303.82	88.31
304.051	86.31
304.281	79.31
304.511	84.31
304.741	99.31
304.971	83.31
305.201	83.31
305.431	85.31
305.661	82.31
305.891	78.31
306.121	71.31
306.352	82.31
306.582	82.31
306.812	88.31
307.042	87.31
307.272	84.31
307.502	99.31
307.731	93.31
307.961	83.31
308.191	85.31
308.421	87.31
308.651	89.31
308.881	83.31
309.111	89.31
309.341	86.31
309.571	85.31
309.8	82.31
310.03	95.31
310.26	89.31
310.49	84.31
310.72	94.31
310.949	92.31
311.179	86.31
311.409	78.31
311.639	83.31
311.868	91.31
312.098	87.31
312.328	90.31
312.557	93.31
312.787	85.31
313.017	84.31
313.246	100.31
313.476	74.31
313.706	90.31
313.935	83.31
314.165	89.31
314.394	90.31
314.624	94.31
314.853	94.31
315.083	88.31
315.312	86.31
315.542	89.31
315.771	94.31
316.001	85.31
316.23	95.31
316.46	89.31
316.689	88.31
316.919	67.31
317.148	93.31
317.377	86.31
317.607	71.31
317.836	79.31
318.065	95.31
318.295	85.31
318.524	91.31
318.753	79.31
318.983	94.31
319.212	88.31
319.441	103.31
319.67	105.31
319.9	86.31
320.129	89.31
320.358	83.31
320.587	72.31
320.816	91.31
321.046	90.31
321.275	86.31
321.504	93.31
321.733	93.31
321.962	97.31
322.191	77.31
322.42	79.31
322.649	78.31
322.878	92.31
323.108	93.31
323.337	86.31
323.566	89.31
323.795	93.31
324.024	91.31
324.253	85.31
324.482	102.31
324.71	78.31
324.939	84.31
325.168	77.31
325.397	88.31
325.626	99.31
325.855	88.31
326.084	100.31
326.313	86.31
326.542	77.31
326.77	101.31
326.999	98.31
327.228	91.31
327.457	91.31
327.686	87.31
327.914	91.31
328.143	100.31
328.372	90.31
328.6	81.31
328.829	96.31
329.058	91.31
329.287	77.31
329.515	79.31
329.744	75.31
329.972	86.31
330.201	90.31
330.43	78.31
330.658	97.31
330.887	93.31
331.115	94.31
331.344	80.31
331.572	91.31
331.801	99.31
332.03	89.31
332.258	91.31
332.486	102.31
332.715	85.31
332.943	89.31
333.172	85.31
333.4	76.31
333.629	100.31
333.857	87.31
334.085	95.31
334.314	89.31
334.542	76.31
334.771	102.31
334.999	88.31
335.227	83.31
335.455	94.31
335.684	88.31
335.912	73.31
336.14	78.31
336.369	74.31
336.597	85.31
336.825	79.31
337.053	100.31
337.281	83.31
337.51	84.31
337.738	92.31
337.966	88.31
338.194	94.31
338.422	78.31
338.65	97.31
338.878	89.31
339.106	87.31
339.334	97.31
339.562	98.31
339.79	92.31
340.018	87.31
340.246	81.31
340.474	85.31
340.702	96.31
340.93	82.31
341.158	85.31
341.386	87.31
341.614	88.31
341.842	95.31
342.07	85.31
342.298	85.31
342.526	71.31
342.754	75.31
342.981	87.31
343.209	90.31
343.437	99.31
343.665	79.31
343.893	85.31
344.12	93.31
344.348	74.31
344.576	89.31
344.804	101.31
345.031	91.31
345.259	93.31
345.487	94.31
345.714	82.31
345.942	80.31
346.17	85.31
346.397	84.31
346.625	92.31
346.853	91.31
347.08	93.31
347.308	94.31
347.535	92.31
347.763	71.31
347.99	97.31
348.218	86.31
348.445	66.31
348.673	92.31
348.9	99.31
349.128	103.31
349.355	78.31
349.583	97.31
349.81	90.31
350.037	83.31
350.265	89.31
350.492	87.31
350.72	85.31
350.947	82.31
351.174	81.31
351.402	83.31
351.629	83.31
351.856	87.31
352.083	84.31
352.311	82.31
352.538	69.31
352.765	91.31
352.992	75.31
353.22	84.31
353.447	80.31
353.674	84.31
353.901	103.31
354.128	91.31
354.355	86.31
354.583	99.31
354.81	90.31
355.037	74.31
355.264	91.31
355.491	85.31
355.718	73.31
355.945	94.31
356.172	71.31
356.399	93.31
356.626	67.31
356.853	89.31
357.08	84.31
357.307	73.31
357.534	82.31
357.761	87.31
357.988	99.31
358.215	82.31
358.441	79.31
358.668	94.31
358.895	99.31
359.122	82.31
359.349	95.31
359.576	79.31
359.802	92.31
360.029	81.31
360.256	78.31
360.483	97.31
360.709	76.31
360.936	80.31
361.163	87.31
361.39	100.31
361.616	90.31
361.843	85.31
362.07	95.31
362.296	86.31
362.523	74.31
362.749	88.31
362.976	92.31
363.203	76.31
363.429	79.31
363.656	84.31
363.882	81.31
364.109	79.31
364.335	107.31
364.562	101.31
364.788	95.31
365.015	93.31
365.241	97.31
365.468	85.31
365.694	89.31
365.92	108.31
366.147	78.31
366.373	71.31
366.599	84.31
366.826	84.31
367.052	83.31
367.278	86.31
367.505	79.31
367.731	94.31
367.957	94.31
368.184	89.31
368.41	86.31
368.636	82.31
368.862	82.31
369.089	93.31
369.315	81.31
369.541	89.31
369.767	78.31
369.993	83.31
370.219	96.31
370.445	93.31
370.672	92.31
370.898	94.31
371.124	68.31
371.35	90.31
371.576	83.31
371.802	94.31
372.028	88.31
372.254	86.31
372.48	92.31
372.706	75.31
372.932	91.31
373.158	94.31
373.384	72.31
373.61	91.31
373.835	79.31
374.061	79.31
374.287	71.31
374.513	76.31
374.739	94.31
374.965	83.31
375.191	93.31
375.416	98.31
375.642	86.31
375.868	100.31
376.094	94.31
376.319	73.31
376.545	73.31
376.771	73.31
376.997	94.31
377.222	93.31
377.448	89.31
377.674	73.31
377.899	85.31
378.125	92.31
378.35	82.31
378.576	94.31
378.802	94.31
379.027	77.31
379.253	75.31
379.478	80.31
379.704	82.31
379.929	87.31
380.155	99.31
380.38	78.31
380.606	83.31
380.831	75.31
381.057	90.31
381.282	98.31
381.507	72.31
381.733	86.31
381.958	102.31
382.184	92.31
382.409	102.31
382.634	82.31
382.86	93.31
383.085	88.31
383.31	77.31
383.535	105.31
383.761	98.31
383.986	85.31
384.211	86.31
384.436	78.31
384.662	83.31
384.887	101.31
385.112	77.31
385.337	89.31
385.562	79.31
385.787	78.31
386.013	94.31
386.238	91.31
386.463	73.31
386.688	75.31
386.913	85.31
387.138	89.31
387.363	94.31
387.588	89.31
387.813	100.31
388.038	93.31
388.263	95.31
388.488	86.31
388.713	102.31
388.938	77.31
389.163	91.31
389.387	111.31
389.612	93.31
389.837	90.31
390.062	87.31
390.287	89.31
390.512	95.31
390.736	99.31
390.961	88.31
391.186	95.31
391.411	86.31
391.636	95.31
391.86	102.31
392.085	93.31
392.31	99.31
392.534	93.31
392.759	101.31
392.984	94.31
393.208	86.31
393.433	85.31
393.658	75.31
393.882	76.31
394.107	81.31
394.331	86.31
394.556	103.31
394.78	76.31
395.005	83.31
395.229	77.31
395.454	88.31
395.678	85.31
395.903	92.31
396.127	99.31
396.352	102.31
396.576	83.31
396.801	95.31
397.025	85.31
397.249	91.31
397.474	102.31
397.698	79.31
397.922	98.31
398.147	81.31
398.371	101.31
398.595	95.31
398.82	87.31
399.044	95.31
399.268	91.31
399.492	94.31
399.717	90.31
399.941	97.31
400.165	93.31
400.389	86.31
400.613	83.31
400.837	93.31
401.062	77.31
401.286	90.31
401.51	95.31
401.734	84.31
401.958	73.31
402.182	76.31
402.406	92.31
402.63	101.31
402.854	103.31
403.078	105.31
403.302	87.31
403.526	96.31
403.75	85.31
403.974	84.31
404.198	89.31
404.422	86.31
404.645	82.31
404.869	91.31
405.093	100.31
405.317	103.31
405.541	109.31
405.765	94.31
405.988	104.31
406.212	95.31
406.436	107.31
406.66	87.31
406.883	97.31
407.107	94.31
407.331	77.31
407.555	90.31
407.778	92.31
408.002	87.31
408.226	95.31
408.449	92.31
408.673	84.31
408.896	94.31
409.12	89.31
409.344	107.31
409.567	89.31
409.791	91.31
410.014	106.31
410.238	77.31
410.461	84.31
410.685	78.31
410.908	91.31
411.132	92.31
411.355	98.31
411.578	84.31
411.802	88.31
412.025	97.31
412.249	83.31
412.472	82.31
412.695	103.31
412.919	93.31
413.142	92.31
413.365	107.31
413.589	94.31
413.812	96.31
414.035	91.31
414.258	91.31
414.482	95.31
414.705	92.31
414.928	88.31
415.151	105.31
415.374	87.31
415.597	99.31
415.821	93.31
416.044	86.31
416.267	95.31
416.49	89.31
416.713	90.31
416.936	89.31
417.159	93.31
417.382	90.31
417.605	85.31
417.828	82.31
418.051	83.31
418.274	89.31
418.497	90.31
418.72	89.31
418.943	113.31
419.166	107.31
419.389	104.31
419.611	100.31
419.834	100.31
420.057	95.31
420.28	92.31
420.503	85.31
420.726	101.31
420.948	93.31
421.171	96.31
421.394	102.31
421.617	96.31
421.839	95.31
422.062	98.31
422.285	95.31
422.507	102.31
422.73	91.31
422.953	102.31
423.175	96.31
423.398	98.31
423.621	107.31
423.843	102.31
424.066	87.31
424.288	94.31
424.511	104.31
424.733	108.31
424.956	102.31
425.178	84.31
425.401	102.31
425.623	102.31
425.846	99.31
426.068	99.31
426.291	91.31
426.513	86.31
426.735	101.31
426.958	98.31
427.18	93.31
427.402	104.31
427.625	92.31
427.847	85.31
428.069	99.31
428.292	97.31
428.514	91.31
428.736	94.31
428.958	96.31
429.181	90.31
429.403	99.31
429.625	105.31
429.847	95.31
430.069	106.31
430.292	76.31
430.514	89.31
430.736	95.31
430.958	96.31
431.18	83.31
431.402	98.31
431.624	87.31
431.846	82.31
432.068	87.31
432.29	102.31
432.512	100.31
432.734	88.31
432.956	95.31
433.178	133.31
433.4	104.31
433.622	102.31
433.844	82.31
434.066	72.31
434.287	77.31
434.509	90.31
434.731	86.31
434.953	99.31
435.175	95.31
435.397	110.31
435.618	98.31
435.84	93.31
436.062	90.31
436.284	78.31
436.505	91.31
436.727	102.31
436.949	98.31
437.17	94.31
437.392	98.31
437.614	98.31
437.835	99.31
438.057	81.31
438.278	104.31
438.5	93.31
438.721	102.31
438.943	104.31
439.165	101.31
439.386	105.31
439.608	98.31
439.829	99.31
440.05	102.31
440.272	107.31
440.493	106.31
440.715	105.31
440.936	114.31
441.158	113.31
441.379	108.31
441.6	100.31
441.822	114.31
442.043	92.31
442.264	106.31
442.486	93.31
442.707	93.31
442.928	90.31
443.149	90.31
443.371	99.31
443.592	101.31
443.813	84.31
444.034	101.31
444.255	79.31
444.476	97.31
444.698	92.31
444.919	111.31
445.14	230.31
445.361	170.31
445.582	98.31
445.803	105.31
446.024	89.31
446.245	106.31
446.466	102.31
446.687	108.31
446.908	106.31
447.129	100.31
447.35	103.31
447.571	106.31
447.792	101.31
448.013	108.31
448.234	94.31
448.455	99.31
448.675	80.31
448.896	99.31
449.117	106.31
449.338	90.31
449.559	88.31
449.779	93.31
450	100.31
450.221	88.31
450.442	86.31
450.662	95.31
450.883	82.31
451.104	102.31
451.324	93.31
451.545	95.31
451.766	105.31
451.986	102.31
452.207	111.31
452.428	102.31
452.648	101.31
452.869	97.31
453.089	92.31
453.31	101.31
453.53	88.31
453.751	98.31
453.971	85.31
454.192	98.31
454.412	94.31
454.633	92.31
454.853	96.31
455.073	94.31
455.294	102.31
455.514	95.31
455.734	88.31
455.955	94.31
456.175	90.31
456.395	86.31
456.616	87.31
456.836	87.31
457.056	79.31
457.276	87.31
457.497	87.31
457.717	91.31
457.937	84.31
458.157	97.31
458.377	86.31
458.598	97.31
458.818	91.31
459.038	82.31
459.258	90.31
459.478	82.31
459.698	92.31
459.918	85.31
460.138	91.31
460.358	96.31
460.578	97.31
460.798	78.31
461.018	92.31
461.238	91.31
461.458	93.31
461.678	94.31
461.898	89.31
462.118	97.31
462.338	87.31
462.558	113.31
462.777	88.31
462.997	102.31
463.217	94.31
463.437	94.31
463.657	89.31
463.876	102.31
464.096	98.31
464.316	92.31
464.536	91.31
464.755	79.31
464.975	96.31
465.195	91.31
465.414	84.31
465.634	95.31
465.854	83.31
466.073	86.31
466.293	93.31
466.512	97.31
466.732	79.31
466.951	102.31
467.171	97.31
467.391	91.31
467.61	88.31
467.829	98.31
468.049	87.31
468.268	91.31
468.488	100.31
468.707	108.31
468.927	98.31
469.146	115.31
469.365	90.31
469.585	115.31
469.804	106.31
470.023	104.31
470.243	91.31
470.462	102.31
470.681	118.31
470.901	105.31
471.12	100.31
471.339	97.31
471.558	102.31
471.777	115.31
471.997	101.31
472.216	93.31
472.435	98.31
472.654	81.31
472.873	98.31
473.092	97.31
473.311	87.31
473.53	102.31
473.749	97.31
473.968	108.31
474.187	102.31
474.406	93.31
474.625	98.31
474.844	103.31
475.063	113.31
475.282	102.31
475.501	105.31
475.72	98.31
475.939	96.31
476.158	94.31
476.377	92.31
476.596	98.31
476.814	106.31
477.033	91.31
477.252	77.31
477.471	103.31
477.69	100.31
477.908	99.31
478.127	97.31
478.346	101.31
478.564	99.31
478.783	90.31
479.002	98.31
479.22	102.31
479.439	95.31
479.658	110.31
479.876	89.31
480.095	90.31
480.313	93.31
480.532	108.31
480.751	87.31
480.969	78.31
481.188	93.31
481.406	84.31
481.624	91.31
481.843	98.31
482.061	98.31
482.28	91.31
482.498	83.31
482.717	92.31
482.935	93.31
483.153	109.31
483.372	99.31
483.59	98.31
483.808	99.31
484.027	104.31
484.245	102.31
484.463	89.31
484.681	93.31
484.9	93.31
485.118	110.31
485.336	95.31
485.554	94.31
485.772	94.31
485.99	86.31
486.209	99.31
486.427	93.31
486.645	110.31
486.863	113.31
487.081	96.31
487.299	89.31
487.517	105.31
487.735	119.31
487.953	130.31
488.171	117.31
488.389	116.31
488.607	99.31
488.825	103.31
489.043	99.31
489.261	97.31
489.479	96.31
489.696	98.31
489.914	99.31
490.132	107.31
490.35	116.31
490.568	126.31
490.786	115.31
491.003	115.31
491.221	115.31
491.439	102.31
491.657	108.31
491.874	110.31
492.092	124.31
492.31	115.31
492.527	121.31
492.745	120.31
492.963	123.31
493.18	109.31
493.398	111.31
493.615	98.31
493.833	114.31
494.05	118.31
494.268	113.31
494.485	117.31
494.703	107.31
494.92	115.31
495.138	101.31
495.355	107.31
495.573	98.31
495.79	107.31
496.008	110.31
496.225	118.31
496.442	110.31
496.66	120.31
496.877	105.31
497.094	111.31
497.312	108.31
497.529	111.31
497.746	119.31
497.963	113.31
498.181	91.31
498.398	103.31
498.615	89.31
498.832	90.31
499.049	94.31
499.267	101.31
499.484	88.31
499.701	97.31
499.918	102.31
500.135	99.31
500.352	111.31
500.569	105.31
500.786	106.31
501.003	88.31
501.22	89.31
501.437	95.31
501.654	93.31
501.871	97.31
502.088	90.31
502.305	94.31
502.522	103.31
502.739	96.31
502.956	102.31
503.172	100.31
503.389	91.31
503.606	99.31
503.823	102.31
504.04	96.31
504.256	109.31
504.473	91.31
504.69	90.31
504.907	107.31
505.123	94.31
505.34	104.31
505.557	98.31
505.773	95.31
505.99	93.31
506.207	100.31
506.423	89.31
506.64	89.31
506.856	71.31
507.073	89.31
507.289	109.31
507.506	117.31
507.722	109.31
507.939	97.31
508.155	94.31
508.372	106.31
508.588	83.31
508.805	94.31
509.021	100.31
509.238	114.31
509.454	99.31
509.67	83.31
509.887	77.31
510.103	106.31
510.319	88.31
510.536	94.31
510.752	86.31
510.968	82.31
511.184	94.31
511.401	99.31
511.617	79.31
511.833	90.31
512.049	78.31
512.265	89.31
512.481	90.31
512.698	97.31
512.914	98.31
513.13	98.31
513.346	86.31
513.562	93.31
513.778	90.31
513.994	91.31
514.21	92.31
514.426	95.31
514.642	69.31
514.858	73.31
515.074	85.31
515.29	97.31
515.506	79.31
515.721	87.31
515.937	89.31
516.153	108.31
516.369	105.31
