Data from Location4.07152019.Energy5.Lamp.07192019.3%Agarose_HRD10591_15-23-24-576.txt Node
Date: Fri Jul 19 15:23:24 EDT 2019
User: cochatt
Spectrometer: HR+D1059
Trigger mode: 1
Integration Time (sec): 1.000000E-1
Scans to average: 1
Electric dark correction enabled: true
Nonlinearity correction enabled: false
Boxcar width: 0
XAxis mode: Wavelengths
Number of Pixels in Spectrum: 2048
>>>>>Begin Spectral Data<<<<<
223.165	-17.44
223.4	-17.44
223.635	-17.44
223.869	-17.44
224.104	-13.44
224.338	-9.44
224.573	-24.44
224.808	-9.44
225.042	2.56
225.277	-3.44
225.511	-7.44
225.746	0.56
225.98	-2.44
226.215	18.56
226.449	21.56
226.683	20.56
226.918	19.56
227.152	21.56
227.387	33.56
227.621	44.56
227.856	42.56
228.09	53.56
228.324	42.56
228.559	58.56
228.793	57.56
229.027	50.56
229.262	49.56
229.496	32.56
229.73	60.56
229.964	66.56
230.199	82.56
230.433	65.56
230.667	66.56
230.901	67.56
231.136	79.56
231.37	78.56
231.604	79.56
231.838	90.56
232.072	82.56
232.306	81.56
232.541	72.56
232.775	69.56
233.009	66.56
233.243	82.56
233.477	83.56
233.711	75.56
233.945	74.56
234.179	73.56
234.413	82.56
234.647	70.56
234.881	78.56
235.115	60.56
235.349	73.56
235.583	69.56
235.817	62.56
236.051	77.56
236.285	78.56
236.519	77.56
236.753	81.56
236.987	95.56
237.221	77.56
237.455	82.56
237.689	64.56
237.922	67.56
238.156	76.56
238.39	68.56
238.624	61.56
238.858	79.56
239.091	68.56
239.325	73.56
239.559	72.56
239.793	76.56
240.027	72.56
240.26	79.56
240.494	71.56
240.728	65.56
240.961	74.56
241.195	64.56
241.429	93.56
241.662	67.56
241.896	72.56
242.13	62.56
242.363	65.56
242.597	83.56
242.83	74.56
243.064	68.56
243.298	73.56
243.531	79.56
243.765	60.56
243.998	79.56
244.232	70.56
244.465	70.56
244.699	68.56
244.932	58.56
245.166	73.56
245.399	82.56
245.633	75.56
245.866	68.56
246.099	76.56
246.333	85.56
246.566	67.56
246.8	75.56
247.033	70.56
247.266	76.56
247.5	72.56
247.733	77.56
247.966	61.56
248.2	74.56
248.433	74.56
248.666	81.56
248.899	83.56
249.133	71.56
249.366	86.56
249.599	73.56
249.832	83.56
250.066	77.56
250.299	69.56
250.532	71.56
250.765	70.56
250.998	86.56
251.231	80.56
251.465	76.56
251.698	79.56
251.931	73.56
252.164	75.56
252.397	70.56
252.63	84.56
252.863	87.56
253.096	73.56
253.329	74.56
253.562	78.56
253.795	67.56
254.028	76.56
254.261	70.56
254.494	78.56
254.727	74.56
254.96	69.56
255.193	69.56
255.426	74.56
255.659	71.56
255.892	79.56
256.124	72.56
256.357	78.56
256.59	83.56
256.823	70.56
257.056	80.56
257.289	80.56
257.521	86.56
257.754	70.56
257.987	76.56
258.22	85.56
258.452	91.56
258.685	68.56
258.918	75.56
259.151	75.56
259.383	84.56
259.616	80.56
259.849	81.56
260.081	85.56
260.314	85.56
260.547	68.56
260.779	74.56
261.012	79.56
261.244	73.56
261.477	80.56
261.71	77.56
261.942	75.56
262.175	97.56
262.407	88.56
262.64	77.56
262.872	86.56
263.105	60.56
263.337	81.56
263.57	74.56
263.802	84.56
264.035	65.56
264.267	82.56
264.499	66.56
264.732	72.56
264.964	83.56
265.197	75.56
265.429	71.56
265.661	78.56
265.894	71.56
266.126	77.56
266.358	79.56
266.591	78.56
266.823	86.56
267.055	90.56
267.287	61.56
267.52	82.56
267.752	74.56
267.984	85.56
268.216	73.56
268.448	67.56
268.681	85.56
268.913	78.56
269.145	72.56
269.377	69.56
269.609	69.56
269.841	56.56
270.073	74.56
270.306	85.56
270.538	75.56
270.77	80.56
271.002	80.56
271.234	79.56
271.466	71.56
271.698	78.56
271.93	79.56
272.162	80.56
272.394	86.56
272.626	70.56
272.858	84.56
273.09	85.56
273.322	67.56
273.553	82.56
273.785	79.56
274.017	91.56
274.249	87.56
274.481	79.56
274.713	83.56
274.945	80.56
275.176	79.56
275.408	78.56
275.64	70.56
275.872	77.56
276.104	81.56
276.335	80.56
276.567	84.56
276.799	83.56
277.031	66.56
277.262	73.56
277.494	87.56
277.726	80.56
277.957	79.56
278.189	82.56
278.421	78.56
278.652	85.56
278.884	80.56
279.115	73.56
279.347	89.56
279.579	88.56
279.81	88.56
280.042	78.56
280.273	70.56
280.505	68.56
280.736	79.56
280.968	80.56
281.199	78.56
281.431	83.56
281.662	88.56
281.894	86.56
282.125	73.56
282.356	81.56
282.588	78.56
282.819	76.56
283.051	83.56
283.282	63.56
283.513	79.56
283.745	79.56
283.976	68.56
284.207	72.56
284.439	94.56
284.67	78.56
284.901	82.56
285.132	76.56
285.364	86.56
285.595	87.56
285.826	78.56
286.057	80.56
286.288	83.56
286.52	87.56
286.751	75.56
286.982	72.56
287.213	78.56
287.444	86.56
287.675	76.56
287.906	81.56
288.138	80.56
288.369	82.56
288.6	79.56
288.831	82.56
289.062	83.56
289.293	98.56
289.524	86.56
289.755	84.56
289.986	82.56
290.217	83.56
290.448	79.56
290.679	82.56
290.91	72.56
291.141	76.56
291.371	91.56
291.602	77.56
291.833	95.56
292.064	90.56
292.295	71.56
292.526	66.56
292.757	78.56
292.987	76.56
293.218	86.56
293.449	74.56
293.68	73.56
293.91	74.56
294.141	85.56
294.372	76.56
294.603	82.56
294.833	77.56
295.064	84.56
295.295	87.56
295.525	85.56
295.756	95.56
295.987	87.56
296.217	82.56
296.448	71.56
296.679	74.56
296.909	64.56
297.14	77.56
297.37	72.56
297.601	71.56
297.831	69.56
298.062	78.56
298.292	78.56
298.523	92.56
298.753	79.56
298.984	74.56
299.214	85.56
299.445	73.56
299.675	75.56
299.905	84.56
300.136	87.56
300.366	81.56
300.597	79.56
300.827	88.56
301.057	81.56
301.288	69.56
301.518	84.56
301.748	70.56
301.979	65.56
302.209	80.56
302.439	79.56
302.669	84.56
302.9	72.56
303.13	71.56
303.36	90.56
303.59	83.56
303.82	73.56
304.051	70.56
304.281	83.56
304.511	91.56
304.741	67.56
304.971	85.56
305.201	77.56
305.431	75.56
305.661	77.56
305.891	88.56
306.121	90.56
306.352	86.56
306.582	96.56
306.812	93.56
307.042	78.56
307.272	89.56
307.502	84.56
307.731	79.56
307.961	93.56
308.191	79.56
308.421	82.56
308.651	78.56
308.881	74.56
309.111	75.56
309.341	88.56
309.571	80.56
309.8	77.56
310.03	83.56
310.26	80.56
310.49	90.56
310.72	84.56
310.949	71.56
311.179	79.56
311.409	78.56
311.639	83.56
311.868	82.56
312.098	91.56
312.328	82.56
312.557	72.56
312.787	69.56
313.017	78.56
313.246	83.56
313.476	82.56
313.706	76.56
313.935	78.56
314.165	76.56
314.394	78.56
314.624	95.56
314.853	65.56
315.083	71.56
315.312	88.56
315.542	86.56
315.771	62.56
316.001	75.56
316.23	81.56
316.46	72.56
316.689	83.56
316.919	76.56
317.148	80.56
317.377	68.56
317.607	80.56
317.836	89.56
318.065	77.56
318.295	74.56
318.524	79.56
318.753	76.56
318.983	68.56
319.212	62.56
319.441	80.56
319.67	80.56
319.9	80.56
320.129	73.56
320.358	69.56
320.587	84.56
320.816	79.56
321.046	87.56
321.275	87.56
321.504	81.56
321.733	78.56
321.962	72.56
322.191	72.56
322.42	87.56
322.649	91.56
322.878	80.56
323.108	92.56
323.337	83.56
323.566	91.56
323.795	84.56
324.024	78.56
324.253	78.56
324.482	75.56
324.71	80.56
324.939	79.56
325.168	85.56
325.397	85.56
325.626	76.56
325.855	77.56
326.084	79.56
326.313	86.56
326.542	76.56
326.77	68.56
326.999	82.56
327.228	86.56
327.457	78.56
327.686	88.56
327.914	81.56
328.143	74.56
328.372	83.56
328.6	86.56
328.829	83.56
329.058	78.56
329.287	73.56
329.515	76.56
329.744	70.56
329.972	91.56
330.201	84.56
330.43	81.56
330.658	79.56
330.887	83.56
331.115	68.56
331.344	76.56
331.572	79.56
331.801	83.56
332.03	72.56
332.258	78.56
332.486	83.56
332.715	83.56
332.943	74.56
333.172	77.56
333.4	68.56
333.629	79.56
333.857	78.56
334.085	95.56
334.314	85.56
334.542	87.56
334.771	79.56
334.999	72.56
335.227	84.56
335.455	80.56
335.684	87.56
335.912	97.56
336.14	73.56
336.369	74.56
336.597	84.56
336.825	81.56
337.053	92.56
337.281	65.56
337.51	88.56
337.738	80.56
337.966	69.56
338.194	91.56
338.422	69.56
338.65	78.56
338.878	60.56
339.106	71.56
339.334	85.56
339.562	75.56
339.79	73.56
340.018	80.56
340.246	74.56
340.474	69.56
340.702	82.56
340.93	94.56
341.158	88.56
341.386	68.56
341.614	79.56
341.842	72.56
342.07	86.56
342.298	82.56
342.526	77.56
342.754	93.56
342.981	79.56
343.209	80.56
343.437	78.56
343.665	79.56
343.893	74.56
344.12	78.56
344.348	85.56
344.576	81.56
344.804	73.56
345.031	79.56
345.259	75.56
345.487	68.56
345.714	86.56
345.942	80.56
346.17	68.56
346.397	75.56
346.625	66.56
346.853	95.56
347.08	83.56
347.308	78.56
347.535	68.56
347.763	89.56
347.99	86.56
348.218	88.56
348.445	81.56
348.673	84.56
348.9	83.56
349.128	77.56
349.355	77.56
349.583	75.56
349.81	67.56
350.037	74.56
350.265	74.56
350.492	83.56
350.72	71.56
350.947	83.56
351.174	80.56
351.402	84.56
351.629	70.56
351.856	67.56
352.083	88.56
352.311	85.56
352.538	76.56
352.765	93.56
352.992	67.56
353.22	89.56
353.447	72.56
353.674	76.56
353.901	76.56
354.128	75.56
354.355	80.56
354.583	92.56
354.81	77.56
355.037	78.56
355.264	82.56
355.491	73.56
355.718	71.56
355.945	89.56
356.172	80.56
356.399	74.56
356.626	87.56
356.853	75.56
357.08	72.56
357.307	87.56
357.534	94.56
357.761	84.56
357.988	67.56
358.215	76.56
358.441	75.56
358.668	80.56
358.895	80.56
359.122	68.56
359.349	72.56
359.576	63.56
359.802	77.56
360.029	76.56
360.256	72.56
360.483	79.56
360.709	92.56
360.936	93.56
361.163	72.56
361.39	67.56
361.616	66.56
361.843	78.56
362.07	76.56
362.296	82.56
362.523	75.56
362.749	80.56
362.976	82.56
363.203	79.56
363.429	83.56
363.656	69.56
363.882	68.56
364.109	82.56
364.335	72.56
364.562	82.56
364.788	91.56
365.015	69.56
365.241	80.56
365.468	92.56
365.694	75.56
365.92	85.56
366.147	82.56
366.373	82.56
366.599	70.56
366.826	66.56
367.052	86.56
367.278	73.56
367.505	86.56
367.731	80.56
367.957	86.56
368.184	84.56
368.41	91.56
368.636	87.56
368.862	82.56
369.089	89.56
369.315	67.56
369.541	91.56
369.767	71.56
369.993	79.56
370.219	73.56
370.445	78.56
370.672	74.56
370.898	74.56
371.124	87.56
371.35	77.56
371.576	85.56
371.802	87.56
372.028	84.56
372.254	94.56
372.48	80.56
372.706	80.56
372.932	62.56
373.158	78.56
373.384	82.56
373.61	82.56
373.835	76.56
374.061	74.56
374.287	75.56
374.513	81.56
374.739	87.56
374.965	67.56
375.191	85.56
375.416	87.56
375.642	86.56
375.868	79.56
376.094	82.56
376.319	78.56
376.545	76.56
376.771	63.56
376.997	70.56
377.222	77.56
377.448	69.56
377.674	67.56
377.899	67.56
378.125	74.56
378.35	65.56
378.576	93.56
378.802	78.56
379.027	86.56
379.253	83.56
379.478	72.56
379.704	72.56
379.929	80.56
380.155	67.56
380.38	82.56
380.606	72.56
380.831	90.56
381.057	79.56
381.282	81.56
381.507	81.56
381.733	83.56
381.958	85.56
382.184	76.56
382.409	72.56
382.634	72.56
382.86	77.56
383.085	98.56
383.31	82.56
383.535	92.56
383.761	78.56
383.986	80.56
384.211	79.56
384.436	87.56
384.662	77.56
384.887	74.56
385.112	71.56
385.337	88.56
385.562	86.56
385.787	77.56
386.013	78.56
386.238	84.56
386.463	88.56
386.688	75.56
386.913	76.56
387.138	95.56
387.363	71.56
387.588	81.56
387.813	95.56
388.038	77.56
388.263	97.56
388.488	92.56
388.713	87.56
388.938	89.56
389.163	78.56
389.387	88.56
389.612	90.56
389.837	83.56
390.062	82.56
390.287	88.56
390.512	82.56
390.736	78.56
390.961	79.56
391.186	72.56
391.411	82.56
391.636	80.56
391.86	78.56
392.085	82.56
392.31	86.56
392.534	72.56
392.759	71.56
392.984	93.56
393.208	86.56
393.433	86.56
393.658	90.56
393.882	71.56
394.107	85.56
394.331	78.56
394.556	66.56
394.78	88.56
395.005	98.56
395.229	72.56
395.454	79.56
395.678	85.56
395.903	82.56
396.127	91.56
396.352	85.56
396.576	82.56
396.801	73.56
397.025	71.56
397.249	84.56
397.474	79.56
397.698	98.56
397.922	79.56
398.147	84.56
398.371	78.56
398.595	90.56
398.82	77.56
399.044	84.56
399.268	81.56
399.492	72.56
399.717	90.56
399.941	82.56
400.165	73.56
400.389	76.56
400.613	104.56
400.837	86.56
401.062	82.56
401.286	88.56
401.51	99.56
401.734	89.56
401.958	95.56
402.182	92.56
402.406	77.56
402.63	90.56
402.854	85.56
403.078	82.56
403.302	77.56
403.526	80.56
403.75	84.56
403.974	79.56
404.198	86.56
404.422	86.56
404.645	85.56
404.869	77.56
405.093	86.56
405.317	87.56
405.541	87.56
405.765	84.56
405.988	93.56
406.212	81.56
406.436	83.56
406.66	98.56
406.883	87.56
407.107	86.56
407.331	84.56
407.555	84.56
407.778	89.56
408.002	94.56
408.226	77.56
408.449	86.56
408.673	89.56
408.896	81.56
409.12	88.56
409.344	82.56
409.567	78.56
409.791	80.56
410.014	97.56
410.238	77.56
410.461	77.56
410.685	87.56
410.908	107.56
411.132	75.56
411.355	83.56
411.578	78.56
411.802	78.56
412.025	89.56
412.249	84.56
412.472	84.56
412.695	82.56
412.919	95.56
413.142	78.56
413.365	88.56
413.589	97.56
413.812	93.56
414.035	92.56
414.258	88.56
414.482	79.56
414.705	102.56
414.928	90.56
415.151	101.56
415.374	84.56
415.597	91.56
415.821	80.56
416.044	91.56
416.267	77.56
416.49	99.56
416.713	94.56
416.936	80.56
417.159	101.56
417.382	87.56
417.605	92.56
417.828	83.56
418.051	80.56
418.274	86.56
418.497	107.56
418.72	106.56
418.943	94.56
419.166	92.56
419.389	94.56
419.611	101.56
419.834	77.56
420.057	78.56
420.28	83.56
420.503	83.56
420.726	102.56
420.948	92.56
421.171	99.56
421.394	93.56
421.617	87.56
421.839	84.56
422.062	88.56
422.285	80.56
422.507	100.56
422.73	83.56
422.953	80.56
423.175	81.56
423.398	87.56
423.621	86.56
423.843	95.56
424.066	74.56
424.288	84.56
424.511	102.56
424.733	104.56
424.956	99.56
425.178	100.56
425.401	93.56
425.623	84.56
425.846	77.56
426.068	81.56
426.291	81.56
426.513	95.56
426.735	90.56
426.958	99.56
427.18	96.56
427.402	96.56
427.625	96.56
427.847	74.56
428.069	80.56
428.292	82.56
428.514	99.56
428.736	89.56
428.958	87.56
429.181	84.56
429.403	94.56
429.625	97.56
429.847	89.56
430.069	88.56
430.292	97.56
430.514	94.56
430.736	95.56
430.958	90.56
431.18	82.56
431.402	83.56
431.624	82.56
431.846	83.56
432.068	98.56
432.29	72.56
432.512	87.56
432.734	99.56
432.956	95.56
433.178	80.56
433.4	83.56
433.622	79.56
433.844	91.56
434.066	98.56
434.287	76.56
434.509	93.56
434.731	81.56
434.953	81.56
435.175	88.56
435.397	92.56
435.618	85.56
435.84	76.56
436.062	87.56
436.284	99.56
436.505	87.56
436.727	98.56
436.949	90.56
437.17	88.56
437.392	98.56
437.614	87.56
437.835	97.56
438.057	91.56
438.278	82.56
438.5	81.56
438.721	80.56
438.943	116.56
439.165	82.56
439.386	98.56
439.608	102.56
439.829	93.56
440.05	98.56
440.272	93.56
440.493	79.56
440.715	100.56
440.936	102.56
441.158	89.56
441.379	104.56
441.6	100.56
441.822	87.56
442.043	95.56
442.264	90.56
442.486	94.56
442.707	89.56
442.928	85.56
443.149	102.56
443.371	82.56
443.592	85.56
443.813	87.56
444.034	92.56
444.255	101.56
444.476	92.56
444.698	91.56
444.919	88.56
445.14	192.56
445.361	150.56
445.582	112.56
445.803	108.56
446.024	82.56
446.245	92.56
446.466	86.56
446.687	97.56
446.908	87.56
447.129	95.56
447.35	82.56
447.571	98.56
447.792	94.56
448.013	112.56
448.234	77.56
448.455	86.56
448.675	88.56
448.896	88.56
449.117	89.56
449.338	106.56
449.559	97.56
449.779	95.56
450	82.56
450.221	100.56
450.442	90.56
450.662	75.56
450.883	79.56
451.104	89.56
451.324	79.56
451.545	87.56
451.766	90.56
451.986	80.56
452.207	82.56
452.428	82.56
452.648	105.56
452.869	108.56
453.089	92.56
453.31	70.56
453.53	101.56
453.751	75.56
453.971	68.56
454.192	87.56
454.412	92.56
454.633	85.56
454.853	85.56
455.073	87.56
455.294	89.56
455.514	95.56
455.734	75.56
455.955	94.56
456.175	83.56
456.395	83.56
456.616	92.56
456.836	76.56
457.056	84.56
457.276	99.56
457.497	89.56
457.717	91.56
457.937	79.56
458.157	82.56
458.377	87.56
458.598	82.56
458.818	96.56
459.038	93.56
459.258	76.56
459.478	82.56
459.698	67.56
459.918	74.56
460.138	87.56
460.358	81.56
460.578	92.56
460.798	93.56
461.018	83.56
461.238	100.56
461.458	85.56
461.678	77.56
461.898	91.56
462.118	86.56
462.338	79.56
462.558	84.56
462.777	84.56
462.997	87.56
463.217	77.56
463.437	86.56
463.657	85.56
463.876	75.56
464.096	82.56
464.316	91.56
464.536	78.56
464.755	86.56
464.975	86.56
465.195	77.56
465.414	88.56
465.634	87.56
465.854	89.56
466.073	84.56
466.293	94.56
466.512	92.56
466.732	86.56
466.951	76.56
467.171	84.56
467.391	90.56
467.61	90.56
467.829	87.56
468.049	92.56
468.268	93.56
468.488	92.56
468.707	93.56
468.927	88.56
469.146	88.56
469.365	91.56
469.585	88.56
469.804	94.56
470.023	102.56
470.243	91.56
470.462	103.56
470.681	108.56
470.901	87.56
471.12	91.56
471.339	80.56
471.558	83.56
471.777	95.56
471.997	84.56
472.216	94.56
472.435	84.56
472.654	91.56
472.873	90.56
473.092	89.56
473.311	78.56
473.53	87.56
473.749	98.56
473.968	106.56
474.187	93.56
474.406	83.56
474.625	75.56
474.844	91.56
475.063	87.56
475.282	86.56
475.501	86.56
475.72	101.56
475.939	85.56
476.158	91.56
476.377	90.56
476.596	85.56
476.814	77.56
477.033	78.56
477.252	73.56
477.471	86.56
477.69	76.56
477.908	96.56
478.127	81.56
478.346	82.56
478.564	82.56
478.783	101.56
479.002	85.56
479.22	88.56
479.439	88.56
479.658	80.56
479.876	82.56
480.095	90.56
480.313	83.56
480.532	75.56
480.751	74.56
480.969	65.56
481.188	77.56
481.406	95.56
481.624	84.56
481.843	78.56
482.061	79.56
482.28	90.56
482.498	88.56
482.717	79.56
482.935	88.56
483.153	89.56
483.372	93.56
483.59	117.56
483.808	94.56
484.027	106.56
484.245	86.56
484.463	92.56
484.681	94.56
484.9	82.56
485.118	103.56
485.336	81.56
485.554	72.56
485.772	80.56
485.99	80.56
486.209	77.56
486.427	94.56
486.645	96.56
486.863	92.56
487.081	80.56
487.299	80.56
487.517	95.56
487.735	102.56
487.953	98.56
488.171	114.56
488.389	85.56
488.607	88.56
488.825	90.56
489.043	94.56
489.261	101.56
489.479	103.56
489.696	97.56
489.914	100.56
490.132	96.56
490.35	102.56
490.568	103.56
490.786	99.56
491.003	99.56
491.221	110.56
491.439	102.56
491.657	98.56
491.874	111.56
492.092	118.56
492.31	119.56
492.527	119.56
492.745	109.56
492.963	110.56
493.18	99.56
493.398	122.56
493.615	104.56
493.833	111.56
494.05	110.56
494.268	107.56
494.485	118.56
494.703	101.56
494.92	98.56
495.138	110.56
495.355	103.56
495.573	110.56
495.79	96.56
496.008	106.56
496.225	108.56
496.442	106.56
496.66	106.56
496.877	103.56
497.094	99.56
497.312	95.56
497.529	91.56
497.746	91.56
497.963	101.56
498.181	87.56
498.398	88.56
498.615	85.56
498.832	105.56
499.049	81.56
499.267	97.56
499.484	107.56
499.701	102.56
499.918	90.56
500.135	95.56
500.352	80.56
500.569	99.56
500.786	99.56
501.003	91.56
501.22	93.56
501.437	83.56
501.654	87.56
501.871	102.56
502.088	100.56
502.305	97.56
502.522	88.56
502.739	93.56
502.956	91.56
503.172	86.56
503.389	89.56
503.606	84.56
503.823	85.56
504.04	90.56
504.256	84.56
504.473	95.56
504.69	83.56
504.907	79.56
505.123	68.56
505.34	77.56
505.557	96.56
505.773	97.56
505.99	80.56
506.207	78.56
506.423	96.56
506.64	96.56
506.856	93.56
507.073	85.56
507.289	84.56
507.506	95.56
507.722	94.56
507.939	93.56
508.155	88.56
508.372	89.56
508.588	89.56
508.805	90.56
509.021	87.56
509.238	79.56
509.454	72.56
509.67	92.56
509.887	82.56
510.103	74.56
510.319	88.56
510.536	84.56
510.752	80.56
510.968	72.56
511.184	99.56
511.401	89.56
511.617	81.56
511.833	86.56
512.049	85.56
512.265	78.56
512.481	78.56
512.698	84.56
512.914	84.56
513.13	81.56
513.346	80.56
513.562	72.56
513.778	95.56
513.994	78.56
514.21	91.56
514.426	72.56
514.642	87.56
514.858	84.56
515.074	74.56
515.29	62.56
515.506	64.56
515.721	86.56
515.937	71.56
516.153	72.56
516.369	68.56
516.585	80.56
516.801	91.56
517.016	82.56
517.232	66.56
517.448	66.56
517.664	99.56
517.879	78.56
518.095	72.56
518.311	87.56
518.527	65.56
