Data from Location4.07152019.Energy5.Lamp.07192019.3%Agarose_HRD10591_15-26-12-578.txt Node
Date: Fri Jul 19 15:26:12 EDT 2019
User: cochatt
Spectrometer: HR+D1059
Trigger mode: 1
Integration Time (sec): 1.000000E-1
Scans to average: 1
Electric dark correction enabled: true
Nonlinearity correction enabled: false
Boxcar width: 0
XAxis mode: Wavelengths
Number of Pixels in Spectrum: 2048
>>>>>Begin Spectral Data<<<<<
223.165	-18.69
223.4	-18.69
223.635	-18.69
223.869	-24.69
224.104	-16.69
224.338	-7.69
224.573	-3.69
224.808	-8.69
225.042	-17.69
225.277	-7.69
225.511	11.31
225.746	13.31
225.98	5.31
226.215	23.31
226.449	10.31
226.683	2.31
226.918	18.31
227.152	21.31
227.387	18.31
227.621	49.31
227.856	35.31
228.09	29.31
228.324	44.31
228.559	51.31
228.793	64.31
229.027	53.31
229.262	75.31
229.496	59.31
229.73	63.31
229.964	85.31
230.199	69.31
230.433	63.31
230.667	77.31
230.901	74.31
231.136	70.31
231.37	77.31
231.604	83.31
231.838	90.31
232.072	74.31
232.306	90.31
232.541	79.31
232.775	75.31
233.009	81.31
233.243	84.31
233.477	78.31
233.711	71.31
233.945	83.31
234.179	79.31
234.413	82.31
234.647	80.31
234.881	84.31
235.115	80.31
235.349	81.31
235.583	69.31
235.817	79.31
236.051	80.31
236.285	89.31
236.519	84.31
236.753	92.31
236.987	74.31
237.221	85.31
237.455	66.31
237.689	70.31
237.922	70.31
238.156	79.31
238.39	79.31
238.624	73.31
238.858	65.31
239.091	73.31
239.325	75.31
239.559	76.31
239.793	83.31
240.027	80.31
240.26	80.31
240.494	87.31
240.728	89.31
240.961	67.31
241.195	68.31
241.429	75.31
241.662	79.31
241.896	77.31
242.13	84.31
242.363	89.31
242.597	72.31
242.83	83.31
243.064	72.31
243.298	73.31
243.531	73.31
243.765	67.31
243.998	82.31
244.232	87.31
244.465	80.31
244.699	82.31
244.932	86.31
245.166	71.31
245.399	68.31
245.633	86.31
245.866	69.31
246.099	77.31
246.333	75.31
246.566	84.31
246.8	63.31
247.033	91.31
247.266	78.31
247.5	59.31
247.733	69.31
247.966	68.31
248.2	77.31
248.433	95.31
248.666	62.31
248.899	67.31
249.133	79.31
249.366	79.31
249.599	74.31
249.832	71.31
250.066	80.31
250.299	72.31
250.532	87.31
250.765	77.31
250.998	67.31
251.231	64.31
251.465	91.31
251.698	73.31
251.931	82.31
252.164	68.31
252.397	75.31
252.63	81.31
252.863	75.31
253.096	71.31
253.329	67.31
253.562	70.31
253.795	80.31
254.028	83.31
254.261	73.31
254.494	70.31
254.727	93.31
254.96	80.31
255.193	81.31
255.426	74.31
255.659	80.31
255.892	82.31
256.124	74.31
256.357	71.31
256.59	70.31
256.823	86.31
257.056	80.31
257.289	82.31
257.521	83.31
257.754	79.31
257.987	79.31
258.22	80.31
258.452	83.31
258.685	75.31
258.918	75.31
259.151	84.31
259.383	74.31
259.616	73.31
259.849	84.31
260.081	74.31
260.314	80.31
260.547	76.31
260.779	86.31
261.012	76.31
261.244	88.31
261.477	68.31
261.71	84.31
261.942	62.31
262.175	95.31
262.407	82.31
262.64	71.31
262.872	76.31
263.105	78.31
263.337	79.31
263.57	82.31
263.802	89.31
264.035	90.31
264.267	88.31
264.499	82.31
264.732	84.31
264.964	81.31
265.197	85.31
265.429	72.31
265.661	76.31
265.894	85.31
266.126	95.31
266.358	83.31
266.591	77.31
266.823	85.31
267.055	71.31
267.287	86.31
267.52	65.31
267.752	87.31
267.984	75.31
268.216	78.31
268.448	87.31
268.681	85.31
268.913	93.31
269.145	82.31
269.377	79.31
269.609	80.31
269.841	82.31
270.073	79.31
270.306	71.31
270.538	73.31
270.77	84.31
271.002	87.31
271.234	89.31
271.466	82.31
271.698	91.31
271.93	98.31
272.162	66.31
272.394	80.31
272.626	74.31
272.858	75.31
273.09	72.31
273.322	78.31
273.553	83.31
273.785	83.31
274.017	87.31
274.249	70.31
274.481	86.31
274.713	71.31
274.945	65.31
275.176	82.31
275.408	80.31
275.64	93.31
275.872	83.31
276.104	76.31
276.335	89.31
276.567	87.31
276.799	75.31
277.031	84.31
277.262	89.31
277.494	82.31
277.726	62.31
277.957	95.31
278.189	90.31
278.421	92.31
278.652	83.31
278.884	89.31
279.115	103.31
279.347	89.31
279.579	99.31
279.81	79.31
280.042	66.31
280.273	82.31
280.505	83.31
280.736	72.31
280.968	77.31
281.199	79.31
281.431	75.31
281.662	90.31
281.894	82.31
282.125	82.31
282.356	90.31
282.588	80.31
282.819	89.31
283.051	74.31
283.282	80.31
283.513	84.31
283.745	89.31
283.976	75.31
284.207	91.31
284.439	90.31
284.67	82.31
284.901	91.31
285.132	79.31
285.364	82.31
285.595	84.31
285.826	74.31
286.057	78.31
286.288	85.31
286.52	78.31
286.751	71.31
286.982	76.31
287.213	79.31
287.444	80.31
287.675	77.31
287.906	94.31
288.138	69.31
288.369	84.31
288.6	78.31
288.831	94.31
289.062	69.31
289.293	88.31
289.524	72.31
289.755	83.31
289.986	78.31
290.217	62.31
290.448	96.31
290.679	84.31
290.91	84.31
291.141	81.31
291.371	89.31
291.602	108.31
291.833	81.31
292.064	88.31
292.295	78.31
292.526	79.31
292.757	73.31
292.987	83.31
293.218	73.31
293.449	72.31
293.68	79.31
293.91	81.31
294.141	74.31
294.372	79.31
294.603	73.31
294.833	81.31
295.064	73.31
295.295	69.31
295.525	83.31
295.756	77.31
295.987	84.31
296.217	89.31
296.448	82.31
296.679	84.31
296.909	71.31
297.14	89.31
297.37	78.31
297.601	83.31
297.831	68.31
298.062	89.31
298.292	82.31
298.523	83.31
298.753	92.31
298.984	94.31
299.214	78.31
299.445	83.31
299.675	89.31
299.905	80.31
300.136	79.31
300.366	88.31
300.597	85.31
300.827	86.31
301.057	99.31
301.288	86.31
301.518	78.31
301.748	82.31
301.979	87.31
302.209	75.31
302.439	78.31
302.669	71.31
302.9	91.31
303.13	86.31
303.36	82.31
303.59	79.31
303.82	82.31
304.051	79.31
304.281	87.31
304.511	89.31
304.741	85.31
304.971	86.31
305.201	88.31
305.431	68.31
305.661	76.31
305.891	83.31
306.121	76.31
306.352	86.31
306.582	86.31
306.812	87.31
307.042	88.31
307.272	73.31
307.502	86.31
307.731	99.31
307.961	94.31
308.191	78.31
308.421	84.31
308.651	82.31
308.881	89.31
309.111	82.31
309.341	83.31
309.571	72.31
309.8	91.31
310.03	91.31
310.26	85.31
310.49	89.31
310.72	74.31
310.949	97.31
311.179	85.31
311.409	80.31
311.639	97.31
311.868	79.31
312.098	78.31
312.328	89.31
312.557	85.31
312.787	82.31
313.017	98.31
313.246	70.31
313.476	87.31
313.706	77.31
313.935	90.31
314.165	72.31
314.394	75.31
314.624	76.31
314.853	88.31
315.083	89.31
315.312	81.31
315.542	87.31
315.771	101.31
316.001	89.31
316.23	83.31
316.46	80.31
316.689	79.31
316.919	75.31
317.148	90.31
317.377	80.31
317.607	89.31
317.836	91.31
318.065	87.31
318.295	75.31
318.524	83.31
318.753	77.31
318.983	83.31
319.212	88.31
319.441	91.31
319.67	80.31
319.9	69.31
320.129	88.31
320.358	78.31
320.587	83.31
320.816	90.31
321.046	74.31
321.275	72.31
321.504	79.31
321.733	84.31
321.962	80.31
322.191	82.31
322.42	76.31
322.649	69.31
322.878	79.31
323.108	74.31
323.337	75.31
323.566	84.31
323.795	80.31
324.024	82.31
324.253	78.31
324.482	83.31
324.71	92.31
324.939	84.31
325.168	81.31
325.397	72.31
325.626	84.31
325.855	78.31
326.084	91.31
326.313	73.31
326.542	78.31
326.77	84.31
326.999	87.31
327.228	87.31
327.457	80.31
327.686	108.31
327.914	87.31
328.143	80.31
328.372	89.31
328.6	75.31
328.829	91.31
329.058	72.31
329.287	84.31
329.515	83.31
329.744	80.31
329.972	74.31
330.201	104.31
330.43	88.31
330.658	82.31
330.887	79.31
331.115	82.31
331.344	84.31
331.572	88.31
331.801	79.31
332.03	77.31
332.258	90.31
332.486	91.31
332.715	74.31
332.943	82.31
333.172	73.31
333.4	83.31
333.629	81.31
333.857	78.31
334.085	81.31
334.314	66.31
334.542	76.31
334.771	89.31
334.999	79.31
335.227	85.31
335.455	75.31
335.684	78.31
335.912	84.31
336.14	85.31
336.369	85.31
336.597	90.31
336.825	87.31
337.053	103.31
337.281	88.31
337.51	79.31
337.738	83.31
337.966	77.31
338.194	82.31
338.422	67.31
338.65	84.31
338.878	90.31
339.106	70.31
339.334	92.31
339.562	70.31
339.79	101.31
340.018	87.31
340.246	62.31
340.474	88.31
340.702	80.31
340.93	84.31
341.158	73.31
341.386	98.31
341.614	94.31
341.842	74.31
342.07	80.31
342.298	78.31
342.526	80.31
342.754	77.31
342.981	95.31
343.209	87.31
343.437	79.31
343.665	75.31
343.893	85.31
344.12	68.31
344.348	103.31
344.576	74.31
344.804	85.31
345.031	75.31
345.259	72.31
345.487	83.31
345.714	81.31
345.942	85.31
346.17	76.31
346.397	91.31
346.625	88.31
346.853	76.31
347.08	85.31
347.308	83.31
347.535	81.31
347.763	67.31
347.99	80.31
348.218	84.31
348.445	74.31
348.673	77.31
348.9	80.31
349.128	87.31
349.355	84.31
349.583	87.31
349.81	101.31
350.037	83.31
350.265	84.31
350.492	74.31
350.72	74.31
350.947	82.31
351.174	91.31
351.402	65.31
351.629	85.31
351.856	82.31
352.083	88.31
352.311	97.31
352.538	72.31
352.765	88.31
352.992	91.31
353.22	82.31
353.447	82.31
353.674	81.31
353.901	84.31
354.128	87.31
354.355	64.31
354.583	89.31
354.81	87.31
355.037	75.31
355.264	86.31
355.491	77.31
355.718	82.31
355.945	75.31
356.172	63.31
356.399	85.31
356.626	83.31
356.853	78.31
357.08	83.31
357.307	76.31
357.534	91.31
357.761	76.31
357.988	87.31
358.215	95.31
358.441	77.31
358.668	80.31
358.895	82.31
359.122	80.31
359.349	87.31
359.576	86.31
359.802	87.31
360.029	74.31
360.256	84.31
360.483	66.31
360.709	76.31
360.936	64.31
361.163	73.31
361.39	77.31
361.616	75.31
361.843	90.31
362.07	76.31
362.296	73.31
362.523	63.31
362.749	84.31
362.976	80.31
363.203	89.31
363.429	77.31
363.656	75.31
363.882	85.31
364.109	80.31
364.335	80.31
364.562	82.31
364.788	75.31
365.015	75.31
365.241	88.31
365.468	91.31
365.694	80.31
365.92	81.31
366.147	85.31
366.373	83.31
366.599	92.31
366.826	75.31
367.052	78.31
367.278	71.31
367.505	64.31
367.731	86.31
367.957	87.31
368.184	88.31
368.41	86.31
368.636	90.31
368.862	92.31
369.089	82.31
369.315	80.31
369.541	75.31
369.767	78.31
369.993	76.31
370.219	83.31
370.445	74.31
370.672	78.31
370.898	83.31
371.124	78.31
371.35	76.31
371.576	85.31
371.802	86.31
372.028	91.31
372.254	88.31
372.48	91.31
372.706	90.31
372.932	95.31
373.158	78.31
373.384	80.31
373.61	79.31
373.835	80.31
374.061	85.31
374.287	95.31
374.513	74.31
374.739	75.31
374.965	85.31
375.191	83.31
375.416	79.31
375.642	83.31
375.868	84.31
376.094	77.31
376.319	85.31
376.545	78.31
376.771	81.31
376.997	73.31
377.222	71.31
377.448	84.31
377.674	89.31
377.899	89.31
378.125	80.31
378.35	80.31
378.576	90.31
378.802	83.31
379.027	69.31
379.253	77.31
379.478	82.31
379.704	82.31
379.929	82.31
380.155	78.31
380.38	83.31
380.606	78.31
380.831	90.31
381.057	86.31
381.282	79.31
381.507	89.31
381.733	70.31
381.958	90.31
382.184	83.31
382.409	77.31
382.634	81.31
382.86	79.31
383.085	80.31
383.31	79.31
383.535	74.31
383.761	83.31
383.986	89.31
384.211	75.31
384.436	80.31
384.662	78.31
384.887	81.31
385.112	87.31
385.337	87.31
385.562	84.31
385.787	98.31
386.013	92.31
386.238	86.31
386.463	75.31
386.688	88.31
386.913	76.31
387.138	81.31
387.363	85.31
387.588	87.31
387.813	76.31
388.038	94.31
388.263	84.31
388.488	79.31
388.713	90.31
388.938	84.31
389.163	87.31
389.387	95.31
389.612	80.31
389.837	96.31
390.062	90.31
390.287	86.31
390.512	87.31
390.736	79.31
390.961	85.31
391.186	91.31
391.411	87.31
391.636	68.31
391.86	82.31
392.085	91.31
392.31	97.31
392.534	79.31
392.759	77.31
392.984	81.31
393.208	97.31
393.433	80.31
393.658	80.31
393.882	79.31
394.107	81.31
394.331	90.31
394.556	88.31
394.78	82.31
395.005	88.31
395.229	95.31
395.454	91.31
395.678	72.31
395.903	94.31
396.127	87.31
396.352	96.31
396.576	89.31
396.801	85.31
397.025	91.31
397.249	72.31
397.474	89.31
397.698	83.31
397.922	72.31
398.147	86.31
398.371	89.31
398.595	80.31
398.82	75.31
399.044	92.31
399.268	73.31
399.492	77.31
399.717	93.31
399.941	87.31
400.165	75.31
400.389	91.31
400.613	88.31
400.837	80.31
401.062	85.31
401.286	80.31
401.51	92.31
401.734	87.31
401.958	82.31
402.182	88.31
402.406	86.31
402.63	99.31
402.854	87.31
403.078	87.31
403.302	86.31
403.526	89.31
403.75	76.31
403.974	80.31
404.198	82.31
404.422	86.31
404.645	86.31
404.869	70.31
405.093	84.31
405.317	82.31
405.541	85.31
405.765	95.31
405.988	90.31
406.212	96.31
406.436	93.31
406.66	82.31
406.883	101.31
407.107	66.31
407.331	83.31
407.555	90.31
407.778	84.31
408.002	73.31
408.226	75.31
408.449	70.31
408.673	84.31
408.896	100.31
409.12	66.31
409.344	87.31
409.567	84.31
409.791	86.31
410.014	90.31
410.238	86.31
410.461	90.31
410.685	83.31
410.908	92.31
411.132	79.31
411.355	83.31
411.578	79.31
411.802	91.31
412.025	94.31
412.249	82.31
412.472	94.31
412.695	89.31
412.919	98.31
413.142	84.31
413.365	92.31
413.589	81.31
413.812	91.31
414.035	98.31
414.258	84.31
414.482	96.31
414.705	82.31
414.928	95.31
415.151	94.31
415.374	98.31
415.597	80.31
415.821	100.31
416.044	92.31
416.267	83.31
416.49	84.31
416.713	88.31
416.936	92.31
417.159	83.31
417.382	78.31
417.605	94.31
417.828	82.31
418.051	92.31
418.274	93.31
418.497	99.31
418.72	83.31
418.943	89.31
419.166	98.31
419.389	88.31
419.611	83.31
419.834	106.31
420.057	91.31
420.28	87.31
420.503	84.31
420.726	97.31
420.948	86.31
421.171	101.31
421.394	94.31
421.617	98.31
421.839	92.31
422.062	92.31
422.285	96.31
422.507	92.31
422.73	104.31
422.953	87.31
423.175	87.31
423.398	106.31
423.621	99.31
423.843	83.31
424.066	91.31
424.288	98.31
424.511	93.31
424.733	98.31
424.956	79.31
425.178	103.31
425.401	103.31
425.623	95.31
425.846	102.31
426.068	84.31
426.291	103.31
426.513	97.31
426.735	99.31
426.958	68.31
427.18	87.31
427.402	87.31
427.625	91.31
427.847	95.31
428.069	102.31
428.292	96.31
428.514	98.31
428.736	99.31
428.958	98.31
429.181	99.31
429.403	97.31
429.625	95.31
429.847	103.31
430.069	83.31
430.292	88.31
430.514	96.31
430.736	89.31
430.958	98.31
431.18	98.31
431.402	97.31
431.624	82.31
431.846	77.31
432.068	93.31
432.29	73.31
432.512	79.31
432.734	91.31
432.956	87.31
433.178	105.31
433.4	111.31
433.622	94.31
433.844	89.31
434.066	93.31
434.287	87.31
434.509	82.31
434.731	88.31
434.953	83.31
435.175	80.31
435.397	81.31
435.618	88.31
435.84	95.31
436.062	90.31
436.284	79.31
436.505	90.31
436.727	84.31
436.949	90.31
437.17	91.31
437.392	95.31
437.614	97.31
437.835	89.31
438.057	85.31
438.278	94.31
438.5	74.31
438.721	97.31
438.943	101.31
439.165	96.31
439.386	108.31
439.608	88.31
439.829	86.31
440.05	106.31
440.272	104.31
440.493	88.31
440.715	103.31
440.936	98.31
441.158	104.31
441.379	76.31
441.6	102.31
441.822	112.31
442.043	92.31
442.264	111.31
442.486	88.31
442.707	104.31
442.928	90.31
443.149	77.31
443.371	105.31
443.592	101.31
443.813	99.31
444.034	98.31
444.255	108.31
444.476	100.31
444.698	96.31
444.919	109.31
445.14	207.31
445.361	156.31
445.582	99.31
445.803	99.31
446.024	102.31
446.245	94.31
446.466	86.31
446.687	103.31
446.908	108.31
447.129	104.31
447.35	107.31
447.571	99.31
447.792	94.31
448.013	80.31
448.234	98.31
448.455	88.31
448.675	90.31
448.896	91.31
449.117	100.31
449.338	93.31
449.559	106.31
449.779	99.31
450	85.31
450.221	102.31
450.442	93.31
450.662	97.31
450.883	87.31
451.104	106.31
451.324	88.31
451.545	84.31
451.766	96.31
451.986	94.31
452.207	98.31
452.428	90.31
452.648	96.31
452.869	89.31
453.089	98.31
453.31	95.31
453.53	106.31
453.751	99.31
453.971	78.31
454.192	83.31
454.412	81.31
454.633	76.31
454.853	102.31
455.073	96.31
455.294	103.31
455.514	99.31
455.734	87.31
455.955	94.31
456.175	88.31
456.395	91.31
456.616	84.31
456.836	88.31
457.056	83.31
457.276	86.31
457.497	73.31
457.717	84.31
457.937	99.31
458.157	88.31
458.377	82.31
458.598	80.31
458.818	89.31
459.038	101.31
459.258	86.31
459.478	78.31
459.698	83.31
459.918	74.31
460.138	99.31
460.358	85.31
460.578	83.31
460.798	97.31
461.018	97.31
461.238	80.31
461.458	93.31
461.678	89.31
461.898	82.31
462.118	83.31
462.338	90.31
462.558	81.31
462.777	86.31
462.997	92.31
463.217	92.31
463.437	104.31
463.657	97.31
463.876	89.31
464.096	81.31
464.316	99.31
464.536	90.31
464.755	107.31
464.975	95.31
465.195	100.31
465.414	89.31
465.634	94.31
465.854	77.31
466.073	98.31
466.293	80.31
466.512	92.31
466.732	101.31
466.951	93.31
467.171	89.31
467.391	99.31
467.61	91.31
467.829	113.31
468.049	85.31
468.268	84.31
468.488	93.31
468.707	77.31
468.927	100.31
469.146	78.31
469.365	93.31
469.585	96.31
469.804	91.31
470.023	94.31
470.243	103.31
470.462	91.31
470.681	95.31
470.901	101.31
471.12	89.31
471.339	104.31
471.558	97.31
471.777	96.31
471.997	100.31
472.216	98.31
472.435	101.31
472.654	98.31
472.873	93.31
473.092	82.31
473.311	86.31
473.53	77.31
473.749	90.31
473.968	101.31
474.187	93.31
474.406	81.31
474.625	80.31
474.844	83.31
475.063	83.31
475.282	88.31
475.501	84.31
475.72	88.31
475.939	89.31
476.158	91.31
476.377	83.31
476.596	93.31
476.814	100.31
477.033	92.31
477.252	93.31
477.471	93.31
477.69	93.31
477.908	102.31
478.127	93.31
478.346	96.31
478.564	102.31
478.783	85.31
479.002	104.31
479.22	96.31
479.439	95.31
479.658	100.31
479.876	103.31
480.095	89.31
480.313	98.31
480.532	101.31
480.751	91.31
480.969	83.31
481.188	87.31
481.406	83.31
481.624	86.31
481.843	84.31
482.061	82.31
482.28	97.31
482.498	98.31
482.717	99.31
482.935	99.31
483.153	80.31
483.372	90.31
483.59	97.31
483.808	114.31
484.027	92.31
484.245	107.31
484.463	94.31
484.681	98.31
484.9	102.31
485.118	94.31
485.336	89.31
485.554	90.31
485.772	80.31
485.99	78.31
486.209	100.31
486.427	91.31
486.645	99.31
486.863	99.31
487.081	100.31
487.299	84.31
487.517	102.31
487.735	94.31
487.953	106.31
488.171	108.31
488.389	113.31
488.607	120.31
488.825	107.31
489.043	90.31
489.261	120.31
489.479	86.31
489.696	96.31
489.914	99.31
490.132	107.31
490.35	116.31
490.568	112.31
490.786	106.31
491.003	104.31
491.221	115.31
491.439	107.31
491.657	113.31
491.874	114.31
492.092	106.31
492.31	140.31
492.527	122.31
492.745	119.31
492.963	123.31
493.18	121.31
493.398	123.31
493.615	99.31
493.833	110.31
494.05	109.31
494.268	104.31
494.485	110.31
494.703	112.31
494.92	124.31
495.138	131.31
495.355	100.31
495.573	97.31
495.79	122.31
496.008	104.31
496.225	103.31
496.442	97.31
496.66	99.31
496.877	101.31
497.094	103.31
497.312	110.31
497.529	107.31
497.746	96.31
497.963	102.31
498.181	92.31
498.398	89.31
498.615	86.31
498.832	94.31
499.049	87.31
499.267	84.31
499.484	96.31
499.701	90.31
499.918	88.31
500.135	100.31
500.352	111.31
500.569	109.31
500.786	96.31
501.003	117.31
501.22	122.31
501.437	110.31
501.654	105.31
501.871	92.31
502.088	95.31
502.305	96.31
502.522	91.31
502.739	94.31
502.956	112.31
503.172	91.31
503.389	93.31
503.606	85.31
503.823	97.31
504.04	108.31
504.256	94.31
504.473	103.31
504.69	82.31
504.907	102.31
505.123	95.31
505.34	96.31
505.557	93.31
505.773	86.31
505.99	91.31
506.207	103.31
506.423	98.31
506.64	91.31
506.856	110.31
507.073	88.31
507.289	87.31
507.506	90.31
507.722	102.31
507.939	92.31
508.155	101.31
508.372	102.31
508.588	90.31
508.805	97.31
509.021	95.31
509.238	89.31
509.454	99.31
509.67	72.31
509.887	88.31
510.103	86.31
510.319	82.31
510.536	88.31
510.752	80.31
510.968	83.31
511.184	105.31
511.401	79.31
511.617	87.31
511.833	86.31
512.049	78.31
512.265	79.31
512.481	81.31
512.698	90.31
512.914	102.31
513.13	85.31
513.346	79.31
513.562	74.31
513.778	82.31
513.994	70.31
514.21	94.31
514.426	78.31
514.642	92.31
514.858	95.31
515.074	80.31
515.29	86.31
515.506	102.31
515.721	80.31
515.937	87.31
516.153	83.31
516.369	77.31
516.585	79.31
516.801	86.31
517.016	103.31
517.232	87.31
517.448	105.31
517.664	81.31
