Data from Location4.07152019.Energy5.Lamp.07192019.3%Agarose_HRD10591_15-25-28-579.txt Node
Date: Fri Jul 19 15:25:28 EDT 2019
User: cochatt
Spectrometer: HR+D1059
Trigger mode: 1
Integration Time (sec): 1.000000E-1
Scans to average: 1
Electric dark correction enabled: true
Nonlinearity correction enabled: false
Boxcar width: 0
XAxis mode: Wavelengths
Number of Pixels in Spectrum: 2048
>>>>>Begin Spectral Data<<<<<
223.165	-10.5
223.4	-10.5
223.635	-10.5
223.869	-11.5
224.104	-18.5
224.338	-8.5
224.573	-14.5
224.808	-16.5
225.042	-9.5
225.277	-7.5
225.511	-14.5
225.746	10.5
225.98	3.5
226.215	-5.5
226.449	10.5
226.683	21.5
226.918	35.5
227.152	35.5
227.387	23.5
227.621	25.5
227.856	36.5
228.09	36.5
228.324	53.5
228.559	49.5
228.793	50.5
229.027	57.5
229.262	61.5
229.496	64.5
229.73	68.5
229.964	73.5
230.199	58.5
230.433	74.5
230.667	72.5
230.901	75.5
231.136	68.5
231.37	83.5
231.604	79.5
231.838	86.5
232.072	88.5
232.306	67.5
232.541	79.5
232.775	87.5
233.009	81.5
233.243	78.5
233.477	73.5
233.711	69.5
233.945	95.5
234.179	68.5
234.413	85.5
234.647	74.5
234.881	74.5
235.115	93.5
235.349	86.5
235.583	78.5
235.817	67.5
236.051	85.5
236.285	82.5
236.519	77.5
236.753	79.5
236.987	64.5
237.221	81.5
237.455	78.5
237.689	73.5
237.922	81.5
238.156	66.5
238.39	71.5
238.624	78.5
238.858	91.5
239.091	73.5
239.325	72.5
239.559	75.5
239.793	69.5
240.027	75.5
240.26	72.5
240.494	83.5
240.728	80.5
240.961	78.5
241.195	69.5
241.429	74.5
241.662	70.5
241.896	82.5
242.13	82.5
242.363	77.5
242.597	75.5
242.83	80.5
243.064	79.5
243.298	95.5
243.531	77.5
243.765	75.5
243.998	69.5
244.232	78.5
244.465	72.5
244.699	70.5
244.932	81.5
245.166	81.5
245.399	81.5
245.633	83.5
245.866	81.5
246.099	79.5
246.333	86.5
246.566	66.5
246.8	82.5
247.033	83.5
247.266	65.5
247.5	87.5
247.733	78.5
247.966	74.5
248.2	98.5
248.433	81.5
248.666	67.5
248.899	72.5
249.133	74.5
249.366	85.5
249.599	83.5
249.832	100.5
250.066	82.5
250.299	87.5
250.532	87.5
250.765	82.5
250.998	65.5
251.231	75.5
251.465	88.5
251.698	63.5
251.931	81.5
252.164	86.5
252.397	81.5
252.63	79.5
252.863	84.5
253.096	84.5
253.329	73.5
253.562	66.5
253.795	87.5
254.028	93.5
254.261	74.5
254.494	87.5
254.727	71.5
254.96	89.5
255.193	83.5
255.426	86.5
255.659	73.5
255.892	79.5
256.124	88.5
256.357	90.5
256.59	89.5
256.823	86.5
257.056	74.5
257.289	92.5
257.521	79.5
257.754	68.5
257.987	63.5
258.22	73.5
258.452	75.5
258.685	83.5
258.918	87.5
259.151	83.5
259.383	87.5
259.616	84.5
259.849	80.5
260.081	75.5
260.314	64.5
260.547	84.5
260.779	77.5
261.012	81.5
261.244	80.5
261.477	79.5
261.71	85.5
261.942	69.5
262.175	85.5
262.407	86.5
262.64	76.5
262.872	87.5
263.105	74.5
263.337	69.5
263.57	75.5
263.802	72.5
264.035	78.5
264.267	79.5
264.499	82.5
264.732	83.5
264.964	99.5
265.197	61.5
265.429	81.5
265.661	62.5
265.894	80.5
266.126	91.5
266.358	75.5
266.591	75.5
266.823	87.5
267.055	82.5
267.287	94.5
267.52	82.5
267.752	79.5
267.984	81.5
268.216	70.5
268.448	89.5
268.681	88.5
268.913	87.5
269.145	84.5
269.377	92.5
269.609	81.5
269.841	73.5
270.073	87.5
270.306	93.5
270.538	85.5
270.77	81.5
271.002	85.5
271.234	71.5
271.466	81.5
271.698	65.5
271.93	68.5
272.162	82.5
272.394	85.5
272.626	89.5
272.858	80.5
273.09	78.5
273.322	73.5
273.553	84.5
273.785	84.5
274.017	67.5
274.249	86.5
274.481	81.5
274.713	75.5
274.945	81.5
275.176	76.5
275.408	73.5
275.64	83.5
275.872	97.5
276.104	79.5
276.335	92.5
276.567	94.5
276.799	74.5
277.031	69.5
277.262	70.5
277.494	83.5
277.726	81.5
277.957	77.5
278.189	89.5
278.421	74.5
278.652	80.5
278.884	79.5
279.115	90.5
279.347	92.5
279.579	84.5
279.81	66.5
280.042	88.5
280.273	64.5
280.505	91.5
280.736	84.5
280.968	74.5
281.199	73.5
281.431	90.5
281.662	83.5
281.894	85.5
282.125	82.5
282.356	86.5
282.588	78.5
282.819	78.5
283.051	65.5
283.282	82.5
283.513	79.5
283.745	64.5
283.976	89.5
284.207	81.5
284.439	95.5
284.67	69.5
284.901	84.5
285.132	70.5
285.364	92.5
285.595	80.5
285.826	84.5
286.057	83.5
286.288	86.5
286.52	82.5
286.751	82.5
286.982	85.5
287.213	81.5
287.444	82.5
287.675	78.5
287.906	95.5
288.138	92.5
288.369	79.5
288.6	78.5
288.831	97.5
289.062	84.5
289.293	79.5
289.524	81.5
289.755	78.5
289.986	90.5
290.217	82.5
290.448	90.5
290.679	81.5
290.91	84.5
291.141	79.5
291.371	85.5
291.602	76.5
291.833	98.5
292.064	89.5
292.295	75.5
292.526	86.5
292.757	82.5
292.987	68.5
293.218	93.5
293.449	87.5
293.68	79.5
293.91	73.5
294.141	69.5
294.372	80.5
294.603	78.5
294.833	83.5
295.064	64.5
295.295	87.5
295.525	85.5
295.756	76.5
295.987	89.5
296.217	83.5
296.448	87.5
296.679	84.5
296.909	90.5
297.14	79.5
297.37	82.5
297.601	78.5
297.831	81.5
298.062	75.5
298.292	86.5
298.523	75.5
298.753	73.5
298.984	80.5
299.214	95.5
299.445	101.5
299.675	72.5
299.905	82.5
300.136	85.5
300.366	83.5
300.597	93.5
300.827	101.5
301.057	70.5
301.288	86.5
301.518	75.5
301.748	96.5
301.979	94.5
302.209	87.5
302.439	87.5
302.669	86.5
302.9	88.5
303.13	81.5
303.36	99.5
303.59	80.5
303.82	91.5
304.051	81.5
304.281	71.5
304.511	93.5
304.741	87.5
304.971	70.5
305.201	73.5
305.431	91.5
305.661	89.5
305.891	75.5
306.121	81.5
306.352	76.5
306.582	76.5
306.812	100.5
307.042	81.5
307.272	72.5
307.502	93.5
307.731	82.5
307.961	84.5
308.191	82.5
308.421	79.5
308.651	88.5
308.881	97.5
309.111	74.5
309.341	77.5
309.571	83.5
309.8	80.5
310.03	82.5
310.26	72.5
310.49	90.5
310.72	89.5
310.949	86.5
311.179	88.5
311.409	76.5
311.639	82.5
311.868	80.5
312.098	81.5
312.328	81.5
312.557	77.5
312.787	88.5
313.017	83.5
313.246	93.5
313.476	81.5
313.706	98.5
313.935	80.5
314.165	102.5
314.394	77.5
314.624	85.5
314.853	73.5
315.083	90.5
315.312	80.5
315.542	75.5
315.771	86.5
316.001	78.5
316.23	90.5
316.46	75.5
316.689	95.5
316.919	73.5
317.148	90.5
317.377	73.5
317.607	89.5
317.836	92.5
318.065	86.5
318.295	83.5
318.524	90.5
318.753	88.5
318.983	100.5
319.212	87.5
319.441	85.5
319.67	78.5
319.9	87.5
320.129	98.5
320.358	80.5
320.587	80.5
320.816	89.5
321.046	77.5
321.275	71.5
321.504	74.5
321.733	72.5
321.962	89.5
322.191	96.5
322.42	98.5
322.649	89.5
322.878	90.5
323.108	76.5
323.337	83.5
323.566	73.5
323.795	89.5
324.024	82.5
324.253	82.5
324.482	73.5
324.71	87.5
324.939	87.5
325.168	85.5
325.397	84.5
325.626	77.5
325.855	78.5
326.084	84.5
326.313	85.5
326.542	85.5
326.77	73.5
326.999	76.5
327.228	85.5
327.457	82.5
327.686	81.5
327.914	72.5
328.143	72.5
328.372	95.5
328.6	81.5
328.829	70.5
329.058	88.5
329.287	80.5
329.515	80.5
329.744	78.5
329.972	81.5
330.201	82.5
330.43	80.5
330.658	81.5
330.887	84.5
331.115	80.5
331.344	72.5
331.572	76.5
331.801	94.5
332.03	92.5
332.258	87.5
332.486	81.5
332.715	77.5
332.943	78.5
333.172	87.5
333.4	87.5
333.629	92.5
333.857	87.5
334.085	81.5
334.314	102.5
334.542	93.5
334.771	90.5
334.999	89.5
335.227	85.5
335.455	79.5
335.684	67.5
335.912	80.5
336.14	94.5
336.369	86.5
336.597	82.5
336.825	86.5
337.053	90.5
337.281	86.5
337.51	79.5
337.738	86.5
337.966	80.5
338.194	78.5
338.422	80.5
338.65	87.5
338.878	96.5
339.106	67.5
339.334	72.5
339.562	86.5
339.79	94.5
340.018	86.5
340.246	88.5
340.474	87.5
340.702	72.5
340.93	83.5
341.158	86.5
341.386	89.5
341.614	91.5
341.842	95.5
342.07	88.5
342.298	71.5
342.526	86.5
342.754	77.5
342.981	72.5
343.209	98.5
343.437	81.5
343.665	96.5
343.893	69.5
344.12	94.5
344.348	81.5
344.576	87.5
344.804	75.5
345.031	85.5
345.259	80.5
345.487	91.5
345.714	91.5
345.942	86.5
346.17	86.5
346.397	92.5
346.625	77.5
346.853	84.5
347.08	81.5
347.308	84.5
347.535	85.5
347.763	93.5
347.99	93.5
348.218	74.5
348.445	90.5
348.673	86.5
348.9	72.5
349.128	90.5
349.355	84.5
349.583	81.5
349.81	80.5
350.037	90.5
350.265	89.5
350.492	76.5
350.72	76.5
350.947	87.5
351.174	84.5
351.402	79.5
351.629	81.5
351.856	81.5
352.083	93.5
352.311	73.5
352.538	79.5
352.765	82.5
352.992	82.5
353.22	78.5
353.447	87.5
353.674	83.5
353.901	72.5
354.128	90.5
354.355	76.5
354.583	86.5
354.81	97.5
355.037	79.5
355.264	62.5
355.491	81.5
355.718	81.5
355.945	95.5
356.172	85.5
356.399	67.5
356.626	73.5
356.853	72.5
357.08	98.5
357.307	87.5
357.534	74.5
357.761	92.5
357.988	83.5
358.215	85.5
358.441	78.5
358.668	80.5
358.895	76.5
359.122	90.5
359.349	80.5
359.576	79.5
359.802	78.5
360.029	78.5
360.256	71.5
360.483	85.5
360.709	89.5
360.936	93.5
361.163	94.5
361.39	73.5
361.616	88.5
361.843	76.5
362.07	76.5
362.296	70.5
362.523	75.5
362.749	78.5
362.976	86.5
363.203	86.5
363.429	80.5
363.656	102.5
363.882	87.5
364.109	67.5
364.335	77.5
364.562	86.5
364.788	80.5
365.015	74.5
365.241	83.5
365.468	84.5
365.694	97.5
365.92	87.5
366.147	82.5
366.373	98.5
366.599	84.5
366.826	75.5
367.052	79.5
367.278	87.5
367.505	89.5
367.731	91.5
367.957	86.5
368.184	89.5
368.41	87.5
368.636	82.5
368.862	88.5
369.089	75.5
369.315	89.5
369.541	87.5
369.767	91.5
369.993	76.5
370.219	80.5
370.445	91.5
370.672	89.5
370.898	88.5
371.124	80.5
371.35	85.5
371.576	92.5
371.802	78.5
372.028	71.5
372.254	95.5
372.48	91.5
372.706	84.5
372.932	91.5
373.158	81.5
373.384	77.5
373.61	79.5
373.835	79.5
374.061	99.5
374.287	79.5
374.513	80.5
374.739	83.5
374.965	86.5
375.191	86.5
375.416	87.5
375.642	95.5
375.868	96.5
376.094	87.5
376.319	87.5
376.545	80.5
376.771	90.5
376.997	84.5
377.222	79.5
377.448	90.5
377.674	101.5
377.899	94.5
378.125	75.5
378.35	113.5
378.576	65.5
378.802	90.5
379.027	85.5
379.253	104.5
379.478	92.5
379.704	79.5
379.929	84.5
380.155	97.5
380.38	91.5
380.606	83.5
380.831	86.5
381.057	86.5
381.282	78.5
381.507	84.5
381.733	78.5
381.958	95.5
382.184	90.5
382.409	78.5
382.634	75.5
382.86	85.5
383.085	86.5
383.31	84.5
383.535	79.5
383.761	84.5
383.986	91.5
384.211	89.5
384.436	86.5
384.662	88.5
384.887	93.5
385.112	75.5
385.337	83.5
385.562	86.5
385.787	84.5
386.013	87.5
386.238	87.5
386.463	81.5
386.688	94.5
386.913	83.5
387.138	87.5
387.363	88.5
387.588	85.5
387.813	89.5
388.038	86.5
388.263	86.5
388.488	87.5
388.713	72.5
388.938	81.5
389.163	81.5
389.387	87.5
389.612	98.5
389.837	88.5
390.062	84.5
390.287	90.5
390.512	81.5
390.736	87.5
390.961	73.5
391.186	93.5
391.411	86.5
391.636	83.5
391.86	90.5
392.085	83.5
392.31	94.5
392.534	89.5
392.759	91.5
392.984	83.5
393.208	89.5
393.433	82.5
393.658	98.5
393.882	69.5
394.107	77.5
394.331	92.5
394.556	81.5
394.78	74.5
395.005	95.5
395.229	67.5
395.454	98.5
395.678	84.5
395.903	70.5
396.127	86.5
396.352	96.5
396.576	82.5
396.801	90.5
397.025	81.5
397.249	89.5
397.474	79.5
397.698	89.5
397.922	103.5
398.147	84.5
398.371	77.5
398.595	92.5
398.82	95.5
399.044	80.5
399.268	79.5
399.492	93.5
399.717	90.5
399.941	84.5
400.165	84.5
400.389	83.5
400.613	83.5
400.837	76.5
401.062	90.5
401.286	86.5
401.51	98.5
401.734	68.5
401.958	82.5
402.182	91.5
402.406	90.5
402.63	97.5
402.854	86.5
403.078	101.5
403.302	82.5
403.526	94.5
403.75	78.5
403.974	83.5
404.198	95.5
404.422	77.5
404.645	80.5
404.869	82.5
405.093	94.5
405.317	102.5
405.541	95.5
405.765	74.5
405.988	94.5
406.212	89.5
406.436	83.5
406.66	94.5
406.883	97.5
407.107	75.5
407.331	86.5
407.555	99.5
407.778	103.5
408.002	98.5
408.226	80.5
408.449	90.5
408.673	91.5
408.896	92.5
409.12	109.5
409.344	91.5
409.567	82.5
409.791	94.5
410.014	89.5
410.238	85.5
410.461	91.5
410.685	83.5
410.908	95.5
411.132	93.5
411.355	91.5
411.578	92.5
411.802	87.5
412.025	72.5
412.249	90.5
412.472	74.5
412.695	85.5
412.919	91.5
413.142	79.5
413.365	101.5
413.589	94.5
413.812	99.5
414.035	88.5
414.258	90.5
414.482	98.5
414.705	82.5
414.928	95.5
415.151	91.5
415.374	95.5
415.597	90.5
415.821	79.5
416.044	94.5
416.267	76.5
416.49	80.5
416.713	81.5
416.936	87.5
417.159	85.5
417.382	80.5
417.605	88.5
417.828	101.5
418.051	98.5
418.274	89.5
418.497	91.5
418.72	103.5
418.943	94.5
419.166	86.5
419.389	87.5
419.611	96.5
419.834	89.5
420.057	104.5
420.28	96.5
420.503	93.5
420.726	99.5
420.948	93.5
421.171	103.5
421.394	88.5
421.617	97.5
421.839	98.5
422.062	103.5
422.285	93.5
422.507	98.5
422.73	91.5
422.953	88.5
423.175	88.5
423.398	73.5
423.621	90.5
423.843	91.5
424.066	109.5
424.288	109.5
424.511	102.5
424.733	93.5
424.956	79.5
425.178	89.5
425.401	95.5
425.623	96.5
425.846	100.5
426.068	92.5
426.291	98.5
426.513	87.5
426.735	80.5
426.958	95.5
427.18	105.5
427.402	73.5
427.625	111.5
427.847	100.5
428.069	117.5
428.292	93.5
428.514	103.5
428.736	85.5
428.958	80.5
429.181	87.5
429.403	86.5
429.625	82.5
429.847	82.5
430.069	86.5
430.292	91.5
430.514	90.5
430.736	74.5
430.958	97.5
431.18	77.5
431.402	76.5
431.624	89.5
431.846	78.5
432.068	93.5
432.29	101.5
432.512	87.5
432.734	99.5
432.956	103.5
433.178	107.5
433.4	111.5
433.622	94.5
433.844	94.5
434.066	89.5
434.287	87.5
434.509	82.5
434.731	73.5
434.953	78.5
435.175	82.5
435.397	96.5
435.618	100.5
435.84	92.5
436.062	75.5
436.284	97.5
436.505	89.5
436.727	88.5
436.949	82.5
437.17	78.5
437.392	78.5
437.614	98.5
437.835	82.5
438.057	94.5
438.278	86.5
438.5	101.5
438.721	101.5
438.943	93.5
439.165	95.5
439.386	100.5
439.608	99.5
439.829	91.5
440.05	112.5
440.272	89.5
440.493	99.5
440.715	104.5
440.936	91.5
441.158	91.5
441.379	86.5
441.6	87.5
441.822	101.5
442.043	91.5
442.264	111.5
442.486	99.5
442.707	76.5
442.928	92.5
443.149	95.5
443.371	102.5
443.592	96.5
443.813	96.5
444.034	98.5
444.255	104.5
444.476	88.5
444.698	104.5
444.919	105.5
445.14	212.5
445.361	156.5
445.582	106.5
445.803	99.5
446.024	110.5
446.245	95.5
446.466	94.5
446.687	98.5
446.908	91.5
447.129	97.5
447.35	106.5
447.571	102.5
447.792	107.5
448.013	101.5
448.234	88.5
448.455	99.5
448.675	93.5
448.896	93.5
449.117	97.5
449.338	93.5
449.559	103.5
449.779	97.5
450	90.5
450.221	94.5
450.442	94.5
450.662	88.5
450.883	96.5
451.104	97.5
451.324	79.5
451.545	90.5
451.766	83.5
451.986	101.5
452.207	94.5
452.428	116.5
452.648	82.5
452.869	92.5
453.089	84.5
453.31	93.5
453.53	102.5
453.751	83.5
453.971	76.5
454.192	83.5
454.412	86.5
454.633	86.5
454.853	99.5
455.073	103.5
455.294	96.5
455.514	90.5
455.734	91.5
455.955	103.5
456.175	88.5
456.395	82.5
456.616	80.5
456.836	80.5
457.056	77.5
457.276	86.5
457.497	85.5
457.717	86.5
457.937	80.5
458.157	101.5
458.377	86.5
458.598	87.5
458.818	91.5
459.038	95.5
459.258	92.5
459.478	78.5
459.698	74.5
459.918	78.5
460.138	94.5
460.358	75.5
460.578	88.5
460.798	95.5
461.018	87.5
461.238	93.5
461.458	98.5
461.678	98.5
461.898	89.5
462.118	92.5
462.338	86.5
462.558	104.5
462.777	90.5
462.997	89.5
463.217	82.5
463.437	84.5
463.657	87.5
463.876	103.5
464.096	70.5
464.316	92.5
464.536	88.5
464.755	93.5
464.975	103.5
465.195	89.5
465.414	91.5
465.634	86.5
465.854	99.5
466.073	91.5
466.293	100.5
466.512	96.5
466.732	79.5
466.951	96.5
467.171	84.5
467.391	83.5
467.61	96.5
467.829	88.5
468.049	92.5
468.268	99.5
468.488	103.5
468.707	97.5
468.927	92.5
469.146	94.5
469.365	86.5
469.585	95.5
469.804	103.5
470.023	97.5
470.243	98.5
470.462	111.5
470.681	111.5
470.901	95.5
471.12	78.5
471.339	100.5
471.558	90.5
471.777	91.5
471.997	86.5
472.216	89.5
472.435	98.5
472.654	80.5
472.873	100.5
473.092	78.5
473.311	82.5
473.53	86.5
473.749	86.5
473.968	112.5
474.187	96.5
474.406	93.5
474.625	97.5
474.844	98.5
475.063	94.5
475.282	90.5
475.501	91.5
475.72	90.5
475.939	73.5
476.158	97.5
476.377	99.5
476.596	87.5
476.814	79.5
477.033	89.5
477.252	94.5
477.471	93.5
477.69	79.5
477.908	104.5
478.127	99.5
478.346	97.5
478.564	96.5
478.783	84.5
479.002	88.5
479.22	91.5
479.439	97.5
479.658	100.5
479.876	98.5
480.095	82.5
480.313	74.5
480.532	79.5
480.751	76.5
480.969	83.5
481.188	82.5
481.406	84.5
481.624	75.5
481.843	72.5
482.061	96.5
482.28	81.5
482.498	102.5
482.717	73.5
482.935	92.5
483.153	89.5
483.372	99.5
483.59	107.5
483.808	121.5
484.027	94.5
484.245	84.5
484.463	98.5
484.681	122.5
484.9	91.5
485.118	113.5
485.336	80.5
485.554	81.5
485.772	83.5
485.99	90.5
486.209	101.5
486.427	84.5
486.645	99.5
486.863	78.5
487.081	101.5
487.299	99.5
487.517	102.5
487.735	106.5
487.953	112.5
488.171	113.5
488.389	110.5
488.607	97.5
488.825	103.5
489.043	88.5
489.261	92.5
489.479	93.5
489.696	97.5
489.914	100.5
490.132	96.5
490.35	102.5
490.568	102.5
490.786	94.5
491.003	101.5
491.221	109.5
491.439	113.5
491.657	109.5
491.874	112.5
492.092	129.5
492.31	116.5
492.527	111.5
492.745	119.5
492.963	113.5
493.18	105.5
493.398	115.5
493.615	121.5
493.833	106.5
494.05	120.5
494.268	111.5
494.485	113.5
494.703	113.5
494.92	123.5
495.138	101.5
495.355	121.5
495.573	99.5
495.79	106.5
496.008	108.5
496.225	106.5
496.442	111.5
496.66	109.5
496.877	103.5
497.094	94.5
497.312	87.5
497.529	91.5
497.746	92.5
497.963	111.5
498.181	96.5
498.398	94.5
498.615	87.5
498.832	83.5
499.049	93.5
499.267	85.5
499.484	83.5
499.701	89.5
499.918	86.5
500.135	96.5
500.352	85.5
500.569	93.5
500.786	86.5
501.003	95.5
501.22	103.5
501.437	103.5
501.654	86.5
501.871	85.5
502.088	82.5
502.305	97.5
502.522	103.5
502.739	81.5
502.956	89.5
503.172	93.5
503.389	97.5
503.606	75.5
503.823	88.5
504.04	86.5
504.256	93.5
504.473	82.5
504.69	81.5
504.907	95.5
505.123	96.5
505.34	96.5
505.557	97.5
505.773	94.5
505.99	89.5
506.207	100.5
506.423	93.5
506.64	94.5
506.856	93.5
507.073	80.5
507.289	99.5
507.506	85.5
507.722	96.5
507.939	80.5
508.155	94.5
508.372	94.5
508.588	84.5
508.805	86.5
509.021	85.5
509.238	84.5
509.454	96.5
509.67	82.5
509.887	80.5
510.103	88.5
510.319	96.5
510.536	73.5
510.752	75.5
510.968	83.5
511.184	100.5
511.401	87.5
511.617	94.5
511.833	84.5
512.049	74.5
512.265	88.5
512.481	86.5
512.698	95.5
512.914	83.5
513.13	92.5
513.346	97.5
513.562	85.5
513.778	81.5
513.994	96.5
514.21	78.5
514.426	90.5
514.642	89.5
514.858	83.5
515.074	82.5
515.29	85.5
515.506	83.5
515.721	86.5
515.937	87.5
516.153	86.5
516.369	91.5
516.585	95.5
516.801	81.5
517.016	83.5
517.232	80.5
517.448	89.5
517.664	86.5
517.879	82.5
518.095	85.5
518.311	94.5
518.527	93.5
518.742	82.5
518.958	89.5
519.173	78.5
519.389	80.5
519.605	93.5
519.82	86.5
520.036	85.5
520.251	88.5
520.467	84.5
520.682	72.5
520.898	89.5
521.113	85.5
521.329	96.5
521.544	102.5
521.76	91.5
521.975	93.5
522.19	91.5
522.406	84.5
522.621	89.5
522.836	81.5
523.052	101.5
523.267	87.5
523.482	85.5
523.698	82.5
523.913	93.5
524.128	72.5
524.343	101.5
524.559	84.5
524.774	105.5
524.989	99.5
525.204	86.5
525.419	90.5
525.634	86.5
525.849	82.5
526.064	91.5
526.28	91.5
526.495	77.5
526.71	82.5
526.925	84.5
527.14	67.5
527.355	84.5
527.57	92.5
527.785	78.5
527.999	84.5
528.214	82.5
528.429	81.5
528.644	112.5
528.859	87.5
529.074	104.5
529.289	106.5
529.503	113.5
529.718	84.5
529.933	92.5
530.148	87.5
530.363	86.5
530.577	86.5
530.792	72.5
531.007	87.5
531.221	81.5
531.436	83.5
531.651	69.5
531.865	86.5
532.08	78.5
532.295	87.5
532.509	84.5
532.724	83.5
532.938	86.5
533.153	81.5
533.367	88.5
533.582	98.5
533.796	102.5
534.011	94.5
534.225	88.5
534.44	82.5
534.654	86.5
534.868	100.5
535.083	98.5
535.297	88.5
535.511	86.5
535.726	96.5
535.94	85.5
536.154	77.5
536.369	84.5
536.583	86.5
536.797	75.5
537.011	81.5
537.225	82.5
537.44	84.5
537.654	79.5
537.868	87.5
