Data from Location4.07152019.Energy5.Lamp.07192019.3%Agarose_HRD10591_15-23-17-576.txt Node
Date: Fri Jul 19 15:23:17 EDT 2019
User: cochatt
Spectrometer: HR+D1059
Trigger mode: 1
Integration Time (sec): 1.000000E-1
Scans to average: 1
Electric dark correction enabled: true
Nonlinearity correction enabled: false
Boxcar width: 0
XAxis mode: Wavelengths
Number of Pixels in Spectrum: 2048
>>>>>Begin Spectral Data<<<<<
223.165	-14.62
223.4	-14.62
223.635	-14.62
223.869	-9.62
224.104	-23.62
224.338	-18.62
224.573	-3.62
224.808	-15.62
225.042	-10.62
225.277	-10.62
225.511	13.38
225.746	-3.62
225.98	-7.62
226.215	-4.62
226.449	15.38
226.683	21.38
226.918	37.38
227.152	35.38
227.387	41.38
227.621	55.38
227.856	47.38
228.09	39.38
228.324	62.38
228.559	54.38
228.793	66.38
229.027	59.38
229.262	66.38
229.496	72.38
229.73	81.38
229.964	82.38
230.199	80.38
230.433	86.38
230.667	77.38
230.901	89.38
231.136	83.38
231.37	78.38
231.604	72.38
231.838	82.38
232.072	88.38
232.306	73.38
232.541	73.38
232.775	80.38
233.009	75.38
233.243	79.38
233.477	95.38
233.711	72.38
233.945	86.38
234.179	89.38
234.413	80.38
234.647	71.38
234.881	83.38
235.115	86.38
235.349	91.38
235.583	105.38
235.817	73.38
236.051	81.38
236.285	88.38
236.519	82.38
236.753	76.38
236.987	80.38
237.221	74.38
237.455	79.38
237.689	76.38
237.922	76.38
238.156	76.38
238.39	80.38
238.624	84.38
238.858	59.38
239.091	81.38
239.325	82.38
239.559	80.38
239.793	91.38
240.027	73.38
240.26	65.38
240.494	74.38
240.728	74.38
240.961	74.38
241.195	93.38
241.429	83.38
241.662	79.38
241.896	67.38
242.13	82.38
242.363	91.38
242.597	81.38
242.83	74.38
243.064	73.38
243.298	90.38
243.531	76.38
243.765	86.38
243.998	87.38
244.232	85.38
244.465	63.38
244.699	76.38
244.932	75.38
245.166	83.38
245.399	71.38
245.633	74.38
245.866	77.38
246.099	68.38
246.333	82.38
246.566	69.38
246.8	84.38
247.033	72.38
247.266	70.38
247.5	81.38
247.733	82.38
247.966	89.38
248.2	84.38
248.433	80.38
248.666	78.38
248.899	69.38
249.133	84.38
249.366	78.38
249.599	76.38
249.832	85.38
250.066	85.38
250.299	81.38
250.532	81.38
250.765	80.38
250.998	84.38
251.231	73.38
251.465	74.38
251.698	89.38
251.931	75.38
252.164	83.38
252.397	74.38
252.63	89.38
252.863	87.38
253.096	73.38
253.329	75.38
253.562	83.38
253.795	82.38
254.028	99.38
254.261	71.38
254.494	65.38
254.727	72.38
254.96	77.38
255.193	82.38
255.426	88.38
255.659	82.38
255.892	85.38
256.124	82.38
256.357	76.38
256.59	71.38
256.823	73.38
257.056	59.38
257.289	95.38
257.521	80.38
257.754	77.38
257.987	67.38
258.22	77.38
258.452	76.38
258.685	78.38
258.918	87.38
259.151	78.38
259.383	78.38
259.616	74.38
259.849	82.38
260.081	91.38
260.314	80.38
260.547	77.38
260.779	77.38
261.012	79.38
261.244	89.38
261.477	84.38
261.71	72.38
261.942	87.38
262.175	87.38
262.407	87.38
262.64	90.38
262.872	93.38
263.105	85.38
263.337	87.38
263.57	74.38
263.802	67.38
264.035	85.38
264.267	96.38
264.499	85.38
264.732	93.38
264.964	78.38
265.197	77.38
265.429	90.38
265.661	76.38
265.894	79.38
266.126	84.38
266.358	100.38
266.591	80.38
266.823	79.38
267.055	84.38
267.287	93.38
267.52	72.38
267.752	83.38
267.984	84.38
268.216	88.38
268.448	86.38
268.681	76.38
268.913	78.38
269.145	85.38
269.377	102.38
269.609	79.38
269.841	101.38
270.073	98.38
270.306	74.38
270.538	85.38
270.77	85.38
271.002	79.38
271.234	78.38
271.466	86.38
271.698	74.38
271.93	81.38
272.162	93.38
272.394	111.38
272.626	85.38
272.858	90.38
273.09	70.38
273.322	88.38
273.553	79.38
273.785	77.38
274.017	91.38
274.249	95.38
274.481	88.38
274.713	91.38
274.945	84.38
275.176	79.38
275.408	82.38
275.64	79.38
275.872	85.38
276.104	81.38
276.335	100.38
276.567	69.38
276.799	86.38
277.031	86.38
277.262	93.38
277.494	81.38
277.726	85.38
277.957	89.38
278.189	88.38
278.421	89.38
278.652	100.38
278.884	93.38
279.115	83.38
279.347	92.38
279.579	95.38
279.81	80.38
280.042	87.38
280.273	68.38
280.505	91.38
280.736	70.38
280.968	70.38
281.199	89.38
281.431	98.38
281.662	74.38
281.894	93.38
282.125	94.38
282.356	65.38
282.588	91.38
282.819	75.38
283.051	81.38
283.282	87.38
283.513	84.38
283.745	79.38
283.976	90.38
284.207	88.38
284.439	98.38
284.67	74.38
284.901	93.38
285.132	93.38
285.364	87.38
285.595	75.38
285.826	86.38
286.057	80.38
286.288	81.38
286.52	83.38
286.751	91.38
286.982	90.38
287.213	80.38
287.444	92.38
287.675	75.38
287.906	80.38
288.138	101.38
288.369	96.38
288.6	82.38
288.831	86.38
289.062	64.38
289.293	79.38
289.524	75.38
289.755	81.38
289.986	82.38
290.217	88.38
290.448	84.38
290.679	89.38
290.91	81.38
291.141	88.38
291.371	94.38
291.602	86.38
291.833	82.38
292.064	87.38
292.295	91.38
292.526	78.38
292.757	78.38
292.987	89.38
293.218	97.38
293.449	88.38
293.68	79.38
293.91	84.38
294.141	81.38
294.372	70.38
294.603	90.38
294.833	85.38
295.064	84.38
295.295	75.38
295.525	91.38
295.756	81.38
295.987	82.38
296.217	87.38
296.448	92.38
296.679	87.38
296.909	83.38
297.14	84.38
297.37	100.38
297.601	73.38
297.831	86.38
298.062	73.38
298.292	76.38
298.523	88.38
298.753	95.38
298.984	81.38
299.214	88.38
299.445	81.38
299.675	88.38
299.905	92.38
300.136	90.38
300.366	87.38
300.597	93.38
300.827	88.38
301.057	88.38
301.288	72.38
301.518	77.38
301.748	83.38
301.979	84.38
302.209	80.38
302.439	88.38
302.669	90.38
302.9	98.38
303.13	95.38
303.36	80.38
303.59	74.38
303.82	87.38
304.051	94.38
304.281	103.38
304.511	76.38
304.741	98.38
304.971	80.38
305.201	87.38
305.431	97.38
305.661	83.38
305.891	81.38
306.121	76.38
306.352	100.38
306.582	86.38
306.812	80.38
307.042	83.38
307.272	79.38
307.502	67.38
307.731	81.38
307.961	85.38
308.191	101.38
308.421	91.38
308.651	97.38
308.881	79.38
309.111	84.38
309.341	83.38
309.571	91.38
309.8	80.38
310.03	83.38
310.26	72.38
310.49	90.38
310.72	86.38
310.949	88.38
311.179	93.38
311.409	77.38
311.639	86.38
311.868	88.38
312.098	95.38
312.328	88.38
312.557	74.38
312.787	84.38
313.017	82.38
313.246	87.38
313.476	98.38
313.706	92.38
313.935	75.38
314.165	76.38
314.394	79.38
314.624	85.38
314.853	86.38
315.083	103.38
315.312	83.38
315.542	93.38
315.771	70.38
316.001	83.38
316.23	97.38
316.46	79.38
316.689	87.38
316.919	76.38
317.148	99.38
317.377	93.38
317.607	83.38
317.836	86.38
318.065	85.38
318.295	89.38
318.524	84.38
318.753	83.38
318.983	90.38
319.212	87.38
319.441	71.38
319.67	89.38
319.9	80.38
320.129	92.38
320.358	73.38
320.587	73.38
320.816	87.38
321.046	88.38
321.275	88.38
321.504	91.38
321.733	81.38
321.962	95.38
322.191	83.38
322.42	93.38
322.649	95.38
322.878	83.38
323.108	95.38
323.337	87.38
323.566	95.38
323.795	92.38
324.024	89.38
324.253	75.38
324.482	88.38
324.71	99.38
324.939	89.38
325.168	71.38
325.397	96.38
325.626	85.38
325.855	80.38
326.084	83.38
326.313	77.38
326.542	85.38
326.77	92.38
326.999	92.38
327.228	79.38
327.457	79.38
327.686	77.38
327.914	79.38
328.143	77.38
328.372	85.38
328.6	89.38
328.829	81.38
329.058	95.38
329.287	83.38
329.515	88.38
329.744	88.38
329.972	86.38
330.201	82.38
330.43	86.38
330.658	86.38
330.887	90.38
331.115	91.38
331.344	97.38
331.572	85.38
331.801	86.38
332.03	100.38
332.258	82.38
332.486	77.38
332.715	99.38
332.943	88.38
333.172	81.38
333.4	86.38
333.629	86.38
333.857	79.38
334.085	86.38
334.314	92.38
334.542	92.38
334.771	92.38
334.999	89.38
335.227	71.38
335.455	86.38
335.684	93.38
335.912	88.38
336.14	69.38
336.369	91.38
336.597	87.38
336.825	80.38
337.053	81.38
337.281	88.38
337.51	82.38
337.738	90.38
337.966	91.38
338.194	89.38
338.422	80.38
338.65	80.38
338.878	90.38
339.106	94.38
339.334	82.38
339.562	97.38
339.79	83.38
340.018	71.38
340.246	84.38
340.474	86.38
340.702	95.38
340.93	81.38
341.158	88.38
341.386	77.38
341.614	73.38
341.842	87.38
342.07	81.38
342.298	91.38
342.526	91.38
342.754	89.38
342.981	88.38
343.209	80.38
343.437	86.38
343.665	85.38
343.893	77.38
344.12	82.38
344.348	81.38
344.576	88.38
344.804	90.38
345.031	81.38
345.259	83.38
345.487	81.38
345.714	85.38
345.942	81.38
346.17	81.38
346.397	83.38
346.625	78.38
346.853	85.38
347.08	81.38
347.308	82.38
347.535	85.38
347.763	88.38
347.99	92.38
348.218	81.38
348.445	80.38
348.673	91.38
348.9	84.38
349.128	88.38
349.355	92.38
349.583	95.38
349.81	81.38
350.037	88.38
350.265	86.38
350.492	82.38
350.72	88.38
350.947	59.38
351.174	97.38
351.402	83.38
351.629	85.38
351.856	93.38
352.083	96.38
352.311	82.38
352.538	92.38
352.765	83.38
352.992	76.38
353.22	76.38
353.447	82.38
353.674	77.38
353.901	87.38
354.128	90.38
354.355	84.38
354.583	74.38
354.81	80.38
355.037	78.38
355.264	81.38
355.491	75.38
355.718	81.38
355.945	90.38
356.172	101.38
356.399	99.38
356.626	77.38
356.853	76.38
357.08	81.38
357.307	81.38
357.534	91.38
357.761	83.38
357.988	86.38
358.215	77.38
358.441	89.38
358.668	100.38
358.895	86.38
359.122	81.38
359.349	78.38
359.576	86.38
359.802	91.38
360.029	96.38
360.256	89.38
360.483	80.38
360.709	100.38
360.936	85.38
361.163	78.38
361.39	91.38
361.616	104.38
361.843	86.38
362.07	95.38
362.296	90.38
362.523	63.38
362.749	67.38
362.976	78.38
363.203	77.38
363.429	81.38
363.656	88.38
363.882	82.38
364.109	91.38
364.335	96.38
364.562	77.38
364.788	79.38
365.015	81.38
365.241	77.38
365.468	83.38
365.694	84.38
365.92	89.38
366.147	88.38
366.373	75.38
366.599	105.38
366.826	78.38
367.052	95.38
367.278	88.38
367.505	110.38
367.731	86.38
367.957	85.38
368.184	77.38
368.41	70.38
368.636	84.38
368.862	104.38
369.089	76.38
369.315	93.38
369.541	92.38
369.767	93.38
369.993	91.38
370.219	98.38
370.445	88.38
370.672	92.38
370.898	92.38
371.124	86.38
371.35	79.38
371.576	96.38
371.802	83.38
372.028	93.38
372.254	82.38
372.48	71.38
372.706	84.38
372.932	88.38
373.158	80.38
373.384	91.38
373.61	92.38
373.835	91.38
374.061	84.38
374.287	89.38
374.513	101.38
374.739	83.38
374.965	87.38
375.191	83.38
375.416	100.38
375.642	94.38
375.868	97.38
376.094	83.38
376.319	85.38
376.545	93.38
376.771	87.38
376.997	85.38
377.222	82.38
377.448	88.38
377.674	83.38
377.899	95.38
378.125	88.38
378.35	81.38
378.576	79.38
378.802	87.38
379.027	72.38
379.253	77.38
379.478	71.38
379.704	86.38
379.929	99.38
380.155	95.38
380.38	86.38
380.606	97.38
380.831	85.38
381.057	92.38
381.282	79.38
381.507	93.38
381.733	99.38
381.958	96.38
382.184	94.38
382.409	85.38
382.634	89.38
382.86	95.38
383.085	87.38
383.31	83.38
383.535	90.38
383.761	92.38
383.986	88.38
384.211	94.38
384.436	77.38
384.662	80.38
384.887	67.38
385.112	83.38
385.337	84.38
385.562	93.38
385.787	76.38
386.013	90.38
386.238	73.38
386.463	92.38
386.688	78.38
386.913	76.38
387.138	84.38
387.363	95.38
387.588	98.38
387.813	100.38
388.038	97.38
388.263	91.38
388.488	95.38
388.713	80.38
388.938	86.38
389.163	84.38
389.387	92.38
389.612	95.38
389.837	79.38
390.062	73.38
390.287	81.38
390.512	85.38
390.736	96.38
390.961	89.38
391.186	90.38
391.411	87.38
391.636	78.38
391.86	83.38
392.085	85.38
392.31	103.38
392.534	93.38
392.759	91.38
392.984	92.38
393.208	101.38
393.433	89.38
393.658	98.38
393.882	91.38
394.107	97.38
394.331	72.38
394.556	84.38
394.78	89.38
395.005	71.38
395.229	80.38
395.454	81.38
395.678	87.38
395.903	95.38
396.127	95.38
396.352	80.38
396.576	94.38
396.801	89.38
397.025	89.38
397.249	101.38
397.474	88.38
397.698	77.38
397.922	91.38
398.147	92.38
398.371	97.38
398.595	84.38
398.82	91.38
399.044	85.38
399.268	90.38
399.492	92.38
399.717	87.38
399.941	88.38
400.165	77.38
400.389	87.38
400.613	89.38
400.837	104.38
401.062	91.38
401.286	84.38
401.51	69.38
401.734	86.38
401.958	81.38
402.182	88.38
402.406	99.38
402.63	72.38
402.854	87.38
403.078	103.38
403.302	89.38
403.526	94.38
403.75	92.38
403.974	77.38
404.198	86.38
404.422	78.38
404.645	77.38
404.869	108.38
405.093	89.38
405.317	78.38
405.541	87.38
405.765	74.38
405.988	90.38
406.212	81.38
406.436	76.38
406.66	97.38
406.883	109.38
407.107	87.38
407.331	85.38
407.555	102.38
407.778	86.38
408.002	93.38
408.226	97.38
408.449	87.38
408.673	88.38
408.896	95.38
409.12	92.38
409.344	99.38
409.567	97.38
409.791	101.38
410.014	92.38
410.238	81.38
410.461	97.38
410.685	90.38
410.908	86.38
411.132	89.38
411.355	89.38
411.578	75.38
411.802	89.38
412.025	88.38
412.249	99.38
412.472	87.38
412.695	98.38
412.919	86.38
413.142	96.38
413.365	95.38
413.589	88.38
413.812	97.38
414.035	108.38
414.258	89.38
414.482	108.38
414.705	89.38
414.928	94.38
415.151	97.38
415.374	103.38
415.597	98.38
415.821	81.38
416.044	86.38
416.267	100.38
416.49	96.38
416.713	106.38
416.936	91.38
417.159	92.38
417.382	81.38
417.605	77.38
417.828	85.38
418.051	108.38
418.274	91.38
418.497	96.38
418.72	90.38
418.943	104.38
419.166	104.38
419.389	99.38
419.611	90.38
419.834	92.38
420.057	97.38
420.28	101.38
420.503	87.38
420.726	83.38
420.948	108.38
421.171	92.38
421.394	95.38
421.617	109.38
421.839	101.38
422.062	106.38
422.285	85.38
422.507	90.38
422.73	98.38
422.953	101.38
423.175	104.38
423.398	86.38
423.621	99.38
423.843	82.38
424.066	95.38
424.288	99.38
424.511	104.38
424.733	101.38
424.956	90.38
425.178	86.38
425.401	95.38
425.623	75.38
425.846	80.38
426.068	87.38
426.291	92.38
426.513	98.38
426.735	101.38
426.958	98.38
427.18	87.38
427.402	95.38
427.625	91.38
427.847	77.38
428.069	95.38
428.292	80.38
428.514	97.38
428.736	100.38
428.958	90.38
429.181	98.38
429.403	89.38
429.625	87.38
429.847	94.38
430.069	87.38
430.292	89.38
430.514	87.38
430.736	91.38
430.958	83.38
431.18	94.38
431.402	85.38
431.624	79.38
431.846	84.38
432.068	79.38
432.29	86.38
432.512	96.38
432.734	105.38
432.956	97.38
433.178	97.38
433.4	92.38
433.622	94.38
433.844	89.38
434.066	81.38
434.287	97.38
434.509	90.38
434.731	68.38
434.953	93.38
435.175	95.38
435.397	106.38
435.618	99.38
435.84	92.38
436.062	82.38
436.284	89.38
436.505	89.38
436.727	84.38
436.949	84.38
437.17	96.38
437.392	96.38
437.614	96.38
437.835	92.38
438.057	92.38
438.278	89.38
438.5	87.38
438.721	93.38
438.943	97.38
439.165	96.38
439.386	116.38
439.608	97.38
439.829	105.38
440.05	104.38
440.272	91.38
440.493	105.38
440.715	96.38
440.936	89.38
441.158	101.38
441.379	81.38
441.6	98.38
441.822	98.38
442.043	117.38
442.264	93.38
442.486	103.38
442.707	100.38
442.928	105.38
443.149	103.38
443.371	96.38
443.592	101.38
443.813	96.38
444.034	95.38
444.255	111.38
444.476	91.38
444.698	95.38
444.919	103.38
445.14	223.38
445.361	153.38
445.582	96.38
445.803	93.38
446.024	102.38
446.245	94.38
446.466	104.38
446.687	101.38
446.908	98.38
447.129	113.38
447.35	95.38
447.571	96.38
447.792	99.38
448.013	87.38
448.234	86.38
448.455	86.38
448.675	87.38
448.896	95.38
449.117	104.38
449.338	100.38
449.559	99.38
449.779	103.38
450	83.38
450.221	98.38
450.442	113.38
450.662	98.38
450.883	93.38
451.104	98.38
451.324	97.38
451.545	103.38
451.766	97.38
451.986	85.38
452.207	89.38
452.428	87.38
452.648	88.38
452.869	96.38
453.089	93.38
453.31	87.38
453.53	93.38
453.751	86.38
453.971	93.38
454.192	90.38
454.412	97.38
454.633	88.38
454.853	109.38
455.073	87.38
455.294	92.38
455.514	89.38
455.734	92.38
455.955	85.38
456.175	83.38
456.395	95.38
456.616	81.38
456.836	77.38
457.056	99.38
457.276	87.38
457.497	86.38
457.717	79.38
457.937	76.38
458.157	93.38
458.377	83.38
458.598	93.38
458.818	80.38
459.038	84.38
459.258	83.38
459.478	86.38
459.698	96.38
459.918	96.38
460.138	85.38
460.358	102.38
460.578	83.38
460.798	91.38
461.018	95.38
461.238	88.38
461.458	87.38
461.678	91.38
461.898	87.38
462.118	101.38
462.338	96.38
462.558	89.38
462.777	86.38
462.997	87.38
463.217	85.38
463.437	82.38
463.657	90.38
463.876	82.38
464.096	89.38
464.316	93.38
464.536	85.38
464.755	85.38
464.975	89.38
465.195	88.38
465.414	100.38
465.634	93.38
465.854	78.38
466.073	91.38
466.293	105.38
466.512	94.38
466.732	98.38
466.951	91.38
467.171	83.38
467.391	89.38
467.61	76.38
467.829	87.38
468.049	112.38
468.268	108.38
468.488	96.38
468.707	98.38
468.927	95.38
469.146	94.38
469.365	103.38
469.585	103.38
469.804	90.38
470.023	95.38
470.243	98.38
470.462	109.38
470.681	97.38
470.901	94.38
471.12	115.38
471.339	97.38
471.558	92.38
471.777	93.38
471.997	101.38
472.216	92.38
472.435	98.38
472.654	93.38
472.873	95.38
473.092	93.38
473.311	92.38
473.53	102.38
473.749	94.38
473.968	95.38
474.187	95.38
474.406	87.38
474.625	112.38
474.844	98.38
475.063	82.38
475.282	85.38
475.501	103.38
475.72	94.38
475.939	91.38
476.158	91.38
476.377	94.38
476.596	85.38
476.814	79.38
477.033	98.38
477.252	87.38
477.471	99.38
477.69	81.38
477.908	101.38
478.127	98.38
478.346	96.38
478.564	98.38
478.783	94.38
479.002	88.38
479.22	99.38
479.439	97.38
479.658	92.38
479.876	81.38
480.095	97.38
480.313	85.38
480.532	80.38
480.751	98.38
480.969	84.38
481.188	90.38
481.406	81.38
481.624	94.38
481.843	84.38
482.061	95.38
482.28	91.38
482.498	105.38
482.717	83.38
482.935	99.38
483.153	100.38
483.372	82.38
483.59	101.38
483.808	101.38
484.027	87.38
484.245	98.38
484.463	107.38
484.681	95.38
484.9	106.38
485.118	98.38
485.336	86.38
485.554	86.38
485.772	100.38
485.99	95.38
486.209	92.38
486.427	87.38
486.645	90.38
486.863	78.38
487.081	95.38
487.299	106.38
487.517	107.38
487.735	103.38
487.953	130.38
488.171	123.38
488.389	99.38
488.607	114.38
488.825	107.38
489.043	88.38
489.261	96.38
489.479	95.38
489.696	105.38
489.914	109.38
490.132	118.38
490.35	99.38
490.568	109.38
490.786	123.38
491.003	113.38
491.221	109.38
491.439	104.38
491.657	116.38
491.874	100.38
492.092	138.38
492.31	124.38
492.527	122.38
492.745	114.38
492.963	102.38
493.18	115.38
493.398	105.38
493.615	119.38
493.833	120.38
494.05	105.38
494.268	106.38
494.485	107.38
494.703	117.38
494.92	116.38
495.138	107.38
495.355	86.38
495.573	111.38
495.79	108.38
496.008	107.38
496.225	99.38
496.442	112.38
496.66	100.38
496.877	118.38
497.094	118.38
497.312	108.38
497.529	108.38
497.746	113.38
497.963	105.38
498.181	80.38
498.398	104.38
498.615	111.38
498.832	75.38
499.049	81.38
499.267	95.38
499.484	93.38
499.701	104.38
499.918	98.38
500.135	96.38
500.352	96.38
500.569	90.38
500.786	102.38
501.003	91.38
501.22	96.38
501.437	108.38
501.654	94.38
501.871	80.38
502.088	98.38
502.305	107.38
502.522	97.38
502.739	104.38
502.956	100.38
503.172	97.38
503.389	89.38
503.606	100.38
503.823	92.38
504.04	91.38
504.256	88.38
504.473	88.38
504.69	95.38
504.907	88.38
505.123	107.38
505.34	99.38
505.557	98.38
505.773	89.38
505.99	99.38
506.207	104.38
506.423	100.38
506.64	95.38
506.856	82.38
507.073	83.38
507.289	93.38
507.506	90.38
507.722	89.38
507.939	87.38
508.155	78.38
508.372	89.38
508.588	88.38
508.805	89.38
509.021	111.38
509.238	94.38
509.454	91.38
509.67	83.38
509.887	88.38
510.103	83.38
510.319	100.38
510.536	105.38
510.752	95.38
510.968	96.38
511.184	82.38
511.401	92.38
511.617	78.38
511.833	92.38
512.049	84.38
512.265	92.38
512.481	99.38
512.698	90.38
512.914	91.38
513.13	112.38
513.346	83.38
513.562	83.38
513.778	85.38
513.994	83.38
514.21	82.38
514.426	90.38
514.642	65.38
514.858	77.38
515.074	89.38
515.29	90.38
515.506	88.38
515.721	86.38
515.937	89.38
516.153	90.38
516.369	85.38
516.585	95.38
516.801	77.38
517.016	88.38
517.232	76.38
