Data from Location4.07152019.Energy5.Lamp.07192019.3%Agarose_HRD10591_15-25-12-577.txt Node
Date: Fri Jul 19 15:25:12 EDT 2019
User: cochatt
Spectrometer: HR+D1059
Trigger mode: 1
Integration Time (sec): 1.000000E-1
Scans to average: 1
Electric dark correction enabled: true
Nonlinearity correction enabled: false
Boxcar width: 0
XAxis mode: Wavelengths
Number of Pixels in Spectrum: 2048
>>>>>Begin Spectral Data<<<<<
223.165	-24.69
223.4	-24.69
223.635	-24.69
223.869	-21.69
224.104	-25.69
224.338	-31.69
224.573	-9.69
224.808	-5.69
225.042	2.31
225.277	-5.69
225.511	-7.69
225.746	7.31
225.98	5.31
226.215	23.31
226.449	12.31
226.683	13.31
226.918	34.31
227.152	34.31
227.387	38.31
227.621	37.31
227.856	43.31
228.09	44.31
228.324	55.31
228.559	58.31
228.793	51.31
229.027	57.31
229.262	59.31
229.496	62.31
229.73	65.31
229.964	66.31
230.199	72.31
230.433	75.31
230.667	78.31
230.901	68.31
231.136	83.31
231.37	69.31
231.604	81.31
231.838	96.31
232.072	66.31
232.306	84.31
232.541	91.31
232.775	76.31
233.009	78.31
233.243	80.31
233.477	89.31
233.711	77.31
233.945	89.31
234.179	86.31
234.413	76.31
234.647	82.31
234.881	83.31
235.115	88.31
235.349	73.31
235.583	85.31
235.817	86.31
236.051	77.31
236.285	79.31
236.519	83.31
236.753	72.31
236.987	89.31
237.221	85.31
237.455	79.31
237.689	84.31
237.922	82.31
238.156	76.31
238.39	78.31
238.624	82.31
238.858	79.31
239.091	85.31
239.325	70.31
239.559	69.31
239.793	78.31
240.027	65.31
240.26	75.31
240.494	92.31
240.728	71.31
240.961	69.31
241.195	95.31
241.429	84.31
241.662	67.31
241.896	74.31
242.13	73.31
242.363	87.31
242.597	72.31
242.83	74.31
243.064	79.31
243.298	86.31
243.531	75.31
243.765	73.31
243.998	83.31
244.232	89.31
244.465	87.31
244.699	66.31
244.932	66.31
245.166	75.31
245.399	65.31
245.633	63.31
245.866	63.31
246.099	66.31
246.333	88.31
246.566	71.31
246.8	66.31
247.033	88.31
247.266	74.31
247.5	87.31
247.733	72.31
247.966	76.31
248.2	84.31
248.433	73.31
248.666	72.31
248.899	73.31
249.133	80.31
249.366	90.31
249.599	79.31
249.832	69.31
250.066	97.31
250.299	76.31
250.532	80.31
250.765	69.31
250.998	67.31
251.231	83.31
251.465	82.31
251.698	75.31
251.931	75.31
252.164	63.31
252.397	82.31
252.63	77.31
252.863	76.31
253.096	86.31
253.329	75.31
253.562	76.31
253.795	89.31
254.028	71.31
254.261	75.31
254.494	75.31
254.727	92.31
254.96	68.31
255.193	75.31
255.426	83.31
255.659	81.31
255.892	90.31
256.124	69.31
256.357	70.31
256.59	80.31
256.823	82.31
257.056	87.31
257.289	63.31
257.521	65.31
257.754	85.31
257.987	87.31
258.22	90.31
258.452	74.31
258.685	84.31
258.918	83.31
259.151	82.31
259.383	96.31
259.616	84.31
259.849	75.31
260.081	78.31
260.314	79.31
260.547	88.31
260.779	79.31
261.012	101.31
261.244	92.31
261.477	88.31
261.71	95.31
261.942	87.31
262.175	87.31
262.407	81.31
262.64	90.31
262.872	87.31
263.105	85.31
263.337	97.31
263.57	93.31
263.802	73.31
264.035	87.31
264.267	72.31
264.499	78.31
264.732	89.31
264.964	96.31
265.197	84.31
265.429	80.31
265.661	91.31
265.894	86.31
266.126	83.31
266.358	79.31
266.591	79.31
266.823	82.31
267.055	94.31
267.287	71.31
267.52	83.31
267.752	85.31
267.984	94.31
268.216	97.31
268.448	81.31
268.681	77.31
268.913	91.31
269.145	83.31
269.377	79.31
269.609	79.31
269.841	94.31
270.073	98.31
270.306	86.31
270.538	94.31
270.77	70.31
271.002	83.31
271.234	91.31
271.466	103.31
271.698	71.31
271.93	86.31
272.162	79.31
272.394	85.31
272.626	74.31
272.858	74.31
273.09	82.31
273.322	63.31
273.553	79.31
273.785	87.31
274.017	90.31
274.249	74.31
274.481	91.31
274.713	84.31
274.945	80.31
275.176	81.31
275.408	83.31
275.64	85.31
275.872	89.31
276.104	81.31
276.335	78.31
276.567	78.31
276.799	79.31
277.031	80.31
277.262	92.31
277.494	88.31
277.726	70.31
277.957	79.31
278.189	82.31
278.421	91.31
278.652	83.31
278.884	84.31
279.115	84.31
279.347	72.31
279.579	76.31
279.81	88.31
280.042	92.31
280.273	75.31
280.505	88.31
280.736	91.31
280.968	76.31
281.199	90.31
281.431	71.31
281.662	90.31
281.894	78.31
282.125	84.31
282.356	88.31
282.588	71.31
282.819	82.31
283.051	70.31
283.282	89.31
283.513	96.31
283.745	84.31
283.976	79.31
284.207	79.31
284.439	76.31
284.67	91.31
284.901	86.31
285.132	88.31
285.364	88.31
285.595	91.31
285.826	79.31
286.057	90.31
286.288	92.31
286.52	87.31
286.751	88.31
286.982	79.31
287.213	84.31
287.444	86.31
287.675	88.31
287.906	73.31
288.138	85.31
288.369	69.31
288.6	79.31
288.831	79.31
289.062	80.31
289.293	94.31
289.524	70.31
289.755	56.31
289.986	92.31
290.217	84.31
290.448	82.31
290.679	78.31
290.91	86.31
291.141	82.31
291.371	83.31
291.602	86.31
291.833	95.31
292.064	90.31
292.295	83.31
292.526	89.31
292.757	83.31
292.987	90.31
293.218	80.31
293.449	80.31
293.68	82.31
293.91	98.31
294.141	101.31
294.372	93.31
294.603	91.31
294.833	84.31
295.064	76.31
295.295	68.31
295.525	84.31
295.756	95.31
295.987	84.31
296.217	76.31
296.448	91.31
296.679	81.31
296.909	81.31
297.14	83.31
297.37	75.31
297.601	84.31
297.831	80.31
298.062	83.31
298.292	92.31
298.523	87.31
298.753	77.31
298.984	73.31
299.214	76.31
299.445	98.31
299.675	87.31
299.905	84.31
300.136	91.31
300.366	83.31
300.597	72.31
300.827	91.31
301.057	90.31
301.288	82.31
301.518	84.31
301.748	86.31
301.979	74.31
302.209	86.31
302.439	77.31
302.669	89.31
302.9	84.31
303.13	84.31
303.36	96.31
303.59	96.31
303.82	96.31
304.051	84.31
304.281	82.31
304.511	95.31
304.741	89.31
304.971	75.31
305.201	74.31
305.431	85.31
305.661	92.31
305.891	87.31
306.121	73.31
306.352	87.31
306.582	65.31
306.812	74.31
307.042	75.31
307.272	91.31
307.502	80.31
307.731	88.31
307.961	96.31
308.191	90.31
308.421	78.31
308.651	89.31
308.881	70.31
309.111	86.31
309.341	81.31
309.571	101.31
309.8	94.31
310.03	95.31
310.26	87.31
310.49	90.31
310.72	82.31
310.949	83.31
311.179	86.31
311.409	76.31
311.639	92.31
311.868	76.31
312.098	85.31
312.328	82.31
312.557	95.31
312.787	94.31
313.017	78.31
313.246	77.31
313.476	90.31
313.706	101.31
313.935	79.31
314.165	90.31
314.394	88.31
314.624	87.31
314.853	64.31
315.083	71.31
315.312	84.31
315.542	83.31
315.771	82.31
316.001	87.31
316.23	85.31
316.46	80.31
316.689	82.31
316.919	100.31
317.148	88.31
317.377	98.31
317.607	82.31
317.836	92.31
318.065	94.31
318.295	94.31
318.524	80.31
318.753	90.31
318.983	75.31
319.212	100.31
319.441	87.31
319.67	86.31
319.9	99.31
320.129	90.31
320.358	88.31
320.587	83.31
320.816	79.31
321.046	86.31
321.275	94.31
321.504	92.31
321.733	76.31
321.962	86.31
322.191	69.31
322.42	79.31
322.649	79.31
322.878	95.31
323.108	75.31
323.337	85.31
323.566	88.31
323.795	82.31
324.024	89.31
324.253	89.31
324.482	92.31
324.71	87.31
324.939	77.31
325.168	83.31
325.397	98.31
325.626	86.31
325.855	88.31
326.084	99.31
326.313	76.31
326.542	80.31
326.77	92.31
326.999	92.31
327.228	93.31
327.457	89.31
327.686	94.31
327.914	92.31
328.143	87.31
328.372	79.31
328.6	90.31
328.829	82.31
329.058	82.31
329.287	84.31
329.515	83.31
329.744	92.31
329.972	86.31
330.201	98.31
330.43	75.31
330.658	84.31
330.887	88.31
331.115	96.31
331.344	74.31
331.572	96.31
331.801	99.31
332.03	86.31
332.258	69.31
332.486	83.31
332.715	102.31
332.943	81.31
333.172	90.31
333.4	79.31
333.629	85.31
333.857	79.31
334.085	99.31
334.314	96.31
334.542	81.31
334.771	84.31
334.999	85.31
335.227	70.31
335.455	81.31
335.684	75.31
335.912	85.31
336.14	92.31
336.369	92.31
336.597	73.31
336.825	84.31
337.053	89.31
337.281	98.31
337.51	81.31
337.738	88.31
337.966	63.31
338.194	89.31
338.422	75.31
338.65	98.31
338.878	75.31
339.106	80.31
339.334	101.31
339.562	89.31
339.79	87.31
340.018	82.31
340.246	87.31
340.474	84.31
340.702	87.31
340.93	92.31
341.158	88.31
341.386	91.31
341.614	81.31
341.842	77.31
342.07	82.31
342.298	82.31
342.526	65.31
342.754	92.31
342.981	84.31
343.209	90.31
343.437	85.31
343.665	72.31
343.893	92.31
344.12	79.31
344.348	96.31
344.576	79.31
344.804	84.31
345.031	74.31
345.259	87.31
345.487	79.31
345.714	92.31
345.942	80.31
346.17	75.31
346.397	95.31
346.625	101.31
346.853	86.31
347.08	100.31
347.308	90.31
347.535	76.31
347.763	91.31
347.99	106.31
348.218	80.31
348.445	83.31
348.673	75.31
348.9	87.31
349.128	80.31
349.355	89.31
349.583	87.31
349.81	82.31
350.037	97.31
350.265	80.31
350.492	95.31
350.72	81.31
350.947	83.31
351.174	77.31
351.402	87.31
351.629	80.31
351.856	95.31
352.083	73.31
352.311	89.31
352.538	83.31
352.765	79.31
352.992	93.31
353.22	76.31
353.447	84.31
353.674	91.31
353.901	79.31
354.128	88.31
354.355	86.31
354.583	76.31
354.81	79.31
355.037	78.31
355.264	94.31
355.491	83.31
355.718	81.31
355.945	85.31
356.172	107.31
356.399	92.31
356.626	91.31
356.853	102.31
357.08	95.31
357.307	90.31
357.534	89.31
357.761	83.31
357.988	73.31
358.215	91.31
358.441	83.31
358.668	81.31
358.895	88.31
359.122	79.31
359.349	85.31
359.576	89.31
359.802	74.31
360.029	89.31
360.256	87.31
360.483	67.31
360.709	95.31
360.936	90.31
361.163	77.31
361.39	81.31
361.616	81.31
361.843	84.31
362.07	78.31
362.296	84.31
362.523	83.31
362.749	79.31
362.976	92.31
363.203	90.31
363.429	95.31
363.656	78.31
363.882	82.31
364.109	84.31
364.335	80.31
364.562	80.31
364.788	77.31
365.015	75.31
365.241	88.31
365.468	102.31
365.694	86.31
365.92	80.31
366.147	98.31
366.373	75.31
366.599	86.31
366.826	90.31
367.052	81.31
367.278	78.31
367.505	80.31
367.731	81.31
367.957	93.31
368.184	86.31
368.41	87.31
368.636	75.31
368.862	83.31
369.089	89.31
369.315	101.31
369.541	80.31
369.767	87.31
369.993	80.31
370.219	69.31
370.445	78.31
370.672	84.31
370.898	76.31
371.124	79.31
371.35	85.31
371.576	88.31
371.802	78.31
372.028	82.31
372.254	82.31
372.48	87.31
372.706	70.31
372.932	84.31
373.158	101.31
373.384	88.31
373.61	81.31
373.835	88.31
374.061	82.31
374.287	74.31
374.513	96.31
374.739	84.31
374.965	95.31
375.191	93.31
375.416	91.31
375.642	85.31
375.868	79.31
376.094	60.31
376.319	76.31
376.545	98.31
376.771	76.31
376.997	93.31
377.222	82.31
377.448	95.31
377.674	91.31
377.899	91.31
378.125	91.31
378.35	96.31
378.576	75.31
378.802	79.31
379.027	86.31
379.253	89.31
379.478	87.31
379.704	83.31
379.929	91.31
380.155	95.31
380.38	93.31
380.606	83.31
380.831	80.31
381.057	82.31
381.282	84.31
381.507	83.31
381.733	83.31
381.958	94.31
382.184	87.31
382.409	92.31
382.634	76.31
382.86	100.31
383.085	91.31
383.31	82.31
383.535	106.31
383.761	88.31
383.986	75.31
384.211	83.31
384.436	74.31
384.662	83.31
384.887	89.31
385.112	67.31
385.337	77.31
385.562	82.31
385.787	74.31
386.013	90.31
386.238	77.31
386.463	79.31
386.688	91.31
386.913	82.31
387.138	75.31
387.363	89.31
387.588	102.31
387.813	91.31
388.038	91.31
388.263	97.31
388.488	100.31
388.713	86.31
388.938	83.31
389.163	89.31
389.387	90.31
389.612	89.31
389.837	94.31
390.062	91.31
390.287	94.31
390.512	84.31
390.736	88.31
390.961	90.31
391.186	79.31
391.411	86.31
391.636	80.31
391.86	80.31
392.085	84.31
392.31	96.31
392.534	85.31
392.759	96.31
392.984	74.31
393.208	77.31
393.433	86.31
393.658	77.31
393.882	105.31
394.107	83.31
394.331	85.31
394.556	91.31
394.78	82.31
395.005	83.31
395.229	88.31
395.454	91.31
395.678	84.31
395.903	92.31
396.127	91.31
396.352	96.31
396.576	106.31
396.801	87.31
397.025	74.31
397.249	80.31
397.474	95.31
397.698	100.31
397.922	66.31
398.147	86.31
398.371	88.31
398.595	96.31
398.82	90.31
399.044	85.31
399.268	88.31
399.492	86.31
399.717	87.31
399.941	95.31
400.165	96.31
400.389	84.31
400.613	87.31
400.837	90.31
401.062	101.31
401.286	96.31
401.51	98.31
401.734	76.31
401.958	86.31
402.182	88.31
402.406	79.31
402.63	84.31
402.854	96.31
403.078	83.31
403.302	77.31
403.526	89.31
403.75	70.31
403.974	79.31
404.198	90.31
404.422	90.31
404.645	91.31
404.869	93.31
405.093	91.31
405.317	75.31
405.541	86.31
405.765	81.31
405.988	88.31
406.212	99.31
406.436	92.31
406.66	104.31
406.883	101.31
407.107	86.31
407.331	84.31
407.555	78.31
407.778	89.31
408.002	99.31
408.226	94.31
408.449	95.31
408.673	92.31
408.896	74.31
409.12	75.31
409.344	86.31
409.567	90.31
409.791	99.31
410.014	92.31
410.238	94.31
410.461	88.31
410.685	101.31
410.908	103.31
411.132	95.31
411.355	77.31
411.578	93.31
411.802	105.31
412.025	81.31
412.249	81.31
412.472	93.31
412.695	87.31
412.919	100.31
413.142	95.31
413.365	87.31
413.589	89.31
413.812	95.31
414.035	84.31
414.258	83.31
414.482	97.31
414.705	106.31
414.928	90.31
415.151	91.31
415.374	104.31
415.597	76.31
415.821	94.31
416.044	79.31
416.267	83.31
416.49	85.31
416.713	94.31
416.936	86.31
417.159	98.31
417.382	86.31
417.605	85.31
417.828	96.31
418.051	92.31
418.274	101.31
418.497	91.31
418.72	87.31
418.943	103.31
419.166	112.31
419.389	110.31
419.611	101.31
419.834	99.31
420.057	91.31
420.28	106.31
420.503	80.31
420.726	78.31
420.948	112.31
421.171	86.31
421.394	83.31
421.617	116.31
421.839	106.31
422.062	93.31
422.285	94.31
422.507	87.31
422.73	105.31
422.953	76.31
423.175	87.31
423.398	97.31
423.621	97.31
423.843	100.31
424.066	96.31
424.288	96.31
424.511	110.31
424.733	96.31
424.956	99.31
425.178	92.31
425.401	91.31
425.623	106.31
425.846	93.31
426.068	89.31
426.291	80.31
426.513	85.31
426.735	104.31
426.958	91.31
427.18	104.31
427.402	100.31
427.625	109.31
427.847	100.31
428.069	89.31
428.292	90.31
428.514	98.31
428.736	98.31
428.958	87.31
429.181	96.31
429.403	91.31
429.625	96.31
429.847	94.31
430.069	94.31
430.292	83.31
430.514	111.31
430.736	109.31
430.958	92.31
431.18	85.31
431.402	82.31
431.624	101.31
431.846	84.31
432.068	89.31
432.29	85.31
432.512	92.31
432.734	92.31
432.956	91.31
433.178	99.31
433.4	104.31
433.622	103.31
433.844	102.31
434.066	76.31
434.287	77.31
434.509	78.31
434.731	85.31
434.953	94.31
435.175	89.31
435.397	92.31
435.618	84.31
435.84	82.31
436.062	95.31
436.284	98.31
436.505	83.31
436.727	90.31
436.949	107.31
437.17	94.31
437.392	105.31
437.614	98.31
437.835	87.31
438.057	86.31
438.278	80.31
438.5	94.31
438.721	96.31
438.943	93.31
439.165	89.31
439.386	87.31
439.608	98.31
439.829	100.31
440.05	96.31
440.272	105.31
440.493	105.31
440.715	97.31
440.936	108.31
441.158	108.31
441.379	99.31
441.6	83.31
441.822	98.31
442.043	92.31
442.264	77.31
442.486	91.31
442.707	100.31
442.928	97.31
443.149	91.31
443.371	95.31
443.592	89.31
443.813	103.31
444.034	100.31
444.255	98.31
444.476	100.31
444.698	97.31
444.919	111.31
445.14	222.31
445.361	152.31
445.582	103.31
445.803	97.31
446.024	109.31
446.245	91.31
446.466	99.31
446.687	100.31
446.908	104.31
447.129	105.31
447.35	103.31
447.571	99.31
447.792	93.31
448.013	99.31
448.234	95.31
448.455	89.31
448.675	91.31
448.896	97.31
449.117	107.31
449.338	89.31
449.559	88.31
449.779	104.31
450	91.31
450.221	102.31
450.442	104.31
450.662	91.31
450.883	103.31
451.104	84.31
451.324	94.31
451.545	98.31
451.766	95.31
451.986	108.31
452.207	106.31
452.428	95.31
452.648	96.31
452.869	107.31
453.089	96.31
453.31	97.31
453.53	98.31
453.751	80.31
453.971	89.31
454.192	83.31
454.412	100.31
454.633	87.31
454.853	86.31
455.073	98.31
455.294	90.31
455.514	92.31
455.734	84.31
455.955	96.31
456.175	77.31
456.395	83.31
456.616	75.31
456.836	80.31
457.056	90.31
457.276	94.31
457.497	100.31
457.717	73.31
457.937	95.31
458.157	98.31
458.377	81.31
458.598	86.31
458.818	85.31
459.038	97.31
459.258	89.31
459.478	78.31
459.698	82.31
459.918	82.31
460.138	104.31
460.358	85.31
460.578	97.31
460.798	86.31
461.018	91.31
461.238	102.31
461.458	98.31
461.678	83.31
461.898	84.31
462.118	87.31
462.338	84.31
462.558	99.31
462.777	106.31
462.997	95.31
463.217	84.31
463.437	96.31
463.657	86.31
463.876	97.31
464.096	94.31
464.316	76.31
464.536	91.31
464.755	98.31
464.975	78.31
465.195	81.31
465.414	76.31
465.634	82.31
465.854	86.31
466.073	92.31
466.293	94.31
466.512	92.31
466.732	102.31
466.951	93.31
467.171	96.31
467.391	89.31
467.61	103.31
467.829	114.31
468.049	87.31
468.268	90.31
468.488	87.31
468.707	91.31
468.927	82.31
469.146	99.31
469.365	107.31
469.585	97.31
469.804	99.31
470.023	103.31
470.243	96.31
470.462	104.31
470.681	90.31
470.901	90.31
471.12	86.31
471.339	99.31
471.558	98.31
471.777	87.31
471.997	100.31
472.216	90.31
472.435	96.31
472.654	86.31
472.873	94.31
473.092	93.31
473.311	79.31
473.53	101.31
473.749	104.31
473.968	102.31
474.187	107.31
474.406	91.31
474.625	97.31
474.844	96.31
475.063	83.31
475.282	102.31
475.501	83.31
475.72	97.31
475.939	108.31
476.158	98.31
476.377	96.31
476.596	97.31
476.814	91.31
477.033	88.31
477.252	104.31
477.471	97.31
477.69	104.31
477.908	86.31
478.127	81.31
478.346	98.31
478.564	86.31
478.783	79.31
479.002	89.31
479.22	103.31
479.439	103.31
479.658	81.31
479.876	98.31
480.095	92.31
480.313	74.31
480.532	95.31
480.751	111.31
480.969	104.31
481.188	80.31
481.406	84.31
481.624	81.31
481.843	76.31
482.061	77.31
482.28	94.31
482.498	96.31
482.717	88.31
482.935	82.31
483.153	94.31
483.372	97.31
483.59	100.31
483.808	104.31
484.027	96.31
484.245	96.31
484.463	108.31
484.681	107.31
484.9	106.31
485.118	113.31
485.336	94.31
485.554	90.31
485.772	88.31
485.99	85.31
486.209	87.31
486.427	81.31
486.645	96.31
486.863	110.31
487.081	103.31
487.299	99.31
487.517	107.31
487.735	101.31
487.953	114.31
488.171	122.31
488.389	119.31
488.607	100.31
488.825	98.31
489.043	97.31
489.261	93.31
489.479	99.31
489.696	92.31
489.914	98.31
490.132	102.31
490.35	94.31
490.568	97.31
490.786	109.31
491.003	101.31
491.221	116.31
491.439	115.31
491.657	95.31
491.874	123.31
492.092	115.31
492.31	127.31
492.527	125.31
492.745	122.31
492.963	111.31
493.18	104.31
493.398	106.31
493.615	107.31
493.833	113.31
494.05	111.31
494.268	106.31
494.485	114.31
494.703	111.31
494.92	104.31
495.138	114.31
495.355	110.31
495.573	113.31
495.79	110.31
496.008	86.31
496.225	107.31
496.442	107.31
496.66	105.31
496.877	111.31
497.094	114.31
497.312	113.31
497.529	107.31
497.746	113.31
497.963	96.31
498.181	90.31
498.398	89.31
498.615	91.31
498.832	79.31
499.049	75.31
499.267	94.31
499.484	78.31
499.701	83.31
499.918	107.31
500.135	100.31
500.352	90.31
500.569	106.31
500.786	98.31
501.003	99.31
501.22	98.31
501.437	104.31
501.654	107.31
501.871	91.31
502.088	89.31
502.305	90.31
502.522	100.31
502.739	98.31
502.956	104.31
503.172	82.31
503.389	99.31
503.606	94.31
503.823	97.31
504.04	99.31
504.256	84.31
504.473	87.31
504.69	103.31
504.907	102.31
505.123	88.31
505.34	101.31
505.557	92.31
505.773	96.31
505.99	90.31
506.207	83.31
506.423	82.31
506.64	83.31
506.856	95.31
507.073	84.31
507.289	83.31
507.506	96.31
507.722	97.31
507.939	85.31
508.155	87.31
508.372	92.31
508.588	97.31
508.805	87.31
509.021	88.31
509.238	89.31
509.454	89.31
509.67	95.31
509.887	82.31
510.103	78.31
510.319	81.31
510.536	92.31
510.752	71.31
510.968	74.31
511.184	78.31
511.401	94.31
511.617	96.31
511.833	79.31
512.049	71.31
512.265	74.31
512.481	90.31
512.698	94.31
512.914	94.31
513.13	87.31
513.346	98.31
513.562	79.31
513.778	97.31
513.994	86.31
514.21	90.31
514.426	90.31
514.642	79.31
514.858	90.31
515.074	89.31
515.29	89.31
515.506	76.31
515.721	72.31
515.937	92.31
516.153	91.31
516.369	82.31
516.585	74.31
516.801	77.31
517.016	95.31
517.232	98.31
