Data from Location4.07152019.Energy5.Lamp.07192019.3%Agarose_HRD10591_15-23-42-577.txt Node
Date: Fri Jul 19 15:23:42 EDT 2019
User: cochatt
Spectrometer: HR+D1059
Trigger mode: 1
Integration Time (sec): 1.000000E-1
Scans to average: 1
Electric dark correction enabled: true
Nonlinearity correction enabled: false
Boxcar width: 0
XAxis mode: Wavelengths
Number of Pixels in Spectrum: 2048
>>>>>Begin Spectral Data<<<<<
223.165	-10.94
223.4	-10.94
223.635	-10.94
223.869	-11.94
224.104	-24.94
224.338	-13.94
224.573	-7.94
224.808	-7.94
225.042	-7.94
225.277	3.06
225.511	2.06
225.746	-7.94
225.98	4.06
226.215	15.06
226.449	15.06
226.683	10.06
226.918	21.06
227.152	23.06
227.387	20.06
227.621	37.06
227.856	37.06
228.09	42.06
228.324	47.06
228.559	65.06
228.793	57.06
229.027	67.06
229.262	65.06
229.496	59.06
229.73	69.06
229.964	63.06
230.199	78.06
230.433	81.06
230.667	83.06
230.901	79.06
231.136	80.06
231.37	90.06
231.604	75.06
231.838	69.06
232.072	78.06
232.306	81.06
232.541	81.06
232.775	93.06
233.009	81.06
233.243	92.06
233.477	81.06
233.711	84.06
233.945	87.06
234.179	95.06
234.413	76.06
234.647	88.06
234.881	75.06
235.115	96.06
235.349	70.06
235.583	81.06
235.817	79.06
236.051	77.06
236.285	68.06
236.519	81.06
236.753	91.06
236.987	85.06
237.221	95.06
237.455	78.06
237.689	87.06
237.922	82.06
238.156	64.06
238.39	74.06
238.624	83.06
238.858	70.06
239.091	72.06
239.325	72.06
239.559	90.06
239.793	83.06
240.027	70.06
240.26	81.06
240.494	84.06
240.728	86.06
240.961	69.06
241.195	72.06
241.429	80.06
241.662	65.06
241.896	87.06
242.13	83.06
242.363	89.06
242.597	85.06
242.83	76.06
243.064	85.06
243.298	78.06
243.531	80.06
243.765	77.06
243.998	75.06
244.232	82.06
244.465	80.06
244.699	73.06
244.932	82.06
245.166	82.06
245.399	72.06
245.633	85.06
245.866	81.06
246.099	77.06
246.333	90.06
246.566	80.06
246.8	76.06
247.033	73.06
247.266	69.06
247.5	83.06
247.733	81.06
247.966	73.06
248.2	72.06
248.433	90.06
248.666	85.06
248.899	88.06
249.133	89.06
249.366	105.06
249.599	85.06
249.832	82.06
250.066	79.06
250.299	80.06
250.532	88.06
250.765	80.06
250.998	80.06
251.231	77.06
251.465	69.06
251.698	85.06
251.931	80.06
252.164	72.06
252.397	69.06
252.63	82.06
252.863	81.06
253.096	81.06
253.329	76.06
253.562	52.06
253.795	79.06
254.028	80.06
254.261	77.06
254.494	105.06
254.727	76.06
254.96	84.06
255.193	66.06
255.426	75.06
255.659	76.06
255.892	86.06
256.124	85.06
256.357	74.06
256.59	89.06
256.823	77.06
257.056	77.06
257.289	80.06
257.521	86.06
257.754	84.06
257.987	89.06
258.22	88.06
258.452	79.06
258.685	91.06
258.918	74.06
259.151	84.06
259.383	90.06
259.616	75.06
259.849	89.06
260.081	77.06
260.314	82.06
260.547	85.06
260.779	85.06
261.012	70.06
261.244	66.06
261.477	80.06
261.71	75.06
261.942	67.06
262.175	85.06
262.407	95.06
262.64	79.06
262.872	80.06
263.105	71.06
263.337	75.06
263.57	84.06
263.802	82.06
264.035	86.06
264.267	83.06
264.499	83.06
264.732	98.06
264.964	75.06
265.197	80.06
265.429	84.06
265.661	93.06
265.894	79.06
266.126	81.06
266.358	91.06
266.591	81.06
266.823	81.06
267.055	82.06
267.287	71.06
267.52	79.06
267.752	76.06
267.984	80.06
268.216	70.06
268.448	78.06
268.681	80.06
268.913	94.06
269.145	83.06
269.377	81.06
269.609	85.06
269.841	73.06
270.073	82.06
270.306	91.06
270.538	99.06
270.77	85.06
271.002	75.06
271.234	91.06
271.466	80.06
271.698	91.06
271.93	87.06
272.162	82.06
272.394	79.06
272.626	76.06
272.858	76.06
273.09	82.06
273.322	85.06
273.553	77.06
273.785	93.06
274.017	95.06
274.249	86.06
274.481	84.06
274.713	86.06
274.945	94.06
275.176	90.06
275.408	85.06
275.64	77.06
275.872	68.06
276.104	78.06
276.335	77.06
276.567	81.06
276.799	75.06
277.031	85.06
277.262	83.06
277.494	77.06
277.726	76.06
277.957	82.06
278.189	75.06
278.421	75.06
278.652	89.06
278.884	81.06
279.115	81.06
279.347	82.06
279.579	72.06
279.81	85.06
280.042	89.06
280.273	81.06
280.505	80.06
280.736	85.06
280.968	80.06
281.199	81.06
281.431	99.06
281.662	92.06
281.894	83.06
282.125	81.06
282.356	90.06
282.588	89.06
282.819	85.06
283.051	83.06
283.282	71.06
283.513	81.06
283.745	80.06
283.976	82.06
284.207	77.06
284.439	71.06
284.67	83.06
284.901	93.06
285.132	95.06
285.364	88.06
285.595	70.06
285.826	75.06
286.057	87.06
286.288	94.06
286.52	86.06
286.751	88.06
286.982	81.06
287.213	97.06
287.444	76.06
287.675	79.06
287.906	92.06
288.138	76.06
288.369	87.06
288.6	91.06
288.831	92.06
289.062	87.06
289.293	86.06
289.524	95.06
289.755	90.06
289.986	92.06
290.217	79.06
290.448	76.06
290.679	87.06
290.91	90.06
291.141	83.06
291.371	85.06
291.602	81.06
291.833	81.06
292.064	88.06
292.295	91.06
292.526	83.06
292.757	84.06
292.987	82.06
293.218	84.06
293.449	79.06
293.68	82.06
293.91	58.06
294.141	84.06
294.372	84.06
294.603	104.06
294.833	81.06
295.064	78.06
295.295	96.06
295.525	75.06
295.756	88.06
295.987	76.06
296.217	68.06
296.448	85.06
296.679	86.06
296.909	92.06
297.14	95.06
297.37	88.06
297.601	83.06
297.831	89.06
298.062	88.06
298.292	71.06
298.523	80.06
298.753	82.06
298.984	95.06
299.214	81.06
299.445	91.06
299.675	84.06
299.905	96.06
300.136	81.06
300.366	91.06
300.597	89.06
300.827	79.06
301.057	97.06
301.288	69.06
301.518	70.06
301.748	88.06
301.979	76.06
302.209	80.06
302.439	80.06
302.669	90.06
302.9	77.06
303.13	76.06
303.36	91.06
303.59	81.06
303.82	72.06
304.051	88.06
304.281	84.06
304.511	76.06
304.741	83.06
304.971	80.06
305.201	83.06
305.431	84.06
305.661	85.06
305.891	80.06
306.121	83.06
306.352	84.06
306.582	92.06
306.812	74.06
307.042	88.06
307.272	93.06
307.502	87.06
307.731	87.06
307.961	79.06
308.191	85.06
308.421	86.06
308.651	89.06
308.881	93.06
309.111	98.06
309.341	90.06
309.571	96.06
309.8	74.06
310.03	92.06
310.26	84.06
310.49	82.06
310.72	79.06
310.949	82.06
311.179	89.06
311.409	75.06
311.639	80.06
311.868	85.06
312.098	84.06
312.328	77.06
312.557	76.06
312.787	77.06
313.017	83.06
313.246	82.06
313.476	91.06
313.706	80.06
313.935	96.06
314.165	88.06
314.394	92.06
314.624	83.06
314.853	81.06
315.083	77.06
315.312	87.06
315.542	84.06
315.771	90.06
316.001	81.06
316.23	91.06
316.46	87.06
316.689	81.06
316.919	74.06
317.148	71.06
317.377	93.06
317.607	82.06
317.836	87.06
318.065	100.06
318.295	85.06
318.524	86.06
318.753	83.06
318.983	84.06
319.212	87.06
319.441	96.06
319.67	79.06
319.9	68.06
320.129	91.06
320.358	97.06
320.587	86.06
320.816	86.06
321.046	88.06
321.275	75.06
321.504	97.06
321.733	89.06
321.962	101.06
322.191	87.06
322.42	101.06
322.649	88.06
322.878	89.06
323.108	76.06
323.337	86.06
323.566	81.06
323.795	83.06
324.024	83.06
324.253	97.06
324.482	69.06
324.71	80.06
324.939	79.06
325.168	81.06
325.397	83.06
325.626	98.06
325.855	85.06
326.084	93.06
326.313	86.06
326.542	84.06
326.77	70.06
326.999	85.06
327.228	83.06
327.457	81.06
327.686	87.06
327.914	91.06
328.143	85.06
328.372	85.06
328.6	97.06
328.829	88.06
329.058	94.06
329.287	81.06
329.515	95.06
329.744	88.06
329.972	88.06
330.201	90.06
330.43	91.06
330.658	92.06
330.887	82.06
331.115	84.06
331.344	82.06
331.572	103.06
331.801	95.06
332.03	92.06
332.258	71.06
332.486	76.06
332.715	82.06
332.943	96.06
333.172	90.06
333.4	69.06
333.629	90.06
333.857	92.06
334.085	90.06
334.314	73.06
334.542	69.06
334.771	88.06
334.999	77.06
335.227	80.06
335.455	83.06
335.684	91.06
335.912	89.06
336.14	92.06
336.369	91.06
336.597	79.06
336.825	81.06
337.053	71.06
337.281	92.06
337.51	71.06
337.738	97.06
337.966	100.06
338.194	70.06
338.422	78.06
338.65	71.06
338.878	92.06
339.106	75.06
339.334	81.06
339.562	77.06
339.79	75.06
340.018	77.06
340.246	92.06
340.474	91.06
340.702	96.06
340.93	89.06
341.158	64.06
341.386	87.06
341.614	83.06
341.842	79.06
342.07	87.06
342.298	82.06
342.526	67.06
342.754	89.06
342.981	75.06
343.209	77.06
343.437	82.06
343.665	87.06
343.893	81.06
344.12	102.06
344.348	92.06
344.576	86.06
344.804	92.06
345.031	92.06
345.259	83.06
345.487	95.06
345.714	83.06
345.942	87.06
346.17	97.06
346.397	92.06
346.625	90.06
346.853	94.06
347.08	83.06
347.308	84.06
347.535	78.06
347.763	88.06
347.99	88.06
348.218	101.06
348.445	91.06
348.673	83.06
348.9	81.06
349.128	95.06
349.355	85.06
349.583	81.06
349.81	85.06
350.037	79.06
350.265	73.06
350.492	79.06
350.72	76.06
350.947	76.06
351.174	89.06
351.402	84.06
351.629	93.06
351.856	94.06
352.083	88.06
352.311	82.06
352.538	87.06
352.765	85.06
352.992	75.06
353.22	86.06
353.447	97.06
353.674	74.06
353.901	78.06
354.128	90.06
354.355	82.06
354.583	92.06
354.81	83.06
355.037	96.06
355.264	82.06
355.491	84.06
355.718	81.06
355.945	89.06
356.172	76.06
356.399	89.06
356.626	93.06
356.853	79.06
357.08	84.06
357.307	83.06
357.534	85.06
357.761	107.06
357.988	89.06
358.215	92.06
358.441	81.06
358.668	90.06
358.895	92.06
359.122	85.06
359.349	83.06
359.576	78.06
359.802	90.06
360.029	80.06
360.256	79.06
360.483	92.06
360.709	81.06
360.936	84.06
361.163	85.06
361.39	82.06
361.616	87.06
361.843	80.06
362.07	78.06
362.296	80.06
362.523	87.06
362.749	82.06
362.976	83.06
363.203	83.06
363.429	92.06
363.656	80.06
363.882	86.06
364.109	81.06
364.335	72.06
364.562	92.06
364.788	76.06
365.015	95.06
365.241	81.06
365.468	90.06
365.694	75.06
365.92	81.06
366.147	77.06
366.373	85.06
366.599	90.06
366.826	84.06
367.052	85.06
367.278	99.06
367.505	81.06
367.731	87.06
367.957	90.06
368.184	89.06
368.41	92.06
368.636	82.06
368.862	85.06
369.089	96.06
369.315	69.06
369.541	81.06
369.767	89.06
369.993	92.06
370.219	81.06
370.445	85.06
370.672	76.06
370.898	81.06
371.124	83.06
371.35	84.06
371.576	83.06
371.802	94.06
372.028	86.06
372.254	67.06
372.48	81.06
372.706	84.06
372.932	81.06
373.158	91.06
373.384	78.06
373.61	96.06
373.835	88.06
374.061	75.06
374.287	79.06
374.513	82.06
374.739	78.06
374.965	81.06
375.191	92.06
375.416	77.06
375.642	97.06
375.868	100.06
376.094	86.06
376.319	80.06
376.545	84.06
376.771	73.06
376.997	91.06
377.222	86.06
377.448	83.06
377.674	84.06
377.899	74.06
378.125	78.06
378.35	93.06
378.576	81.06
378.802	81.06
379.027	80.06
379.253	80.06
379.478	72.06
379.704	83.06
379.929	83.06
380.155	78.06
380.38	83.06
380.606	92.06
380.831	91.06
381.057	90.06
381.282	78.06
381.507	83.06
381.733	83.06
381.958	89.06
382.184	93.06
382.409	90.06
382.634	97.06
382.86	91.06
383.085	83.06
383.31	95.06
383.535	79.06
383.761	72.06
383.986	79.06
384.211	83.06
384.436	88.06
384.662	100.06
384.887	84.06
385.112	86.06
385.337	85.06
385.562	96.06
385.787	99.06
386.013	91.06
386.238	93.06
386.463	88.06
386.688	85.06
386.913	77.06
387.138	81.06
387.363	91.06
387.588	91.06
387.813	86.06
388.038	98.06
388.263	84.06
388.488	74.06
388.713	79.06
388.938	89.06
389.163	86.06
389.387	83.06
389.612	100.06
389.837	93.06
390.062	96.06
390.287	82.06
390.512	77.06
390.736	89.06
390.961	88.06
391.186	95.06
391.411	78.06
391.636	96.06
391.86	89.06
392.085	90.06
392.31	77.06
392.534	83.06
392.759	97.06
392.984	92.06
393.208	85.06
393.433	85.06
393.658	87.06
393.882	77.06
394.107	80.06
394.331	88.06
394.556	87.06
394.78	100.06
395.005	91.06
395.229	92.06
395.454	95.06
395.678	86.06
395.903	79.06
396.127	85.06
396.352	93.06
396.576	84.06
396.801	74.06
397.025	93.06
397.249	99.06
397.474	101.06
397.698	99.06
397.922	81.06
398.147	84.06
398.371	86.06
398.595	81.06
398.82	80.06
399.044	92.06
399.268	84.06
399.492	79.06
399.717	77.06
399.941	89.06
400.165	91.06
400.389	88.06
400.613	82.06
400.837	93.06
401.062	97.06
401.286	88.06
401.51	79.06
401.734	79.06
401.958	96.06
402.182	92.06
402.406	100.06
402.63	83.06
402.854	90.06
403.078	81.06
403.302	79.06
403.526	77.06
403.75	83.06
403.974	85.06
404.198	92.06
404.422	82.06
404.645	98.06
404.869	92.06
405.093	88.06
405.317	96.06
405.541	92.06
405.765	87.06
405.988	71.06
406.212	97.06
406.436	86.06
406.66	97.06
406.883	104.06
407.107	96.06
407.331	87.06
407.555	103.06
407.778	87.06
408.002	90.06
408.226	80.06
408.449	91.06
408.673	87.06
408.896	88.06
409.12	97.06
409.344	75.06
409.567	106.06
409.791	88.06
410.014	87.06
410.238	83.06
410.461	94.06
410.685	87.06
410.908	89.06
411.132	86.06
411.355	84.06
411.578	97.06
411.802	101.06
412.025	94.06
412.249	75.06
412.472	83.06
412.695	85.06
412.919	95.06
413.142	84.06
413.365	101.06
413.589	97.06
413.812	91.06
414.035	81.06
414.258	86.06
414.482	87.06
414.705	83.06
414.928	89.06
415.151	84.06
415.374	104.06
415.597	91.06
415.821	83.06
416.044	82.06
416.267	94.06
416.49	91.06
416.713	95.06
416.936	104.06
417.159	105.06
417.382	90.06
417.605	102.06
417.828	105.06
418.051	97.06
418.274	101.06
418.497	87.06
418.72	89.06
418.943	99.06
419.166	96.06
419.389	90.06
419.611	86.06
419.834	76.06
420.057	93.06
420.28	92.06
420.503	87.06
420.726	98.06
420.948	91.06
421.171	97.06
421.394	84.06
421.617	113.06
421.839	89.06
422.062	91.06
422.285	96.06
422.507	97.06
422.73	80.06
422.953	83.06
423.175	101.06
423.398	83.06
423.621	87.06
423.843	97.06
424.066	91.06
424.288	93.06
424.511	92.06
424.733	104.06
424.956	101.06
425.178	103.06
425.401	92.06
425.623	112.06
425.846	88.06
426.068	81.06
426.291	104.06
426.513	92.06
426.735	104.06
426.958	99.06
427.18	97.06
427.402	109.06
427.625	84.06
427.847	91.06
428.069	100.06
428.292	101.06
428.514	108.06
428.736	103.06
428.958	104.06
429.181	80.06
429.403	92.06
429.625	100.06
429.847	83.06
430.069	95.06
430.292	90.06
430.514	93.06
430.736	103.06
430.958	105.06
431.18	105.06
431.402	93.06
431.624	82.06
431.846	90.06
432.068	90.06
432.29	91.06
432.512	90.06
432.734	89.06
432.956	90.06
433.178	91.06
433.4	94.06
433.622	85.06
433.844	110.06
434.066	95.06
434.287	95.06
434.509	84.06
434.731	81.06
434.953	87.06
435.175	84.06
435.397	83.06
435.618	93.06
435.84	88.06
436.062	91.06
436.284	96.06
436.505	76.06
436.727	90.06
436.949	103.06
437.17	96.06
437.392	85.06
437.614	93.06
437.835	103.06
438.057	94.06
438.278	87.06
438.5	104.06
438.721	88.06
438.943	93.06
439.165	99.06
439.386	91.06
439.608	113.06
439.829	90.06
440.05	95.06
440.272	111.06
440.493	91.06
440.715	99.06
440.936	98.06
441.158	107.06
441.379	91.06
441.6	100.06
441.822	103.06
442.043	100.06
442.264	95.06
442.486	93.06
442.707	116.06
442.928	95.06
443.149	99.06
443.371	97.06
443.592	96.06
443.813	105.06
444.034	113.06
444.255	97.06
444.476	81.06
444.698	103.06
444.919	100.06
445.14	169.06
445.361	132.06
445.582	81.06
445.803	91.06
446.024	85.06
446.245	112.06
446.466	104.06
446.687	89.06
446.908	85.06
447.129	87.06
447.35	103.06
447.571	95.06
447.792	106.06
448.013	96.06
448.234	98.06
448.455	95.06
448.675	92.06
448.896	101.06
449.117	99.06
449.338	97.06
449.559	107.06
449.779	98.06
450	92.06
450.221	94.06
450.442	97.06
450.662	107.06
450.883	104.06
451.104	95.06
451.324	101.06
451.545	107.06
451.766	77.06
451.986	87.06
452.207	88.06
452.428	86.06
452.648	76.06
452.869	87.06
453.089	101.06
453.31	84.06
453.53	79.06
453.751	76.06
453.971	83.06
454.192	97.06
454.412	92.06
454.633	91.06
454.853	91.06
455.073	88.06
455.294	102.06
455.514	85.06
455.734	99.06
455.955	89.06
456.175	95.06
456.395	87.06
456.616	80.06
456.836	96.06
457.056	86.06
457.276	89.06
457.497	91.06
457.717	89.06
457.937	89.06
458.157	93.06
458.377	93.06
458.598	96.06
458.818	85.06
459.038	76.06
459.258	89.06
459.478	82.06
459.698	74.06
459.918	82.06
460.138	95.06
460.358	100.06
460.578	105.06
460.798	86.06
461.018	85.06
461.238	94.06
461.458	97.06
461.678	82.06
461.898	78.06
462.118	76.06
462.338	86.06
462.558	95.06
462.777	88.06
462.997	103.06
463.217	82.06
463.437	96.06
463.657	86.06
463.876	83.06
464.096	96.06
464.316	80.06
464.536	91.06
464.755	97.06
464.975	93.06
465.195	76.06
465.414	82.06
465.634	89.06
465.854	97.06
466.073	96.06
466.293	91.06
466.512	89.06
466.732	99.06
466.951	97.06
467.171	101.06
467.391	101.06
467.61	86.06
467.829	80.06
468.049	88.06
468.268	103.06
468.488	92.06
468.707	100.06
468.927	108.06
469.146	98.06
469.365	104.06
469.585	89.06
469.804	106.06
470.023	94.06
470.243	84.06
470.462	103.06
470.681	100.06
470.901	106.06
471.12	105.06
471.339	100.06
471.558	93.06
471.777	93.06
471.997	96.06
472.216	98.06
472.435	95.06
472.654	87.06
472.873	87.06
473.092	91.06
473.311	98.06
473.53	87.06
473.749	90.06
473.968	88.06
474.187	99.06
474.406	100.06
474.625	96.06
474.844	85.06
475.063	86.06
475.282	97.06
475.501	109.06
475.72	100.06
475.939	92.06
476.158	91.06
476.377	99.06
476.596	67.06
476.814	87.06
477.033	90.06
477.252	104.06
477.471	96.06
477.69	102.06
477.908	99.06
478.127	104.06
478.346	101.06
478.564	95.06
478.783	92.06
479.002	100.06
479.22	97.06
479.439	92.06
479.658	99.06
479.876	95.06
480.095	92.06
480.313	87.06
480.532	107.06
480.751	83.06
480.969	75.06
481.188	89.06
481.406	85.06
481.624	84.06
481.843	103.06
482.061	97.06
482.28	105.06
482.498	82.06
482.717	88.06
482.935	90.06
483.153	109.06
483.372	114.06
483.59	99.06
483.808	94.06
484.027	101.06
484.245	92.06
484.463	99.06
484.681	105.06
484.9	86.06
485.118	102.06
485.336	98.06
485.554	84.06
485.772	70.06
485.99	95.06
486.209	93.06
486.427	88.06
486.645	98.06
486.863	96.06
487.081	91.06
487.299	97.06
487.517	111.06
487.735	106.06
487.953	119.06
488.171	109.06
488.389	116.06
488.607	97.06
488.825	107.06
489.043	98.06
489.261	101.06
489.479	108.06
489.696	105.06
489.914	99.06
490.132	108.06
490.35	95.06
490.568	102.06
490.786	103.06
491.003	105.06
491.221	107.06
491.439	108.06
491.657	134.06
491.874	129.06
492.092	129.06
492.31	133.06
492.527	137.06
492.745	109.06
492.963	94.06
493.18	103.06
493.398	100.06
493.615	103.06
493.833	119.06
494.05	102.06
494.268	115.06
494.485	115.06
494.703	109.06
494.92	112.06
495.138	102.06
495.355	97.06
495.573	88.06
495.79	103.06
496.008	105.06
496.225	89.06
496.442	108.06
496.66	101.06
496.877	106.06
497.094	121.06
497.312	99.06
497.529	100.06
497.746	98.06
497.963	107.06
498.181	103.06
498.398	94.06
498.615	94.06
498.832	88.06
499.049	94.06
499.267	93.06
499.484	99.06
499.701	82.06
499.918	95.06
500.135	99.06
500.352	113.06
500.569	88.06
500.786	93.06
501.003	102.06
501.22	95.06
501.437	96.06
501.654	98.06
501.871	90.06
502.088	79.06
502.305	105.06
502.522	90.06
502.739	99.06
502.956	100.06
503.172	111.06
503.389	89.06
503.606	102.06
503.823	85.06
504.04	107.06
504.256	89.06
504.473	98.06
504.69	90.06
504.907	94.06
505.123	97.06
505.34	100.06
505.557	94.06
505.773	93.06
505.99	86.06
506.207	83.06
506.423	96.06
506.64	76.06
506.856	100.06
507.073	96.06
507.289	105.06
507.506	81.06
507.722	95.06
507.939	105.06
508.155	87.06
508.372	81.06
508.588	103.06
508.805	103.06
509.021	92.06
509.238	93.06
509.454	96.06
509.67	86.06
509.887	100.06
510.103	96.06
510.319	83.06
510.536	82.06
510.752	80.06
510.968	90.06
511.184	89.06
511.401	100.06
511.617	82.06
511.833	84.06
512.049	81.06
512.265	76.06
512.481	94.06
512.698	91.06
512.914	83.06
513.13	91.06
513.346	88.06
513.562	93.06
513.778	86.06
513.994	109.06
514.21	83.06
514.426	83.06
514.642	73.06
514.858	97.06
515.074	98.06
515.29	83.06
515.506	94.06
515.721	94.06
515.937	86.06
516.153	76.06
516.369	89.06
516.585	86.06
516.801	95.06
517.016	87.06
517.232	77.06
