Data from Location4.07152019.Energy5.Lamp.07192019.3%Agarose_HRD10591_15-23-14-576.txt Node
Date: Fri Jul 19 15:23:14 EDT 2019
User: cochatt
Spectrometer: HR+D1059
Trigger mode: 1
Integration Time (sec): 1.000000E-1
Scans to average: 1
Electric dark correction enabled: true
Nonlinearity correction enabled: false
Boxcar width: 0
XAxis mode: Wavelengths
Number of Pixels in Spectrum: 2048
>>>>>Begin Spectral Data<<<<<
223.165	-11.62
223.4	-11.62
223.635	-11.62
223.869	-22.62
224.104	-34.62
224.338	2.38
224.573	-7.62
224.808	-7.62
225.042	-0.62
225.277	1.38
225.511	-4.62
225.746	-1.62
225.98	3.38
226.215	4.38
226.449	17.38
226.683	21.38
226.918	13.38
227.152	27.38
227.387	39.38
227.621	45.38
227.856	43.38
228.09	45.38
228.324	48.38
228.559	61.38
228.793	48.38
229.027	55.38
229.262	75.38
229.496	60.38
229.73	71.38
229.964	75.38
230.199	81.38
230.433	78.38
230.667	72.38
230.901	98.38
231.136	84.38
231.37	73.38
231.604	68.38
231.838	92.38
232.072	76.38
232.306	78.38
232.541	85.38
232.775	89.38
233.009	88.38
233.243	85.38
233.477	89.38
233.711	86.38
233.945	89.38
234.179	85.38
234.413	78.38
234.647	76.38
234.881	82.38
235.115	84.38
235.349	99.38
235.583	86.38
235.817	84.38
236.051	85.38
236.285	86.38
236.519	78.38
236.753	85.38
236.987	77.38
237.221	83.38
237.455	72.38
237.689	82.38
237.922	88.38
238.156	69.38
238.39	102.38
238.624	77.38
238.858	81.38
239.091	87.38
239.325	97.38
239.559	71.38
239.793	86.38
240.027	94.38
240.26	86.38
240.494	85.38
240.728	83.38
240.961	83.38
241.195	79.38
241.429	61.38
241.662	77.38
241.896	71.38
242.13	83.38
242.363	73.38
242.597	67.38
242.83	72.38
243.064	82.38
243.298	88.38
243.531	78.38
243.765	77.38
243.998	95.38
244.232	85.38
244.465	85.38
244.699	90.38
244.932	91.38
245.166	67.38
245.399	91.38
245.633	71.38
245.866	78.38
246.099	84.38
246.333	75.38
246.566	76.38
246.8	82.38
247.033	78.38
247.266	81.38
247.5	69.38
247.733	78.38
247.966	75.38
248.2	78.38
248.433	86.38
248.666	72.38
248.899	92.38
249.133	84.38
249.366	85.38
249.599	92.38
249.832	88.38
250.066	100.38
250.299	99.38
250.532	81.38
250.765	90.38
250.998	69.38
251.231	84.38
251.465	75.38
251.698	80.38
251.931	75.38
252.164	84.38
252.397	79.38
252.63	91.38
252.863	74.38
253.096	67.38
253.329	87.38
253.562	64.38
253.795	73.38
254.028	93.38
254.261	86.38
254.494	86.38
254.727	90.38
254.96	76.38
255.193	90.38
255.426	89.38
255.659	92.38
255.892	77.38
256.124	92.38
256.357	79.38
256.59	75.38
256.823	81.38
257.056	88.38
257.289	96.38
257.521	88.38
257.754	79.38
257.987	78.38
258.22	89.38
258.452	86.38
258.685	88.38
258.918	92.38
259.151	77.38
259.383	88.38
259.616	86.38
259.849	88.38
260.081	87.38
260.314	86.38
260.547	83.38
260.779	102.38
261.012	75.38
261.244	89.38
261.477	94.38
261.71	78.38
261.942	78.38
262.175	84.38
262.407	77.38
262.64	69.38
262.872	86.38
263.105	77.38
263.337	82.38
263.57	82.38
263.802	85.38
264.035	81.38
264.267	88.38
264.499	75.38
264.732	87.38
264.964	80.38
265.197	87.38
265.429	77.38
265.661	97.38
265.894	92.38
266.126	90.38
266.358	92.38
266.591	96.38
266.823	80.38
267.055	83.38
267.287	94.38
267.52	85.38
267.752	72.38
267.984	76.38
268.216	82.38
268.448	96.38
268.681	71.38
268.913	92.38
269.145	99.38
269.377	86.38
269.609	73.38
269.841	87.38
270.073	74.38
270.306	77.38
270.538	90.38
270.77	82.38
271.002	72.38
271.234	84.38
271.466	89.38
271.698	85.38
271.93	84.38
272.162	86.38
272.394	103.38
272.626	83.38
272.858	93.38
273.09	73.38
273.322	86.38
273.553	70.38
273.785	84.38
274.017	78.38
274.249	74.38
274.481	84.38
274.713	88.38
274.945	90.38
275.176	69.38
275.408	80.38
275.64	87.38
275.872	83.38
276.104	84.38
276.335	82.38
276.567	83.38
276.799	74.38
277.031	90.38
277.262	84.38
277.494	102.38
277.726	86.38
277.957	80.38
278.189	84.38
278.421	91.38
278.652	86.38
278.884	86.38
279.115	81.38
279.347	88.38
279.579	82.38
279.81	100.38
280.042	78.38
280.273	90.38
280.505	94.38
280.736	81.38
280.968	83.38
281.199	85.38
281.431	86.38
281.662	86.38
281.894	87.38
282.125	79.38
282.356	88.38
282.588	95.38
282.819	77.38
283.051	83.38
283.282	96.38
283.513	84.38
283.745	79.38
283.976	80.38
284.207	91.38
284.439	74.38
284.67	84.38
284.901	104.38
285.132	86.38
285.364	87.38
285.595	87.38
285.826	99.38
286.057	90.38
286.288	84.38
286.52	83.38
286.751	91.38
286.982	87.38
287.213	89.38
287.444	80.38
287.675	88.38
287.906	96.38
288.138	78.38
288.369	88.38
288.6	88.38
288.831	90.38
289.062	87.38
289.293	87.38
289.524	75.38
289.755	74.38
289.986	92.38
290.217	82.38
290.448	87.38
290.679	93.38
290.91	88.38
291.141	77.38
291.371	85.38
291.602	92.38
291.833	93.38
292.064	104.38
292.295	78.38
292.526	102.38
292.757	83.38
292.987	103.38
293.218	83.38
293.449	99.38
293.68	85.38
293.91	82.38
294.141	84.38
294.372	84.38
294.603	84.38
294.833	96.38
295.064	91.38
295.295	96.38
295.525	94.38
295.756	91.38
295.987	110.38
296.217	87.38
296.448	86.38
296.679	87.38
296.909	86.38
297.14	79.38
297.37	92.38
297.601	93.38
297.831	103.38
298.062	105.38
298.292	89.38
298.523	101.38
298.753	73.38
298.984	72.38
299.214	93.38
299.445	84.38
299.675	97.38
299.905	97.38
300.136	96.38
300.366	81.38
300.597	85.38
300.827	91.38
301.057	81.38
301.288	81.38
301.518	92.38
301.748	86.38
301.979	87.38
302.209	86.38
302.439	79.38
302.669	92.38
302.9	85.38
303.13	82.38
303.36	89.38
303.59	89.38
303.82	91.38
304.051	85.38
304.281	88.38
304.511	83.38
304.741	91.38
304.971	93.38
305.201	85.38
305.431	88.38
305.661	88.38
305.891	88.38
306.121	83.38
306.352	86.38
306.582	84.38
306.812	96.38
307.042	97.38
307.272	95.38
307.502	86.38
307.731	98.38
307.961	78.38
308.191	72.38
308.421	75.38
308.651	75.38
308.881	83.38
309.111	99.38
309.341	83.38
309.571	85.38
309.8	88.38
310.03	86.38
310.26	82.38
310.49	94.38
310.72	91.38
310.949	91.38
311.179	93.38
311.409	92.38
311.639	83.38
311.868	89.38
312.098	85.38
312.328	90.38
312.557	102.38
312.787	80.38
313.017	82.38
313.246	77.38
313.476	84.38
313.706	84.38
313.935	87.38
314.165	97.38
314.394	95.38
314.624	90.38
314.853	88.38
315.083	76.38
315.312	93.38
315.542	85.38
315.771	83.38
316.001	92.38
316.23	84.38
316.46	83.38
316.689	94.38
316.919	90.38
317.148	86.38
317.377	98.38
317.607	94.38
317.836	80.38
318.065	86.38
318.295	98.38
318.524	80.38
318.753	81.38
318.983	84.38
319.212	87.38
319.441	97.38
319.67	93.38
319.9	84.38
320.129	83.38
320.358	93.38
320.587	93.38
320.816	85.38
321.046	85.38
321.275	93.38
321.504	93.38
321.733	81.38
321.962	87.38
322.191	91.38
322.42	96.38
322.649	92.38
322.878	83.38
323.108	91.38
323.337	85.38
323.566	84.38
323.795	68.38
324.024	87.38
324.253	92.38
324.482	81.38
324.71	74.38
324.939	84.38
325.168	78.38
325.397	80.38
325.626	88.38
325.855	87.38
326.084	86.38
326.313	96.38
326.542	88.38
326.77	89.38
326.999	88.38
327.228	77.38
327.457	93.38
327.686	78.38
327.914	74.38
328.143	98.38
328.372	91.38
328.6	93.38
328.829	85.38
329.058	68.38
329.287	82.38
329.515	100.38
329.744	86.38
329.972	84.38
330.201	93.38
330.43	85.38
330.658	76.38
330.887	88.38
331.115	79.38
331.344	80.38
331.572	84.38
331.801	79.38
332.03	75.38
332.258	87.38
332.486	85.38
332.715	91.38
332.943	84.38
333.172	92.38
333.4	91.38
333.629	87.38
333.857	86.38
334.085	80.38
334.314	93.38
334.542	98.38
334.771	99.38
334.999	86.38
335.227	91.38
335.455	76.38
335.684	91.38
335.912	88.38
336.14	96.38
336.369	77.38
336.597	71.38
336.825	82.38
337.053	84.38
337.281	84.38
337.51	81.38
337.738	85.38
337.966	81.38
338.194	94.38
338.422	96.38
338.65	86.38
338.878	96.38
339.106	93.38
339.334	96.38
339.562	97.38
339.79	88.38
340.018	90.38
340.246	104.38
340.474	83.38
340.702	87.38
340.93	88.38
341.158	83.38
341.386	89.38
341.614	81.38
341.842	89.38
342.07	76.38
342.298	74.38
342.526	93.38
342.754	82.38
342.981	79.38
343.209	86.38
343.437	79.38
343.665	85.38
343.893	89.38
344.12	93.38
344.348	86.38
344.576	84.38
344.804	93.38
345.031	85.38
345.259	87.38
345.487	85.38
345.714	90.38
345.942	74.38
346.17	90.38
346.397	82.38
346.625	82.38
346.853	86.38
347.08	75.38
347.308	76.38
347.535	89.38
347.763	83.38
347.99	90.38
348.218	84.38
348.445	88.38
348.673	86.38
348.9	79.38
349.128	84.38
349.355	89.38
349.583	79.38
349.81	92.38
350.037	95.38
350.265	77.38
350.492	82.38
350.72	87.38
350.947	80.38
351.174	74.38
351.402	85.38
351.629	80.38
351.856	87.38
352.083	74.38
352.311	86.38
352.538	93.38
352.765	88.38
352.992	84.38
353.22	93.38
353.447	97.38
353.674	84.38
353.901	81.38
354.128	79.38
354.355	81.38
354.583	88.38
354.81	76.38
355.037	94.38
355.264	82.38
355.491	88.38
355.718	87.38
355.945	96.38
356.172	81.38
356.399	77.38
356.626	81.38
356.853	85.38
357.08	83.38
357.307	80.38
357.534	97.38
357.761	88.38
357.988	76.38
358.215	90.38
358.441	84.38
358.668	90.38
358.895	95.38
359.122	97.38
359.349	84.38
359.576	74.38
359.802	98.38
360.029	97.38
360.256	88.38
360.483	84.38
360.709	83.38
360.936	87.38
361.163	84.38
361.39	79.38
361.616	76.38
361.843	78.38
362.07	97.38
362.296	76.38
362.523	88.38
362.749	83.38
362.976	96.38
363.203	95.38
363.429	99.38
363.656	92.38
363.882	85.38
364.109	82.38
364.335	87.38
364.562	96.38
364.788	85.38
365.015	80.38
365.241	84.38
365.468	85.38
365.694	77.38
365.92	85.38
366.147	85.38
366.373	76.38
366.599	80.38
366.826	81.38
367.052	88.38
367.278	62.38
367.505	81.38
367.731	77.38
367.957	77.38
368.184	84.38
368.41	86.38
368.636	89.38
368.862	84.38
369.089	68.38
369.315	78.38
369.541	87.38
369.767	75.38
369.993	75.38
370.219	82.38
370.445	77.38
370.672	76.38
370.898	97.38
371.124	105.38
371.35	78.38
371.576	97.38
371.802	77.38
372.028	90.38
372.254	81.38
372.48	89.38
372.706	81.38
372.932	90.38
373.158	94.38
373.384	86.38
373.61	87.38
373.835	95.38
374.061	74.38
374.287	81.38
374.513	102.38
374.739	89.38
374.965	96.38
375.191	85.38
375.416	72.38
375.642	90.38
375.868	82.38
376.094	88.38
376.319	84.38
376.545	78.38
376.771	80.38
376.997	86.38
377.222	88.38
377.448	82.38
377.674	75.38
377.899	85.38
378.125	79.38
378.35	95.38
378.576	72.38
378.802	94.38
379.027	73.38
379.253	78.38
379.478	88.38
379.704	92.38
379.929	88.38
380.155	82.38
380.38	91.38
380.606	85.38
380.831	104.38
381.057	109.38
381.282	96.38
381.507	67.38
381.733	77.38
381.958	84.38
382.184	94.38
382.409	90.38
382.634	93.38
382.86	77.38
383.085	89.38
383.31	83.38
383.535	94.38
383.761	85.38
383.986	82.38
384.211	76.38
384.436	81.38
384.662	88.38
384.887	88.38
385.112	66.38
385.337	93.38
385.562	86.38
385.787	79.38
386.013	103.38
386.238	92.38
386.463	83.38
386.688	77.38
386.913	78.38
387.138	93.38
387.363	77.38
387.588	75.38
387.813	91.38
388.038	103.38
388.263	91.38
388.488	85.38
388.713	84.38
388.938	80.38
389.163	92.38
389.387	83.38
389.612	87.38
389.837	95.38
390.062	98.38
390.287	95.38
390.512	84.38
390.736	81.38
390.961	75.38
391.186	78.38
391.411	74.38
391.636	84.38
391.86	88.38
392.085	82.38
392.31	76.38
392.534	97.38
392.759	90.38
392.984	87.38
393.208	85.38
393.433	87.38
393.658	112.38
393.882	86.38
394.107	88.38
394.331	87.38
394.556	93.38
394.78	97.38
395.005	87.38
395.229	78.38
395.454	90.38
395.678	97.38
395.903	87.38
396.127	102.38
396.352	89.38
396.576	96.38
396.801	83.38
397.025	100.38
397.249	93.38
397.474	100.38
397.698	87.38
397.922	93.38
398.147	86.38
398.371	95.38
398.595	101.38
398.82	89.38
399.044	95.38
399.268	82.38
399.492	94.38
399.717	91.38
399.941	103.38
400.165	90.38
400.389	89.38
400.613	93.38
400.837	102.38
401.062	81.38
401.286	88.38
401.51	105.38
401.734	91.38
401.958	100.38
402.182	79.38
402.406	86.38
402.63	81.38
402.854	88.38
403.078	87.38
403.302	88.38
403.526	102.38
403.75	88.38
403.974	98.38
404.198	86.38
404.422	96.38
404.645	95.38
404.869	72.38
405.093	100.38
405.317	100.38
405.541	97.38
405.765	85.38
405.988	83.38
406.212	92.38
406.436	86.38
406.66	87.38
406.883	101.38
407.107	108.38
407.331	97.38
407.555	84.38
407.778	87.38
408.002	90.38
408.226	99.38
408.449	85.38
408.673	80.38
408.896	93.38
409.12	98.38
409.344	92.38
409.567	99.38
409.791	101.38
410.014	82.38
410.238	84.38
410.461	107.38
410.685	97.38
410.908	89.38
411.132	103.38
411.355	90.38
411.578	101.38
411.802	91.38
412.025	94.38
412.249	85.38
412.472	87.38
412.695	92.38
412.919	93.38
413.142	73.38
413.365	78.38
413.589	97.38
413.812	85.38
414.035	100.38
414.258	102.38
414.482	97.38
414.705	108.38
414.928	101.38
415.151	87.38
415.374	98.38
415.597	100.38
415.821	105.38
416.044	93.38
416.267	100.38
416.49	93.38
416.713	100.38
416.936	103.38
417.159	94.38
417.382	86.38
417.605	95.38
417.828	90.38
418.051	110.38
418.274	89.38
418.497	100.38
418.72	115.38
418.943	100.38
419.166	95.38
419.389	102.38
419.611	95.38
419.834	89.38
420.057	101.38
420.28	99.38
420.503	90.38
420.726	86.38
420.948	93.38
421.171	101.38
421.394	97.38
421.617	100.38
421.839	96.38
422.062	96.38
422.285	100.38
422.507	102.38
422.73	92.38
422.953	108.38
423.175	108.38
423.398	106.38
423.621	88.38
423.843	92.38
424.066	86.38
424.288	100.38
424.511	96.38
424.733	90.38
424.956	102.38
425.178	100.38
425.401	100.38
425.623	102.38
425.846	96.38
426.068	100.38
426.291	104.38
426.513	92.38
426.735	111.38
426.958	86.38
427.18	90.38
427.402	95.38
427.625	95.38
427.847	79.38
428.069	85.38
428.292	83.38
428.514	89.38
428.736	87.38
428.958	94.38
429.181	87.38
429.403	105.38
429.625	90.38
429.847	92.38
430.069	105.38
430.292	105.38
430.514	108.38
430.736	102.38
430.958	95.38
431.18	111.38
431.402	100.38
431.624	91.38
431.846	89.38
432.068	89.38
432.29	91.38
432.512	89.38
432.734	81.38
432.956	103.38
433.178	101.38
433.4	104.38
433.622	101.38
433.844	93.38
434.066	100.38
434.287	105.38
434.509	84.38
434.731	89.38
434.953	98.38
435.175	95.38
435.397	89.38
435.618	86.38
435.84	98.38
436.062	88.38
436.284	99.38
436.505	93.38
436.727	79.38
436.949	99.38
437.17	102.38
437.392	100.38
437.614	97.38
437.835	93.38
438.057	80.38
438.278	93.38
438.5	102.38
438.721	94.38
438.943	101.38
439.165	102.38
439.386	99.38
439.608	100.38
439.829	105.38
440.05	99.38
440.272	94.38
440.493	102.38
440.715	104.38
440.936	94.38
441.158	99.38
441.379	91.38
441.6	89.38
441.822	88.38
442.043	98.38
442.264	104.38
442.486	109.38
442.707	91.38
442.928	96.38
443.149	87.38
443.371	97.38
443.592	97.38
443.813	104.38
444.034	103.38
444.255	104.38
444.476	101.38
444.698	107.38
444.919	113.38
445.14	179.38
445.361	154.38
445.582	107.38
445.803	96.38
446.024	106.38
446.245	100.38
446.466	102.38
446.687	90.38
446.908	118.38
447.129	111.38
447.35	119.38
447.571	118.38
447.792	105.38
448.013	100.38
448.234	100.38
448.455	105.38
448.675	108.38
448.896	99.38
449.117	91.38
449.338	96.38
449.559	98.38
449.779	89.38
450	94.38
450.221	106.38
450.442	102.38
450.662	99.38
450.883	102.38
451.104	104.38
451.324	97.38
451.545	90.38
451.766	108.38
451.986	98.38
452.207	99.38
452.428	102.38
452.648	96.38
452.869	106.38
453.089	98.38
453.31	87.38
453.53	88.38
453.751	95.38
453.971	100.38
454.192	91.38
454.412	105.38
454.633	83.38
454.853	80.38
455.073	100.38
455.294	81.38
455.514	94.38
455.734	86.38
455.955	102.38
456.175	101.38
456.395	93.38
456.616	89.38
456.836	103.38
457.056	94.38
457.276	100.38
457.497	91.38
457.717	88.38
457.937	101.38
458.157	87.38
458.377	99.38
458.598	94.38
458.818	84.38
459.038	94.38
459.258	93.38
459.478	97.38
459.698	88.38
459.918	96.38
460.138	90.38
460.358	109.38
460.578	96.38
460.798	90.38
461.018	94.38
461.238	92.38
461.458	107.38
461.678	99.38
461.898	97.38
462.118	93.38
462.338	96.38
462.558	93.38
462.777	88.38
462.997	90.38
463.217	90.38
463.437	88.38
463.657	82.38
463.876	104.38
464.096	98.38
464.316	98.38
464.536	86.38
464.755	99.38
464.975	101.38
465.195	90.38
465.414	86.38
465.634	88.38
465.854	76.38
466.073	80.38
466.293	102.38
466.512	101.38
466.732	93.38
466.951	103.38
467.171	92.38
467.391	103.38
467.61	85.38
467.829	106.38
468.049	103.38
468.268	93.38
468.488	96.38
468.707	108.38
468.927	108.38
469.146	91.38
469.365	102.38
469.585	98.38
469.804	97.38
470.023	96.38
470.243	101.38
470.462	97.38
470.681	98.38
470.901	101.38
471.12	102.38
471.339	97.38
471.558	82.38
471.777	102.38
471.997	96.38
472.216	99.38
472.435	88.38
472.654	96.38
472.873	95.38
473.092	90.38
473.311	88.38
473.53	95.38
473.749	91.38
473.968	97.38
474.187	93.38
474.406	96.38
474.625	104.38
474.844	96.38
475.063	88.38
475.282	97.38
475.501	95.38
475.72	102.38
475.939	89.38
476.158	102.38
476.377	105.38
476.596	87.38
476.814	88.38
477.033	95.38
477.252	84.38
477.471	88.38
477.69	115.38
477.908	101.38
478.127	83.38
478.346	92.38
478.564	103.38
478.783	98.38
479.002	99.38
479.22	104.38
479.439	90.38
479.658	91.38
479.876	91.38
480.095	88.38
480.313	89.38
480.532	100.38
480.751	91.38
480.969	93.38
481.188	88.38
481.406	80.38
481.624	85.38
481.843	83.38
482.061	83.38
482.28	81.38
482.498	82.38
482.717	86.38
482.935	99.38
483.153	93.38
483.372	103.38
483.59	125.38
483.808	96.38
484.027	93.38
484.245	103.38
484.463	109.38
484.681	101.38
484.9	105.38
485.118	99.38
485.336	107.38
485.554	87.38
485.772	88.38
485.99	86.38
486.209	81.38
486.427	77.38
486.645	96.38
486.863	95.38
487.081	101.38
487.299	96.38
487.517	110.38
487.735	94.38
487.953	120.38
488.171	124.38
488.389	103.38
488.607	102.38
488.825	112.38
489.043	104.38
489.261	107.38
489.479	92.38
489.696	102.38
489.914	89.38
490.132	96.38
490.35	101.38
490.568	104.38
490.786	93.38
491.003	109.38
491.221	107.38
491.439	105.38
491.657	122.38
491.874	119.38
492.092	132.38
492.31	130.38
492.527	121.38
492.745	119.38
492.963	124.38
493.18	112.38
493.398	107.38
493.615	106.38
493.833	116.38
494.05	112.38
494.268	103.38
494.485	116.38
494.703	117.38
494.92	103.38
495.138	106.38
495.355	112.38
495.573	120.38
495.79	110.38
496.008	103.38
496.225	112.38
496.442	115.38
496.66	111.38
496.877	116.38
497.094	115.38
497.312	112.38
497.529	115.38
497.746	109.38
497.963	92.38
498.181	91.38
498.398	100.38
498.615	105.38
498.832	95.38
499.049	96.38
499.267	94.38
499.484	99.38
499.701	100.38
499.918	93.38
500.135	114.38
500.352	113.38
500.569	96.38
500.786	118.38
501.003	117.38
501.22	109.38
501.437	107.38
501.654	97.38
501.871	100.38
502.088	97.38
502.305	93.38
502.522	78.38
502.739	81.38
502.956	97.38
503.172	93.38
503.389	106.38
503.606	80.38
503.823	98.38
504.04	93.38
504.256	96.38
504.473	97.38
504.69	99.38
504.907	98.38
505.123	114.38
505.34	110.38
505.557	96.38
505.773	91.38
505.99	93.38
506.207	83.38
506.423	83.38
506.64	93.38
506.856	100.38
507.073	105.38
507.289	108.38
507.506	92.38
507.722	94.38
507.939	87.38
508.155	96.38
508.372	78.38
508.588	79.38
508.805	78.38
509.021	83.38
509.238	106.38
509.454	86.38
509.67	88.38
509.887	81.38
510.103	91.38
510.319	88.38
510.536	98.38
510.752	88.38
510.968	71.38
511.184	88.38
511.401	90.38
511.617	90.38
511.833	78.38
512.049	87.38
512.265	89.38
512.481	93.38
512.698	85.38
512.914	79.38
513.13	102.38
513.346	100.38
513.562	83.38
513.778	90.38
513.994	88.38
514.21	92.38
514.426	85.38
514.642	96.38
514.858	78.38
515.074	94.38
515.29	89.38
515.506	86.38
515.721	105.38
515.937	89.38
516.153	81.38
516.369	77.38
