Data from Location4.07152019.Energy5.Lamp.07192019.3%Agarose_HRD10591_15-23-27-576.txt Node
Date: Fri Jul 19 15:23:27 EDT 2019
User: cochatt
Spectrometer: HR+D1059
Trigger mode: 1
Integration Time (sec): 1.000000E-1
Scans to average: 1
Electric dark correction enabled: true
Nonlinearity correction enabled: false
Boxcar width: 0
XAxis mode: Wavelengths
Number of Pixels in Spectrum: 2048
>>>>>Begin Spectral Data<<<<<
223.165	0.06
223.4	0.06
223.635	0.06
223.869	-16.94
224.104	-17.94
224.338	-13.94
224.573	-1.94
224.808	-10.94
225.042	0.06
225.277	-10.94
225.511	1.06
225.746	5.06
225.98	-10.94
226.215	9.06
226.449	16.06
226.683	13.06
226.918	17.06
227.152	22.06
227.387	24.06
227.621	34.06
227.856	58.06
228.09	40.06
228.324	38.06
228.559	54.06
228.793	46.06
229.027	53.06
229.262	67.06
229.496	69.06
229.73	66.06
229.964	67.06
230.199	73.06
230.433	74.06
230.667	66.06
230.901	78.06
231.136	79.06
231.37	80.06
231.604	81.06
231.838	76.06
232.072	75.06
232.306	88.06
232.541	82.06
232.775	82.06
233.009	67.06
233.243	75.06
233.477	74.06
233.711	90.06
233.945	79.06
234.179	86.06
234.413	89.06
234.647	93.06
234.881	75.06
235.115	71.06
235.349	88.06
235.583	56.06
235.817	81.06
236.051	72.06
236.285	79.06
236.519	69.06
236.753	71.06
236.987	82.06
237.221	67.06
237.455	72.06
237.689	77.06
237.922	68.06
238.156	58.06
238.39	71.06
238.624	79.06
238.858	75.06
239.091	66.06
239.325	85.06
239.559	69.06
239.793	59.06
240.027	86.06
240.26	87.06
240.494	67.06
240.728	86.06
240.961	69.06
241.195	66.06
241.429	74.06
241.662	82.06
241.896	81.06
242.13	83.06
242.363	73.06
242.597	78.06
242.83	73.06
243.064	79.06
243.298	73.06
243.531	78.06
243.765	87.06
243.998	82.06
244.232	85.06
244.465	83.06
244.699	82.06
244.932	73.06
245.166	79.06
245.399	82.06
245.633	70.06
245.866	80.06
246.099	75.06
246.333	74.06
246.566	78.06
246.8	79.06
247.033	72.06
247.266	68.06
247.5	72.06
247.733	84.06
247.966	73.06
248.2	90.06
248.433	96.06
248.666	84.06
248.899	87.06
249.133	80.06
249.366	85.06
249.599	83.06
249.832	90.06
250.066	90.06
250.299	84.06
250.532	77.06
250.765	82.06
250.998	79.06
251.231	78.06
251.465	72.06
251.698	73.06
251.931	73.06
252.164	72.06
252.397	66.06
252.63	89.06
252.863	88.06
253.096	71.06
253.329	73.06
253.562	87.06
253.795	81.06
254.028	73.06
254.261	71.06
254.494	67.06
254.727	64.06
254.96	89.06
255.193	73.06
255.426	87.06
255.659	80.06
255.892	83.06
256.124	83.06
256.357	74.06
256.59	86.06
256.823	66.06
257.056	78.06
257.289	93.06
257.521	96.06
257.754	90.06
257.987	84.06
258.22	86.06
258.452	76.06
258.685	76.06
258.918	76.06
259.151	79.06
259.383	87.06
259.616	72.06
259.849	86.06
260.081	77.06
260.314	91.06
260.547	70.06
260.779	70.06
261.012	75.06
261.244	85.06
261.477	86.06
261.71	75.06
261.942	74.06
262.175	75.06
262.407	82.06
262.64	79.06
262.872	82.06
263.105	76.06
263.337	89.06
263.57	86.06
263.802	86.06
264.035	74.06
264.267	82.06
264.499	78.06
264.732	71.06
264.964	70.06
265.197	81.06
265.429	64.06
265.661	71.06
265.894	85.06
266.126	88.06
266.358	79.06
266.591	82.06
266.823	85.06
267.055	88.06
267.287	83.06
267.52	104.06
267.752	61.06
267.984	79.06
268.216	86.06
268.448	83.06
268.681	85.06
268.913	84.06
269.145	86.06
269.377	85.06
269.609	76.06
269.841	73.06
270.073	73.06
270.306	77.06
270.538	84.06
270.77	68.06
271.002	92.06
271.234	86.06
271.466	75.06
271.698	86.06
271.93	86.06
272.162	95.06
272.394	90.06
272.626	83.06
272.858	89.06
273.09	87.06
273.322	99.06
273.553	90.06
273.785	91.06
274.017	79.06
274.249	82.06
274.481	87.06
274.713	88.06
274.945	81.06
275.176	76.06
275.408	93.06
275.64	95.06
275.872	89.06
276.104	92.06
276.335	88.06
276.567	73.06
276.799	81.06
277.031	75.06
277.262	81.06
277.494	86.06
277.726	89.06
277.957	85.06
278.189	74.06
278.421	89.06
278.652	95.06
278.884	91.06
279.115	92.06
279.347	96.06
279.579	74.06
279.81	89.06
280.042	88.06
280.273	93.06
280.505	86.06
280.736	89.06
280.968	86.06
281.199	84.06
281.431	71.06
281.662	89.06
281.894	95.06
282.125	89.06
282.356	90.06
282.588	83.06
282.819	86.06
283.051	79.06
283.282	82.06
283.513	89.06
283.745	77.06
283.976	82.06
284.207	81.06
284.439	82.06
284.67	85.06
284.901	75.06
285.132	77.06
285.364	92.06
285.595	82.06
285.826	82.06
286.057	92.06
286.288	74.06
286.52	74.06
286.751	86.06
286.982	86.06
287.213	83.06
287.444	87.06
287.675	92.06
287.906	76.06
288.138	90.06
288.369	85.06
288.6	81.06
288.831	88.06
289.062	79.06
289.293	90.06
289.524	90.06
289.755	92.06
289.986	85.06
290.217	78.06
290.448	76.06
290.679	80.06
290.91	84.06
291.141	88.06
291.371	83.06
291.602	77.06
291.833	79.06
292.064	88.06
292.295	104.06
292.526	83.06
292.757	88.06
292.987	99.06
293.218	75.06
293.449	89.06
293.68	91.06
293.91	86.06
294.141	89.06
294.372	83.06
294.603	95.06
294.833	88.06
295.064	67.06
295.295	85.06
295.525	70.06
295.756	81.06
295.987	87.06
296.217	79.06
296.448	95.06
296.679	73.06
296.909	79.06
297.14	77.06
297.37	86.06
297.601	88.06
297.831	77.06
298.062	86.06
298.292	83.06
298.523	83.06
298.753	80.06
298.984	84.06
299.214	82.06
299.445	81.06
299.675	73.06
299.905	81.06
300.136	82.06
300.366	85.06
300.597	81.06
300.827	89.06
301.057	81.06
301.288	95.06
301.518	95.06
301.748	80.06
301.979	82.06
302.209	62.06
302.439	72.06
302.669	82.06
302.9	75.06
303.13	80.06
303.36	89.06
303.59	67.06
303.82	93.06
304.051	86.06
304.281	83.06
304.511	76.06
304.741	75.06
304.971	77.06
305.201	87.06
305.431	83.06
305.661	77.06
305.891	84.06
306.121	76.06
306.352	93.06
306.582	76.06
306.812	89.06
307.042	86.06
307.272	88.06
307.502	71.06
307.731	85.06
307.961	80.06
308.191	90.06
308.421	87.06
308.651	94.06
308.881	86.06
309.111	88.06
309.341	96.06
309.571	76.06
309.8	78.06
310.03	89.06
310.26	86.06
310.49	78.06
310.72	83.06
310.949	84.06
311.179	83.06
311.409	71.06
311.639	86.06
311.868	70.06
312.098	75.06
312.328	80.06
312.557	83.06
312.787	103.06
313.017	84.06
313.246	85.06
313.476	87.06
313.706	88.06
313.935	84.06
314.165	73.06
314.394	92.06
314.624	81.06
314.853	85.06
315.083	76.06
315.312	86.06
315.542	73.06
315.771	94.06
316.001	86.06
316.23	81.06
316.46	73.06
316.689	75.06
316.919	86.06
317.148	97.06
317.377	79.06
317.607	89.06
317.836	71.06
318.065	95.06
318.295	98.06
318.524	76.06
318.753	71.06
318.983	64.06
319.212	85.06
319.441	83.06
319.67	89.06
319.9	71.06
320.129	75.06
320.358	83.06
320.587	80.06
320.816	85.06
321.046	73.06
321.275	88.06
321.504	86.06
321.733	80.06
321.962	73.06
322.191	73.06
322.42	90.06
322.649	88.06
322.878	82.06
323.108	87.06
323.337	86.06
323.566	90.06
323.795	101.06
324.024	87.06
324.253	89.06
324.482	95.06
324.71	74.06
324.939	89.06
325.168	74.06
325.397	94.06
325.626	83.06
325.855	84.06
326.084	82.06
326.313	85.06
326.542	90.06
326.77	82.06
326.999	91.06
327.228	87.06
327.457	82.06
327.686	98.06
327.914	85.06
328.143	81.06
328.372	88.06
328.6	84.06
328.829	94.06
329.058	80.06
329.287	94.06
329.515	93.06
329.744	100.06
329.972	84.06
330.201	85.06
330.43	80.06
330.658	87.06
330.887	97.06
331.115	84.06
331.344	69.06
331.572	86.06
331.801	100.06
332.03	86.06
332.258	71.06
332.486	66.06
332.715	81.06
332.943	85.06
333.172	84.06
333.4	64.06
333.629	89.06
333.857	64.06
334.085	74.06
334.314	70.06
334.542	77.06
334.771	79.06
334.999	78.06
335.227	64.06
335.455	93.06
335.684	91.06
335.912	74.06
336.14	74.06
336.369	81.06
336.597	75.06
336.825	88.06
337.053	93.06
337.281	102.06
337.51	88.06
337.738	89.06
337.966	79.06
338.194	73.06
338.422	81.06
338.65	94.06
338.878	91.06
339.106	78.06
339.334	99.06
339.562	81.06
339.79	66.06
340.018	87.06
340.246	75.06
340.474	85.06
340.702	97.06
340.93	76.06
341.158	86.06
341.386	86.06
341.614	80.06
341.842	77.06
342.07	73.06
342.298	81.06
342.526	86.06
342.754	88.06
342.981	70.06
343.209	79.06
343.437	88.06
343.665	87.06
343.893	86.06
344.12	73.06
344.348	71.06
344.576	83.06
344.804	89.06
345.031	96.06
345.259	92.06
345.487	93.06
345.714	84.06
345.942	77.06
346.17	77.06
346.397	87.06
346.625	100.06
346.853	71.06
347.08	65.06
347.308	95.06
347.535	90.06
347.763	78.06
347.99	93.06
348.218	87.06
348.445	67.06
348.673	85.06
348.9	87.06
349.128	72.06
349.355	67.06
349.583	91.06
349.81	94.06
350.037	89.06
350.265	70.06
350.492	72.06
350.72	84.06
350.947	76.06
351.174	71.06
351.402	78.06
351.629	89.06
351.856	87.06
352.083	81.06
352.311	75.06
352.538	69.06
352.765	66.06
352.992	87.06
353.22	71.06
353.447	81.06
353.674	73.06
353.901	82.06
354.128	85.06
354.355	93.06
354.583	102.06
354.81	82.06
355.037	90.06
355.264	91.06
355.491	84.06
355.718	70.06
355.945	77.06
356.172	91.06
356.399	82.06
356.626	71.06
356.853	82.06
357.08	70.06
357.307	87.06
357.534	75.06
357.761	89.06
357.988	83.06
358.215	88.06
358.441	82.06
358.668	90.06
358.895	88.06
359.122	75.06
359.349	68.06
359.576	86.06
359.802	79.06
360.029	87.06
360.256	80.06
360.483	70.06
360.709	86.06
360.936	109.06
361.163	83.06
361.39	85.06
361.616	100.06
361.843	82.06
362.07	89.06
362.296	91.06
362.523	76.06
362.749	87.06
362.976	92.06
363.203	77.06
363.429	71.06
363.656	87.06
363.882	78.06
364.109	87.06
364.335	85.06
364.562	84.06
364.788	71.06
365.015	85.06
365.241	80.06
365.468	78.06
365.694	88.06
365.92	81.06
366.147	75.06
366.373	74.06
366.599	67.06
366.826	80.06
367.052	94.06
367.278	87.06
367.505	75.06
367.731	89.06
367.957	90.06
368.184	78.06
368.41	81.06
368.636	67.06
368.862	79.06
369.089	87.06
369.315	78.06
369.541	96.06
369.767	76.06
369.993	77.06
370.219	77.06
370.445	85.06
370.672	95.06
370.898	76.06
371.124	87.06
371.35	82.06
371.576	83.06
371.802	82.06
372.028	76.06
372.254	82.06
372.48	85.06
372.706	88.06
372.932	90.06
373.158	69.06
373.384	89.06
373.61	86.06
373.835	78.06
374.061	83.06
374.287	75.06
374.513	89.06
374.739	93.06
374.965	88.06
375.191	98.06
375.416	85.06
375.642	91.06
375.868	87.06
376.094	87.06
376.319	81.06
376.545	87.06
376.771	83.06
376.997	82.06
377.222	76.06
377.448	101.06
377.674	88.06
377.899	82.06
378.125	82.06
378.35	86.06
378.576	85.06
378.802	74.06
379.027	74.06
379.253	88.06
379.478	82.06
379.704	74.06
379.929	85.06
380.155	96.06
380.38	75.06
380.606	81.06
380.831	83.06
381.057	84.06
381.282	86.06
381.507	111.06
381.733	89.06
381.958	82.06
382.184	91.06
382.409	87.06
382.634	78.06
382.86	89.06
383.085	92.06
383.31	90.06
383.535	84.06
383.761	86.06
383.986	91.06
384.211	88.06
384.436	86.06
384.662	75.06
384.887	75.06
385.112	84.06
385.337	85.06
385.562	75.06
385.787	80.06
386.013	87.06
386.238	89.06
386.463	91.06
386.688	85.06
386.913	76.06
387.138	78.06
387.363	92.06
387.588	91.06
387.813	81.06
388.038	73.06
388.263	84.06
388.488	83.06
388.713	86.06
388.938	85.06
389.163	80.06
389.387	92.06
389.612	75.06
389.837	76.06
390.062	85.06
390.287	94.06
390.512	93.06
390.736	80.06
390.961	91.06
391.186	96.06
391.411	71.06
391.636	81.06
391.86	84.06
392.085	73.06
392.31	82.06
392.534	85.06
392.759	83.06
392.984	80.06
393.208	85.06
393.433	78.06
393.658	82.06
393.882	96.06
394.107	80.06
394.331	75.06
394.556	83.06
394.78	83.06
395.005	96.06
395.229	89.06
395.454	94.06
395.678	88.06
395.903	103.06
396.127	90.06
396.352	74.06
396.576	89.06
396.801	73.06
397.025	90.06
397.249	84.06
397.474	93.06
397.698	87.06
397.922	95.06
398.147	82.06
398.371	87.06
398.595	89.06
398.82	76.06
399.044	88.06
399.268	95.06
399.492	72.06
399.717	90.06
399.941	79.06
400.165	93.06
400.389	91.06
400.613	80.06
400.837	84.06
401.062	71.06
401.286	95.06
401.51	77.06
401.734	95.06
401.958	86.06
402.182	104.06
402.406	87.06
402.63	89.06
402.854	90.06
403.078	96.06
403.302	87.06
403.526	89.06
403.75	87.06
403.974	90.06
404.198	77.06
404.422	84.06
404.645	93.06
404.869	76.06
405.093	85.06
405.317	74.06
405.541	88.06
405.765	97.06
405.988	95.06
406.212	93.06
406.436	82.06
406.66	79.06
406.883	81.06
407.107	101.06
407.331	88.06
407.555	96.06
407.778	87.06
408.002	98.06
408.226	93.06
408.449	99.06
408.673	117.06
408.896	83.06
409.12	97.06
409.344	94.06
409.567	84.06
409.791	85.06
410.014	91.06
410.238	94.06
410.461	90.06
410.685	80.06
410.908	109.06
411.132	86.06
411.355	87.06
411.578	103.06
411.802	91.06
412.025	99.06
412.249	90.06
412.472	92.06
412.695	83.06
412.919	85.06
413.142	91.06
413.365	92.06
413.589	90.06
413.812	81.06
414.035	95.06
414.258	81.06
414.482	96.06
414.705	98.06
414.928	83.06
415.151	107.06
415.374	94.06
415.597	85.06
415.821	98.06
416.044	85.06
416.267	99.06
416.49	80.06
416.713	98.06
416.936	96.06
417.159	88.06
417.382	84.06
417.605	97.06
417.828	98.06
418.051	80.06
418.274	90.06
418.497	83.06
418.72	93.06
418.943	93.06
419.166	84.06
419.389	83.06
419.611	90.06
419.834	87.06
420.057	96.06
420.28	90.06
420.503	102.06
420.726	80.06
420.948	86.06
421.171	92.06
421.394	85.06
421.617	99.06
421.839	106.06
422.062	97.06
422.285	100.06
422.507	85.06
422.73	90.06
422.953	107.06
423.175	86.06
423.398	81.06
423.621	102.06
423.843	99.06
424.066	82.06
424.288	100.06
424.511	95.06
424.733	87.06
424.956	93.06
425.178	93.06
425.401	96.06
425.623	96.06
425.846	82.06
426.068	94.06
426.291	97.06
426.513	86.06
426.735	100.06
426.958	91.06
427.18	96.06
427.402	85.06
427.625	96.06
427.847	98.06
428.069	84.06
428.292	87.06
428.514	98.06
428.736	89.06
428.958	93.06
429.181	100.06
429.403	79.06
429.625	86.06
429.847	91.06
430.069	89.06
430.292	83.06
430.514	83.06
430.736	97.06
430.958	94.06
431.18	114.06
431.402	91.06
431.624	84.06
431.846	66.06
432.068	65.06
432.29	78.06
432.512	95.06
432.734	79.06
432.956	100.06
433.178	96.06
433.4	98.06
433.622	80.06
433.844	88.06
434.066	93.06
434.287	87.06
434.509	83.06
434.731	95.06
434.953	86.06
435.175	85.06
435.397	85.06
435.618	98.06
435.84	82.06
436.062	98.06
436.284	93.06
436.505	102.06
436.727	101.06
436.949	101.06
437.17	83.06
437.392	97.06
437.614	93.06
437.835	89.06
438.057	88.06
438.278	89.06
438.5	83.06
438.721	85.06
438.943	85.06
439.165	102.06
439.386	117.06
439.608	96.06
439.829	98.06
440.05	103.06
440.272	109.06
440.493	93.06
440.715	101.06
440.936	96.06
441.158	89.06
441.379	108.06
441.6	97.06
441.822	90.06
442.043	105.06
442.264	105.06
442.486	90.06
442.707	99.06
442.928	100.06
443.149	101.06
443.371	89.06
443.592	97.06
443.813	91.06
444.034	103.06
444.255	90.06
444.476	95.06
444.698	83.06
444.919	77.06
445.14	179.06
445.361	147.06
445.582	90.06
445.803	107.06
446.024	93.06
446.245	106.06
446.466	91.06
446.687	109.06
446.908	105.06
447.129	101.06
447.35	85.06
447.571	83.06
447.792	87.06
448.013	112.06
448.234	105.06
448.455	106.06
448.675	90.06
448.896	91.06
449.117	113.06
449.338	85.06
449.559	94.06
449.779	83.06
450	100.06
450.221	92.06
450.442	99.06
450.662	98.06
450.883	80.06
451.104	89.06
451.324	79.06
451.545	96.06
451.766	93.06
451.986	85.06
452.207	87.06
452.428	81.06
452.648	69.06
452.869	90.06
453.089	91.06
453.31	90.06
453.53	83.06
453.751	73.06
453.971	81.06
454.192	83.06
454.412	97.06
454.633	94.06
454.853	93.06
455.073	90.06
455.294	90.06
455.514	106.06
455.734	82.06
455.955	86.06
456.175	92.06
456.395	84.06
456.616	87.06
456.836	84.06
457.056	95.06
457.276	89.06
457.497	72.06
457.717	72.06
457.937	87.06
458.157	74.06
458.377	80.06
458.598	76.06
458.818	81.06
459.038	90.06
459.258	88.06
459.478	81.06
459.698	88.06
459.918	75.06
460.138	75.06
460.358	86.06
460.578	100.06
460.798	88.06
461.018	95.06
461.238	81.06
461.458	94.06
461.678	100.06
461.898	97.06
462.118	86.06
462.338	80.06
462.558	92.06
462.777	85.06
462.997	85.06
463.217	73.06
463.437	104.06
463.657	86.06
463.876	93.06
464.096	89.06
464.316	94.06
464.536	71.06
464.755	88.06
464.975	92.06
465.195	86.06
465.414	85.06
465.634	94.06
465.854	94.06
466.073	102.06
466.293	96.06
466.512	81.06
466.732	79.06
466.951	95.06
467.171	102.06
467.391	88.06
467.61	93.06
467.829	94.06
468.049	93.06
468.268	73.06
468.488	86.06
468.707	90.06
468.927	101.06
469.146	81.06
469.365	89.06
469.585	90.06
469.804	101.06
470.023	92.06
470.243	99.06
470.462	104.06
470.681	102.06
470.901	89.06
471.12	105.06
471.339	90.06
471.558	93.06
471.777	98.06
471.997	99.06
472.216	98.06
472.435	97.06
472.654	97.06
472.873	97.06
473.092	85.06
473.311	95.06
473.53	79.06
473.749	79.06
473.968	101.06
474.187	88.06
474.406	95.06
474.625	87.06
474.844	89.06
475.063	94.06
475.282	103.06
475.501	99.06
475.72	113.06
475.939	101.06
476.158	102.06
476.377	81.06
476.596	89.06
476.814	84.06
477.033	89.06
477.252	83.06
477.471	92.06
477.69	84.06
477.908	92.06
478.127	87.06
478.346	91.06
478.564	94.06
478.783	93.06
479.002	114.06
479.22	89.06
479.439	96.06
479.658	87.06
479.876	71.06
480.095	74.06
480.313	101.06
480.532	95.06
480.751	88.06
480.969	64.06
481.188	75.06
481.406	85.06
481.624	85.06
481.843	82.06
482.061	81.06
482.28	92.06
482.498	101.06
482.717	93.06
482.935	95.06
483.153	94.06
483.372	94.06
483.59	105.06
483.808	109.06
484.027	95.06
484.245	96.06
484.463	83.06
484.681	109.06
484.9	93.06
485.118	117.06
485.336	80.06
485.554	91.06
485.772	81.06
485.99	89.06
486.209	90.06
486.427	91.06
486.645	81.06
486.863	105.06
487.081	102.06
487.299	91.06
487.517	89.06
487.735	93.06
487.953	99.06
488.171	100.06
488.389	99.06
488.607	106.06
488.825	103.06
489.043	99.06
489.261	110.06
489.479	98.06
489.696	94.06
489.914	106.06
490.132	103.06
490.35	104.06
490.568	79.06
490.786	114.06
491.003	111.06
491.221	105.06
491.439	97.06
491.657	117.06
491.874	120.06
492.092	114.06
492.31	110.06
492.527	116.06
492.745	115.06
492.963	114.06
493.18	114.06
493.398	93.06
493.615	112.06
493.833	104.06
494.05	114.06
494.268	119.06
494.485	120.06
494.703	87.06
494.92	99.06
495.138	115.06
495.355	105.06
495.573	106.06
495.79	106.06
496.008	108.06
496.225	111.06
496.442	105.06
496.66	98.06
496.877	104.06
497.094	100.06
497.312	99.06
497.529	103.06
497.746	111.06
497.963	95.06
498.181	104.06
498.398	94.06
498.615	99.06
498.832	86.06
499.049	100.06
499.267	82.06
499.484	86.06
499.701	86.06
499.918	97.06
500.135	92.06
500.352	95.06
500.569	87.06
500.786	113.06
501.003	101.06
501.22	109.06
501.437	99.06
501.654	85.06
501.871	96.06
502.088	102.06
502.305	99.06
502.522	90.06
502.739	93.06
502.956	83.06
503.172	88.06
503.389	88.06
503.606	93.06
503.823	103.06
504.04	91.06
504.256	89.06
504.473	86.06
504.69	101.06
504.907	93.06
505.123	104.06
505.34	82.06
505.557	89.06
505.773	84.06
505.99	94.06
506.207	85.06
506.423	84.06
506.64	85.06
506.856	85.06
507.073	86.06
507.289	91.06
507.506	86.06
507.722	91.06
507.939	101.06
508.155	105.06
508.372	104.06
508.588	91.06
508.805	105.06
509.021	71.06
509.238	85.06
509.454	98.06
509.67	90.06
509.887	93.06
510.103	84.06
510.319	91.06
510.536	85.06
510.752	74.06
510.968	82.06
511.184	75.06
511.401	91.06
511.617	85.06
511.833	84.06
512.049	84.06
512.265	85.06
512.481	82.06
512.698	86.06
512.914	97.06
513.13	87.06
513.346	72.06
513.562	75.06
513.778	71.06
513.994	74.06
514.21	82.06
514.426	89.06
514.642	86.06
514.858	82.06
515.074	70.06
515.29	96.06
515.506	78.06
515.721	82.06
515.937	73.06
516.153	70.06
516.369	77.06
516.585	68.06
516.801	83.06
517.016	91.06
517.232	76.06
517.448	91.06
517.664	89.06
517.879	80.06
