Data from Location4.07152019.Energy5.Lamp.07192019.3%Agarose_HRD10591_15-26-20-578.txt Node
Date: Fri Jul 19 15:26:20 EDT 2019
User: cochatt
Spectrometer: HR+D1059
Trigger mode: 1
Integration Time (sec): 1.000000E-1
Scans to average: 1
Electric dark correction enabled: true
Nonlinearity correction enabled: false
Boxcar width: 0
XAxis mode: Wavelengths
Number of Pixels in Spectrum: 2048
>>>>>Begin Spectral Data<<<<<
223.165	-11.38
223.4	-11.38
223.635	-11.38
223.869	-9.38
224.104	-31.38
224.338	-12.38
224.573	-15.38
224.808	-14.38
225.042	-13.38
225.277	-9.38
225.511	4.62
225.746	12.62
225.98	3.62
226.215	4.62
226.449	19.62
226.683	20.62
226.918	25.62
227.152	25.62
227.387	30.62
227.621	38.62
227.856	41.62
228.09	46.62
228.324	32.62
228.559	45.62
228.793	54.62
229.027	68.62
229.262	74.62
229.496	66.62
229.73	70.62
229.964	78.62
230.199	75.62
230.433	82.62
230.667	83.62
230.901	75.62
231.136	93.62
231.37	87.62
231.604	64.62
231.838	82.62
232.072	80.62
232.306	77.62
232.541	77.62
232.775	76.62
233.009	94.62
233.243	80.62
233.477	62.62
233.711	78.62
233.945	87.62
234.179	87.62
234.413	72.62
234.647	77.62
234.881	75.62
235.115	92.62
235.349	89.62
235.583	84.62
235.817	89.62
236.051	79.62
236.285	94.62
236.519	65.62
236.753	80.62
236.987	94.62
237.221	81.62
237.455	80.62
237.689	75.62
237.922	78.62
238.156	64.62
238.39	76.62
238.624	88.62
238.858	75.62
239.091	71.62
239.325	70.62
239.559	72.62
239.793	74.62
240.027	71.62
240.26	75.62
240.494	75.62
240.728	62.62
240.961	74.62
241.195	78.62
241.429	73.62
241.662	90.62
241.896	75.62
242.13	71.62
242.363	75.62
242.597	76.62
242.83	75.62
243.064	86.62
243.298	82.62
243.531	85.62
243.765	76.62
243.998	80.62
244.232	85.62
244.465	82.62
244.699	79.62
244.932	64.62
245.166	81.62
245.399	74.62
245.633	89.62
245.866	97.62
246.099	83.62
246.333	78.62
246.566	88.62
246.8	91.62
247.033	65.62
247.266	71.62
247.5	95.62
247.733	92.62
247.966	81.62
248.2	84.62
248.433	79.62
248.666	75.62
248.899	81.62
249.133	76.62
249.366	85.62
249.599	71.62
249.832	76.62
250.066	80.62
250.299	76.62
250.532	76.62
250.765	83.62
250.998	70.62
251.231	81.62
251.465	88.62
251.698	74.62
251.931	80.62
252.164	74.62
252.397	80.62
252.63	85.62
252.863	84.62
253.096	79.62
253.329	75.62
253.562	79.62
253.795	77.62
254.028	82.62
254.261	74.62
254.494	88.62
254.727	87.62
254.96	77.62
255.193	84.62
255.426	74.62
255.659	72.62
255.892	77.62
256.124	74.62
256.357	73.62
256.59	84.62
256.823	75.62
257.056	80.62
257.289	77.62
257.521	92.62
257.754	79.62
257.987	106.62
258.22	84.62
258.452	85.62
258.685	92.62
258.918	79.62
259.151	71.62
259.383	84.62
259.616	79.62
259.849	90.62
260.081	86.62
260.314	76.62
260.547	76.62
260.779	78.62
261.012	96.62
261.244	80.62
261.477	82.62
261.71	85.62
261.942	96.62
262.175	80.62
262.407	94.62
262.64	85.62
262.872	73.62
263.105	84.62
263.337	82.62
263.57	88.62
263.802	85.62
264.035	79.62
264.267	78.62
264.499	81.62
264.732	94.62
264.964	66.62
265.197	90.62
265.429	79.62
265.661	62.62
265.894	83.62
266.126	84.62
266.358	81.62
266.591	88.62
266.823	75.62
267.055	67.62
267.287	92.62
267.52	97.62
267.752	88.62
267.984	67.62
268.216	80.62
268.448	83.62
268.681	89.62
268.913	90.62
269.145	91.62
269.377	79.62
269.609	94.62
269.841	82.62
270.073	93.62
270.306	84.62
270.538	83.62
270.77	99.62
271.002	75.62
271.234	94.62
271.466	79.62
271.698	83.62
271.93	86.62
272.162	80.62
272.394	79.62
272.626	78.62
272.858	71.62
273.09	82.62
273.322	78.62
273.553	76.62
273.785	89.62
274.017	79.62
274.249	96.62
274.481	90.62
274.713	80.62
274.945	63.62
275.176	80.62
275.408	91.62
275.64	86.62
275.872	81.62
276.104	86.62
276.335	75.62
276.567	81.62
276.799	84.62
277.031	92.62
277.262	79.62
277.494	76.62
277.726	80.62
277.957	83.62
278.189	90.62
278.421	80.62
278.652	93.62
278.884	86.62
279.115	88.62
279.347	91.62
279.579	94.62
279.81	86.62
280.042	89.62
280.273	84.62
280.505	79.62
280.736	75.62
280.968	81.62
281.199	87.62
281.431	77.62
281.662	87.62
281.894	74.62
282.125	93.62
282.356	80.62
282.588	81.62
282.819	79.62
283.051	72.62
283.282	87.62
283.513	77.62
283.745	77.62
283.976	92.62
284.207	80.62
284.439	97.62
284.67	79.62
284.901	85.62
285.132	86.62
285.364	102.62
285.595	68.62
285.826	83.62
286.057	68.62
286.288	83.62
286.52	80.62
286.751	78.62
286.982	75.62
287.213	81.62
287.444	83.62
287.675	80.62
287.906	81.62
288.138	81.62
288.369	79.62
288.6	87.62
288.831	69.62
289.062	84.62
289.293	77.62
289.524	80.62
289.755	78.62
289.986	88.62
290.217	76.62
290.448	83.62
290.679	95.62
290.91	64.62
291.141	72.62
291.371	86.62
291.602	96.62
291.833	91.62
292.064	82.62
292.295	71.62
292.526	86.62
292.757	84.62
292.987	74.62
293.218	80.62
293.449	75.62
293.68	89.62
293.91	85.62
294.141	93.62
294.372	90.62
294.603	91.62
294.833	80.62
295.064	84.62
295.295	83.62
295.525	84.62
295.756	81.62
295.987	87.62
296.217	87.62
296.448	88.62
296.679	78.62
296.909	82.62
297.14	90.62
297.37	75.62
297.601	72.62
297.831	86.62
298.062	94.62
298.292	82.62
298.523	83.62
298.753	93.62
298.984	89.62
299.214	95.62
299.445	82.62
299.675	86.62
299.905	75.62
300.136	84.62
300.366	81.62
300.597	94.62
300.827	92.62
301.057	78.62
301.288	89.62
301.518	82.62
301.748	72.62
301.979	87.62
302.209	79.62
302.439	81.62
302.669	92.62
302.9	89.62
303.13	91.62
303.36	85.62
303.59	95.62
303.82	87.62
304.051	82.62
304.281	84.62
304.511	102.62
304.741	96.62
304.971	77.62
305.201	89.62
305.431	90.62
305.661	83.62
305.891	84.62
306.121	81.62
306.352	98.62
306.582	87.62
306.812	66.62
307.042	74.62
307.272	78.62
307.502	82.62
307.731	103.62
307.961	82.62
308.191	88.62
308.421	85.62
308.651	80.62
308.881	85.62
309.111	82.62
309.341	67.62
309.571	92.62
309.8	95.62
310.03	90.62
310.26	92.62
310.49	82.62
310.72	93.62
310.949	83.62
311.179	88.62
311.409	90.62
311.639	81.62
311.868	79.62
312.098	96.62
312.328	67.62
312.557	70.62
312.787	81.62
313.017	87.62
313.246	90.62
313.476	95.62
313.706	94.62
313.935	85.62
314.165	87.62
314.394	76.62
314.624	98.62
314.853	87.62
315.083	87.62
315.312	86.62
315.542	80.62
315.771	79.62
316.001	82.62
316.23	74.62
316.46	97.62
316.689	82.62
316.919	77.62
317.148	102.62
317.377	85.62
317.607	81.62
317.836	88.62
318.065	83.62
318.295	88.62
318.524	82.62
318.753	79.62
318.983	89.62
319.212	82.62
319.441	86.62
319.67	90.62
319.9	88.62
320.129	89.62
320.358	84.62
320.587	75.62
320.816	79.62
321.046	74.62
321.275	92.62
321.504	93.62
321.733	95.62
321.962	77.62
322.191	92.62
322.42	90.62
322.649	65.62
322.878	86.62
323.108	80.62
323.337	84.62
323.566	84.62
323.795	77.62
324.024	88.62
324.253	88.62
324.482	87.62
324.71	87.62
324.939	87.62
325.168	74.62
325.397	95.62
325.626	98.62
325.855	83.62
326.084	88.62
326.313	100.62
326.542	85.62
326.77	83.62
326.999	89.62
327.228	73.62
327.457	74.62
327.686	78.62
327.914	74.62
328.143	81.62
328.372	95.62
328.6	95.62
328.829	96.62
329.058	75.62
329.287	80.62
329.515	92.62
329.744	96.62
329.972	83.62
330.201	100.62
330.43	73.62
330.658	81.62
330.887	75.62
331.115	95.62
331.344	90.62
331.572	105.62
331.801	71.62
332.03	85.62
332.258	78.62
332.486	91.62
332.715	83.62
332.943	80.62
333.172	91.62
333.4	75.62
333.629	88.62
333.857	83.62
334.085	97.62
334.314	82.62
334.542	93.62
334.771	89.62
334.999	75.62
335.227	87.62
335.455	77.62
335.684	87.62
335.912	93.62
336.14	84.62
336.369	75.62
336.597	75.62
336.825	77.62
337.053	78.62
337.281	89.62
337.51	84.62
337.738	99.62
337.966	96.62
338.194	88.62
338.422	70.62
338.65	76.62
338.878	76.62
339.106	85.62
339.334	88.62
339.562	89.62
339.79	79.62
340.018	94.62
340.246	82.62
340.474	84.62
340.702	85.62
340.93	85.62
341.158	83.62
341.386	74.62
341.614	83.62
341.842	92.62
342.07	87.62
342.298	89.62
342.526	81.62
342.754	89.62
342.981	91.62
343.209	94.62
343.437	76.62
343.665	78.62
343.893	88.62
344.12	100.62
344.348	84.62
344.576	84.62
344.804	58.62
345.031	62.62
345.259	85.62
345.487	80.62
345.714	71.62
345.942	74.62
346.17	70.62
346.397	91.62
346.625	84.62
346.853	80.62
347.08	78.62
347.308	82.62
347.535	87.62
347.763	89.62
347.99	87.62
348.218	85.62
348.445	76.62
348.673	84.62
348.9	79.62
349.128	89.62
349.355	88.62
349.583	71.62
349.81	96.62
350.037	83.62
350.265	84.62
350.492	88.62
350.72	72.62
350.947	83.62
351.174	88.62
351.402	90.62
351.629	66.62
351.856	86.62
352.083	91.62
352.311	98.62
352.538	78.62
352.765	86.62
352.992	73.62
353.22	96.62
353.447	86.62
353.674	75.62
353.901	80.62
354.128	67.62
354.355	92.62
354.583	87.62
354.81	90.62
355.037	89.62
355.264	91.62
355.491	87.62
355.718	79.62
355.945	86.62
356.172	85.62
356.399	95.62
356.626	88.62
356.853	73.62
357.08	88.62
357.307	96.62
357.534	90.62
357.761	85.62
357.988	77.62
358.215	72.62
358.441	84.62
358.668	94.62
358.895	92.62
359.122	97.62
359.349	94.62
359.576	97.62
359.802	95.62
360.029	87.62
360.256	92.62
360.483	75.62
360.709	62.62
360.936	107.62
361.163	85.62
361.39	80.62
361.616	86.62
361.843	76.62
362.07	81.62
362.296	79.62
362.523	76.62
362.749	85.62
362.976	79.62
363.203	83.62
363.429	74.62
363.656	87.62
363.882	83.62
364.109	98.62
364.335	84.62
364.562	73.62
364.788	105.62
365.015	91.62
365.241	87.62
365.468	78.62
365.694	76.62
365.92	79.62
366.147	81.62
366.373	83.62
366.599	86.62
366.826	86.62
367.052	80.62
367.278	80.62
367.505	73.62
367.731	87.62
367.957	66.62
368.184	88.62
368.41	82.62
368.636	90.62
368.862	91.62
369.089	83.62
369.315	74.62
369.541	78.62
369.767	78.62
369.993	77.62
370.219	84.62
370.445	72.62
370.672	99.62
370.898	97.62
371.124	78.62
371.35	87.62
371.576	69.62
371.802	85.62
372.028	70.62
372.254	82.62
372.48	91.62
372.706	86.62
372.932	84.62
373.158	91.62
373.384	91.62
373.61	78.62
373.835	92.62
374.061	87.62
374.287	96.62
374.513	89.62
374.739	63.62
374.965	82.62
375.191	73.62
375.416	89.62
375.642	84.62
375.868	108.62
376.094	98.62
376.319	83.62
376.545	76.62
376.771	91.62
376.997	95.62
377.222	100.62
377.448	86.62
377.674	73.62
377.899	95.62
378.125	88.62
378.35	83.62
378.576	79.62
378.802	87.62
379.027	68.62
379.253	82.62
379.478	85.62
379.704	92.62
379.929	92.62
380.155	82.62
380.38	76.62
380.606	85.62
380.831	71.62
381.057	90.62
381.282	80.62
381.507	86.62
381.733	93.62
381.958	84.62
382.184	79.62
382.409	74.62
382.634	85.62
382.86	70.62
383.085	75.62
383.31	79.62
383.535	87.62
383.761	82.62
383.986	88.62
384.211	68.62
384.436	84.62
384.662	86.62
384.887	77.62
385.112	81.62
385.337	68.62
385.562	96.62
385.787	96.62
386.013	92.62
386.238	82.62
386.463	87.62
386.688	74.62
386.913	86.62
387.138	83.62
387.363	91.62
387.588	97.62
387.813	88.62
388.038	82.62
388.263	99.62
388.488	87.62
388.713	89.62
388.938	86.62
389.163	81.62
389.387	91.62
389.612	80.62
389.837	92.62
390.062	93.62
390.287	90.62
390.512	86.62
390.736	67.62
390.961	95.62
391.186	91.62
391.411	95.62
391.636	86.62
391.86	81.62
392.085	91.62
392.31	86.62
392.534	88.62
392.759	89.62
392.984	83.62
393.208	86.62
393.433	92.62
393.658	94.62
393.882	67.62
394.107	80.62
394.331	88.62
394.556	73.62
394.78	91.62
395.005	97.62
395.229	77.62
395.454	87.62
395.678	71.62
395.903	91.62
396.127	95.62
396.352	99.62
396.576	95.62
396.801	87.62
397.025	88.62
397.249	79.62
397.474	103.62
397.698	86.62
397.922	83.62
398.147	83.62
398.371	77.62
398.595	85.62
398.82	76.62
399.044	83.62
399.268	82.62
399.492	74.62
399.717	92.62
399.941	87.62
400.165	88.62
400.389	91.62
400.613	93.62
400.837	80.62
401.062	82.62
401.286	86.62
401.51	83.62
401.734	94.62
401.958	87.62
402.182	88.62
402.406	95.62
402.63	79.62
402.854	80.62
403.078	103.62
403.302	83.62
403.526	88.62
403.75	101.62
403.974	107.62
404.198	89.62
404.422	97.62
404.645	87.62
404.869	93.62
405.093	97.62
405.317	94.62
405.541	94.62
405.765	85.62
405.988	96.62
406.212	107.62
406.436	96.62
406.66	98.62
406.883	92.62
407.107	89.62
407.331	89.62
407.555	90.62
407.778	76.62
408.002	93.62
408.226	97.62
408.449	95.62
408.673	81.62
408.896	93.62
409.12	79.62
409.344	91.62
409.567	93.62
409.791	91.62
410.014	100.62
410.238	86.62
410.461	88.62
410.685	94.62
410.908	92.62
411.132	90.62
411.355	95.62
411.578	96.62
411.802	89.62
412.025	84.62
412.249	79.62
412.472	82.62
412.695	97.62
412.919	100.62
413.142	84.62
413.365	92.62
413.589	93.62
413.812	92.62
414.035	96.62
414.258	100.62
414.482	91.62
414.705	99.62
414.928	91.62
415.151	77.62
415.374	90.62
415.597	90.62
415.821	106.62
416.044	85.62
416.267	82.62
416.49	101.62
416.713	80.62
416.936	107.62
417.159	95.62
417.382	80.62
417.605	89.62
417.828	106.62
418.051	91.62
418.274	86.62
418.497	95.62
418.72	80.62
418.943	82.62
419.166	106.62
419.389	103.62
419.611	110.62
419.834	86.62
420.057	93.62
420.28	96.62
420.503	90.62
420.726	96.62
420.948	90.62
421.171	99.62
421.394	83.62
421.617	106.62
421.839	91.62
422.062	96.62
422.285	99.62
422.507	80.62
422.73	86.62
422.953	78.62
423.175	94.62
423.398	99.62
423.621	88.62
423.843	96.62
424.066	86.62
424.288	110.62
424.511	97.62
424.733	108.62
424.956	110.62
425.178	94.62
425.401	87.62
425.623	95.62
425.846	96.62
426.068	109.62
426.291	80.62
426.513	99.62
426.735	83.62
426.958	96.62
427.18	81.62
427.402	107.62
427.625	103.62
427.847	97.62
428.069	91.62
428.292	99.62
428.514	78.62
428.736	94.62
428.958	80.62
429.181	87.62
429.403	88.62
429.625	101.62
429.847	93.62
430.069	85.62
430.292	98.62
430.514	98.62
430.736	111.62
430.958	104.62
431.18	82.62
431.402	82.62
431.624	76.62
431.846	80.62
432.068	91.62
432.29	82.62
432.512	88.62
432.734	110.62
432.956	89.62
433.178	97.62
433.4	88.62
433.622	93.62
433.844	88.62
434.066	97.62
434.287	92.62
434.509	88.62
434.731	73.62
434.953	97.62
435.175	101.62
435.397	102.62
435.618	90.62
435.84	88.62
436.062	98.62
436.284	85.62
436.505	86.62
436.727	98.62
436.949	91.62
437.17	90.62
437.392	99.62
437.614	90.62
437.835	76.62
438.057	94.62
438.278	100.62
438.5	86.62
438.721	96.62
438.943	99.62
439.165	91.62
439.386	112.62
439.608	96.62
439.829	93.62
440.05	98.62
440.272	105.62
440.493	94.62
440.715	95.62
440.936	99.62
441.158	90.62
441.379	91.62
441.6	93.62
441.822	90.62
442.043	115.62
442.264	104.62
442.486	104.62
442.707	109.62
442.928	104.62
443.149	88.62
443.371	96.62
443.592	96.62
443.813	106.62
444.034	101.62
444.255	110.62
444.476	109.62
444.698	92.62
444.919	107.62
445.14	199.62
445.361	161.62
445.582	112.62
445.803	94.62
446.024	99.62
446.245	103.62
446.466	102.62
446.687	98.62
446.908	104.62
447.129	89.62
447.35	83.62
447.571	104.62
447.792	92.62
448.013	93.62
448.234	82.62
448.455	97.62
448.675	112.62
448.896	80.62
449.117	81.62
449.338	91.62
449.559	97.62
449.779	98.62
450	88.62
450.221	98.62
450.442	101.62
450.662	97.62
450.883	101.62
451.104	91.62
451.324	95.62
451.545	92.62
451.766	110.62
451.986	95.62
452.207	91.62
452.428	89.62
452.648	89.62
452.869	91.62
453.089	74.62
453.31	81.62
453.53	87.62
453.751	81.62
453.971	93.62
454.192	98.62
454.412	87.62
454.633	95.62
454.853	108.62
455.073	88.62
455.294	92.62
455.514	79.62
455.734	90.62
455.955	82.62
456.175	63.62
456.395	96.62
456.616	85.62
456.836	84.62
457.056	86.62
457.276	89.62
457.497	83.62
457.717	102.62
457.937	111.62
458.157	89.62
458.377	69.62
458.598	86.62
458.818	76.62
459.038	94.62
459.258	94.62
459.478	83.62
459.698	78.62
459.918	96.62
460.138	86.62
460.358	100.62
460.578	93.62
460.798	91.62
461.018	90.62
461.238	97.62
461.458	105.62
461.678	95.62
461.898	94.62
462.118	80.62
462.338	80.62
462.558	79.62
462.777	82.62
462.997	87.62
463.217	81.62
463.437	99.62
463.657	90.62
463.876	82.62
464.096	94.62
464.316	70.62
464.536	92.62
464.755	86.62
464.975	97.62
465.195	78.62
465.414	98.62
465.634	77.62
465.854	89.62
466.073	81.62
466.293	84.62
466.512	94.62
466.732	103.62
466.951	86.62
467.171	95.62
467.391	85.62
467.61	97.62
467.829	105.62
468.049	101.62
468.268	101.62
468.488	90.62
468.707	87.62
468.927	98.62
469.146	105.62
469.365	103.62
469.585	99.62
469.804	91.62
470.023	87.62
470.243	94.62
470.462	88.62
470.681	110.62
470.901	102.62
471.12	98.62
471.339	97.62
471.558	115.62
471.777	87.62
471.997	87.62
472.216	91.62
472.435	88.62
472.654	95.62
472.873	86.62
473.092	84.62
473.311	80.62
473.53	91.62
473.749	97.62
473.968	95.62
474.187	92.62
474.406	91.62
474.625	89.62
474.844	95.62
475.063	91.62
475.282	90.62
475.501	99.62
475.72	93.62
475.939	77.62
476.158	94.62
476.377	106.62
476.596	105.62
476.814	86.62
477.033	88.62
477.252	84.62
477.471	93.62
477.69	100.62
477.908	98.62
478.127	106.62
478.346	108.62
478.564	86.62
478.783	89.62
479.002	105.62
479.22	95.62
479.439	114.62
479.658	88.62
479.876	74.62
480.095	86.62
480.313	96.62
480.532	87.62
480.751	87.62
480.969	95.62
481.188	88.62
481.406	101.62
481.624	83.62
481.843	86.62
482.061	77.62
482.28	77.62
482.498	91.62
482.717	87.62
482.935	95.62
483.153	114.62
483.372	91.62
483.59	97.62
483.808	98.62
484.027	82.62
484.245	102.62
484.463	95.62
484.681	116.62
484.9	87.62
485.118	96.62
485.336	86.62
485.554	84.62
485.772	83.62
485.99	81.62
486.209	95.62
486.427	85.62
486.645	92.62
486.863	99.62
487.081	94.62
487.299	90.62
487.517	98.62
487.735	86.62
487.953	130.62
488.171	103.62
488.389	114.62
488.607	101.62
488.825	92.62
489.043	95.62
489.261	89.62
489.479	104.62
489.696	97.62
489.914	102.62
490.132	102.62
490.35	102.62
490.568	103.62
490.786	104.62
491.003	112.62
491.221	118.62
491.439	117.62
491.657	106.62
491.874	134.62
492.092	136.62
492.31	139.62
492.527	124.62
492.745	113.62
492.963	120.62
493.18	100.62
493.398	108.62
493.615	101.62
493.833	107.62
494.05	119.62
494.268	104.62
494.485	127.62
494.703	114.62
494.92	113.62
495.138	117.62
495.355	119.62
495.573	119.62
495.79	119.62
496.008	100.62
496.225	108.62
496.442	101.62
496.66	103.62
496.877	97.62
497.094	111.62
497.312	99.62
497.529	105.62
497.746	112.62
497.963	85.62
498.181	89.62
498.398	71.62
498.615	93.62
498.832	94.62
499.049	76.62
499.267	81.62
499.484	101.62
499.701	86.62
499.918	91.62
500.135	85.62
500.352	77.62
500.569	97.62
500.786	103.62
501.003	79.62
501.22	85.62
501.437	105.62
501.654	99.62
501.871	114.62
502.088	93.62
502.305	90.62
502.522	96.62
502.739	86.62
502.956	106.62
503.172	112.62
503.389	95.62
503.606	103.62
503.823	94.62
504.04	90.62
504.256	88.62
504.473	103.62
504.69	91.62
504.907	89.62
505.123	96.62
505.34	111.62
505.557	94.62
505.773	97.62
505.99	83.62
506.207	94.62
506.423	92.62
506.64	93.62
506.856	100.62
507.073	99.62
507.289	102.62
507.506	95.62
507.722	86.62
507.939	98.62
508.155	83.62
508.372	107.62
508.588	79.62
508.805	89.62
509.021	85.62
509.238	90.62
509.454	89.62
509.67	96.62
509.887	89.62
510.103	94.62
510.319	92.62
510.536	95.62
510.752	86.62
510.968	83.62
511.184	76.62
511.401	89.62
511.617	73.62
511.833	71.62
512.049	91.62
512.265	89.62
512.481	77.62
512.698	88.62
512.914	83.62
513.13	84.62
513.346	86.62
513.562	75.62
513.778	78.62
513.994	75.62
514.21	101.62
514.426	85.62
514.642	81.62
514.858	87.62
515.074	94.62
515.29	81.62
515.506	75.62
515.721	79.62
515.937	80.62
516.153	85.62
516.369	80.62
516.585	87.62
516.801	63.62
517.016	100.62
517.232	93.62
517.448	92.62
