Data from 1960PennyLincolnUp.LampE6.200Scan.07172019.P1_HRD10591_13-05-17-002.txt Node
Date: Thu Jul 18 13:05:17 EDT 2019
User: cochatt
Spectrometer: HR+D1059
Trigger mode: 1
Integration Time (sec): 1.000000E-1
Scans to average: 1
Electric dark correction enabled: true
Nonlinearity correction enabled: false
Boxcar width: 0
XAxis mode: Wavelengths
Number of Pixels in Spectrum: 2048
>>>>>Begin Spectral Data<<<<<
223.165	-23.44
223.4	-23.44
223.635	-23.44
223.869	-24.44
224.104	-11.44
224.338	-2.44
224.573	-19.44
224.808	-5.44
225.042	-5.44
225.277	-12.44
225.511	-9.44
225.746	21.56
225.98	7.56
226.215	-1.44
226.449	17.56
226.683	26.56
226.918	21.56
227.152	20.56
227.387	46.56
227.621	39.56
227.856	56.56
228.09	50.56
228.324	34.56
228.559	59.56
228.793	65.56
229.027	82.56
229.262	103.56
229.496	107.56
229.73	107.56
229.964	109.56
230.199	91.56
230.433	90.56
230.667	108.56
230.901	98.56
231.136	99.56
231.37	102.56
231.604	119.56
231.838	120.56
232.072	117.56
232.306	112.56
232.541	104.56
232.775	108.56
233.009	107.56
233.243	130.56
233.477	125.56
233.711	100.56
233.945	104.56
234.179	106.56
234.413	110.56
234.647	119.56
234.881	114.56
235.115	93.56
235.349	114.56
235.583	122.56
235.817	125.56
236.051	131.56
236.285	127.56
236.519	106.56
236.753	136.56
236.987	139.56
237.221	134.56
237.455	155.56
237.689	138.56
237.922	114.56
238.156	134.56
238.39	128.56
238.624	117.56
238.858	124.56
239.091	128.56
239.325	114.56
239.559	131.56
239.793	127.56
240.027	132.56
240.26	130.56
240.494	124.56
240.728	134.56
240.961	132.56
241.195	132.56
241.429	126.56
241.662	139.56
241.896	133.56
242.13	139.56
242.363	134.56
242.597	135.56
242.83	122.56
243.064	138.56
243.298	141.56
243.531	128.56
243.765	138.56
243.998	133.56
244.232	146.56
244.465	134.56
244.699	149.56
244.932	128.56
245.166	132.56
245.399	139.56
245.633	150.56
245.866	162.56
246.099	137.56
246.333	134.56
246.566	154.56
246.8	147.56
247.033	147.56
247.266	152.56
247.5	150.56
247.733	153.56
247.966	166.56
248.2	147.56
248.433	148.56
248.666	162.56
248.899	187.56
249.133	171.56
249.366	166.56
249.599	168.56
249.832	181.56
250.066	164.56
250.299	172.56
250.532	180.56
250.765	182.56
250.998	189.56
251.231	190.56
251.465	187.56
251.698	175.56
251.931	178.56
252.164	176.56
252.397	179.56
252.63	180.56
252.863	179.56
253.096	184.56
253.329	179.56
253.562	174.56
253.795	185.56
254.028	169.56
254.261	167.56
254.494	195.56
254.727	204.56
254.96	217.56
255.193	207.56
255.426	198.56
255.659	183.56
255.892	191.56
256.124	199.56
256.357	198.56
256.59	180.56
256.823	186.56
257.056	190.56
257.289	196.56
257.521	179.56
257.754	172.56
257.987	192.56
258.22	185.56
258.452	190.56
258.685	183.56
258.918	184.56
259.151	200.56
259.383	192.56
259.616	198.56
259.849	190.56
260.081	200.56
260.314	220.56
260.547	218.56
260.779	207.56
261.012	202.56
261.244	191.56
261.477	180.56
261.71	196.56
261.942	204.56
262.175	197.56
262.407	221.56
262.64	201.56
262.872	203.56
263.105	210.56
263.337	209.56
263.57	182.56
263.802	206.56
264.035	195.56
264.267	202.56
264.499	210.56
264.732	178.56
264.964	190.56
265.197	213.56
265.429	220.56
265.661	206.56
265.894	206.56
266.126	214.56
266.358	206.56
266.591	203.56
266.823	216.56
267.055	215.56
267.287	216.56
267.52	211.56
267.752	203.56
267.984	193.56
268.216	223.56
268.448	210.56
268.681	220.56
268.913	211.56
269.145	227.56
269.377	253.56
269.609	250.56
269.841	248.56
270.073	232.56
270.306	243.56
270.538	251.56
270.77	270.56
271.002	252.56
271.234	248.56
271.466	260.56
271.698	258.56
271.93	278.56
272.162	255.56
272.394	254.56
272.626	258.56
272.858	252.56
273.09	228.56
273.322	232.56
273.553	245.56
273.785	229.56
274.017	240.56
274.249	255.56
274.481	250.56
274.713	254.56
274.945	243.56
275.176	237.56
275.408	256.56
275.64	240.56
275.872	264.56
276.104	255.56
276.335	253.56
276.567	246.56
276.799	233.56
277.031	267.56
277.262	266.56
277.494	272.56
277.726	271.56
277.957	268.56
278.189	260.56
278.421	250.56
278.652	273.56
278.884	267.56
279.115	254.56
279.347	255.56
279.579	264.56
279.81	241.56
280.042	264.56
280.273	269.56
280.505	255.56
280.736	249.56
280.968	263.56
281.199	261.56
281.431	276.56
281.662	260.56
281.894	262.56
282.125	281.56
282.356	273.56
282.588	272.56
282.819	290.56
283.051	261.56
283.282	260.56
283.513	253.56
283.745	269.56
283.976	291.56
284.207	284.56
284.439	284.56
284.67	282.56
284.901	256.56
285.132	266.56
285.364	270.56
285.595	276.56
285.826	292.56
286.057	284.56
286.288	280.56
286.52	256.56
286.751	270.56
286.982	284.56
287.213	292.56
287.444	282.56
287.675	290.56
287.906	299.56
288.138	306.56
288.369	293.56
288.6	282.56
288.831	283.56
289.062	283.56
289.293	286.56
289.524	295.56
289.755	293.56
289.986	287.56
290.217	285.56
290.448	291.56
290.679	276.56
290.91	290.56
291.141	275.56
291.371	296.56
291.602	306.56
291.833	279.56
292.064	291.56
292.295	294.56
292.526	313.56
292.757	299.56
292.987	297.56
293.218	291.56
293.449	295.56
293.68	288.56
293.91	292.56
294.141	284.56
294.372	291.56
294.603	296.56
294.833	303.56
295.064	294.56
295.295	305.56
295.525	294.56
295.756	290.56
295.987	303.56
296.217	315.56
296.448	295.56
296.679	315.56
296.909	314.56
297.14	307.56
297.37	318.56
297.601	324.56
297.831	300.56
298.062	323.56
298.292	294.56
298.523	319.56
298.753	338.56
298.984	315.56
299.214	312.56
299.445	315.56
299.675	319.56
299.905	332.56
300.136	324.56
300.366	312.56
300.597	318.56
300.827	332.56
301.057	327.56
301.288	324.56
301.518	327.56
301.748	342.56
301.979	314.56
302.209	335.56
302.439	316.56
302.669	310.56
302.9	344.56
303.13	334.56
303.36	351.56
303.59	344.56
303.82	331.56
304.051	327.56
304.281	338.56
304.511	333.56
304.741	336.56
304.971	318.56
305.201	325.56
305.431	345.56
305.661	333.56
305.891	336.56
306.121	317.56
306.352	335.56
306.582	341.56
306.812	327.56
307.042	323.56
307.272	326.56
307.502	335.56
307.731	307.56
307.961	332.56
308.191	336.56
308.421	341.56
308.651	345.56
308.881	347.56
309.111	327.56
309.341	348.56
309.571	326.56
309.8	342.56
310.03	335.56
310.26	349.56
310.49	363.56
310.72	354.56
310.949	348.56
311.179	342.56
311.409	342.56
311.639	352.56
311.868	349.56
312.098	366.56
312.328	377.56
312.557	362.56
312.787	360.56
313.017	356.56
313.246	363.56
313.476	347.56
313.706	352.56
313.935	359.56
314.165	349.56
314.394	382.56
314.624	368.56
314.853	366.56
315.083	364.56
315.312	367.56
315.542	376.56
315.771	354.56
316.001	370.56
316.23	367.56
316.46	356.56
316.689	363.56
316.919	370.56
317.148	366.56
317.377	368.56
317.607	369.56
317.836	362.56
318.065	356.56
318.295	370.56
318.524	355.56
318.753	364.56
318.983	356.56
319.212	358.56
319.441	365.56
319.67	362.56
319.9	358.56
320.129	354.56
320.358	361.56
320.587	368.56
320.816	363.56
321.046	366.56
321.275	368.56
321.504	356.56
321.733	377.56
321.962	379.56
322.191	383.56
322.42	370.56
322.649	370.56
322.878	401.56
323.108	390.56
323.337	405.56
323.566	421.56
323.795	390.56
324.024	435.56
324.253	481.56
324.482	576.56
324.71	831.56
324.939	1103.56
325.168	902.56
325.397	556.56
325.626	456.56
325.855	431.56
326.084	422.56
326.313	394.56
326.542	423.56
326.77	447.56
326.999	477.56
327.228	591.56
327.457	800.56
327.686	863.56
327.914	612.56
328.143	490.56
328.372	463.56
328.6	443.56
328.829	421.56
329.058	453.56
329.287	449.56
329.515	439.56
329.744	447.56
329.972	437.56
330.201	439.56
330.43	446.56
330.658	439.56
330.887	482.56
331.115	466.56
331.344	440.56
331.572	430.56
331.801	452.56
332.03	444.56
332.258	437.56
332.486	437.56
332.715	431.56
332.943	465.56
333.172	442.56
333.4	472.56
333.629	491.56
333.857	518.56
334.085	521.56
334.314	516.56
334.542	517.56
334.771	527.56
334.999	488.56
335.227	460.56
335.455	464.56
335.684	447.56
335.912	470.56
336.14	442.56
336.369	459.56
336.597	466.56
336.825	443.56
337.053	444.56
337.281	442.56
337.51	442.56
337.738	426.56
337.966	434.56
338.194	416.56
338.422	426.56
338.65	442.56
338.878	423.56
339.106	419.56
339.334	430.56
339.562	440.56
339.79	422.56
340.018	413.56
340.246	418.56
340.474	406.56
340.702	413.56
340.93	404.56
341.158	418.56
341.386	414.56
341.614	422.56
341.842	412.56
342.07	401.56
342.298	408.56
342.526	406.56
342.754	408.56
342.981	390.56
343.209	415.56
343.437	431.56
343.665	437.56
343.893	456.56
344.12	474.56
344.348	440.56
344.576	441.56
344.804	450.56
345.031	438.56
345.259	419.56
345.487	418.56
345.714	404.56
345.942	394.56
346.17	395.56
346.397	418.56
346.625	390.56
346.853	396.56
347.08	390.56
347.308	389.56
347.535	420.56
347.763	411.56
347.99	412.56
348.218	426.56
348.445	419.56
348.673	373.56
348.9	391.56
349.128	405.56
349.355	388.56
349.583	390.56
349.81	397.56
350.037	390.56
350.265	393.56
350.492	391.56
350.72	393.56
350.947	393.56
351.174	384.56
351.402	406.56
351.629	382.56
351.856	390.56
352.083	390.56
352.311	396.56
352.538	382.56
352.765	399.56
352.992	418.56
353.22	386.56
353.447	379.56
353.674	396.56
353.901	390.56
354.128	393.56
354.355	375.56
354.583	412.56
354.81	381.56
355.037	372.56
355.264	386.56
355.491	388.56
355.718	394.56
355.945	397.56
356.172	381.56
356.399	386.56
356.626	379.56
356.853	383.56
357.08	391.56
357.307	385.56
357.534	374.56
357.761	382.56
357.988	392.56
358.215	380.56
358.441	394.56
358.668	384.56
358.895	399.56
359.122	382.56
359.349	394.56
359.576	399.56
359.802	410.56
360.029	397.56
360.256	409.56
360.483	398.56
360.709	387.56
360.936	419.56
361.163	399.56
361.39	412.56
361.616	409.56
361.843	402.56
362.07	406.56
362.296	395.56
362.523	407.56
362.749	399.56
362.976	414.56
363.203	396.56
363.429	376.56
363.656	402.56
363.882	404.56
364.109	395.56
364.335	397.56
364.562	391.56
364.788	398.56
365.015	393.56
365.241	411.56
365.468	393.56
365.694	384.56
365.92	374.56
366.147	378.56
366.373	388.56
366.599	392.56
366.826	394.56
367.052	384.56
367.278	388.56
367.505	374.56
367.731	391.56
367.957	379.56
368.184	402.56
368.41	399.56
368.636	396.56
368.862	398.56
369.089	410.56
369.315	399.56
369.541	396.56
369.767	399.56
369.993	391.56
370.219	402.56
370.445	398.56
370.672	403.56
370.898	408.56
371.124	400.56
371.35	418.56
371.576	402.56
371.802	384.56
372.028	423.56
372.254	415.56
372.48	412.56
372.706	418.56
372.932	444.56
373.158	397.56
373.384	426.56
373.61	416.56
373.835	416.56
374.061	431.56
374.287	412.56
374.513	407.56
374.739	423.56
374.965	422.56
375.191	425.56
375.416	416.56
375.642	417.56
375.868	426.56
376.094	413.56
376.319	407.56
376.545	407.56
376.771	403.56
376.997	414.56
377.222	410.56
377.448	401.56
377.674	400.56
377.899	400.56
378.125	406.56
378.35	418.56
378.576	406.56
378.802	412.56
379.027	404.56
379.253	398.56
379.478	391.56
379.704	398.56
379.929	396.56
380.155	436.56
380.38	411.56
380.606	427.56
380.831	416.56
381.057	399.56
381.282	426.56
381.507	407.56
381.733	413.56
381.958	422.56
382.184	417.56
382.409	398.56
382.634	414.56
382.86	435.56
383.085	430.56
383.31	430.56
383.535	447.56
383.761	436.56
383.986	439.56
384.211	463.56
384.436	447.56
384.662	463.56
384.887	466.56
385.112	452.56
385.337	479.56
385.562	482.56
385.787	469.56
386.013	492.56
386.238	505.56
386.463	469.56
386.688	469.56
386.913	455.56
387.138	459.56
387.363	463.56
387.588	461.56
387.813	482.56
388.038	477.56
388.263	465.56
388.488	464.56
388.713	474.56
388.938	482.56
389.163	470.56
389.387	464.56
389.612	448.56
389.837	451.56
390.062	448.56
390.287	458.56
390.512	431.56
390.736	461.56
390.961	479.56
391.186	485.56
391.411	479.56
391.636	474.56
391.86	506.56
392.085	488.56
392.31	515.56
392.534	492.56
392.759	476.56
392.984	475.56
393.208	497.56
393.433	496.56
393.658	488.56
393.882	482.56
394.107	506.56
394.331	485.56
394.556	486.56
394.78	492.56
395.005	467.56
395.229	472.56
395.454	507.56
395.678	521.56
395.903	516.56
396.127	503.56
396.352	506.56
396.576	484.56
396.801	474.56
397.025	483.56
397.249	502.56
397.474	510.56
397.698	498.56
397.922	536.56
398.147	523.56
398.371	521.56
398.595	518.56
398.82	541.56
399.044	587.56
399.268	616.56
399.492	678.56
399.717	733.56
399.941	748.56
400.165	715.56
400.389	697.56
400.613	616.56
400.837	559.56
401.062	549.56
401.286	533.56
401.51	540.56
401.734	533.56
401.958	563.56
402.182	570.56
402.406	580.56
402.63	580.56
402.854	579.56
403.078	581.56
403.302	580.56
403.526	624.56
403.75	620.56
403.974	597.56
404.198	618.56
404.422	612.56
404.645	607.56
404.869	595.56
405.093	612.56
405.317	630.56
405.541	653.56
405.765	606.56
405.988	576.56
406.212	587.56
406.436	611.56
406.66	610.56
406.883	606.56
407.107	638.56
407.331	685.56
407.555	712.56
407.778	690.56
408.002	659.56
408.226	642.56
408.449	646.56
408.673	607.56
408.896	635.56
409.12	655.56
409.344	634.56
409.567	594.56
409.791	610.56
410.014	580.56
410.238	571.56
410.461	585.56
410.685	590.56
410.908	554.56
411.132	583.56
411.355	603.56
411.578	604.56
411.802	580.56
412.025	582.56
412.249	566.56
412.472	602.56
412.695	589.56
412.919	588.56
413.142	560.56
413.365	566.56
413.589	556.56
413.812	555.56
414.035	550.56
414.258	540.56
414.482	537.56
414.705	550.56
414.928	537.56
415.151	550.56
415.374	538.56
415.597	535.56
415.821	556.56
416.044	539.56
416.267	528.56
416.49	521.56
416.713	528.56
416.936	550.56
417.159	529.56
417.382	522.56
417.605	534.56
417.828	556.56
418.051	571.56
418.274	554.56
418.497	550.56
418.72	581.56
418.943	541.56
419.166	563.56
419.389	605.56
419.611	589.56
419.834	589.56
420.057	593.56
420.28	588.56
420.503	557.56
420.726	538.56
420.948	541.56
421.171	579.56
421.394	597.56
421.617	541.56
421.839	547.56
422.062	553.56
422.285	550.56
422.507	589.56
422.73	614.56
422.953	639.56
423.175	582.56
423.398	570.56
423.621	571.56
423.843	591.56
424.066	592.56
424.288	592.56
424.511	584.56
424.733	606.56
424.956	637.56
425.178	641.56
425.401	620.56
425.623	624.56
425.846	574.56
426.068	534.56
426.291	552.56
426.513	540.56
426.735	555.56
426.958	562.56
427.18	599.56
427.402	679.56
427.625	740.56
427.847	660.56
428.069	578.56
428.292	551.56
428.514	528.56
428.736	516.56
428.958	502.56
429.181	510.56
429.403	483.56
429.625	504.56
429.847	518.56
430.069	536.56
430.292	554.56
430.514	508.56
430.736	503.56
430.958	506.56
431.18	494.56
431.402	500.56
431.624	489.56
431.846	508.56
432.068	509.56
432.29	485.56
432.512	467.56
432.734	490.56
432.956	488.56
433.178	500.56
433.4	497.56
433.622	507.56
433.844	519.56
434.066	487.56
434.287	502.56
434.509	492.56
434.731	518.56
434.953	534.56
435.175	554.56
435.397	554.56
435.618	542.56
435.84	557.56
436.062	582.56
436.284	615.56
436.505	562.56
436.727	541.56
436.949	516.56
437.17	500.56
437.392	502.56
437.614	525.56
437.835	518.56
438.057	538.56
438.278	596.56
438.5	597.56
438.721	626.56
438.943	626.56
439.165	542.56
439.386	526.56
439.608	520.56
439.829	525.56
440.05	546.56
440.272	552.56
440.493	553.56
440.715	542.56
440.936	517.56
441.158	516.56
441.379	535.56
441.6	543.56
441.822	569.56
442.043	598.56
442.264	601.56
442.486	636.56
442.707	564.56
442.928	550.56
443.149	566.56
443.371	562.56
443.592	579.56
443.813	628.56
444.034	648.56
444.255	622.56
444.476	570.56
444.698	596.56
444.919	625.56
445.14	686.56
445.361	646.56
445.582	580.56
445.803	602.56
446.024	620.56
446.245	622.56
446.466	583.56
446.687	570.56
446.908	511.56
447.129	504.56
447.35	516.56
447.571	499.56
447.792	469.56
448.013	484.56
448.234	473.56
448.455	504.56
448.675	558.56
448.896	634.56
449.117	559.56
449.338	529.56
449.559	576.56
449.779	635.56
450	557.56
450.221	482.56
450.442	465.56
450.662	472.56
450.883	468.56
451.104	488.56
451.324	480.56
451.545	456.56
451.766	446.56
451.986	442.56
452.207	462.56
452.428	432.56
452.648	431.56
452.869	446.56
453.089	433.56
453.31	468.56
453.53	451.56
453.751	444.56
453.971	447.56
454.192	445.56
454.412	416.56
454.633	439.56
454.853	426.56
455.073	431.56
455.294	448.56
455.514	484.56
455.734	431.56
455.955	439.56
456.175	422.56
456.395	418.56
456.616	428.56
456.836	400.56
457.056	424.56
457.276	423.56
457.497	415.56
457.717	414.56
457.937	430.56
458.157	431.56
458.377	449.56
458.598	438.56
458.818	463.56
459.038	522.56
459.258	521.56
459.478	507.56
459.698	495.56
459.918	501.56
460.138	503.56
460.358	515.56
460.578	534.56
460.798	568.56
461.018	554.56
461.238	526.56
461.458	531.56
461.678	518.56
461.898	562.56
462.118	566.56
462.338	552.56
462.558	557.56
462.777	555.56
462.997	589.56
463.217	626.56
463.437	639.56
463.657	597.56
463.876	582.56
464.096	582.56
464.316	588.56
464.536	573.56
464.755	574.56
464.975	557.56
465.195	576.56
465.414	582.56
465.634	534.56
465.854	512.56
466.073	497.56
466.293	479.56
466.512	479.56
466.732	489.56
466.951	463.56
467.171	448.56
467.391	467.56
467.61	463.56
467.829	483.56
468.049	460.56
468.268	467.56
468.488	457.56
468.707	452.56
468.927	458.56
469.146	440.56
469.365	453.56
469.585	432.56
469.804	444.56
470.023	484.56
470.243	495.56
470.462	472.56
470.681	494.56
470.901	505.56
471.12	463.56
471.339	502.56
471.558	466.56
471.777	471.56
471.997	442.56
472.216	456.56
472.435	474.56
472.654	474.56
472.873	466.56
473.092	452.56
473.311	443.56
473.53	470.56
473.749	463.56
473.968	474.56
474.187	519.56
474.406	526.56
474.625	471.56
474.844	449.56
475.063	443.56
475.282	443.56
475.501	458.56
475.72	472.56
475.939	444.56
476.158	460.56
476.377	456.56
476.596	451.56
476.814	466.56
477.033	502.56
477.252	491.56
477.471	460.56
477.69	515.56
477.908	503.56
478.127	507.56
478.346	499.56
478.564	523.56
478.783	549.56
479.002	524.56
479.22	553.56
479.439	548.56
479.658	528.56
479.876	524.56
480.095	556.56
480.313	581.56
480.532	565.56
480.751	559.56
480.969	555.56
481.188	589.56
481.406	583.56
481.624	556.56
481.843	541.56
482.061	532.56
482.28	521.56
482.498	526.56
482.717	548.56
482.935	565.56
483.153	511.56
483.372	516.56
483.59	532.56
483.808	537.56
484.027	526.56
484.245	525.56
484.463	535.56
484.681	534.56
484.9	536.56
485.118	532.56
485.336	537.56
485.554	547.56
485.772	550.56
485.99	560.56
486.209	537.56
486.427	557.56
486.645	565.56
486.863	590.56
487.081	569.56
487.299	546.56
487.517	556.56
487.735	571.56
487.953	567.56
488.171	565.56
488.389	548.56
488.607	550.56
488.825	549.56
489.043	556.56
489.261	550.56
489.479	575.56
489.696	573.56
489.914	578.56
490.132	559.56
490.35	587.56
490.568	586.56
490.786	576.56
491.003	570.56
491.221	584.56
491.439	595.56
491.657	599.56
491.874	596.56
492.092	600.56
492.31	619.56
492.527	617.56
492.745	620.56
492.963	609.56
493.18	622.56
493.398	605.56
493.615	658.56
493.833	642.56
494.05	635.56
494.268	624.56
494.485	626.56
494.703	628.56
494.92	640.56
495.138	637.56
495.355	648.56
495.573	648.56
495.79	622.56
496.008	622.56
496.225	620.56
496.442	632.56
496.66	662.56
496.877	646.56
497.094	637.56
497.312	630.56
497.529	655.56
497.746	669.56
497.963	691.56
498.181	734.56
498.398	718.56
498.615	750.56
498.832	776.56
499.049	815.56
499.267	856.56
499.484	943.56
499.701	956.56
499.918	1016.56
500.135	1116.56
500.352	1247.56
500.569	1284.56
500.786	1267.56
501.003	1191.56
501.22	1134.56
501.437	1044.56
501.654	966.56
501.871	913.56
502.088	851.56
