Data from 1960PennyLincolnUp.LampE6.200Scan.07172019.P1_HRD10591_13-05-32-001.txt Node
Date: Thu Jul 18 13:05:32 EDT 2019
User: cochatt
Spectrometer: HR+D1059
Trigger mode: 1
Integration Time (sec): 1.000000E-1
Scans to average: 1
Electric dark correction enabled: true
Nonlinearity correction enabled: false
Boxcar width: 0
XAxis mode: Wavelengths
Number of Pixels in Spectrum: 2048
>>>>>Begin Spectral Data<<<<<
223.165	-12.06
223.4	-12.06
223.635	-12.06
223.869	-14.06
224.104	-21.06
224.338	-11.06
224.573	-5.06
224.808	-6.06
225.042	-16.06
225.277	-5.06
225.511	-3.06
225.746	4.94
225.98	7.94
226.215	11.94
226.449	23.94
226.683	12.94
226.918	6.94
227.152	24.94
227.387	28.94
227.621	42.94
227.856	29.94
228.09	43.94
228.324	50.94
228.559	43.94
228.793	43.94
229.027	71.94
229.262	100.94
229.496	93.94
229.73	104.94
229.964	107.94
230.199	105.94
230.433	108.94
230.667	113.94
230.901	88.94
231.136	96.94
231.37	121.94
231.604	99.94
231.838	115.94
232.072	100.94
232.306	101.94
232.541	101.94
232.775	101.94
233.009	110.94
233.243	99.94
233.477	107.94
233.711	112.94
233.945	103.94
234.179	110.94
234.413	124.94
234.647	108.94
234.881	103.94
235.115	99.94
235.349	115.94
235.583	103.94
235.817	97.94
236.051	103.94
236.285	121.94
236.519	120.94
236.753	115.94
236.987	121.94
237.221	131.94
237.455	142.94
237.689	142.94
237.922	134.94
238.156	119.94
238.39	111.94
238.624	102.94
238.858	128.94
239.091	105.94
239.325	111.94
239.559	119.94
239.793	112.94
240.027	121.94
240.26	139.94
240.494	128.94
240.728	127.94
240.961	113.94
241.195	118.94
241.429	123.94
241.662	121.94
241.896	124.94
242.13	126.94
242.363	128.94
242.597	121.94
242.83	135.94
243.064	132.94
243.298	116.94
243.531	134.94
243.765	116.94
243.998	143.94
244.232	128.94
244.465	136.94
244.699	132.94
244.932	129.94
245.166	136.94
245.399	146.94
245.633	147.94
245.866	133.94
246.099	125.94
246.333	138.94
246.566	140.94
246.8	129.94
247.033	144.94
247.266	141.94
247.5	138.94
247.733	135.94
247.966	145.94
248.2	158.94
248.433	155.94
248.666	147.94
248.899	169.94
249.133	150.94
249.366	151.94
249.599	160.94
249.832	159.94
250.066	174.94
250.299	163.94
250.532	157.94
250.765	177.94
250.998	178.94
251.231	166.94
251.465	178.94
251.698	172.94
251.931	172.94
252.164	169.94
252.397	180.94
252.63	174.94
252.863	175.94
253.096	185.94
253.329	194.94
253.562	189.94
253.795	185.94
254.028	189.94
254.261	167.94
254.494	194.94
254.727	210.94
254.96	222.94
255.193	222.94
255.426	211.94
255.659	206.94
255.892	193.94
256.124	199.94
256.357	191.94
256.59	183.94
256.823	196.94
257.056	180.94
257.289	182.94
257.521	186.94
257.754	172.94
257.987	191.94
258.22	189.94
258.452	187.94
258.685	188.94
258.918	185.94
259.151	200.94
259.383	186.94
259.616	189.94
259.849	211.94
260.081	213.94
260.314	228.94
260.547	211.94
260.779	215.94
261.012	204.94
261.244	189.94
261.477	187.94
261.71	197.94
261.942	193.94
262.175	199.94
262.407	188.94
262.64	196.94
262.872	181.94
263.105	186.94
263.337	195.94
263.57	203.94
263.802	195.94
264.035	201.94
264.267	194.94
264.499	179.94
264.732	209.94
264.964	199.94
265.197	189.94
265.429	196.94
265.661	204.94
265.894	201.94
266.126	226.94
266.358	196.94
266.591	206.94
266.823	219.94
267.055	197.94
267.287	201.94
267.52	215.94
267.752	206.94
267.984	212.94
268.216	228.94
268.448	215.94
268.681	217.94
268.913	238.94
269.145	227.94
269.377	241.94
269.609	261.94
269.841	227.94
270.073	240.94
270.306	263.94
270.538	265.94
270.77	272.94
271.002	256.94
271.234	254.94
271.466	253.94
271.698	259.94
271.93	262.94
272.162	268.94
272.394	252.94
272.626	260.94
272.858	246.94
273.09	242.94
273.322	234.94
273.553	250.94
273.785	243.94
274.017	239.94
274.249	236.94
274.481	230.94
274.713	245.94
274.945	251.94
275.176	242.94
275.408	237.94
275.64	249.94
275.872	232.94
276.104	249.94
276.335	263.94
276.567	241.94
276.799	262.94
277.031	265.94
277.262	281.94
277.494	284.94
277.726	284.94
277.957	275.94
278.189	243.94
278.421	251.94
278.652	249.94
278.884	267.94
279.115	258.94
279.347	262.94
279.579	287.94
279.81	251.94
280.042	264.94
280.273	263.94
280.505	261.94
280.736	258.94
280.968	256.94
281.199	264.94
281.431	253.94
281.662	249.94
281.894	265.94
282.125	263.94
282.356	269.94
282.588	276.94
282.819	285.94
283.051	286.94
283.282	275.94
283.513	250.94
283.745	275.94
283.976	289.94
284.207	272.94
284.439	271.94
284.67	275.94
284.901	272.94
285.132	275.94
285.364	261.94
285.595	276.94
285.826	273.94
286.057	282.94
286.288	279.94
286.52	275.94
286.751	282.94
286.982	283.94
287.213	288.94
287.444	296.94
287.675	292.94
287.906	283.94
288.138	303.94
288.369	302.94
288.6	292.94
288.831	283.94
289.062	285.94
289.293	283.94
289.524	280.94
289.755	286.94
289.986	291.94
290.217	290.94
290.448	291.94
290.679	288.94
290.91	280.94
291.141	274.94
291.371	291.94
291.602	291.94
291.833	277.94
292.064	280.94
292.295	294.94
292.526	295.94
292.757	294.94
292.987	301.94
293.218	295.94
293.449	293.94
293.68	291.94
293.91	275.94
294.141	299.94
294.372	294.94
294.603	295.94
294.833	312.94
295.064	291.94
295.295	309.94
295.525	296.94
295.756	309.94
295.987	308.94
296.217	338.94
296.448	316.94
296.679	305.94
296.909	297.94
297.14	301.94
297.37	303.94
297.601	304.94
297.831	310.94
298.062	318.94
298.292	320.94
298.523	320.94
298.753	322.94
298.984	305.94
299.214	323.94
299.445	336.94
299.675	305.94
299.905	322.94
300.136	311.94
300.366	313.94
300.597	318.94
300.827	317.94
301.057	321.94
301.288	334.94
301.518	351.94
301.748	338.94
301.979	347.94
302.209	345.94
302.439	332.94
302.669	341.94
302.9	337.94
303.13	348.94
303.36	335.94
303.59	328.94
303.82	336.94
304.051	351.94
304.281	344.94
304.511	336.94
304.741	348.94
304.971	344.94
305.201	345.94
305.431	344.94
305.661	345.94
305.891	333.94
306.121	335.94
306.352	322.94
306.582	340.94
306.812	320.94
307.042	346.94
307.272	354.94
307.502	328.94
307.731	343.94
307.961	335.94
308.191	322.94
308.421	347.94
308.651	329.94
308.881	324.94
309.111	331.94
309.341	337.94
309.571	356.94
309.8	338.94
310.03	334.94
310.26	373.94
310.49	355.94
310.72	374.94
310.949	379.94
311.179	356.94
311.409	356.94
311.639	357.94
311.868	365.94
312.098	349.94
312.328	364.94
312.557	367.94
312.787	374.94
313.017	374.94
313.246	378.94
313.476	381.94
313.706	368.94
313.935	388.94
314.165	386.94
314.394	365.94
314.624	397.94
314.853	378.94
315.083	383.94
315.312	396.94
315.542	367.94
315.771	339.94
316.001	367.94
316.23	363.94
316.46	357.94
316.689	354.94
316.919	359.94
317.148	360.94
317.377	366.94
317.607	379.94
317.836	375.94
318.065	381.94
318.295	386.94
318.524	370.94
318.753	362.94
318.983	369.94
319.212	357.94
319.441	372.94
319.67	371.94
319.9	378.94
320.129	381.94
320.358	388.94
320.587	377.94
320.816	380.94
321.046	366.94
321.275	360.94
321.504	354.94
321.733	391.94
321.962	387.94
322.191	387.94
322.42	385.94
322.649	392.94
322.878	385.94
323.108	412.94
323.337	399.94
323.566	411.94
323.795	426.94
324.024	452.94
324.253	515.94
324.482	657.94
324.71	924.94
324.939	1269.94
325.168	1034.94
325.397	587.94
325.626	471.94
325.855	424.94
326.084	401.94
326.313	424.94
326.542	429.94
326.77	463.94
326.999	525.94
327.228	637.94
327.457	887.94
327.686	969.94
327.914	697.94
328.143	528.94
328.372	485.94
328.6	457.94
328.829	452.94
329.058	460.94
329.287	471.94
329.515	460.94
329.744	459.94
329.972	443.94
330.201	465.94
330.43	453.94
330.658	484.94
330.887	483.94
331.115	498.94
331.344	476.94
331.572	466.94
331.801	448.94
332.03	464.94
332.258	464.94
332.486	458.94
332.715	449.94
332.943	459.94
333.172	490.94
333.4	505.94
333.629	516.94
333.857	529.94
334.085	519.94
334.314	516.94
334.542	535.94
334.771	526.94
334.999	493.94
335.227	494.94
335.455	467.94
335.684	493.94
335.912	475.94
336.14	466.94
336.369	469.94
336.597	449.94
336.825	458.94
337.053	466.94
337.281	476.94
337.51	453.94
337.738	437.94
337.966	451.94
338.194	439.94
338.422	462.94
338.65	420.94
338.878	408.94
339.106	417.94
339.334	424.94
339.562	428.94
339.79	431.94
340.018	407.94
340.246	413.94
340.474	428.94
340.702	441.94
340.93	435.94
341.158	445.94
341.386	434.94
341.614	426.94
341.842	423.94
342.07	429.94
342.298	434.94
342.526	419.94
342.754	419.94
342.981	417.94
343.209	418.94
343.437	424.94
343.665	447.94
343.893	472.94
344.12	465.94
344.348	494.94
344.576	442.94
344.804	459.94
345.031	452.94
345.259	440.94
345.487	426.94
345.714	434.94
345.942	412.94
346.17	412.94
346.397	400.94
346.625	401.94
346.853	399.94
347.08	407.94
347.308	403.94
347.535	402.94
347.763	407.94
347.99	412.94
348.218	425.94
348.445	403.94
348.673	397.94
348.9	393.94
349.128	392.94
349.355	400.94
349.583	407.94
349.81	399.94
350.037	401.94
350.265	405.94
350.492	374.94
350.72	385.94
350.947	407.94
351.174	391.94
351.402	414.94
351.629	404.94
351.856	379.94
352.083	414.94
352.311	411.94
352.538	413.94
352.765	427.94
352.992	402.94
353.22	380.94
353.447	389.94
353.674	398.94
353.901	403.94
354.128	395.94
354.355	384.94
354.583	392.94
354.81	401.94
355.037	385.94
355.264	387.94
355.491	379.94
355.718	391.94
355.945	364.94
356.172	386.94
356.399	397.94
356.626	388.94
356.853	386.94
357.08	404.94
357.307	388.94
357.534	411.94
357.761	397.94
357.988	398.94
358.215	400.94
358.441	407.94
358.668	416.94
358.895	386.94
359.122	394.94
359.349	392.94
359.576	411.94
359.802	419.94
360.029	413.94
360.256	427.94
360.483	403.94
360.709	412.94
360.936	416.94
361.163	402.94
361.39	428.94
361.616	414.94
361.843	395.94
362.07	415.94
362.296	405.94
362.523	388.94
362.749	417.94
362.976	400.94
363.203	403.94
363.429	395.94
363.656	399.94
363.882	394.94
364.109	396.94
364.335	391.94
364.562	398.94
364.788	416.94
365.015	389.94
365.241	388.94
365.468	398.94
365.694	403.94
365.92	420.94
366.147	402.94
366.373	398.94
366.599	401.94
366.826	416.94
367.052	416.94
367.278	397.94
367.505	397.94
367.731	380.94
367.957	378.94
368.184	384.94
368.41	413.94
368.636	391.94
368.862	407.94
369.089	401.94
369.315	415.94
369.541	414.94
369.767	387.94
369.993	423.94
370.219	416.94
370.445	436.94
370.672	396.94
370.898	424.94
371.124	403.94
371.35	410.94
371.576	410.94
371.802	426.94
372.028	397.94
372.254	408.94
372.48	412.94
372.706	421.94
372.932	424.94
373.158	425.94
373.384	449.94
373.61	445.94
373.835	411.94
374.061	412.94
374.287	408.94
374.513	419.94
374.739	414.94
374.965	435.94
375.191	457.94
375.416	441.94
375.642	442.94
375.868	419.94
376.094	435.94
376.319	432.94
376.545	421.94
376.771	415.94
376.997	423.94
377.222	403.94
377.448	408.94
377.674	423.94
377.899	417.94
378.125	401.94
378.35	401.94
378.576	404.94
378.802	408.94
379.027	426.94
379.253	404.94
379.478	408.94
379.704	409.94
379.929	425.94
380.155	419.94
380.38	400.94
380.606	410.94
380.831	414.94
381.057	430.94
381.282	398.94
381.507	423.94
381.733	422.94
381.958	423.94
382.184	431.94
382.409	402.94
382.634	428.94
382.86	428.94
383.085	448.94
383.31	472.94
383.535	436.94
383.761	431.94
383.986	447.94
384.211	459.94
384.436	456.94
384.662	467.94
384.887	480.94
385.112	466.94
385.337	471.94
385.562	497.94
385.787	482.94
386.013	492.94
386.238	496.94
386.463	499.94
386.688	473.94
386.913	457.94
387.138	463.94
387.363	472.94
387.588	492.94
387.813	473.94
388.038	462.94
388.263	493.94
388.488	477.94
388.713	482.94
388.938	482.94
389.163	466.94
389.387	482.94
389.612	458.94
389.837	452.94
390.062	470.94
390.287	466.94
390.512	453.94
390.736	467.94
390.961	485.94
391.186	491.94
391.411	501.94
391.636	511.94
391.86	495.94
392.085	518.94
392.31	520.94
392.534	516.94
392.759	498.94
392.984	519.94
393.208	489.94
393.433	536.94
393.658	495.94
393.882	479.94
394.107	492.94
394.331	487.94
394.556	493.94
394.78	496.94
395.005	503.94
395.229	496.94
395.454	496.94
395.678	507.94
395.903	527.94
396.127	525.94
396.352	489.94
396.576	503.94
396.801	484.94
397.025	513.94
397.249	525.94
397.474	532.94
397.698	525.94
397.922	530.94
398.147	544.94
398.371	538.94
398.595	544.94
398.82	557.94
399.044	574.94
399.268	631.94
399.492	707.94
399.717	759.94
399.941	777.94
400.165	729.94
400.389	664.94
400.613	636.94
400.837	602.94
401.062	597.94
401.286	564.94
401.51	543.94
401.734	555.94
401.958	580.94
402.182	573.94
402.406	564.94
402.63	581.94
402.854	593.94
403.078	610.94
403.302	595.94
403.526	607.94
403.75	621.94
403.974	618.94
404.198	617.94
404.422	622.94
404.645	629.94
404.869	621.94
405.093	620.94
405.317	657.94
405.541	669.94
405.765	626.94
405.988	633.94
406.212	611.94
406.436	615.94
406.66	642.94
406.883	648.94
407.107	667.94
407.331	699.94
407.555	742.94
407.778	723.94
408.002	665.94
408.226	634.94
408.449	657.94
408.673	671.94
408.896	635.94
409.12	677.94
409.344	648.94
409.567	595.94
409.791	617.94
410.014	596.94
410.238	596.94
410.461	602.94
410.685	580.94
410.908	617.94
411.132	611.94
411.355	615.94
411.578	609.94
411.802	599.94
412.025	585.94
412.249	586.94
412.472	594.94
412.695	608.94
412.919	613.94
413.142	590.94
413.365	569.94
413.589	546.94
413.812	544.94
414.035	548.94
414.258	543.94
414.482	566.94
414.705	559.94
414.928	562.94
415.151	550.94
415.374	561.94
415.597	559.94
415.821	529.94
416.044	512.94
416.267	533.94
416.49	539.94
416.713	542.94
416.936	555.94
417.159	558.94
417.382	556.94
417.605	560.94
417.828	577.94
418.051	576.94
418.274	556.94
418.497	557.94
418.72	552.94
418.943	572.94
419.166	604.94
419.389	609.94
419.611	601.94
419.834	609.94
420.057	576.94
420.28	609.94
420.503	562.94
420.726	545.94
420.948	571.94
421.171	585.94
421.394	597.94
421.617	580.94
421.839	585.94
422.062	568.94
422.285	577.94
422.507	584.94
422.73	658.94
422.953	634.94
423.175	602.94
423.398	615.94
423.621	580.94
423.843	602.94
424.066	596.94
424.288	583.94
424.511	605.94
424.733	634.94
424.956	677.94
425.178	652.94
425.401	651.94
425.623	656.94
425.846	595.94
426.068	584.94
426.291	564.94
426.513	578.94
426.735	551.94
426.958	583.94
427.18	641.94
427.402	691.94
427.625	742.94
427.847	648.94
428.069	594.94
428.292	569.94
428.514	541.94
428.736	514.94
428.958	515.94
429.181	502.94
429.403	516.94
429.625	499.94
429.847	547.94
430.069	583.94
430.292	564.94
430.514	508.94
430.736	515.94
430.958	520.94
431.18	494.94
431.402	508.94
431.624	511.94
431.846	496.94
432.068	489.94
432.29	525.94
432.512	528.94
432.734	520.94
432.956	526.94
433.178	498.94
433.4	517.94
433.622	539.94
433.844	513.94
434.066	530.94
434.287	516.94
434.509	515.94
434.731	525.94
434.953	535.94
435.175	589.94
435.397	575.94
435.618	569.94
435.84	596.94
436.062	618.94
436.284	639.94
436.505	594.94
436.727	539.94
436.949	546.94
437.17	498.94
437.392	503.94
437.614	520.94
437.835	543.94
438.057	559.94
438.278	622.94
438.5	635.94
438.721	682.94
438.943	655.94
439.165	550.94
439.386	541.94
439.608	531.94
439.829	537.94
440.05	565.94
440.272	573.94
440.493	549.94
440.715	526.94
440.936	526.94
441.158	531.94
441.379	543.94
441.6	551.94
441.822	580.94
442.043	620.94
442.264	621.94
442.486	652.94
442.707	585.94
442.928	556.94
443.149	564.94
443.371	569.94
443.592	603.94
443.813	652.94
444.034	677.94
444.255	653.94
444.476	605.94
444.698	624.94
444.919	629.94
445.14	733.94
445.361	653.94
445.582	594.94
445.803	607.94
446.024	655.94
446.245	682.94
446.466	617.94
446.687	549.94
446.908	538.94
447.129	509.94
447.35	500.94
447.571	495.94
447.792	483.94
448.013	494.94
448.234	479.94
448.455	547.94
448.675	605.94
448.896	629.94
449.117	571.94
449.338	538.94
449.559	612.94
449.779	648.94
450	570.94
450.221	500.94
450.442	474.94
450.662	483.94
450.883	491.94
451.104	489.94
451.324	476.94
451.545	453.94
451.766	454.94
451.986	465.94
452.207	447.94
452.428	472.94
452.648	469.94
452.869	471.94
453.089	459.94
453.31	451.94
453.53	451.94
453.751	443.94
453.971	456.94
454.192	471.94
454.412	464.94
454.633	453.94
454.853	447.94
455.073	436.94
455.294	461.94
455.514	507.94
455.734	473.94
455.955	418.94
456.175	425.94
456.395	441.94
456.616	415.94
456.836	397.94
457.056	412.94
457.276	411.94
457.497	441.94
457.717	455.94
457.937	439.94
458.157	436.94
458.377	425.94
458.598	459.94
458.818	502.94
459.038	540.94
459.258	547.94
459.478	510.94
459.698	500.94
459.918	507.94
460.138	504.94
460.358	520.94
460.578	505.94
460.798	546.94
461.018	538.94
461.238	544.94
461.458	533.94
461.678	528.94
461.898	557.94
462.118	544.94
462.338	576.94
462.558	580.94
462.777	589.94
462.997	627.94
463.217	688.94
463.437	663.94
463.657	621.94
463.876	612.94
464.096	621.94
464.316	617.94
464.536	624.94
464.755	585.94
464.975	585.94
465.195	589.94
465.414	588.94
465.634	530.94
465.854	516.94
466.073	493.94
466.293	492.94
466.512	477.94
466.732	469.94
466.951	489.94
467.171	463.94
467.391	475.94
467.61	476.94
467.829	489.94
468.049	479.94
468.268	485.94
468.488	461.94
468.707	438.94
468.927	452.94
469.146	464.94
469.365	477.94
469.585	471.94
469.804	497.94
470.023	492.94
470.243	497.94
470.462	490.94
470.681	510.94
470.901	488.94
471.12	469.94
471.339	484.94
471.558	472.94
471.777	472.94
471.997	465.94
472.216	461.94
472.435	506.94
472.654	465.94
472.873	462.94
473.092	459.94
473.311	449.94
473.53	462.94
473.749	453.94
473.968	491.94
474.187	543.94
474.406	535.94
474.625	478.94
474.844	447.94
475.063	460.94
475.282	457.94
475.501	459.94
475.72	475.94
475.939	474.94
476.158	476.94
476.377	465.94
476.596	459.94
476.814	491.94
477.033	476.94
477.252	483.94
477.471	487.94
477.69	499.94
477.908	505.94
478.127	531.94
478.346	517.94
478.564	542.94
478.783	511.94
479.002	552.94
479.22	549.94
479.439	570.94
479.658	558.94
479.876	573.94
480.095	575.94
480.313	601.94
480.532	619.94
480.751	596.94
480.969	605.94
481.188	601.94
481.406	627.94
481.624	592.94
481.843	554.94
482.061	553.94
482.28	551.94
482.498	523.94
482.717	522.94
482.935	520.94
483.153	546.94
483.372	542.94
483.59	546.94
483.808	522.94
484.027	525.94
484.245	526.94
484.463	523.94
484.681	554.94
484.9	551.94
485.118	551.94
485.336	561.94
485.554	565.94
485.772	556.94
485.99	565.94
486.209	588.94
486.427	555.94
486.645	575.94
486.863	573.94
487.081	594.94
487.299	583.94
487.517	569.94
487.735	569.94
487.953	575.94
488.171	577.94
488.389	569.94
488.607	560.94
488.825	565.94
489.043	551.94
489.261	578.94
489.479	558.94
489.696	571.94
489.914	573.94
490.132	572.94
490.35	584.94
490.568	588.94
490.786	605.94
491.003	606.94
491.221	595.94
491.439	621.94
491.657	610.94
491.874	628.94
492.092	615.94
492.31	629.94
492.527	638.94
492.745	650.94
492.963	640.94
493.18	641.94
493.398	667.94
493.615	654.94
493.833	643.94
494.05	669.94
494.268	654.94
494.485	641.94
494.703	626.94
494.92	667.94
495.138	628.94
495.355	667.94
495.573	653.94
495.79	665.94
496.008	655.94
496.225	653.94
496.442	615.94
496.66	654.94
496.877	629.94
497.094	656.94
497.312	672.94
497.529	711.94
497.746	721.94
497.963	690.94
498.181	734.94
498.398	729.94
498.615	786.94
498.832	823.94
499.049	834.94
499.267	886.94
499.484	923.94
499.701	1024.94
499.918	1092.94
500.135	1151.94
500.352	1272.94
500.569	1300.94
500.786	1300.94
501.003	1231.94
501.22	1159.94
501.437	1069.94
501.654	1009.94
501.871	955.94
502.088	903.94
