Data from 1960PennyLincolnUp.LampE6.200Scan.07172019.P1_HRD10591_13-06-06-002.txt Node
Date: Thu Jul 18 13:06:06 EDT 2019
User: cochatt
Spectrometer: HR+D1059
Trigger mode: 1
Integration Time (sec): 1.000000E-1
Scans to average: 1
Electric dark correction enabled: true
Nonlinearity correction enabled: false
Boxcar width: 0
XAxis mode: Wavelengths
Number of Pixels in Spectrum: 2048
>>>>>Begin Spectral Data<<<<<
223.165	-18.44
223.4	-18.44
223.635	-18.44
223.869	-24.44
224.104	-23.44
224.338	-9.44
224.573	-16.44
224.808	-25.44
225.042	-4.44
225.277	-5.44
225.511	5.56
225.746	7.56
225.98	15.56
226.215	9.56
226.449	12.56
226.683	28.56
226.918	17.56
227.152	30.56
227.387	32.56
227.621	39.56
227.856	34.56
228.09	42.56
228.324	37.56
228.559	53.56
228.793	55.56
229.027	83.56
229.262	105.56
229.496	104.56
229.73	105.56
229.964	119.56
230.199	100.56
230.433	97.56
230.667	111.56
230.901	105.56
231.136	106.56
231.37	98.56
231.604	120.56
231.838	114.56
232.072	112.56
232.306	106.56
232.541	95.56
232.775	102.56
233.009	112.56
233.243	122.56
233.477	106.56
233.711	119.56
233.945	115.56
234.179	107.56
234.413	102.56
234.647	119.56
234.881	115.56
235.115	101.56
235.349	110.56
235.583	125.56
235.817	113.56
236.051	117.56
236.285	120.56
236.519	120.56
236.753	128.56
236.987	127.56
237.221	154.56
237.455	180.56
237.689	153.56
237.922	121.56
238.156	109.56
238.39	129.56
238.624	126.56
238.858	113.56
239.091	112.56
239.325	114.56
239.559	108.56
239.793	124.56
240.027	137.56
240.26	114.56
240.494	130.56
240.728	136.56
240.961	116.56
241.195	136.56
241.429	122.56
241.662	116.56
241.896	117.56
242.13	114.56
242.363	113.56
242.597	116.56
242.83	131.56
243.064	140.56
243.298	130.56
243.531	126.56
243.765	111.56
243.998	140.56
244.232	136.56
244.465	149.56
244.699	144.56
244.932	157.56
245.166	141.56
245.399	123.56
245.633	126.56
245.866	149.56
246.099	136.56
246.333	142.56
246.566	140.56
246.8	137.56
247.033	156.56
247.266	145.56
247.5	154.56
247.733	177.56
247.966	161.56
248.2	147.56
248.433	131.56
248.666	164.56
248.899	156.56
249.133	170.56
249.366	188.56
249.599	189.56
249.832	162.56
250.066	162.56
250.299	161.56
250.532	171.56
250.765	172.56
250.998	183.56
251.231	198.56
251.465	180.56
251.698	176.56
251.931	179.56
252.164	170.56
252.397	173.56
252.63	166.56
252.863	199.56
253.096	193.56
253.329	198.56
253.562	190.56
253.795	192.56
254.028	185.56
254.261	196.56
254.494	214.56
254.727	211.56
254.96	234.56
255.193	221.56
255.426	189.56
255.659	195.56
255.892	191.56
256.124	217.56
256.357	194.56
256.59	188.56
256.823	186.56
257.056	185.56
257.289	196.56
257.521	189.56
257.754	191.56
257.987	205.56
258.22	190.56
258.452	192.56
258.685	188.56
258.918	180.56
259.151	171.56
259.383	201.56
259.616	220.56
259.849	185.56
260.081	198.56
260.314	211.56
260.547	216.56
260.779	201.56
261.012	213.56
261.244	200.56
261.477	217.56
261.71	196.56
261.942	190.56
262.175	204.56
262.407	201.56
262.64	187.56
262.872	213.56
263.105	203.56
263.337	196.56
263.57	206.56
263.802	191.56
264.035	206.56
264.267	206.56
264.499	199.56
264.732	198.56
264.964	207.56
265.197	209.56
265.429	218.56
265.661	206.56
265.894	197.56
266.126	200.56
266.358	212.56
266.591	192.56
266.823	215.56
267.055	227.56
267.287	205.56
267.52	211.56
267.752	236.56
267.984	208.56
268.216	216.56
268.448	206.56
268.681	215.56
268.913	250.56
269.145	241.56
269.377	251.56
269.609	264.56
269.841	236.56
270.073	235.56
270.306	263.56
270.538	248.56
270.77	254.56
271.002	251.56
271.234	270.56
271.466	258.56
271.698	274.56
271.93	262.56
272.162	274.56
272.394	276.56
272.626	271.56
272.858	246.56
273.09	252.56
273.322	235.56
273.553	233.56
273.785	240.56
274.017	258.56
274.249	251.56
274.481	251.56
274.713	226.56
274.945	250.56
275.176	245.56
275.408	230.56
275.64	237.56
275.872	249.56
276.104	238.56
276.335	264.56
276.567	246.56
276.799	263.56
277.031	284.56
277.262	302.56
277.494	290.56
277.726	279.56
277.957	264.56
278.189	256.56
278.421	263.56
278.652	264.56
278.884	257.56
279.115	256.56
279.347	267.56
279.579	270.56
279.81	259.56
280.042	265.56
280.273	271.56
280.505	256.56
280.736	260.56
280.968	277.56
281.199	272.56
281.431	276.56
281.662	268.56
281.894	261.56
282.125	281.56
282.356	278.56
282.588	281.56
282.819	281.56
283.051	280.56
283.282	266.56
283.513	291.56
283.745	292.56
283.976	278.56
284.207	280.56
284.439	291.56
284.67	274.56
284.901	290.56
285.132	268.56
285.364	276.56
285.595	268.56
285.826	303.56
286.057	300.56
286.288	290.56
286.52	294.56
286.751	288.56
286.982	296.56
287.213	295.56
287.444	296.56
287.675	293.56
287.906	311.56
288.138	296.56
288.369	304.56
288.6	290.56
288.831	298.56
289.062	312.56
289.293	298.56
289.524	290.56
289.755	303.56
289.986	302.56
290.217	305.56
290.448	302.56
290.679	298.56
290.91	297.56
291.141	294.56
291.371	307.56
291.602	311.56
291.833	301.56
292.064	286.56
292.295	281.56
292.526	315.56
292.757	310.56
292.987	298.56
293.218	304.56
293.449	303.56
293.68	310.56
293.91	304.56
294.141	295.56
294.372	312.56
294.603	305.56
294.833	304.56
295.064	290.56
295.295	296.56
295.525	322.56
295.756	322.56
295.987	323.56
296.217	307.56
296.448	334.56
296.679	314.56
296.909	316.56
297.14	302.56
297.37	306.56
297.601	318.56
297.831	338.56
298.062	319.56
298.292	328.56
298.523	323.56
298.753	328.56
298.984	329.56
299.214	313.56
299.445	321.56
299.675	314.56
299.905	323.56
300.136	313.56
300.366	329.56
300.597	316.56
300.827	329.56
301.057	346.56
301.288	338.56
301.518	331.56
301.748	340.56
301.979	338.56
302.209	336.56
302.439	326.56
302.669	338.56
302.9	325.56
303.13	352.56
303.36	351.56
303.59	343.56
303.82	354.56
304.051	336.56
304.281	339.56
304.511	351.56
304.741	342.56
304.971	336.56
305.201	356.56
305.431	333.56
305.661	354.56
305.891	346.56
306.121	348.56
306.352	337.56
306.582	348.56
306.812	330.56
307.042	333.56
307.272	338.56
307.502	324.56
307.731	348.56
307.961	344.56
308.191	357.56
308.421	346.56
308.651	351.56
308.881	342.56
309.111	344.56
309.341	338.56
309.571	335.56
309.8	339.56
310.03	357.56
310.26	345.56
310.49	354.56
310.72	352.56
310.949	383.56
311.179	376.56
311.409	358.56
311.639	361.56
311.868	357.56
312.098	352.56
312.328	369.56
312.557	374.56
312.787	379.56
313.017	399.56
313.246	369.56
313.476	364.56
313.706	379.56
313.935	391.56
314.165	375.56
314.394	393.56
314.624	366.56
314.853	399.56
315.083	379.56
315.312	370.56
315.542	386.56
315.771	364.56
316.001	372.56
316.23	375.56
316.46	370.56
316.689	382.56
316.919	398.56
317.148	385.56
317.377	370.56
317.607	373.56
317.836	387.56
318.065	383.56
318.295	378.56
318.524	384.56
318.753	362.56
318.983	378.56
319.212	373.56
319.441	367.56
319.67	357.56
319.9	367.56
320.129	376.56
320.358	381.56
320.587	378.56
320.816	398.56
321.046	368.56
321.275	362.56
321.504	376.56
321.733	389.56
321.962	377.56
322.191	402.56
322.42	395.56
322.649	402.56
322.878	406.56
323.108	418.56
323.337	416.56
323.566	440.56
323.795	427.56
324.024	453.56
324.253	539.56
324.482	698.56
324.71	1018.56
324.939	1320.56
325.168	1126.56
325.397	604.56
325.626	464.56
325.855	432.56
326.084	431.56
326.313	423.56
326.542	432.56
326.77	479.56
326.999	520.56
327.228	695.56
327.457	932.56
327.686	1046.56
327.914	703.56
328.143	536.56
328.372	519.56
328.6	467.56
328.829	473.56
329.058	460.56
329.287	485.56
329.515	469.56
329.744	455.56
329.972	453.56
330.201	471.56
330.43	479.56
330.658	504.56
330.887	525.56
331.115	498.56
331.344	461.56
331.572	463.56
331.801	466.56
332.03	468.56
332.258	482.56
332.486	450.56
332.715	457.56
332.943	475.56
333.172	492.56
333.4	507.56
333.629	503.56
333.857	522.56
334.085	502.56
334.314	535.56
334.542	558.56
334.771	544.56
334.999	518.56
335.227	478.56
335.455	494.56
335.684	484.56
335.912	460.56
336.14	463.56
336.369	466.56
336.597	469.56
336.825	468.56
337.053	472.56
337.281	455.56
337.51	439.56
337.738	446.56
337.966	433.56
338.194	422.56
338.422	440.56
338.65	436.56
338.878	451.56
339.106	431.56
339.334	438.56
339.562	454.56
339.79	440.56
340.018	422.56
340.246	445.56
340.474	435.56
340.702	445.56
340.93	438.56
341.158	431.56
341.386	419.56
341.614	422.56
341.842	430.56
342.07	422.56
342.298	431.56
342.526	412.56
342.754	443.56
342.981	425.56
343.209	431.56
343.437	439.56
343.665	465.56
343.893	480.56
344.12	478.56
344.348	485.56
344.576	461.56
344.804	463.56
345.031	429.56
345.259	429.56
345.487	417.56
345.714	422.56
345.942	431.56
346.17	407.56
346.397	414.56
346.625	420.56
346.853	406.56
347.08	400.56
347.308	418.56
347.535	446.56
347.763	434.56
347.99	404.56
348.218	432.56
348.445	416.56
348.673	440.56
348.9	420.56
349.128	413.56
349.355	411.56
349.583	400.56
349.81	370.56
350.037	390.56
350.265	418.56
350.492	412.56
350.72	398.56
350.947	394.56
351.174	388.56
351.402	404.56
351.629	417.56
351.856	396.56
352.083	408.56
352.311	415.56
352.538	391.56
352.765	429.56
352.992	414.56
353.22	402.56
353.447	396.56
353.674	422.56
353.901	390.56
354.128	380.56
354.355	386.56
354.583	393.56
354.81	400.56
355.037	396.56
355.264	409.56
355.491	403.56
355.718	417.56
355.945	410.56
356.172	407.56
356.399	399.56
356.626	393.56
356.853	410.56
357.08	392.56
357.307	399.56
357.534	402.56
357.761	401.56
357.988	388.56
358.215	382.56
358.441	390.56
358.668	397.56
358.895	384.56
359.122	385.56
359.349	427.56
359.576	424.56
359.802	412.56
360.029	452.56
360.256	435.56
360.483	433.56
360.709	400.56
360.936	395.56
361.163	395.56
361.39	409.56
361.616	409.56
361.843	405.56
362.07	421.56
362.296	429.56
362.523	407.56
362.749	393.56
362.976	406.56
363.203	412.56
363.429	408.56
363.656	398.56
363.882	398.56
364.109	377.56
364.335	390.56
364.562	412.56
364.788	410.56
365.015	402.56
365.241	393.56
365.468	414.56
365.694	397.56
365.92	402.56
366.147	413.56
366.373	411.56
366.599	400.56
366.826	406.56
367.052	415.56
367.278	412.56
367.505	406.56
367.731	393.56
367.957	392.56
368.184	401.56
368.41	426.56
368.636	406.56
368.862	429.56
369.089	417.56
369.315	404.56
369.541	405.56
369.767	401.56
369.993	416.56
370.219	421.56
370.445	402.56
370.672	422.56
370.898	412.56
371.124	397.56
371.35	392.56
371.576	417.56
371.802	427.56
372.028	416.56
372.254	407.56
372.48	421.56
372.706	432.56
372.932	437.56
373.158	446.56
373.384	414.56
373.61	446.56
373.835	436.56
374.061	416.56
374.287	424.56
374.513	437.56
374.739	441.56
374.965	463.56
375.191	432.56
375.416	435.56
375.642	430.56
375.868	425.56
376.094	443.56
376.319	419.56
376.545	434.56
376.771	427.56
376.997	414.56
377.222	432.56
377.448	437.56
377.674	412.56
377.899	416.56
378.125	435.56
378.35	425.56
378.576	423.56
378.802	403.56
379.027	415.56
379.253	420.56
379.478	397.56
379.704	412.56
379.929	427.56
380.155	426.56
380.38	404.56
380.606	412.56
380.831	414.56
381.057	430.56
381.282	418.56
381.507	418.56
381.733	437.56
381.958	439.56
382.184	435.56
382.409	417.56
382.634	422.56
382.86	442.56
383.085	436.56
383.31	415.56
383.535	438.56
383.761	454.56
383.986	437.56
384.211	467.56
384.436	453.56
384.662	471.56
384.887	477.56
385.112	460.56
385.337	464.56
385.562	463.56
385.787	494.56
386.013	501.56
386.238	495.56
386.463	465.56
386.688	491.56
386.913	479.56
387.138	458.56
387.363	478.56
387.588	469.56
387.813	498.56
388.038	488.56
388.263	477.56
388.488	481.56
388.713	467.56
388.938	479.56
389.163	476.56
389.387	466.56
389.612	456.56
389.837	458.56
390.062	478.56
390.287	484.56
390.512	463.56
390.736	466.56
390.961	483.56
391.186	479.56
391.411	505.56
391.636	503.56
391.86	500.56
392.085	506.56
392.31	527.56
392.534	504.56
392.759	504.56
392.984	492.56
393.208	491.56
393.433	506.56
393.658	498.56
393.882	477.56
394.107	511.56
394.331	488.56
394.556	511.56
394.78	483.56
395.005	521.56
395.229	516.56
395.454	528.56
395.678	534.56
395.903	533.56
396.127	542.56
396.352	515.56
396.576	503.56
396.801	507.56
397.025	512.56
397.249	504.56
397.474	498.56
397.698	535.56
397.922	557.56
398.147	557.56
398.371	536.56
398.595	555.56
398.82	546.56
399.044	602.56
399.268	642.56
399.492	703.56
399.717	760.56
399.941	772.56
400.165	715.56
400.389	676.56
400.613	616.56
400.837	608.56
401.062	579.56
401.286	551.56
401.51	563.56
401.734	557.56
401.958	583.56
402.182	567.56
402.406	594.56
402.63	614.56
402.854	573.56
403.078	611.56
403.302	604.56
403.526	632.56
403.75	616.56
403.974	625.56
404.198	612.56
404.422	634.56
404.645	644.56
404.869	618.56
405.093	649.56
405.317	652.56
405.541	674.56
405.765	656.56
405.988	621.56
406.212	634.56
406.436	639.56
406.66	646.56
406.883	627.56
407.107	672.56
407.331	702.56
407.555	737.56
407.778	739.56
408.002	690.56
408.226	670.56
408.449	646.56
408.673	646.56
408.896	649.56
409.12	680.56
409.344	624.56
409.567	611.56
409.791	611.56
410.014	596.56
410.238	591.56
410.461	597.56
410.685	580.56
410.908	592.56
411.132	618.56
411.355	617.56
411.578	632.56
411.802	581.56
412.025	569.56
412.249	610.56
412.472	599.56
412.695	638.56
412.919	615.56
413.142	568.56
413.365	585.56
413.589	576.56
413.812	551.56
414.035	540.56
414.258	570.56
414.482	556.56
414.705	570.56
414.928	560.56
415.151	566.56
415.374	567.56
415.597	556.56
415.821	543.56
416.044	569.56
416.267	543.56
416.49	532.56
416.713	565.56
416.936	540.56
417.159	524.56
417.382	540.56
417.605	553.56
417.828	566.56
418.051	580.56
418.274	562.56
418.497	542.56
418.72	574.56
418.943	562.56
419.166	583.56
419.389	588.56
419.611	597.56
419.834	589.56
420.057	594.56
420.28	593.56
420.503	581.56
420.726	572.56
420.948	580.56
421.171	586.56
421.394	615.56
421.617	558.56
421.839	556.56
422.062	559.56
422.285	569.56
422.507	619.56
422.73	616.56
422.953	634.56
423.175	610.56
423.398	560.56
423.621	591.56
423.843	621.56
424.066	616.56
424.288	606.56
424.511	617.56
424.733	651.56
424.956	684.56
425.178	656.56
425.401	661.56
425.623	660.56
425.846	619.56
426.068	557.56
426.291	570.56
426.513	557.56
426.735	567.56
426.958	609.56
427.18	640.56
427.402	727.56
427.625	749.56
427.847	664.56
428.069	597.56
428.292	560.56
428.514	551.56
428.736	537.56
428.958	535.56
429.181	505.56
429.403	527.56
429.625	538.56
429.847	563.56
430.069	563.56
430.292	554.56
430.514	525.56
430.736	535.56
430.958	488.56
431.18	504.56
431.402	510.56
431.624	508.56
431.846	526.56
432.068	502.56
432.29	515.56
432.512	516.56
432.734	495.56
432.956	513.56
433.178	543.56
433.4	536.56
433.622	513.56
433.844	504.56
434.066	518.56
434.287	521.56
434.509	541.56
434.731	545.56
434.953	540.56
435.175	575.56
435.397	582.56
435.618	570.56
435.84	588.56
436.062	625.56
436.284	643.56
436.505	582.56
436.727	545.56
436.949	530.56
437.17	520.56
437.392	516.56
437.614	538.56
437.835	509.56
438.057	596.56
438.278	652.56
438.5	643.56
438.721	698.56
438.943	658.56
439.165	570.56
439.386	553.56
439.608	529.56
439.829	512.56
440.05	573.56
440.272	589.56
440.493	566.56
440.715	574.56
440.936	535.56
441.158	533.56
441.379	551.56
441.6	571.56
441.822	555.56
442.043	607.56
442.264	643.56
442.486	641.56
442.707	595.56
442.928	551.56
443.149	571.56
443.371	597.56
443.592	629.56
443.813	686.56
444.034	729.56
444.255	629.56
444.476	611.56
444.698	616.56
444.919	627.56
445.14	729.56
445.361	654.56
445.582	610.56
445.803	640.56
446.024	675.56
446.245	668.56
446.466	623.56
446.687	566.56
446.908	531.56
447.129	509.56
447.35	516.56
447.571	505.56
447.792	488.56
448.013	476.56
448.234	510.56
448.455	527.56
448.675	588.56
448.896	658.56
449.117	568.56
449.338	568.56
449.559	664.56
449.779	684.56
450	574.56
450.221	500.56
450.442	484.56
450.662	506.56
450.883	501.56
451.104	510.56
451.324	484.56
451.545	472.56
451.766	458.56
451.986	473.56
452.207	468.56
452.428	441.56
452.648	469.56
452.869	462.56
453.089	447.56
453.31	474.56
453.53	440.56
453.751	447.56
453.971	450.56
454.192	462.56
454.412	455.56
454.633	450.56
454.853	420.56
455.073	430.56
455.294	456.56
455.514	510.56
455.734	486.56
455.955	437.56
456.175	446.56
456.395	445.56
456.616	415.56
456.836	417.56
457.056	407.56
457.276	441.56
457.497	433.56
457.717	441.56
457.937	432.56
458.157	457.56
458.377	462.56
458.598	457.56
458.818	502.56
459.038	548.56
459.258	579.56
459.478	532.56
459.698	511.56
459.918	517.56
460.138	513.56
460.358	531.56
460.578	530.56
460.798	557.56
461.018	550.56
461.238	537.56
461.458	544.56
461.678	544.56
461.898	566.56
462.118	539.56
462.338	562.56
462.558	590.56
462.777	607.56
462.997	613.56
463.217	664.56
463.437	658.56
463.657	621.56
463.876	607.56
464.096	585.56
464.316	571.56
464.536	601.56
464.755	599.56
464.975	585.56
465.195	581.56
465.414	620.56
465.634	542.56
465.854	517.56
466.073	497.56
466.293	495.56
466.512	496.56
466.732	493.56
466.951	469.56
467.171	461.56
467.391	464.56
467.61	474.56
467.829	498.56
468.049	473.56
468.268	472.56
468.488	462.56
468.707	465.56
468.927	452.56
469.146	456.56
469.365	468.56
469.585	476.56
469.804	485.56
470.023	490.56
470.243	505.56
470.462	503.56
470.681	533.56
470.901	511.56
471.12	485.56
471.339	490.56
471.558	474.56
471.777	484.56
471.997	458.56
472.216	483.56
472.435	482.56
472.654	457.56
472.873	468.56
473.092	495.56
473.311	472.56
473.53	451.56
473.749	464.56
473.968	490.56
474.187	549.56
474.406	536.56
474.625	474.56
474.844	463.56
475.063	485.56
475.282	470.56
475.501	476.56
475.72	490.56
475.939	452.56
476.158	454.56
476.377	477.56
476.596	484.56
476.814	473.56
477.033	496.56
477.252	496.56
477.471	477.56
477.69	518.56
477.908	519.56
478.127	499.56
478.346	557.56
478.564	527.56
478.783	549.56
479.002	550.56
479.22	561.56
479.439	564.56
479.658	557.56
479.876	552.56
480.095	574.56
480.313	614.56
480.532	605.56
480.751	574.56
480.969	564.56
481.188	600.56
481.406	641.56
481.624	582.56
481.843	552.56
482.061	555.56
482.28	528.56
482.498	544.56
482.717	536.56
482.935	528.56
483.153	538.56
483.372	563.56
483.59	549.56
483.808	501.56
484.027	539.56
484.245	541.56
484.463	546.56
484.681	544.56
484.9	560.56
485.118	562.56
485.336	557.56
485.554	550.56
485.772	560.56
485.99	543.56
486.209	558.56
486.427	553.56
486.645	567.56
486.863	546.56
487.081	560.56
487.299	569.56
487.517	544.56
487.735	596.56
487.953	565.56
488.171	599.56
488.389	570.56
488.607	546.56
488.825	555.56
489.043	549.56
489.261	592.56
489.479	578.56
489.696	552.56
489.914	552.56
490.132	576.56
490.35	586.56
490.568	577.56
490.786	599.56
491.003	605.56
491.221	628.56
491.439	618.56
491.657	642.56
491.874	646.56
492.092	628.56
492.31	640.56
492.527	649.56
492.745	675.56
492.963	650.56
493.18	663.56
493.398	649.56
493.615	646.56
493.833	641.56
494.05	654.56
494.268	680.56
494.485	653.56
494.703	656.56
494.92	662.56
495.138	664.56
495.355	663.56
495.573	648.56
495.79	677.56
496.008	656.56
496.225	631.56
496.442	653.56
496.66	672.56
496.877	644.56
497.094	670.56
497.312	678.56
497.529	693.56
497.746	706.56
497.963	686.56
498.181	733.56
498.398	752.56
498.615	799.56
498.832	793.56
499.049	841.56
499.267	894.56
499.484	928.56
499.701	998.56
499.918	1082.56
500.135	1167.56
500.352	1248.56
500.569	1282.56
500.786	1294.56
501.003	1249.56
501.22	1172.56
501.437	1064.56
501.654	1014.56
501.871	965.56
