Data from 1960PennyLincolnUp.LampE6.200Scan.07172019.P1_HRD10591_13-05-28-002.txt Node
Date: Thu Jul 18 13:05:28 EDT 2019
User: cochatt
Spectrometer: HR+D1059
Trigger mode: 1
Integration Time (sec): 1.000000E-1
Scans to average: 1
Electric dark correction enabled: true
Nonlinearity correction enabled: false
Boxcar width: 0
XAxis mode: Wavelengths
Number of Pixels in Spectrum: 2048
>>>>>Begin Spectral Data<<<<<
223.165	-15.25
223.4	-15.25
223.635	-15.25
223.869	-15.25
224.104	-9.25
224.338	-11.25
224.573	-12.25
224.808	-8.25
225.042	-7.25
225.277	-14.25
225.511	-11.25
225.746	6.75
225.98	0.75
226.215	10.75
226.449	2.75
226.683	14.75
226.918	26.75
227.152	41.75
227.387	30.75
227.621	36.75
227.856	37.75
228.09	41.75
228.324	37.75
228.559	41.75
228.793	66.75
229.027	83.75
229.262	94.75
229.496	94.75
229.73	107.75
229.964	112.75
230.199	91.75
230.433	107.75
230.667	95.75
230.901	104.75
231.136	104.75
231.37	93.75
231.604	102.75
231.838	113.75
232.072	112.75
232.306	115.75
232.541	120.75
232.775	114.75
233.009	99.75
233.243	105.75
233.477	124.75
233.711	100.75
233.945	115.75
234.179	108.75
234.413	93.75
234.647	117.75
234.881	102.75
235.115	98.75
235.349	119.75
235.583	102.75
235.817	111.75
236.051	118.75
236.285	106.75
236.519	123.75
236.753	126.75
236.987	125.75
237.221	140.75
237.455	159.75
237.689	132.75
237.922	122.75
238.156	111.75
238.39	137.75
238.624	110.75
238.858	114.75
239.091	118.75
239.325	93.75
239.559	114.75
239.793	110.75
240.027	118.75
240.26	132.75
240.494	131.75
240.728	128.75
240.961	146.75
241.195	126.75
241.429	124.75
241.662	127.75
241.896	127.75
242.13	115.75
242.363	115.75
242.597	133.75
242.83	128.75
243.064	114.75
243.298	125.75
243.531	123.75
243.765	133.75
243.998	144.75
244.232	146.75
244.465	135.75
244.699	139.75
244.932	129.75
245.166	134.75
245.399	127.75
245.633	141.75
245.866	142.75
246.099	140.75
246.333	134.75
246.566	142.75
246.8	127.75
247.033	144.75
247.266	139.75
247.5	147.75
247.733	161.75
247.966	143.75
248.2	154.75
248.433	148.75
248.666	160.75
248.899	152.75
249.133	171.75
249.366	170.75
249.599	165.75
249.832	175.75
250.066	165.75
250.299	163.75
250.532	156.75
250.765	167.75
250.998	176.75
251.231	169.75
251.465	166.75
251.698	162.75
251.931	180.75
252.164	179.75
252.397	170.75
252.63	170.75
252.863	169.75
253.096	167.75
253.329	185.75
253.562	188.75
253.795	182.75
254.028	174.75
254.261	177.75
254.494	196.75
254.727	209.75
254.96	211.75
255.193	207.75
255.426	189.75
255.659	196.75
255.892	190.75
256.124	190.75
256.357	201.75
256.59	198.75
256.823	182.75
257.056	190.75
257.289	177.75
257.521	166.75
257.754	198.75
257.987	187.75
258.22	198.75
258.452	183.75
258.685	191.75
258.918	181.75
259.151	198.75
259.383	212.75
259.616	199.75
259.849	212.75
260.081	199.75
260.314	211.75
260.547	212.75
260.779	204.75
261.012	208.75
261.244	204.75
261.477	194.75
261.71	198.75
261.942	181.75
262.175	192.75
262.407	192.75
262.64	192.75
262.872	203.75
263.105	197.75
263.337	187.75
263.57	197.75
263.802	200.75
264.035	191.75
264.267	191.75
264.499	192.75
264.732	196.75
264.964	215.75
265.197	190.75
265.429	194.75
265.661	192.75
265.894	211.75
266.126	203.75
266.358	189.75
266.591	206.75
266.823	205.75
267.055	200.75
267.287	204.75
267.52	206.75
267.752	208.75
267.984	221.75
268.216	218.75
268.448	210.75
268.681	207.75
268.913	210.75
269.145	215.75
269.377	244.75
269.609	244.75
269.841	206.75
270.073	225.75
270.306	246.75
270.538	261.75
270.77	260.75
271.002	244.75
271.234	253.75
271.466	260.75
271.698	262.75
271.93	265.75
272.162	275.75
272.394	260.75
272.626	263.75
272.858	243.75
273.09	236.75
273.322	231.75
273.553	241.75
273.785	237.75
274.017	234.75
274.249	260.75
274.481	234.75
274.713	234.75
274.945	236.75
275.176	240.75
275.408	244.75
275.64	236.75
275.872	250.75
276.104	249.75
276.335	246.75
276.567	269.75
276.799	242.75
277.031	272.75
277.262	267.75
277.494	274.75
277.726	254.75
277.957	266.75
278.189	243.75
278.421	247.75
278.652	246.75
278.884	256.75
279.115	261.75
279.347	253.75
279.579	242.75
279.81	260.75
280.042	270.75
280.273	252.75
280.505	266.75
280.736	262.75
280.968	252.75
281.199	267.75
281.431	262.75
281.662	266.75
281.894	279.75
282.125	266.75
282.356	265.75
282.588	280.75
282.819	286.75
283.051	254.75
283.282	280.75
283.513	264.75
283.745	261.75
283.976	262.75
284.207	258.75
284.439	271.75
284.67	273.75
284.901	286.75
285.132	268.75
285.364	271.75
285.595	264.75
285.826	277.75
286.057	265.75
286.288	263.75
286.52	275.75
286.751	269.75
286.982	269.75
287.213	264.75
287.444	279.75
287.675	293.75
287.906	290.75
288.138	280.75
288.369	300.75
288.6	296.75
288.831	287.75
289.062	293.75
289.293	284.75
289.524	288.75
289.755	273.75
289.986	294.75
290.217	287.75
290.448	290.75
290.679	296.75
290.91	290.75
291.141	292.75
291.371	291.75
291.602	291.75
291.833	286.75
292.064	291.75
292.295	297.75
292.526	300.75
292.757	304.75
292.987	277.75
293.218	289.75
293.449	286.75
293.68	295.75
293.91	295.75
294.141	295.75
294.372	289.75
294.603	290.75
294.833	276.75
295.064	293.75
295.295	303.75
295.525	294.75
295.756	293.75
295.987	300.75
296.217	282.75
296.448	314.75
296.679	301.75
296.909	300.75
297.14	314.75
297.37	305.75
297.601	315.75
297.831	290.75
298.062	318.75
298.292	315.75
298.523	309.75
298.753	336.75
298.984	326.75
299.214	306.75
299.445	305.75
299.675	302.75
299.905	318.75
300.136	310.75
300.366	320.75
300.597	310.75
300.827	330.75
301.057	311.75
301.288	350.75
301.518	339.75
301.748	335.75
301.979	335.75
302.209	334.75
302.439	328.75
302.669	334.75
302.9	327.75
303.13	311.75
303.36	317.75
303.59	349.75
303.82	322.75
304.051	336.75
304.281	333.75
304.511	306.75
304.741	357.75
304.971	324.75
305.201	333.75
305.431	338.75
305.661	328.75
305.891	335.75
306.121	339.75
306.352	346.75
306.582	341.75
306.812	327.75
307.042	323.75
307.272	312.75
307.502	318.75
307.731	349.75
307.961	335.75
308.191	322.75
308.421	332.75
308.651	336.75
308.881	336.75
309.111	326.75
309.341	343.75
309.571	335.75
309.8	346.75
310.03	340.75
310.26	346.75
310.49	332.75
310.72	338.75
310.949	346.75
311.179	360.75
311.409	387.75
311.639	368.75
311.868	330.75
312.098	343.75
312.328	358.75
312.557	346.75
312.787	375.75
313.017	343.75
313.246	354.75
313.476	358.75
313.706	341.75
313.935	388.75
314.165	357.75
314.394	377.75
314.624	364.75
314.853	364.75
315.083	367.75
315.312	362.75
315.542	364.75
315.771	350.75
316.001	348.75
316.23	351.75
316.46	372.75
316.689	394.75
316.919	355.75
317.148	368.75
317.377	372.75
317.607	360.75
317.836	365.75
318.065	368.75
318.295	347.75
318.524	363.75
318.753	358.75
318.983	348.75
319.212	349.75
319.441	364.75
319.67	351.75
319.9	388.75
320.129	366.75
320.358	382.75
320.587	387.75
320.816	386.75
321.046	362.75
321.275	394.75
321.504	353.75
321.733	364.75
321.962	353.75
322.191	355.75
322.42	377.75
322.649	406.75
322.878	397.75
323.108	400.75
323.337	418.75
323.566	385.75
323.795	432.75
324.024	447.75
324.253	496.75
324.482	615.75
324.71	885.75
324.939	1165.75
325.168	993.75
325.397	580.75
325.626	456.75
325.855	450.75
326.084	440.75
326.313	419.75
326.542	440.75
326.77	433.75
326.999	481.75
327.228	623.75
327.457	800.75
327.686	918.75
327.914	676.75
328.143	507.75
328.372	462.75
328.6	467.75
328.829	443.75
329.058	454.75
329.287	456.75
329.515	455.75
329.744	416.75
329.972	428.75
330.201	432.75
330.43	487.75
330.658	470.75
330.887	474.75
331.115	488.75
331.344	447.75
331.572	426.75
331.801	422.75
332.03	427.75
332.258	443.75
332.486	442.75
332.715	478.75
332.943	472.75
333.172	458.75
333.4	478.75
333.629	482.75
333.857	496.75
334.085	511.75
334.314	501.75
334.542	518.75
334.771	541.75
334.999	502.75
335.227	503.75
335.455	484.75
335.684	463.75
335.912	470.75
336.14	464.75
336.369	468.75
336.597	448.75
336.825	449.75
337.053	423.75
337.281	444.75
337.51	435.75
337.738	435.75
337.966	431.75
338.194	444.75
338.422	448.75
338.65	423.75
338.878	400.75
339.106	436.75
339.334	436.75
339.562	411.75
339.79	427.75
340.018	418.75
340.246	412.75
340.474	396.75
340.702	406.75
340.93	410.75
341.158	413.75
341.386	422.75
341.614	393.75
341.842	406.75
342.07	401.75
342.298	409.75
342.526	382.75
342.754	406.75
342.981	405.75
343.209	402.75
343.437	437.75
343.665	435.75
343.893	468.75
344.12	479.75
344.348	471.75
344.576	453.75
344.804	432.75
345.031	416.75
345.259	444.75
345.487	409.75
345.714	419.75
345.942	415.75
346.17	406.75
346.397	388.75
346.625	400.75
346.853	416.75
347.08	384.75
347.308	401.75
347.535	382.75
347.763	392.75
347.99	382.75
348.218	406.75
348.445	395.75
348.673	408.75
348.9	394.75
349.128	397.75
349.355	381.75
349.583	408.75
349.81	415.75
350.037	395.75
350.265	388.75
350.492	390.75
350.72	409.75
350.947	392.75
351.174	385.75
351.402	388.75
351.629	401.75
351.856	403.75
352.083	381.75
352.311	402.75
352.538	403.75
352.765	384.75
352.992	404.75
353.22	388.75
353.447	399.75
353.674	391.75
353.901	403.75
354.128	382.75
354.355	378.75
354.583	384.75
354.81	374.75
355.037	395.75
355.264	372.75
355.491	379.75
355.718	383.75
355.945	375.75
356.172	384.75
356.399	374.75
356.626	371.75
356.853	391.75
357.08	385.75
357.307	384.75
357.534	382.75
357.761	389.75
357.988	402.75
358.215	375.75
358.441	383.75
358.668	399.75
358.895	384.75
359.122	393.75
359.349	402.75
359.576	413.75
359.802	386.75
360.029	402.75
360.256	421.75
360.483	390.75
360.709	407.75
360.936	399.75
361.163	360.75
361.39	405.75
361.616	404.75
361.843	389.75
362.07	387.75
362.296	397.75
362.523	394.75
362.749	403.75
362.976	399.75
363.203	396.75
363.429	391.75
363.656	413.75
363.882	396.75
364.109	370.75
364.335	382.75
364.562	405.75
364.788	376.75
365.015	384.75
365.241	401.75
365.468	400.75
365.694	384.75
365.92	403.75
366.147	397.75
366.373	380.75
366.599	378.75
366.826	365.75
367.052	390.75
367.278	389.75
367.505	396.75
367.731	386.75
367.957	366.75
368.184	377.75
368.41	391.75
368.636	403.75
368.862	404.75
369.089	422.75
369.315	383.75
369.541	405.75
369.767	405.75
369.993	388.75
370.219	396.75
370.445	396.75
370.672	391.75
370.898	394.75
371.124	404.75
371.35	418.75
371.576	399.75
371.802	399.75
372.028	405.75
372.254	422.75
372.48	400.75
372.706	394.75
372.932	387.75
373.158	427.75
373.384	399.75
373.61	415.75
373.835	404.75
374.061	427.75
374.287	426.75
374.513	436.75
374.739	427.75
374.965	436.75
375.191	421.75
375.416	432.75
375.642	435.75
375.868	410.75
376.094	432.75
376.319	394.75
376.545	398.75
376.771	414.75
376.997	399.75
377.222	397.75
377.448	421.75
377.674	404.75
377.899	412.75
378.125	412.75
378.35	396.75
378.576	393.75
378.802	404.75
379.027	388.75
379.253	399.75
379.478	408.75
379.704	373.75
379.929	409.75
380.155	395.75
380.38	392.75
380.606	399.75
380.831	416.75
381.057	418.75
381.282	398.75
381.507	414.75
381.733	428.75
381.958	415.75
382.184	397.75
382.409	412.75
382.634	404.75
382.86	398.75
383.085	415.75
383.31	421.75
383.535	434.75
383.761	455.75
383.986	428.75
384.211	447.75
384.436	449.75
384.662	457.75
384.887	477.75
385.112	468.75
385.337	464.75
385.562	477.75
385.787	470.75
386.013	460.75
386.238	459.75
386.463	455.75
386.688	480.75
386.913	463.75
387.138	468.75
387.363	450.75
387.588	454.75
387.813	469.75
388.038	448.75
388.263	455.75
388.488	453.75
388.713	441.75
388.938	445.75
389.163	462.75
389.387	440.75
389.612	431.75
389.837	468.75
390.062	454.75
390.287	470.75
390.512	457.75
390.736	462.75
390.961	466.75
391.186	459.75
391.411	485.75
391.636	484.75
391.86	510.75
392.085	508.75
392.31	495.75
392.534	490.75
392.759	477.75
392.984	470.75
393.208	483.75
393.433	496.75
393.658	468.75
393.882	455.75
394.107	477.75
394.331	489.75
394.556	472.75
394.78	480.75
395.005	467.75
395.229	486.75
395.454	511.75
395.678	494.75
395.903	519.75
396.127	510.75
396.352	512.75
396.576	507.75
396.801	493.75
397.025	483.75
397.249	503.75
397.474	513.75
397.698	510.75
397.922	517.75
398.147	490.75
398.371	540.75
398.595	535.75
398.82	528.75
399.044	573.75
399.268	616.75
399.492	691.75
399.717	734.75
399.941	756.75
400.165	701.75
400.389	684.75
400.613	624.75
400.837	587.75
401.062	566.75
401.286	528.75
401.51	556.75
401.734	552.75
401.958	528.75
402.182	576.75
402.406	594.75
402.63	574.75
402.854	576.75
403.078	589.75
403.302	596.75
403.526	598.75
403.75	622.75
403.974	605.75
404.198	582.75
404.422	620.75
404.645	615.75
404.869	612.75
405.093	613.75
405.317	661.75
405.541	647.75
405.765	622.75
405.988	605.75
406.212	599.75
406.436	620.75
406.66	618.75
406.883	632.75
407.107	654.75
407.331	703.75
407.555	733.75
407.778	710.75
408.002	660.75
408.226	623.75
408.449	624.75
408.673	641.75
408.896	621.75
409.12	666.75
409.344	635.75
409.567	602.75
409.791	586.75
410.014	567.75
410.238	584.75
410.461	559.75
410.685	588.75
410.908	593.75
411.132	595.75
411.355	613.75
411.578	585.75
411.802	576.75
412.025	572.75
412.249	552.75
412.472	581.75
412.695	619.75
412.919	570.75
413.142	567.75
413.365	572.75
413.589	552.75
413.812	571.75
414.035	531.75
414.258	561.75
414.482	540.75
414.705	532.75
414.928	550.75
415.151	551.75
415.374	543.75
415.597	555.75
415.821	539.75
416.044	538.75
416.267	522.75
416.49	535.75
416.713	534.75
416.936	538.75
417.159	511.75
417.382	540.75
417.605	549.75
417.828	553.75
418.051	564.75
418.274	546.75
418.497	533.75
418.72	521.75
418.943	527.75
419.166	575.75
419.389	590.75
419.611	611.75
419.834	597.75
420.057	588.75
420.28	573.75
420.503	559.75
420.726	536.75
420.948	555.75
421.171	558.75
421.394	596.75
421.617	561.75
421.839	542.75
422.062	578.75
422.285	562.75
422.507	584.75
422.73	611.75
422.953	623.75
423.175	591.75
423.398	566.75
423.621	573.75
423.843	577.75
424.066	571.75
424.288	572.75
424.511	588.75
424.733	623.75
424.956	612.75
425.178	618.75
425.401	615.75
425.623	646.75
425.846	586.75
426.068	533.75
426.291	546.75
426.513	532.75
426.735	542.75
426.958	565.75
427.18	596.75
427.402	679.75
427.625	712.75
427.847	629.75
428.069	584.75
428.292	555.75
428.514	538.75
428.736	525.75
428.958	523.75
429.181	511.75
429.403	490.75
429.625	503.75
429.847	532.75
430.069	566.75
430.292	530.75
430.514	503.75
430.736	500.75
430.958	491.75
431.18	498.75
431.402	491.75
431.624	487.75
431.846	510.75
432.068	498.75
432.29	475.75
432.512	510.75
432.734	515.75
432.956	504.75
433.178	514.75
433.4	496.75
433.622	490.75
433.844	508.75
434.066	508.75
434.287	517.75
434.509	517.75
434.731	527.75
434.953	526.75
435.175	533.75
435.397	556.75
435.618	560.75
435.84	565.75
436.062	596.75
436.284	613.75
436.505	565.75
436.727	536.75
436.949	514.75
437.17	488.75
437.392	507.75
437.614	502.75
437.835	526.75
438.057	572.75
438.278	596.75
438.5	598.75
438.721	678.75
438.943	643.75
439.165	519.75
439.386	512.75
439.608	526.75
439.829	541.75
440.05	523.75
440.272	561.75
440.493	540.75
440.715	533.75
440.936	538.75
441.158	531.75
441.379	545.75
441.6	548.75
441.822	579.75
442.043	583.75
442.264	614.75
442.486	605.75
442.707	572.75
442.928	563.75
443.149	539.75
443.371	599.75
443.592	596.75
443.813	652.75
444.034	672.75
444.255	623.75
444.476	591.75
444.698	618.75
444.919	608.75
445.14	686.75
445.361	610.75
445.582	597.75
445.803	600.75
446.024	627.75
446.245	626.75
446.466	588.75
446.687	559.75
446.908	539.75
447.129	499.75
447.35	507.75
447.571	491.75
447.792	467.75
448.013	465.75
448.234	497.75
448.455	510.75
448.675	592.75
448.896	636.75
449.117	553.75
449.338	534.75
449.559	607.75
449.779	632.75
450	541.75
450.221	498.75
450.442	486.75
450.662	465.75
450.883	449.75
451.104	488.75
451.324	459.75
451.545	461.75
451.766	471.75
451.986	475.75
452.207	463.75
452.428	451.75
452.648	462.75
452.869	440.75
453.089	438.75
453.31	452.75
453.53	444.75
453.751	422.75
453.971	437.75
454.192	441.75
454.412	478.75
454.633	428.75
454.853	419.75
455.073	431.75
455.294	452.75
455.514	483.75
455.734	450.75
455.955	446.75
456.175	422.75
456.395	422.75
456.616	405.75
456.836	431.75
457.056	416.75
457.276	421.75
457.497	411.75
457.717	425.75
457.937	436.75
458.157	413.75
458.377	424.75
458.598	462.75
458.818	466.75
459.038	505.75
459.258	527.75
459.478	507.75
459.698	504.75
459.918	509.75
460.138	502.75
460.358	529.75
460.578	525.75
460.798	523.75
461.018	540.75
461.238	532.75
461.458	523.75
461.678	511.75
461.898	519.75
462.118	540.75
462.338	535.75
462.558	565.75
462.777	579.75
462.997	612.75
463.217	650.75
463.437	646.75
463.657	609.75
463.876	577.75
464.096	598.75
464.316	589.75
464.536	613.75
464.755	574.75
464.975	583.75
465.195	563.75
465.414	582.75
465.634	508.75
465.854	490.75
466.073	476.75
466.293	484.75
466.512	488.75
466.732	453.75
466.951	453.75
467.171	461.75
467.391	463.75
467.61	446.75
467.829	478.75
468.049	469.75
468.268	470.75
468.488	458.75
468.707	452.75
468.927	460.75
469.146	437.75
469.365	455.75
469.585	459.75
469.804	482.75
470.023	486.75
470.243	475.75
470.462	504.75
470.681	492.75
470.901	498.75
471.12	481.75
471.339	475.75
471.558	477.75
471.777	487.75
471.997	453.75
472.216	459.75
472.435	487.75
472.654	460.75
472.873	444.75
473.092	452.75
473.311	444.75
473.53	456.75
473.749	458.75
473.968	463.75
474.187	536.75
474.406	524.75
474.625	465.75
474.844	465.75
475.063	462.75
475.282	459.75
475.501	450.75
475.72	455.75
475.939	418.75
476.158	475.75
476.377	472.75
476.596	469.75
476.814	497.75
477.033	463.75
477.252	483.75
477.471	504.75
477.69	518.75
477.908	512.75
478.127	530.75
478.346	508.75
478.564	536.75
478.783	539.75
479.002	544.75
479.22	549.75
479.439	543.75
479.658	522.75
479.876	556.75
480.095	542.75
480.313	590.75
480.532	587.75
480.751	579.75
480.969	574.75
481.188	604.75
481.406	609.75
481.624	542.75
481.843	556.75
482.061	516.75
482.28	540.75
482.498	488.75
482.717	519.75
482.935	536.75
483.153	516.75
483.372	509.75
483.59	536.75
483.808	530.75
484.027	521.75
484.245	517.75
484.463	505.75
484.681	523.75
484.9	548.75
485.118	527.75
485.336	534.75
485.554	542.75
485.772	585.75
485.99	538.75
486.209	536.75
486.427	542.75
486.645	550.75
486.863	570.75
487.081	547.75
487.299	563.75
487.517	565.75
487.735	540.75
487.953	572.75
488.171	568.75
488.389	560.75
488.607	529.75
488.825	540.75
489.043	582.75
489.261	573.75
489.479	561.75
489.696	583.75
489.914	581.75
490.132	564.75
490.35	586.75
490.568	581.75
490.786	570.75
491.003	591.75
491.221	595.75
491.439	595.75
491.657	603.75
491.874	599.75
492.092	590.75
492.31	613.75
492.527	620.75
492.745	624.75
492.963	622.75
493.18	634.75
493.398	619.75
493.615	630.75
493.833	627.75
494.05	650.75
494.268	623.75
494.485	638.75
494.703	632.75
494.92	628.75
495.138	631.75
495.355	615.75
495.573	627.75
495.79	611.75
496.008	619.75
496.225	621.75
496.442	629.75
496.66	650.75
496.877	631.75
497.094	647.75
497.312	650.75
497.529	661.75
497.746	672.75
497.963	684.75
498.181	697.75
498.398	724.75
498.615	731.75
498.832	758.75
499.049	811.75
499.267	870.75
499.484	911.75
499.701	952.75
499.918	1049.75
500.135	1138.75
500.352	1249.75
500.569	1268.75
500.786	1276.75
501.003	1238.75
501.22	1109.75
501.437	1019.75
501.654	1002.75
501.871	949.75
502.088	838.75
