Data from 1960PennyLincolnUp.LampE5.5.200Scan.07172019.P1.ChangedAngle_HRD10591_13-15-43-822.txt Node
Date: Thu Jul 18 13:15:43 EDT 2019
User: cochatt
Spectrometer: HR+D1059
Trigger mode: 1
Integration Time (sec): 1.000000E-1
Scans to average: 1
Electric dark correction enabled: true
Nonlinearity correction enabled: false
Boxcar width: 0
XAxis mode: Wavelengths
Number of Pixels in Spectrum: 2048
>>>>>Begin Spectral Data<<<<<
223.165	-19.12
223.4	-19.12
223.635	-19.12
223.869	-19.12
224.104	-16.12
224.338	-6.12
224.573	-15.12
224.808	-12.12
225.042	-9.12
225.277	-0.12
225.511	-0.12
225.746	11.88
225.98	6.88
226.215	10.88
226.449	8.88
226.683	9.88
226.918	15.88
227.152	32.88
227.387	40.88
227.621	43.88
227.856	53.88
228.09	38.88
228.324	56.88
228.559	58.88
228.793	82.88
229.027	73.88
229.262	99.88
229.496	98.88
229.73	98.88
229.964	124.88
230.199	113.88
230.433	123.88
230.667	109.88
230.901	110.88
231.136	121.88
231.37	112.88
231.604	102.88
231.838	120.88
232.072	107.88
232.306	106.88
232.541	120.88
232.775	126.88
233.009	107.88
233.243	109.88
233.477	107.88
233.711	109.88
233.945	106.88
234.179	124.88
234.413	127.88
234.647	123.88
234.881	116.88
235.115	109.88
235.349	104.88
235.583	112.88
235.817	122.88
236.051	127.88
236.285	118.88
236.519	133.88
236.753	139.88
236.987	131.88
237.221	152.88
237.455	202.88
237.689	154.88
237.922	130.88
238.156	131.88
238.39	125.88
238.624	117.88
238.858	128.88
239.091	105.88
239.325	115.88
239.559	120.88
239.793	116.88
240.027	125.88
240.26	137.88
240.494	137.88
240.728	131.88
240.961	140.88
241.195	149.88
241.429	133.88
241.662	139.88
241.896	112.88
242.13	141.88
242.363	132.88
242.597	125.88
242.83	129.88
243.064	129.88
243.298	131.88
243.531	128.88
243.765	136.88
243.998	125.88
244.232	139.88
244.465	145.88
244.699	147.88
244.932	160.88
245.166	154.88
245.399	135.88
245.633	135.88
245.866	149.88
246.099	133.88
246.333	137.88
246.566	137.88
246.8	154.88
247.033	150.88
247.266	159.88
247.5	162.88
247.733	166.88
247.966	154.88
248.2	168.88
248.433	158.88
248.666	149.88
248.899	170.88
249.133	169.88
249.366	182.88
249.599	176.88
249.832	174.88
250.066	163.88
250.299	184.88
250.532	173.88
250.765	184.88
250.998	188.88
251.231	207.88
251.465	183.88
251.698	200.88
251.931	186.88
252.164	187.88
252.397	188.88
252.63	177.88
252.863	179.88
253.096	195.88
253.329	198.88
253.562	188.88
253.795	207.88
254.028	182.88
254.261	210.88
254.494	204.88
254.727	219.88
254.96	257.88
255.193	258.88
255.426	224.88
255.659	213.88
255.892	199.88
256.124	202.88
256.357	225.88
256.59	207.88
256.823	215.88
257.056	217.88
257.289	203.88
257.521	193.88
257.754	215.88
257.987	197.88
258.22	200.88
258.452	208.88
258.685	195.88
258.918	189.88
259.151	190.88
259.383	195.88
259.616	195.88
259.849	210.88
260.081	207.88
260.314	222.88
260.547	221.88
260.779	229.88
261.012	211.88
261.244	221.88
261.477	222.88
261.71	204.88
261.942	222.88
262.175	205.88
262.407	196.88
262.64	205.88
262.872	195.88
263.105	211.88
263.337	181.88
263.57	213.88
263.802	210.88
264.035	214.88
264.267	209.88
264.499	197.88
264.732	210.88
264.964	206.88
265.197	209.88
265.429	203.88
265.661	212.88
265.894	205.88
266.126	209.88
266.358	216.88
266.591	217.88
266.823	221.88
267.055	208.88
267.287	226.88
267.52	232.88
267.752	217.88
267.984	222.88
268.216	197.88
268.448	225.88
268.681	224.88
268.913	231.88
269.145	245.88
269.377	234.88
269.609	257.88
269.841	262.88
270.073	265.88
270.306	280.88
270.538	299.88
270.77	278.88
271.002	270.88
271.234	273.88
271.466	295.88
271.698	274.88
271.93	282.88
272.162	300.88
272.394	309.88
272.626	273.88
272.858	271.88
273.09	270.88
273.322	251.88
273.553	259.88
273.785	259.88
274.017	242.88
274.249	250.88
274.481	248.88
274.713	251.88
274.945	256.88
275.176	257.88
275.408	253.88
275.64	257.88
275.872	251.88
276.104	257.88
276.335	264.88
276.567	258.88
276.799	272.88
277.031	289.88
277.262	304.88
277.494	311.88
277.726	280.88
277.957	278.88
278.189	277.88
278.421	267.88
278.652	273.88
278.884	269.88
279.115	270.88
279.347	273.88
279.579	263.88
279.81	267.88
280.042	255.88
280.273	257.88
280.505	284.88
280.736	262.88
280.968	266.88
281.199	269.88
281.431	271.88
281.662	286.88
281.894	269.88
282.125	258.88
282.356	288.88
282.588	285.88
282.819	289.88
283.051	275.88
283.282	269.88
283.513	282.88
283.745	277.88
283.976	293.88
284.207	293.88
284.439	277.88
284.67	267.88
284.901	258.88
285.132	285.88
285.364	266.88
285.595	265.88
285.826	267.88
286.057	277.88
286.288	281.88
286.52	279.88
286.751	294.88
286.982	276.88
287.213	277.88
287.444	287.88
287.675	293.88
287.906	294.88
288.138	308.88
288.369	314.88
288.6	269.88
288.831	261.88
289.062	278.88
289.293	296.88
289.524	278.88
289.755	275.88
289.986	290.88
290.217	272.88
290.448	300.88
290.679	287.88
290.91	285.88
291.141	276.88
291.371	280.88
291.602	275.88
291.833	279.88
292.064	284.88
292.295	306.88
292.526	292.88
292.757	283.88
292.987	291.88
293.218	287.88
293.449	296.88
293.68	293.88
293.91	288.88
294.141	278.88
294.372	285.88
294.603	295.88
294.833	279.88
295.064	298.88
295.295	269.88
295.525	287.88
295.756	297.88
295.987	293.88
296.217	323.88
296.448	325.88
296.679	289.88
296.909	300.88
297.14	294.88
297.37	285.88
297.601	301.88
297.831	301.88
298.062	306.88
298.292	310.88
298.523	318.88
298.753	299.88
298.984	297.88
299.214	320.88
299.445	327.88
299.675	325.88
299.905	312.88
300.136	303.88
300.366	299.88
300.597	308.88
300.827	326.88
301.057	321.88
301.288	328.88
301.518	308.88
301.748	337.88
301.979	319.88
302.209	329.88
302.439	334.88
302.669	330.88
302.9	318.88
303.13	311.88
303.36	317.88
303.59	321.88
303.82	308.88
304.051	329.88
304.281	333.88
304.511	328.88
304.741	315.88
304.971	309.88
305.201	312.88
305.431	330.88
305.661	324.88
305.891	348.88
306.121	339.88
306.352	338.88
306.582	336.88
306.812	330.88
307.042	331.88
307.272	328.88
307.502	328.88
307.731	330.88
307.961	342.88
308.191	339.88
308.421	346.88
308.651	348.88
308.881	321.88
309.111	315.88
309.341	329.88
309.571	334.88
309.8	357.88
310.03	346.88
310.26	340.88
310.49	341.88
310.72	361.88
310.949	348.88
311.179	371.88
311.409	361.88
311.639	354.88
311.868	362.88
312.098	365.88
312.328	349.88
312.557	367.88
312.787	381.88
313.017	404.88
313.246	379.88
313.476	372.88
313.706	357.88
313.935	374.88
314.165	362.88
314.394	386.88
314.624	385.88
314.853	398.88
315.083	359.88
315.312	367.88
315.542	342.88
315.771	360.88
316.001	367.88
316.23	350.88
316.46	363.88
316.689	366.88
316.919	370.88
317.148	377.88
317.377	384.88
317.607	363.88
317.836	350.88
318.065	359.88
318.295	376.88
318.524	369.88
318.753	371.88
318.983	364.88
319.212	373.88
319.441	365.88
319.67	357.88
319.9	354.88
320.129	365.88
320.358	372.88
320.587	374.88
320.816	365.88
321.046	377.88
321.275	393.88
321.504	398.88
321.733	396.88
321.962	375.88
322.191	386.88
322.42	401.88
322.649	395.88
322.878	414.88
323.108	434.88
323.337	427.88
323.566	440.88
323.795	471.88
324.024	494.88
324.253	583.88
324.482	756.88
324.71	1147.88
324.939	1538.88
325.168	1289.88
325.397	716.88
325.626	535.88
325.855	473.88
326.084	464.88
326.313	440.88
326.542	442.88
326.77	500.88
326.999	559.88
327.228	725.88
327.457	999.88
327.686	1167.88
327.914	806.88
328.143	589.88
328.372	543.88
328.6	495.88
328.829	477.88
329.058	478.88
329.287	509.88
329.515	494.88
329.744	441.88
329.972	456.88
330.201	457.88
330.43	502.88
330.658	501.88
330.887	495.88
331.115	485.88
331.344	445.88
331.572	441.88
331.801	440.88
332.03	448.88
332.258	430.88
332.486	433.88
332.715	442.88
332.943	414.88
333.172	447.88
333.4	430.88
333.629	423.88
333.857	455.88
334.085	464.88
334.314	473.88
334.542	476.88
334.771	479.88
334.999	455.88
335.227	435.88
335.455	441.88
335.684	441.88
335.912	437.88
336.14	445.88
336.369	441.88
336.597	417.88
336.825	434.88
337.053	417.88
337.281	407.88
337.51	405.88
337.738	413.88
337.966	407.88
338.194	442.88
338.422	428.88
338.65	410.88
338.878	416.88
339.106	417.88
339.334	406.88
339.562	385.88
339.79	404.88
340.018	407.88
340.246	402.88
340.474	397.88
340.702	388.88
340.93	405.88
341.158	398.88
341.386	392.88
341.614	396.88
341.842	400.88
342.07	393.88
342.298	384.88
342.526	391.88
342.754	409.88
342.981	387.88
343.209	402.88
343.437	425.88
343.665	414.88
343.893	427.88
344.12	420.88
344.348	415.88
344.576	402.88
344.804	423.88
345.031	406.88
345.259	411.88
345.487	410.88
345.714	422.88
345.942	398.88
346.17	374.88
346.397	386.88
346.625	368.88
346.853	380.88
347.08	371.88
347.308	379.88
347.535	393.88
347.763	389.88
347.99	396.88
348.218	375.88
348.445	353.88
348.673	385.88
348.9	369.88
349.128	386.88
349.355	366.88
349.583	371.88
349.81	368.88
350.037	387.88
350.265	385.88
350.492	377.88
350.72	373.88
350.947	389.88
351.174	387.88
351.402	397.88
351.629	393.88
351.856	376.88
352.083	366.88
352.311	390.88
352.538	394.88
352.765	390.88
352.992	383.88
353.22	391.88
353.447	372.88
353.674	368.88
353.901	371.88
354.128	373.88
354.355	364.88
354.583	356.88
354.81	362.88
355.037	380.88
355.264	348.88
355.491	368.88
355.718	362.88
355.945	375.88
356.172	345.88
356.399	371.88
356.626	358.88
356.853	352.88
357.08	357.88
357.307	352.88
357.534	377.88
357.761	365.88
357.988	349.88
358.215	365.88
358.441	376.88
358.668	359.88
358.895	371.88
359.122	368.88
359.349	378.88
359.576	393.88
359.802	377.88
360.029	411.88
360.256	400.88
360.483	405.88
360.709	350.88
360.936	359.88
361.163	375.88
361.39	371.88
361.616	390.88
361.843	351.88
362.07	372.88
362.296	391.88
362.523	383.88
362.749	360.88
362.976	341.88
363.203	361.88
363.429	347.88
363.656	369.88
363.882	370.88
364.109	351.88
364.335	342.88
364.562	368.88
364.788	363.88
365.015	375.88
365.241	376.88
365.468	359.88
365.694	349.88
365.92	365.88
366.147	359.88
366.373	360.88
366.599	345.88
366.826	349.88
367.052	330.88
367.278	354.88
367.505	363.88
367.731	370.88
367.957	352.88
368.184	348.88
368.41	380.88
368.636	379.88
368.862	368.88
369.089	369.88
369.315	365.88
369.541	342.88
369.767	352.88
369.993	345.88
370.219	351.88
370.445	346.88
370.672	362.88
370.898	369.88
371.124	359.88
371.35	337.88
371.576	366.88
371.802	343.88
372.028	360.88
372.254	345.88
372.48	363.88
372.706	355.88
372.932	363.88
373.158	353.88
373.384	361.88
373.61	366.88
373.835	378.88
374.061	366.88
374.287	349.88
374.513	362.88
374.739	352.88
374.965	344.88
375.191	349.88
375.416	358.88
375.642	350.88
375.868	360.88
376.094	367.88
376.319	344.88
376.545	347.88
376.771	363.88
376.997	339.88
377.222	344.88
377.448	350.88
377.674	342.88
377.899	348.88
378.125	336.88
378.35	329.88
378.576	337.88
378.802	349.88
379.027	341.88
379.253	375.88
379.478	334.88
379.704	373.88
379.929	359.88
380.155	347.88
380.38	349.88
380.606	354.88
380.831	341.88
381.057	341.88
381.282	336.88
381.507	353.88
381.733	348.88
381.958	354.88
382.184	369.88
382.409	350.88
382.634	375.88
382.86	352.88
383.085	356.88
383.31	378.88
383.535	370.88
383.761	347.88
383.986	371.88
384.211	373.88
384.436	366.88
384.662	365.88
384.887	366.88
385.112	366.88
385.337	365.88
385.562	373.88
385.787	371.88
386.013	406.88
386.238	392.88
386.463	378.88
386.688	369.88
386.913	369.88
387.138	378.88
387.363	398.88
387.588	367.88
387.813	368.88
388.038	391.88
388.263	389.88
388.488	387.88
388.713	375.88
388.938	361.88
389.163	384.88
389.387	384.88
389.612	384.88
389.837	379.88
390.062	369.88
390.287	381.88
390.512	367.88
390.736	380.88
390.961	382.88
391.186	397.88
391.411	393.88
391.636	385.88
391.86	361.88
392.085	390.88
392.31	411.88
392.534	387.88
392.759	378.88
392.984	387.88
393.208	378.88
393.433	371.88
393.658	376.88
393.882	351.88
394.107	395.88
394.331	374.88
394.556	387.88
394.78	369.88
395.005	401.88
395.229	374.88
395.454	383.88
395.678	398.88
395.903	385.88
396.127	410.88
396.352	402.88
396.576	393.88
396.801	396.88
397.025	393.88
397.249	401.88
397.474	388.88
397.698	400.88
397.922	423.88
398.147	430.88
398.371	418.88
398.595	398.88
398.82	439.88
399.044	421.88
399.268	452.88
399.492	463.88
399.717	495.88
399.941	497.88
400.165	507.88
400.389	520.88
400.613	479.88
400.837	443.88
401.062	438.88
401.286	451.88
401.51	421.88
401.734	430.88
401.958	436.88
402.182	443.88
402.406	417.88
402.63	430.88
402.854	419.88
403.078	439.88
403.302	414.88
403.526	433.88
403.75	444.88
403.974	450.88
404.198	440.88
404.422	428.88
404.645	430.88
404.869	471.88
405.093	466.88
405.317	505.88
405.541	502.88
405.765	474.88
405.988	453.88
406.212	479.88
406.436	463.88
406.66	458.88
406.883	471.88
407.107	482.88
407.331	510.88
407.555	557.88
407.778	545.88
408.002	520.88
408.226	471.88
408.449	478.88
408.673	469.88
408.896	498.88
409.12	534.88
409.344	478.88
409.567	457.88
409.791	427.88
410.014	431.88
410.238	442.88
410.461	444.88
410.685	435.88
410.908	440.88
411.132	456.88
411.355	482.88
411.578	478.88
411.802	438.88
412.025	418.88
412.249	442.88
412.472	457.88
412.695	472.88
412.919	472.88
413.142	443.88
413.365	410.88
413.589	409.88
413.812	411.88
414.035	414.88
414.258	415.88
414.482	392.88
414.705	417.88
414.928	394.88
415.151	408.88
415.374	413.88
415.597	394.88
415.821	400.88
416.044	394.88
416.267	406.88
416.49	404.88
416.713	409.88
416.936	417.88
417.159	404.88
417.382	414.88
417.605	400.88
417.828	405.88
418.051	417.88
418.274	443.88
418.497	392.88
418.72	402.88
418.943	381.88
419.166	412.88
419.389	430.88
419.611	438.88
419.834	422.88
420.057	396.88
420.28	440.88
420.503	428.88
420.726	431.88
420.948	425.88
421.171	455.88
421.394	462.88
421.617	436.88
421.839	425.88
422.062	425.88
422.285	423.88
422.507	469.88
422.73	492.88
422.953	486.88
423.175	447.88
423.398	442.88
423.621	408.88
423.843	430.88
424.066	438.88
424.288	417.88
424.511	440.88
424.733	488.88
424.956	538.88
425.178	511.88
425.401	497.88
425.623	521.88
425.846	462.88
426.068	440.88
426.291	435.88
426.513	428.88
426.735	441.88
426.958	471.88
427.18	543.88
427.402	614.88
427.625	640.88
427.847	591.88
428.069	527.88
428.292	489.88
428.514	429.88
428.736	429.88
428.958	409.88
429.181	415.88
429.403	408.88
429.625	414.88
429.847	441.88
430.069	481.88
430.292	488.88
430.514	404.88
430.736	400.88
430.958	406.88
431.18	400.88
431.402	395.88
431.624	381.88
431.846	385.88
432.068	406.88
432.29	406.88
432.512	365.88
432.734	393.88
432.956	400.88
433.178	390.88
433.4	383.88
433.622	395.88
433.844	400.88
434.066	391.88
434.287	399.88
434.509	395.88
434.731	416.88
434.953	417.88
435.175	411.88
435.397	416.88
435.618	425.88
435.84	465.88
436.062	508.88
436.284	557.88
436.505	465.88
436.727	457.88
436.949	402.88
437.17	407.88
437.392	423.88
437.614	429.88
437.835	446.88
438.057	488.88
438.278	547.88
438.5	561.88
438.721	603.88
438.943	597.88
439.165	483.88
439.386	451.88
439.608	437.88
439.829	433.88
440.05	447.88
440.272	472.88
440.493	473.88
440.715	403.88
440.936	418.88
441.158	412.88
441.379	412.88
441.6	421.88
441.822	413.88
442.043	465.88
442.264	523.88
442.486	560.88
442.707	457.88
442.928	466.88
443.149	433.88
443.371	457.88
443.592	473.88
443.813	535.88
444.034	592.88
444.255	494.88
444.476	443.88
444.698	441.88
444.919	432.88
445.14	546.88
445.361	509.88
445.582	469.88
445.803	519.88
446.024	570.88
446.245	564.88
446.466	518.88
446.687	472.88
446.908	441.88
447.129	417.88
447.35	409.88
447.571	410.88
447.792	392.88
448.013	417.88
448.234	434.88
448.455	415.88
448.675	530.88
448.896	585.88
449.117	539.88
449.338	515.88
449.559	568.88
449.779	624.88
450	513.88
450.221	411.88
450.442	401.88
450.662	397.88
450.883	393.88
451.104	400.88
451.324	404.88
451.545	394.88
451.766	365.88
451.986	374.88
452.207	371.88
452.428	370.88
452.648	363.88
452.869	365.88
453.089	384.88
453.31	377.88
453.53	371.88
453.751	357.88
453.971	373.88
454.192	369.88
454.412	373.88
454.633	365.88
454.853	351.88
455.073	365.88
455.294	369.88
455.514	406.88
455.734	395.88
455.955	394.88
456.175	360.88
456.395	352.88
456.616	340.88
456.836	348.88
457.056	349.88
457.276	329.88
457.497	343.88
457.717	333.88
457.937	345.88
458.157	355.88
458.377	349.88
458.598	363.88
458.818	405.88
459.038	438.88
459.258	464.88
459.478	413.88
459.698	378.88
459.918	361.88
460.138	380.88
460.358	383.88
460.578	402.88
460.798	398.88
461.018	391.88
461.238	407.88
461.458	407.88
461.678	404.88
461.898	398.88
462.118	396.88
462.338	407.88
462.558	408.88
462.777	416.88
462.997	399.88
463.217	410.88
463.437	408.88
463.657	399.88
463.876	409.88
464.096	421.88
464.316	414.88
464.536	396.88
464.755	428.88
464.975	412.88
465.195	443.88
465.414	448.88
465.634	424.88
465.854	398.88
466.073	381.88
466.293	387.88
466.512	366.88
466.732	366.88
466.951	379.88
467.171	371.88
467.391	383.88
467.61	365.88
467.829	365.88
468.049	390.88
468.268	386.88
468.488	382.88
468.707	362.88
468.927	365.88
469.146	361.88
469.365	368.88
469.585	339.88
469.804	360.88
470.023	359.88
470.243	362.88
470.462	383.88
470.681	396.88
470.901	385.88
471.12	365.88
471.339	388.88
471.558	373.88
471.777	374.88
471.997	360.88
472.216	375.88
472.435	410.88
472.654	387.88
472.873	378.88
473.092	379.88
473.311	378.88
473.53	381.88
473.749	379.88
473.968	412.88
474.187	477.88
474.406	514.88
474.625	391.88
474.844	391.88
475.063	353.88
475.282	389.88
475.501	393.88
475.72	370.88
475.939	379.88
476.158	390.88
476.377	396.88
476.596	369.88
476.814	381.88
477.033	403.88
477.252	394.88
477.471	387.88
477.69	398.88
477.908	396.88
478.127	421.88
478.346	429.88
478.564	419.88
478.783	398.88
479.002	427.88
479.22	429.88
479.439	441.88
479.658	467.88
479.876	442.88
480.095	437.88
480.313	456.88
480.532	450.88
480.751	448.88
480.969	457.88
481.188	489.88
481.406	509.88
481.624	475.88
481.843	453.88
482.061	448.88
482.28	449.88
482.498	432.88
482.717	426.88
482.935	434.88
483.153	430.88
483.372	448.88
483.59	429.88
483.808	423.88
484.027	437.88
484.245	442.88
484.463	437.88
484.681	445.88
484.9	449.88
485.118	463.88
485.336	432.88
485.554	451.88
485.772	449.88
485.99	462.88
486.209	439.88
486.427	441.88
486.645	455.88
486.863	454.88
487.081	439.88
487.299	462.88
487.517	469.88
487.735	447.88
487.953	477.88
488.171	480.88
488.389	477.88
488.607	472.88
488.825	444.88
489.043	458.88
489.261	459.88
489.479	464.88
489.696	460.88
489.914	464.88
490.132	439.88
490.35	486.88
490.568	469.88
490.786	472.88
491.003	475.88
491.221	498.88
491.439	488.88
491.657	507.88
491.874	499.88
492.092	527.88
492.31	504.88
492.527	501.88
492.745	522.88
492.963	525.88
493.18	506.88
493.398	514.88
493.615	531.88
493.833	501.88
494.05	531.88
494.268	521.88
494.485	523.88
494.703	539.88
494.92	507.88
495.138	514.88
495.355	528.88
495.573	536.88
495.79	517.88
496.008	553.88
496.225	556.88
496.442	530.88
496.66	542.88
496.877	524.88
497.094	537.88
497.312	533.88
497.529	562.88
497.746	561.88
497.963	573.88
498.181	589.88
498.398	597.88
498.615	573.88
498.832	584.88
499.049	596.88
499.267	642.88
499.484	661.88
499.701	654.88
499.918	686.88
500.135	749.88
500.352	761.88
500.569	743.88
500.786	753.88
501.003	763.88
501.22	746.88
501.437	689.88
501.654	683.88
501.871	686.88
