Data from 1960PennyLincolnUp.LampE5.5.200Scan.07172019.P1.ChangedAngle_HRD10591_13-14-24-821.txt Node
Date: Thu Jul 18 13:14:24 EDT 2019
User: cochatt
Spectrometer: HR+D1059
Trigger mode: 1
Integration Time (sec): 1.000000E-1
Scans to average: 1
Electric dark correction enabled: true
Nonlinearity correction enabled: false
Boxcar width: 0
XAxis mode: Wavelengths
Number of Pixels in Spectrum: 2048
>>>>>Begin Spectral Data<<<<<
223.165	-10.69
223.4	-10.69
223.635	-10.69
223.869	-34.69
224.104	-11.69
224.338	-19.69
224.573	-11.69
224.808	-8.69
225.042	-10.69
225.277	-9.69
225.511	-1.69
225.746	5.31
225.98	19.31
226.215	11.31
226.449	9.31
226.683	17.31
226.918	23.31
227.152	33.31
227.387	29.31
227.621	23.31
227.856	53.31
228.09	55.31
228.324	53.31
228.559	49.31
228.793	57.31
229.027	77.31
229.262	89.31
229.496	90.31
229.73	100.31
229.964	117.31
230.199	99.31
230.433	91.31
230.667	106.31
230.901	107.31
231.136	108.31
231.37	102.31
231.604	114.31
231.838	105.31
232.072	102.31
232.306	102.31
232.541	108.31
232.775	105.31
233.009	115.31
233.243	104.31
233.477	101.31
233.711	100.31
233.945	88.31
234.179	109.31
234.413	110.31
234.647	115.31
234.881	109.31
235.115	112.31
235.349	116.31
235.583	94.31
235.817	102.31
236.051	108.31
236.285	114.31
236.519	125.31
236.753	106.31
236.987	130.31
237.221	145.31
237.455	183.31
237.689	139.31
237.922	115.31
238.156	121.31
238.39	117.31
238.624	105.31
238.858	108.31
239.091	106.31
239.325	119.31
239.559	121.31
239.793	123.31
240.027	118.31
240.26	121.31
240.494	111.31
240.728	123.31
240.961	125.31
241.195	122.31
241.429	103.31
241.662	128.31
241.896	127.31
242.13	119.31
242.363	118.31
242.597	143.31
242.83	129.31
243.064	121.31
243.298	136.31
243.531	122.31
243.765	139.31
243.998	110.31
244.232	133.31
244.465	121.31
244.699	127.31
244.932	140.31
245.166	131.31
245.399	126.31
245.633	133.31
245.866	117.31
246.099	138.31
246.333	140.31
246.566	141.31
246.8	135.31
247.033	130.31
247.266	131.31
247.5	158.31
247.733	149.31
247.966	153.31
248.2	158.31
248.433	143.31
248.666	154.31
248.899	161.31
249.133	149.31
249.366	171.31
249.599	165.31
249.832	173.31
250.066	167.31
250.299	167.31
250.532	159.31
250.765	179.31
250.998	190.31
251.231	195.31
251.465	191.31
251.698	165.31
251.931	190.31
252.164	163.31
252.397	158.31
252.63	173.31
252.863	171.31
253.096	182.31
253.329	189.31
253.562	196.31
253.795	187.31
254.028	184.31
254.261	191.31
254.494	177.31
254.727	209.31
254.96	222.31
255.193	198.31
255.426	204.31
255.659	196.31
255.892	192.31
256.124	202.31
256.357	202.31
256.59	210.31
256.823	191.31
257.056	175.31
257.289	169.31
257.521	187.31
257.754	188.31
257.987	195.31
258.22	184.31
258.452	185.31
258.685	200.31
258.918	197.31
259.151	186.31
259.383	191.31
259.616	187.31
259.849	189.31
260.081	210.31
260.314	220.31
260.547	215.31
260.779	210.31
261.012	205.31
261.244	204.31
261.477	199.31
261.71	209.31
261.942	215.31
262.175	211.31
262.407	213.31
262.64	190.31
262.872	204.31
263.105	203.31
263.337	190.31
263.57	169.31
263.802	198.31
264.035	187.31
264.267	188.31
264.499	204.31
264.732	188.31
264.964	167.31
265.197	192.31
265.429	201.31
265.661	202.31
265.894	208.31
266.126	218.31
266.358	200.31
266.591	212.31
266.823	231.31
267.055	212.31
267.287	207.31
267.52	200.31
267.752	206.31
267.984	217.31
268.216	213.31
268.448	217.31
268.681	226.31
268.913	235.31
269.145	241.31
269.377	239.31
269.609	240.31
269.841	228.31
270.073	237.31
270.306	234.31
270.538	256.31
270.77	269.31
271.002	248.31
271.234	244.31
271.466	233.31
271.698	272.31
271.93	259.31
272.162	274.31
272.394	258.31
272.626	246.31
272.858	245.31
273.09	249.31
273.322	254.31
273.553	227.31
273.785	240.31
274.017	236.31
274.249	242.31
274.481	248.31
274.713	233.31
274.945	231.31
275.176	240.31
275.408	245.31
275.64	248.31
275.872	247.31
276.104	265.31
276.335	239.31
276.567	231.31
276.799	219.31
277.031	259.31
277.262	259.31
277.494	295.31
277.726	260.31
277.957	255.31
278.189	251.31
278.421	246.31
278.652	257.31
278.884	242.31
279.115	239.31
279.347	263.31
279.579	254.31
279.81	255.31
280.042	255.31
280.273	256.31
280.505	252.31
280.736	239.31
280.968	256.31
281.199	248.31
281.431	246.31
281.662	249.31
281.894	249.31
282.125	261.31
282.356	276.31
282.588	279.31
282.819	290.31
283.051	253.31
283.282	261.31
283.513	269.31
283.745	258.31
283.976	261.31
284.207	263.31
284.439	268.31
284.67	251.31
284.901	267.31
285.132	249.31
285.364	247.31
285.595	249.31
285.826	268.31
286.057	275.31
286.288	257.31
286.52	272.31
286.751	262.31
286.982	260.31
287.213	259.31
287.444	252.31
287.675	276.31
287.906	273.31
288.138	274.31
288.369	270.31
288.6	269.31
288.831	279.31
289.062	273.31
289.293	279.31
289.524	281.31
289.755	276.31
289.986	291.31
290.217	263.31
290.448	263.31
290.679	270.31
290.91	273.31
291.141	291.31
291.371	266.31
291.602	265.31
291.833	272.31
292.064	260.31
292.295	281.31
292.526	273.31
292.757	293.31
292.987	277.31
293.218	274.31
293.449	280.31
293.68	289.31
293.91	267.31
294.141	269.31
294.372	261.31
294.603	277.31
294.833	283.31
295.064	269.31
295.295	279.31
295.525	281.31
295.756	277.31
295.987	299.31
296.217	291.31
296.448	293.31
296.679	286.31
296.909	263.31
297.14	285.31
297.37	283.31
297.601	297.31
297.831	294.31
298.062	296.31
298.292	302.31
298.523	291.31
298.753	280.31
298.984	279.31
299.214	284.31
299.445	302.31
299.675	290.31
299.905	278.31
300.136	305.31
300.366	281.31
300.597	313.31
300.827	300.31
301.057	295.31
301.288	300.31
301.518	296.31
301.748	296.31
301.979	285.31
302.209	319.31
302.439	307.31
302.669	304.31
302.9	302.31
303.13	305.31
303.36	309.31
303.59	322.31
303.82	305.31
304.051	303.31
304.281	305.31
304.511	312.31
304.741	324.31
304.971	293.31
305.201	310.31
305.431	305.31
305.661	318.31
305.891	294.31
306.121	293.31
306.352	295.31
306.582	330.31
306.812	330.31
307.042	333.31
307.272	295.31
307.502	305.31
307.731	322.31
307.961	328.31
308.191	319.31
308.421	307.31
308.651	311.31
308.881	320.31
309.111	331.31
309.341	314.31
309.571	331.31
309.8	327.31
310.03	336.31
310.26	311.31
310.49	327.31
310.72	325.31
310.949	328.31
311.179	355.31
311.409	325.31
311.639	331.31
311.868	338.31
312.098	334.31
312.328	338.31
312.557	345.31
312.787	345.31
313.017	323.31
313.246	350.31
313.476	342.31
313.706	348.31
313.935	381.31
314.165	351.31
314.394	363.31
314.624	359.31
314.853	332.31
315.083	349.31
315.312	345.31
315.542	353.31
315.771	333.31
316.001	341.31
316.23	354.31
316.46	337.31
316.689	339.31
316.919	338.31
317.148	347.31
317.377	350.31
317.607	354.31
317.836	338.31
318.065	364.31
318.295	346.31
318.524	336.31
318.753	337.31
318.983	367.31
319.212	373.31
319.441	344.31
319.67	344.31
319.9	343.31
320.129	356.31
320.358	346.31
320.587	349.31
320.816	358.31
321.046	349.31
321.275	347.31
321.504	354.31
321.733	355.31
321.962	362.31
322.191	368.31
322.42	369.31
322.649	371.31
322.878	390.31
323.108	379.31
323.337	390.31
323.566	407.31
323.795	393.31
324.024	446.31
324.253	515.31
324.482	651.31
324.71	923.31
324.939	1207.31
325.168	1048.31
325.397	618.31
325.626	470.31
325.855	410.31
326.084	389.31
326.313	411.31
326.542	397.31
326.77	447.31
326.999	461.31
327.228	631.31
327.457	829.31
327.686	930.31
327.914	662.31
328.143	509.31
328.372	466.31
328.6	447.31
328.829	424.31
329.058	448.31
329.287	426.31
329.515	424.31
329.744	421.31
329.972	408.31
330.201	421.31
330.43	451.31
330.658	451.31
330.887	452.31
331.115	433.31
331.344	419.31
331.572	412.31
331.801	401.31
332.03	426.31
332.258	412.31
332.486	392.31
332.715	407.31
332.943	389.31
333.172	396.31
333.4	428.31
333.629	414.31
333.857	436.31
334.085	419.31
334.314	427.31
334.542	451.31
334.771	451.31
334.999	436.31
335.227	427.31
335.455	406.31
335.684	410.31
335.912	419.31
336.14	399.31
336.369	392.31
336.597	396.31
336.825	418.31
337.053	417.31
337.281	384.31
337.51	387.31
337.738	412.31
337.966	382.31
338.194	378.31
338.422	396.31
338.65	386.31
338.878	376.31
339.106	387.31
339.334	367.31
339.562	388.31
339.79	375.31
340.018	370.31
340.246	380.31
340.474	393.31
340.702	395.31
340.93	406.31
341.158	382.31
341.386	393.31
341.614	394.31
341.842	372.31
342.07	375.31
342.298	374.31
342.526	375.31
342.754	377.31
342.981	362.31
343.209	376.31
343.437	381.31
343.665	386.31
343.893	416.31
344.12	392.31
344.348	401.31
344.576	382.31
344.804	390.31
345.031	400.31
345.259	366.31
345.487	391.31
345.714	375.31
345.942	355.31
346.17	354.31
346.397	383.31
346.625	365.31
346.853	363.31
347.08	368.31
347.308	385.31
347.535	363.31
347.763	375.31
347.99	357.31
348.218	361.31
348.445	378.31
348.673	378.31
348.9	371.31
349.128	355.31
349.355	333.31
349.583	353.31
349.81	365.31
350.037	359.31
350.265	354.31
350.492	349.31
350.72	366.31
350.947	363.31
351.174	377.31
351.402	353.31
351.629	357.31
351.856	367.31
352.083	386.31
352.311	365.31
352.538	360.31
352.765	395.31
352.992	340.31
353.22	353.31
353.447	353.31
353.674	353.31
353.901	366.31
354.128	340.31
354.355	361.31
354.583	341.31
354.81	341.31
355.037	340.31
355.264	362.31
355.491	340.31
355.718	343.31
355.945	338.31
356.172	329.31
356.399	325.31
356.626	362.31
356.853	350.31
357.08	342.31
357.307	345.31
357.534	333.31
357.761	348.31
357.988	353.31
358.215	332.31
358.441	344.31
358.668	334.31
358.895	350.31
359.122	337.31
359.349	341.31
359.576	359.31
359.802	369.31
360.029	377.31
360.256	364.31
360.483	331.31
360.709	342.31
360.936	347.31
361.163	361.31
361.39	354.31
361.616	344.31
361.843	365.31
362.07	344.31
362.296	353.31
362.523	361.31
362.749	351.31
362.976	350.31
363.203	344.31
363.429	333.31
363.656	351.31
363.882	347.31
364.109	341.31
364.335	339.31
364.562	354.31
364.788	345.31
365.015	360.31
365.241	347.31
365.468	361.31
365.694	366.31
365.92	348.31
366.147	328.31
366.373	348.31
366.599	349.31
366.826	349.31
367.052	342.31
367.278	342.31
367.505	330.31
367.731	329.31
367.957	342.31
368.184	344.31
368.41	337.31
368.636	354.31
368.862	357.31
369.089	359.31
369.315	370.31
369.541	346.31
369.767	342.31
369.993	356.31
370.219	325.31
370.445	331.31
370.672	340.31
370.898	345.31
371.124	338.31
371.35	338.31
371.576	340.31
371.802	364.31
372.028	329.31
372.254	361.31
372.48	347.31
372.706	344.31
372.932	375.31
373.158	339.31
373.384	345.31
373.61	334.31
373.835	344.31
374.061	340.31
374.287	330.31
374.513	365.31
374.739	360.31
374.965	343.31
375.191	345.31
375.416	362.31
375.642	329.31
375.868	361.31
376.094	343.31
376.319	357.31
376.545	361.31
376.771	339.31
376.997	336.31
377.222	332.31
377.448	316.31
377.674	336.31
377.899	343.31
378.125	331.31
378.35	324.31
378.576	323.31
378.802	329.31
379.027	349.31
379.253	335.31
379.478	346.31
379.704	342.31
379.929	345.31
380.155	337.31
380.38	328.31
380.606	318.31
380.831	318.31
381.057	331.31
381.282	343.31
381.507	334.31
381.733	331.31
381.958	349.31
382.184	353.31
382.409	342.31
382.634	359.31
382.86	336.31
383.085	348.31
383.31	343.31
383.535	349.31
383.761	351.31
383.986	338.31
384.211	355.31
384.436	337.31
384.662	348.31
384.887	371.31
385.112	365.31
385.337	372.31
385.562	348.31
385.787	345.31
386.013	375.31
386.238	369.31
386.463	362.31
386.688	383.31
386.913	359.31
387.138	356.31
387.363	378.31
387.588	346.31
387.813	368.31
388.038	364.31
388.263	370.31
388.488	366.31
388.713	378.31
388.938	365.31
389.163	363.31
389.387	365.31
389.612	359.31
389.837	359.31
390.062	370.31
390.287	368.31
390.512	369.31
390.736	390.31
390.961	349.31
391.186	373.31
391.411	373.31
391.636	379.31
391.86	372.31
392.085	389.31
392.31	390.31
392.534	384.31
392.759	387.31
392.984	369.31
393.208	376.31
393.433	378.31
393.658	391.31
393.882	383.31
394.107	365.31
394.331	356.31
394.556	368.31
394.78	387.31
395.005	367.31
395.229	374.31
395.454	363.31
395.678	373.31
395.903	389.31
396.127	383.31
396.352	373.31
396.576	375.31
396.801	383.31
397.025	388.31
397.249	392.31
397.474	396.31
397.698	383.31
397.922	391.31
398.147	385.31
398.371	390.31
398.595	411.31
398.82	408.31
399.044	436.31
399.268	429.31
399.492	446.31
399.717	484.31
399.941	493.31
400.165	493.31
400.389	492.31
400.613	455.31
400.837	413.31
401.062	445.31
401.286	420.31
401.51	405.31
401.734	421.31
401.958	420.31
402.182	409.31
402.406	389.31
402.63	417.31
402.854	402.31
403.078	427.31
403.302	412.31
403.526	407.31
403.75	421.31
403.974	411.31
404.198	430.31
404.422	430.31
404.645	420.31
404.869	411.31
405.093	446.31
405.317	461.31
405.541	482.31
405.765	469.31
405.988	439.31
406.212	441.31
406.436	465.31
406.66	440.31
406.883	428.31
407.107	442.31
407.331	497.31
407.555	527.31
407.778	522.31
408.002	478.31
408.226	466.31
408.449	457.31
408.673	418.31
408.896	467.31
409.12	506.31
409.344	494.31
409.567	435.31
409.791	429.31
410.014	439.31
410.238	429.31
410.461	428.31
410.685	424.31
410.908	433.31
411.132	437.31
411.355	454.31
411.578	438.31
411.802	419.31
412.025	418.31
412.249	425.31
412.472	430.31
412.695	452.31
412.919	430.31
413.142	430.31
413.365	430.31
413.589	419.31
413.812	393.31
414.035	375.31
414.258	396.31
414.482	388.31
414.705	387.31
414.928	390.31
415.151	389.31
415.374	389.31
415.597	400.31
415.821	409.31
416.044	387.31
416.267	402.31
416.49	382.31
416.713	397.31
416.936	395.31
417.159	364.31
417.382	382.31
417.605	393.31
417.828	389.31
418.051	395.31
418.274	392.31
418.497	394.31
418.72	382.31
418.943	386.31
419.166	410.31
419.389	401.31
419.611	402.31
419.834	415.31
420.057	415.31
420.28	395.31
420.503	402.31
420.726	397.31
420.948	404.31
421.171	431.31
421.394	439.31
421.617	398.31
421.839	399.31
422.062	398.31
422.285	390.31
422.507	443.31
422.73	471.31
422.953	474.31
423.175	425.31
423.398	414.31
423.621	410.31
423.843	410.31
424.066	430.31
424.288	425.31
424.511	437.31
424.733	458.31
424.956	492.31
425.178	490.31
425.401	476.31
425.623	486.31
425.846	443.31
426.068	440.31
426.291	422.31
426.513	398.31
426.735	424.31
426.958	429.31
427.18	478.31
427.402	562.31
427.625	597.31
427.847	525.31
428.069	468.31
428.292	417.31
428.514	421.31
428.736	388.31
428.958	381.31
429.181	377.31
429.403	391.31
429.625	393.31
429.847	392.31
430.069	451.31
430.292	468.31
430.514	397.31
430.736	381.31
430.958	377.31
431.18	369.31
431.402	368.31
431.624	373.31
431.846	351.31
432.068	361.31
432.29	361.31
432.512	361.31
432.734	382.31
432.956	363.31
433.178	353.31
433.4	367.31
433.622	380.31
433.844	385.31
434.066	389.31
434.287	372.31
434.509	358.31
434.731	383.31
434.953	371.31
435.175	401.31
435.397	421.31
435.618	404.31
435.84	449.31
436.062	486.31
436.284	510.31
436.505	459.31
436.727	417.31
436.949	391.31
437.17	391.31
437.392	393.31
437.614	386.31
437.835	424.31
438.057	451.31
438.278	503.31
438.5	527.31
438.721	562.31
438.943	539.31
439.165	453.31
439.386	412.31
439.608	404.31
439.829	412.31
440.05	414.31
440.272	441.31
440.493	412.31
440.715	408.31
440.936	407.31
441.158	406.31
441.379	391.31
441.6	391.31
441.822	412.31
442.043	413.31
442.264	455.31
442.486	511.31
442.707	443.31
442.928	405.31
443.149	443.31
443.371	422.31
443.592	451.31
443.813	510.31
444.034	543.31
444.255	449.31
444.476	434.31
444.698	430.31
444.919	420.31
445.14	537.31
445.361	475.31
445.582	425.31
445.803	465.31
446.024	522.31
446.245	508.31
446.466	465.31
446.687	412.31
446.908	397.31
447.129	397.31
447.35	386.31
447.571	376.31
447.792	363.31
448.013	377.31
448.234	362.31
448.455	405.31
448.675	475.31
448.896	541.31
449.117	469.31
449.338	445.31
449.559	522.31
449.779	586.31
450	468.31
450.221	391.31
450.442	364.31
450.662	383.31
450.883	379.31
451.104	371.31
451.324	379.31
451.545	368.31
451.766	355.31
451.986	318.31
452.207	334.31
452.428	348.31
452.648	356.31
452.869	326.31
453.089	337.31
453.31	329.31
453.53	321.31
453.751	319.31
453.971	348.31
454.192	367.31
454.412	369.31
454.633	317.31
454.853	340.31
455.073	331.31
455.294	359.31
455.514	409.31
455.734	351.31
455.955	344.31
456.175	325.31
456.395	348.31
456.616	334.31
456.836	320.31
457.056	316.31
457.276	318.31
457.497	355.31
457.717	340.31
457.937	333.31
458.157	354.31
458.377	342.31
458.598	358.31
458.818	370.31
459.038	412.31
459.258	425.31
459.478	381.31
459.698	383.31
459.918	368.31
460.138	358.31
460.358	388.31
460.578	379.31
460.798	371.31
461.018	405.31
461.238	367.31
461.458	377.31
461.678	376.31
461.898	375.31
462.118	364.31
462.338	377.31
462.558	397.31
462.777	411.31
462.997	403.31
463.217	417.31
463.437	424.31
463.657	405.31
463.876	405.31
464.096	412.31
464.316	389.31
464.536	388.31
464.755	406.31
464.975	402.31
465.195	399.31
465.414	432.31
465.634	402.31
465.854	392.31
466.073	367.31
466.293	355.31
466.512	362.31
466.732	369.31
466.951	351.31
467.171	359.31
467.391	361.31
467.61	364.31
467.829	350.31
468.049	350.31
468.268	356.31
468.488	353.31
468.707	354.31
468.927	350.31
469.146	327.31
469.365	344.31
469.585	348.31
469.804	331.31
470.023	369.31
470.243	358.31
470.462	355.31
470.681	353.31
470.901	365.31
471.12	358.31
471.339	363.31
471.558	357.31
471.777	361.31
471.997	362.31
472.216	371.31
472.435	372.31
472.654	365.31
472.873	371.31
473.092	355.31
473.311	362.31
473.53	339.31
473.749	370.31
473.968	359.31
474.187	446.31
474.406	455.31
474.625	410.31
474.844	369.31
475.063	368.31
475.282	360.31
475.501	352.31
475.72	376.31
475.939	369.31
476.158	385.31
476.377	375.31
476.596	367.31
476.814	375.31
477.033	389.31
477.252	389.31
477.471	381.31
477.69	390.31
477.908	391.31
478.127	399.31
478.346	401.31
478.564	404.31
478.783	399.31
479.002	414.31
479.22	395.31
479.439	414.31
479.658	426.31
479.876	430.31
480.095	440.31
480.313	428.31
480.532	431.31
480.751	436.31
480.969	422.31
481.188	467.31
481.406	463.31
481.624	445.31
481.843	442.31
482.061	414.31
482.28	422.31
482.498	405.31
482.717	408.31
482.935	421.31
483.153	393.31
483.372	413.31
483.59	418.31
483.808	433.31
484.027	423.31
484.245	418.31
484.463	426.31
484.681	434.31
484.9	426.31
485.118	426.31
485.336	420.31
485.554	419.31
485.772	434.31
485.99	447.31
486.209	420.31
486.427	427.31
486.645	434.31
486.863	440.31
487.081	433.31
487.299	438.31
487.517	420.31
487.735	409.31
487.953	441.31
488.171	443.31
488.389	436.31
488.607	461.31
488.825	434.31
489.043	418.31
489.261	431.31
489.479	443.31
489.696	449.31
489.914	462.31
490.132	461.31
490.35	439.31
490.568	456.31
490.786	481.31
491.003	470.31
491.221	469.31
491.439	483.31
491.657	470.31
491.874	472.31
492.092	462.31
492.31	472.31
492.527	515.31
492.745	483.31
492.963	500.31
493.18	502.31
493.398	481.31
493.615	497.31
493.833	486.31
494.05	496.31
494.268	505.31
494.485	491.31
494.703	479.31
494.92	498.31
495.138	507.31
495.355	508.31
495.573	513.31
495.79	499.31
496.008	525.31
496.225	512.31
496.442	518.31
496.66	510.31
496.877	508.31
497.094	510.31
497.312	498.31
497.529	520.31
497.746	531.31
497.963	545.31
498.181	576.31
498.398	565.31
498.615	593.31
498.832	582.31
499.049	595.31
499.267	606.31
499.484	653.31
499.701	649.31
499.918	662.31
500.135	698.31
500.352	728.31
500.569	754.31
500.786	744.31
501.003	712.31
501.22	692.31
501.437	667.31
501.654	638.31
501.871	662.31
